|-------------------------------------------------------------------------|
|   File Name : in_temp.dat
|   Subject   : temperature profiles used for initial guess atmosphere
|   File Type : input of gmtr
|   Data Type : atmospherical data
|   Author/s  : WRF-Chem
|   Date      : Fri Jul 26 15:39:24 2024
|-------------------------------------------------------------------------|

 WRF-Chem temperature
#
 values of T (K)    (8f10.5)
#
 354.97500 345.04800 334.58700 324.11500 313.32600 302.53700 291.65000 280.76700
 269.93100 259.19300 248.62200 238.61700 229.08700 220.35500 212.54000 205.53500
 199.46400 194.49300 191.14300 189.19000 188.08900 188.01400 188.72400 189.90600
 191.46900 193.38200 195.40300 197.55600 199.80700 202.06000 204.28800 206.47900
 208.55200 210.37800 212.02500 213.65900 214.99800 216.11800 217.17200 218.25900
 219.49400 220.64500 221.67900 222.61400 223.54500 224.98200 226.57100 228.19000
 229.79700 231.81100 233.86500 235.97200 238.24200 240.55300 242.89900 245.25300
 247.48800 249.53500 251.36600 252.84800 254.09800 255.16700 256.02700 256.25300
 256.09500 255.54300 253.93500 252.56600 251.38400 250.24500 249.05200 247.70100
 246.01600 243.99600 241.78400 239.39300 236.81300 234.22300 231.65800 229.14400
 226.74000 224.47300 222.33500 220.32500 218.44000 216.67700 214.96200 213.47200
 212.20000 211.10800 210.26000 209.63900 209.24400 209.03100 209.05800 209.33300
 209.78400 210.62600 211.33100 212.39100 213.62500 214.84668 217.72949 219.47640
 220.32566 220.86828 220.88710 220.27371 219.43733 218.84250 219.04934 220.86203
 222.60583 225.72206 229.03064 232.61777 236.12270 239.51333 242.70767 245.68587
 248.41061 250.90679 253.19353 254.91714 256.48655 257.94920 259.39966 260.69384
 261.81714 262.77997 263.71679 264.54570 265.26305 265.89772 266.47676 267.00133
 267.47312 267.89325 268.26027 268.72800
 366.78100 356.33500 345.76700 334.63300 323.03600 311.23000 299.10000 286.90300
 274.61500 262.51200 250.52100 239.82200 229.94400 221.04800 213.23000 206.23200
 200.06600 195.00400 191.58600 189.62800 188.66500 188.72900 189.56400 190.87200
 192.59700 194.69200 196.95500 199.31400 201.75900 204.23900 206.32700 208.16900
 209.79500 210.94000 211.16900 211.39700 211.33400 211.03900 210.67200 210.30200
 209.91900 209.62900 209.43700 209.30100 209.22900 209.56000 209.94600 210.33500
 211.12800 212.30600 213.55600 215.33900 217.26700 219.31000 221.40500 223.48800
 225.54800 227.63200 229.72900 231.83500 233.96400 236.13600 238.39200 240.76200
 243.38300 245.63400 247.63600 249.40100 250.81800 251.94100 252.76300 253.07900
 253.11600 252.89000 252.25000 251.19800 249.80400 247.96500 245.87400 243.70700
 241.49800 239.30200 237.12200 234.96100 232.82100 230.68800 228.71400 226.87100
 225.15400 223.62600 222.25600 221.02800 219.91000 218.87000 217.97400 217.11500
 216.35700 215.53700 214.63500 213.99900 213.44900 212.85855 212.01316 212.61654
 214.26826 216.08686 218.14273 220.53346 223.40855 226.78828 231.49734 235.90155
 239.42278 243.28576 247.23140 251.11907 254.80144 258.23331 261.38913 264.27520
 266.89312 269.26852 271.44504 273.08845 274.58484 275.98591 277.39845 278.65879
 279.75272 280.69038 281.56708 282.34086 283.01050 283.60295 284.14348 284.63317
 285.07358 285.46577 285.80838 286.24500
 381.81900 372.39900 361.20600 349.77600 337.62200 324.85300 311.81000 298.35300
 284.86000 271.32400 258.56100 246.30400 236.08700 226.79600 218.44800 211.29000
 205.52200 200.89400 197.38100 194.84800 193.01500 192.31500 192.25000 192.43100
 192.91200 193.53700 194.13600 194.71200 195.26200 195.83100 196.39300 196.97600
 197.60400 198.14900 198.58400 199.05700 199.69500 200.37800 201.05400 201.70800
 202.31300 202.85700 203.35500 203.86200 204.56900 205.29700 206.02600 206.98700
 208.19300 209.44100 210.96900 212.57600 214.46200 216.51300 218.63000 220.85300
 223.34100 225.96200 228.73900 231.69700 234.70600 237.70600 240.69200 243.65700
 246.73700 249.69900 252.52100 255.06300 257.29000 259.23300 260.63300 261.68000
 262.46100 262.79800 262.69100 262.22400 261.06900 259.52500 257.70700 255.50700
 253.00100 250.30200 247.39800 244.45200 241.65400 239.05400 236.73300 234.59000
 232.59500 230.72500 228.83400 226.82600 224.66600 222.38700 220.10400 217.71500
 215.45900 213.06600 210.54600 208.09300 205.35400 202.08130 196.05959 200.71215
 209.01611 216.90438 223.84126 229.78593 235.00632 240.20838 245.98943 250.68668
 254.32982 257.93487 261.55666 264.96801 268.15192 271.06452 273.76717 276.25691
 278.57680 280.74479 282.77456 284.60533 286.27232 287.81705 289.31715 290.65561
 291.81734 292.81312 293.70701 294.49387 295.17482 295.77730 296.32696 296.82492
 297.27278 297.67160 298.02000 298.46400
 399.33000 389.90700 379.81300 368.66800 357.52200 345.30100 333.07400 320.22700
 307.21600 293.84800 280.37600 267.29600 254.61000 242.98700 232.15100 221.97700
 212.67200 204.28600 197.66900 192.82100 189.48600 187.45200 186.81400 187.08900
 187.78100 189.05400 190.64800 192.54200 194.63000 196.75200 198.67100 200.15800
 201.53500 202.48700 202.97500 203.34000 203.53900 203.49700 203.38500 203.24700
 203.00500 202.78600 202.60300 202.43700 202.42600 202.88800 203.42000 203.95100
 204.89500 205.99200 207.30100 208.95800 210.73800 213.10000 215.56400 218.18000
 220.96600 223.91800 226.96100 230.09200 233.29300 236.55700 239.95500 243.53700
 246.84500 249.39000 251.54200 253.47400 255.19500 256.48400 257.43100 258.05900
 258.21200 258.04000 257.58200 256.64300 255.23900 253.50700 251.40800 249.05600
 246.57600 243.99400 241.38900 238.83000 236.34400 233.98600 231.96900 230.11800
 228.42300 226.89900 225.54800 224.29700 223.10500 221.96500 220.95800 220.11300
 219.49000 218.92000 218.32500 217.88100 217.42300 216.96366 216.35568 216.80261
 217.73415 218.28582 218.64258 219.10077 220.44626 222.53987 226.38451 230.35736
 233.59734 237.39164 241.29814 245.22796 248.98002 252.51130 255.78595 258.80109
 261.54781 264.05210 266.34239 268.04198 269.58951 271.01303 272.35754 273.55718
 274.59842 275.49092 276.28989 276.99307 277.60161 278.14001 278.63122 279.07623
 279.47646 279.83287 280.14422 280.54100
 399.73800 389.78500 379.66200 368.15100 356.64100 344.35000 331.79200 318.88800
 305.72600 292.49300 279.20900 266.73800 254.69600 244.21100 234.45700 225.43300
 217.56900 210.45100 204.30000 199.30600 195.45800 192.57600 191.02700 190.38600
 190.23900 190.53400 191.16600 191.92500 192.79500 193.76600 194.73200 195.31200
 195.80000 196.05200 196.11500 196.11500 196.03900 195.72300 195.34000 194.98900
 194.75100 194.79200 195.13300 195.59800 196.50600 198.13600 199.85800 201.56600
 204.17900 206.82300 209.89300 213.28400 216.82800 220.60500 224.38700 228.20900
 232.03200 235.82500 239.56000 243.25800 246.84500 250.20100 253.70900 257.46800
 261.53000 264.22100 266.60100 268.68100 270.32900 271.74100 272.83600 273.47400
 273.89800 274.00200 273.75700 273.28800 272.37100 271.10000 269.58900 267.77900
 265.81600 263.72100 261.39300 258.91600 256.29800 253.42300 250.33100 247.11400
 243.83700 240.52900 237.24900 233.99900 230.72800 227.51500 224.25400 220.95200
 217.62700 213.65600 210.12100 206.78900 204.01000 201.99491 199.07309 198.76551
 199.40006 200.48994 201.46112 202.31912 203.45100 204.96110 207.47502 210.85391
 213.70530 217.29629 220.99574 224.72316 228.28753 231.64854 234.68024 237.40893
 239.70644 241.60899 243.46854 245.67368 247.68154 249.52395 251.24767 252.78566
 254.12057 255.26479 256.23740 257.09036 257.82852 258.48160 259.07744 259.61723
 260.10271 260.53504 260.91270 261.39400
 399.73800 389.78500 379.66200 368.15100 356.64100 344.35000 331.79200 318.88800
 305.72600 292.49300 279.20900 266.73800 254.69600 244.21100 234.45700 225.43300
 217.56900 210.45100 204.30000 199.30600 195.45800 192.57600 191.02700 190.38600
 190.23900 190.53400 191.16600 191.92500 192.79500 193.76600 194.73200 195.31200
 195.80000 196.05200 196.11500 196.11500 196.03900 195.72300 195.34000 194.98900
 194.75100 194.79200 195.13300 195.59800 196.50600 198.13600 199.85800 201.56600
 204.17900 206.82300 209.89300 213.28400 216.82800 220.60500 224.38700 228.20900
 232.03200 235.82500 239.56000 243.25800 246.84500 250.20100 253.70900 257.46800
 261.53000 264.22100 266.60100 268.68100 270.32900 271.74100 272.83600 273.47400
 273.89800 274.00200 273.75700 273.28800 272.37100 271.10000 269.58900 267.77900
 265.81600 263.72100 261.39300 258.91600 256.29800 253.42300 250.33100 247.11400
 243.83700 240.52900 237.24900 233.99900 230.72800 227.51500 224.25400 220.95200
 217.62700 213.65600 210.12100 206.78900 204.01000 201.99491 199.07309 198.76551
 199.40006 200.48994 201.46112 202.31912 203.45100 204.96110 207.47502 210.85391
 213.70530 217.29629 220.99574 224.72316 228.28753 231.64854 234.68024 237.40893
 239.70644 241.60899 243.46854 245.67368 247.68154 249.52395 251.24767 252.78566
 254.12057 255.26479 256.23740 257.09036 257.82852 258.48160 259.07744 259.61723
 260.10271 260.53504 260.91270 261.39400
 399.33000 389.90700 379.81300 368.66800 357.52200 345.30100 333.07400 320.22700
 307.21600 293.84800 280.37600 267.29600 254.61000 242.98700 232.15100 221.97700
 212.67200 204.28600 197.66900 192.82100 189.48600 187.45200 186.81400 187.08900
 187.78100 189.05400 190.64800 192.54200 194.63000 196.75200 198.67100 200.15800
 201.53500 202.48700 202.97500 203.34000 203.53900 203.49700 203.38500 203.24700
 203.00500 202.78600 202.60300 202.43700 202.42600 202.88800 203.42000 203.95100
 204.89500 205.99200 207.30100 208.95800 210.73800 213.10000 215.56400 218.18000
 220.96600 223.91800 226.96100 230.09200 233.29300 236.55700 239.95500 243.53700
 246.84500 249.39000 251.54200 253.47400 255.19500 256.48400 257.43100 258.05900
 258.21200 258.04000 257.58200 256.64300 255.23900 253.50700 251.40800 249.05600
 246.57600 243.99400 241.38900 238.83000 236.34400 233.98600 231.96900 230.11800
 228.42300 226.89900 225.54800 224.29700 223.10500 221.96500 220.95800 220.11300
 219.49000 218.92000 218.32500 217.88100 217.42300 216.96366 216.35568 216.80261
 217.73415 218.28582 218.64258 219.10077 220.44626 222.53987 226.38451 230.35736
 233.59734 237.39164 241.29814 245.22796 248.98002 252.51130 255.78595 258.80109
 261.54781 264.05210 266.34239 268.04198 269.58951 271.01303 272.35754 273.55718
 274.59842 275.49092 276.28989 276.99307 277.60161 278.14001 278.63122 279.07623
 279.47646 279.83287 280.14422 280.54100
 381.81900 372.39900 361.20600 349.77600 337.62200 324.85300 311.81000 298.35300
 284.86000 271.32400 258.56100 246.30400 236.08700 226.79600 218.44800 211.29000
 205.52200 200.89400 197.38100 194.84800 193.01500 192.31500 192.25000 192.43100
 192.91200 193.53700 194.13600 194.71200 195.26200 195.83100 196.39300 196.97600
 197.60400 198.14900 198.58400 199.05700 199.69500 200.37800 201.05400 201.70800
 202.31300 202.85700 203.35500 203.86200 204.56900 205.29700 206.02600 206.98700
 208.19300 209.44100 210.96900 212.57600 214.46200 216.51300 218.63000 220.85300
 223.34100 225.96200 228.73900 231.69700 234.70600 237.70600 240.69200 243.65700
 246.73700 249.69900 252.52100 255.06300 257.29000 259.23300 260.63300 261.68000
 262.46100 262.79800 262.69100 262.22400 261.06900 259.52500 257.70700 255.50700
 253.00100 250.30200 247.39800 244.45200 241.65400 239.05400 236.73300 234.59000
 232.59500 230.72500 228.83400 226.82600 224.66600 222.38700 220.10400 217.71500
 215.45900 213.06600 210.54600 208.09300 205.35400 202.08130 196.05959 200.71215
 209.01611 216.90438 223.84126 229.78593 235.00632 240.20838 245.98943 250.68668
 254.32982 257.93487 261.55666 264.96801 268.15192 271.06452 273.76717 276.25691
 278.57680 280.74479 282.77456 284.60533 286.27232 287.81705 289.31715 290.65561
 291.81734 292.81312 293.70701 294.49387 295.17482 295.77730 296.32696 296.82492
 297.27278 297.67160 298.02000 298.46400
 366.78100 356.32964 345.75629 334.61693 323.01458 311.20322 299.06787 286.86551
 274.57215 262.46380 250.46744 239.76309 229.87973 220.97837 213.15502 206.15166
 199.98031 194.91295 191.48960 189.52624 188.55788 188.61653 189.44617 190.74882
 192.46846 194.55811 196.81575 199.16939 201.60904 204.08368 206.16633 208.00297
 209.62361 210.76326 210.98690 211.20955 211.14119 210.84084 210.46848 210.09312
 209.70477 209.40941 209.21206 209.07070 208.99335 209.31899 209.69963 210.08328
 210.87092 212.04357 213.28821 215.06586 216.98850 219.02614 221.11579 223.19343
 225.24808 227.32672 229.41836 231.51901 233.64265 235.80930 238.05994 240.42459
 243.04023 245.28587 247.28252 249.04216 250.45381 251.57145 252.38810 252.69874
 252.73038 252.49903 251.85367 250.79632 249.39696 247.55260 245.45625 243.28389
 241.06954 238.86818 236.68283 234.51647 232.37111 230.23276 228.25340 226.40505
 224.68269 223.14934 221.77398 220.54062 219.41727 218.37191 217.47056 216.60620
 215.84284 215.01749 214.11013 213.46878 212.91342 212.69112 212.17964 213.43715
 215.14542 216.97154 217.97951 218.16893 219.29858 222.87494 228.33691 233.05588
 236.81784 240.57898 244.27315 247.84874 251.23808 254.02467 256.48184 259.14810
 262.23062 264.86526 266.94733 268.84833 270.79108 272.77145 274.48233 276.04105
 277.56079 279.13953 280.67102 282.03613 283.22046 284.27338 285.23947 286.11850
 286.91425 287.63193 288.26227 289.10141
 366.78100 356.32922 345.75543 334.61565 323.01286 311.20108 299.06529 286.86251
 274.56872 262.45994 250.46315 239.75837 229.87458 220.97280 213.14901 206.14523
 199.97344 194.90566 191.48188 189.51809 188.54931 188.60752 189.43674 190.73895
 192.45817 194.54738 196.80460 199.15781 201.59703 204.07124 206.15346 207.98967
 209.60989 210.74910 210.97232 211.19454 211.12575 210.82497 210.45218 210.07640
 209.68761 209.39183 209.19404 209.05226 208.97447 209.29969 209.67990 210.06312
 210.85033 212.02255 213.26676 215.04398 216.96620 219.00341 221.09263 223.16984
 225.22406 227.30227 229.39349 231.49370 233.61692 235.78313 238.03335 240.39756
 243.01278 245.25799 247.25421 249.01342 250.42464 251.54186 252.35807 252.66829
 252.69950 252.46772 251.82193 250.76415 249.36436 247.51958 245.42279 243.25001
 241.03522 238.83344 236.64765 234.48087 232.33508 230.19630 228.21652 226.36773
 224.64495 223.11116 221.73538 220.50159 219.37781 218.33202 217.43024 216.56545
 215.80167 214.97588 214.06810 213.42631 212.87053 212.69395 212.28864 213.55901
 215.23344 217.04482 218.07333 218.30449 219.43080 222.90802 228.28456 232.94765
 236.68741 240.44778 244.14984 247.71725 251.04784 253.78514 256.27713 259.03369
 262.08630 264.67300 266.75537 268.68997 270.65756 272.64349 274.34186 275.89853
 277.42831 279.05835 280.59445 281.96027 283.14548 284.19815 285.16391 286.04343
 286.84055 287.55615 288.18765 289.02591
 366.78100 356.32912 345.75524 334.61536 323.01247 311.20059 299.06471 286.86183
 274.56795 262.45907 250.46219 239.75730 229.87342 220.97154 213.14766 206.14378
 199.97190 194.90402 191.48013 189.51625 188.54737 188.60549 189.43461 190.73673
 192.45585 194.54496 196.80208 199.15520 201.59432 204.06844 206.15056 207.98668
 209.60679 210.74591 210.96903 211.19115 211.12227 210.82139 210.44850 210.07262
 209.68374 209.38786 209.18998 209.04810 208.97022 209.29533 209.67545 210.05857
 210.84569 212.01781 213.26193 215.03905 216.96116 218.99828 221.08740 223.16452
 225.21864 227.29676 229.38788 231.48799 233.61111 235.77723 238.02735 240.39147
 243.00659 245.25171 247.24782 249.00694 250.41806 251.53518 252.35130 252.66142
 252.69254 252.46065 251.81477 250.75689 249.35701 247.51213 245.41525 243.24237
 241.02748 238.82560 236.63972 234.47284 232.32696 230.18808 228.20820 226.35931
 224.63643 223.10255 221.72667 220.49279 219.36891 218.32303 217.42114 216.55626
 215.79238 214.96650 214.05862 213.41674 212.86086 212.71596 212.38394 213.68532
 215.32631 217.09138 218.17793 218.45175 219.56604 222.94711 228.24213 232.84152
 236.55183 240.31090 244.02394 247.58104 250.85130 253.54239 256.07132 258.91440
 261.93640 264.47507 266.55618 268.52609 270.52301 272.51657 274.20496 275.75934
 277.29575 278.98489 280.52536 281.89020 283.07492 284.12708 285.09158 285.97076
 286.76767 287.48145 288.11255 288.95215
 366.78100 356.32917 345.75534 334.61552 323.01269 311.20086 299.06503 286.86221
 274.56838 262.45955 250.46272 239.75790 229.87407 220.97224 213.14841 206.14459
 199.97276 194.90493 191.48110 189.51728 188.54845 188.60662 189.43579 190.73797
 192.45714 194.54631 196.80348 199.15666 201.59583 204.07000 206.15217 207.98834
 209.60852 210.74769 210.97086 211.19303 211.12421 210.82338 210.45055 210.07472
 209.68590 209.39007 209.19224 209.05041 208.97259 209.29776 209.67793 210.06110
 210.84828 212.02045 213.26462 215.04179 216.96397 219.00114 221.09031 223.16748
 225.22166 227.29983 229.39100 231.49117 233.61434 235.78052 238.03069 240.39486
 243.01003 245.25521 247.25138 249.01055 250.42172 251.53890 252.35507 252.66524
 252.69641 252.46459 251.81876 250.76093 249.36110 247.51628 245.41945 243.24662
 241.03179 238.82997 236.64414 234.47731 232.33148 230.19266 228.21283 226.36400
 224.64117 223.10734 221.73152 220.49769 219.37386 218.32803 217.42621 216.56138
 215.79755 214.97172 214.06390 213.42207 212.86624 212.74728 212.47516 213.81837
 215.40384 217.13147 218.28198 218.61169 219.71744 222.99385 228.20103 232.73697
 236.41202 240.17108 243.89459 247.43478 250.64598 253.29881 255.86687 258.79102
 261.78195 264.27350 266.35193 268.35715 270.38681 272.38977 274.07047 275.61703
 277.18253 278.90784 280.45435 281.82004 283.00534 284.05783 285.02142 285.90115
 286.69760 287.41406 288.04306 288.88409
 366.78100 356.32917 345.75534 334.61551 323.01268 311.20085 299.06502 286.86219
 274.56836 262.45953 250.46270 239.75787 229.87404 220.97221 213.14838 206.14455
 199.97272 194.90489 191.48106 189.51723 188.54840 188.60657 189.43574 190.73791
 192.45708 194.54625 196.80342 199.15659 201.59576 204.06993 206.15210 207.98827
 209.60844 210.74761 210.97078 211.19295 211.12412 210.82329 210.45046 210.07463
 209.68580 209.38997 209.19214 209.05031 208.97248 209.29765 209.67782 210.06099
 210.84816 212.02033 213.26450 215.04167 216.96384 219.00101 221.09018 223.16735
 225.22152 227.29969 229.39086 231.49103 233.61420 235.78037 238.03054 240.39471
 243.00988 245.25505 247.25122 249.01039 250.42156 251.53873 252.35490 252.66507
 252.69624 252.46441 251.81858 250.76075 249.36092 247.51609 245.41926 243.24643
 241.03160 238.82977 236.64394 234.47711 232.33128 230.19245 228.21262 226.36379
 224.64096 223.10713 221.73130 220.49747 219.37364 218.32781 217.42598 216.56115
 215.79732 214.97149 214.06366 213.42183 212.86600 212.77728 212.57507 213.95004
 215.46690 217.16962 218.38451 218.78264 219.88818 223.04741 228.16093 232.63516
 236.27466 240.03218 243.75760 247.27319 250.43030 253.05525 255.66402 258.66129
 261.62115 264.06796 266.14191 268.18271 270.24823 272.26511 273.94226 275.48141
 277.09039 278.82642 280.37585 281.74341 282.92938 283.98209 284.94894 285.82733
 286.62399 287.33902 287.96866 288.81277
 366.78100 356.32919 345.75537 334.61556 323.01275 311.20093 299.06512 286.86231
 274.56849 262.45968 250.46287 239.75805 229.87424 220.97243 213.14861 206.14480
 199.97299 194.90517 191.48136 189.51755 188.54873 188.60692 189.43611 190.73829
 192.45748 194.54667 196.80385 199.15704 201.59622 204.07041 206.15260 207.98878
 209.60897 210.74816 210.97134 211.19353 211.12472 210.82390 210.45109 210.07528
 209.68646 209.39065 209.19284 209.05102 208.97321 209.29840 209.67858 210.06177
 210.84896 212.02114 213.26533 215.04252 216.96470 219.00189 221.09108 223.16826
 225.22245 227.30064 229.39182 231.49201 233.61520 235.78138 238.03157 240.39576
 243.01094 245.25613 247.25232 249.01150 250.42269 251.53988 252.35606 252.66625
 252.69744 252.46562 251.81981 250.76200 249.36218 247.51737 245.42056 243.24774
 241.03293 238.83112 236.64530 234.47849 232.33267 230.19386 228.21405 226.36523
 224.64242 223.10861 221.73279 220.49898 219.37517 218.32935 217.42754 216.56273
 215.79891 214.97310 214.06529 213.42347 212.86766 212.80972 212.67868 214.07739
 215.52287 217.20201 218.48740 218.95811 220.07346 223.10822 228.12581 232.53648
 236.14633 239.89899 243.61327 247.09608 250.20320 252.81035 255.46034 258.52130
 261.45248 263.85846 265.92880 268.00525 270.10968 272.14294 273.82303 275.35840
 277.00378 278.74338 280.29324 281.66010 282.84750 283.90158 284.86694 285.74640
 286.54395 287.25909 287.89056 288.73312
 366.78100 356.32925 345.75550 334.61575 323.01301 311.20126 299.06551 286.86276
 274.56901 262.46026 250.46351 239.75876 229.87502 220.97327 213.14952 206.14577
 199.97402 194.90627 191.48252 189.51877 188.55003 188.60828 189.43753 190.73978
 192.45903 194.54828 196.80553 199.15879 201.59804 204.07229 206.15454 207.99079
 209.61104 210.75029 210.97354 211.19580 211.12705 210.82630 210.45355 210.07780
 209.68905 209.39330 209.19555 209.05381 208.97606 209.30131 209.68156 210.06481
 210.85206 212.02431 213.26857 215.04582 216.96807 219.00532 221.09457 223.17182
 225.22607 227.30432 229.39558 231.49583 233.61908 235.78533 238.03558 240.39983
 243.01508 245.26033 247.25659 249.01584 250.42709 251.54434 252.36059 252.67084
 252.70209 252.47035 251.82460 250.76685 249.36710 247.52235 245.42560 243.25285
 241.03810 238.83636 236.65061 234.48386 232.33811 230.19936 228.21961 226.37086
 224.64811 223.11437 221.73862 220.50487 219.38112 218.33537 217.43362 216.56887
 215.80513 214.97938 214.07163 213.42988 212.87413 212.84578 212.78310 214.19946
 215.57405 217.23375 218.59459 219.12888 220.26656 223.17798 228.09706 232.44328
 236.02698 239.77296 243.46632 246.90678 249.96410 252.56064 255.25288 258.36969
 261.27441 263.64539 265.71667 267.82944 269.97260 272.02505 273.71313 275.25208
 276.91660 278.65778 280.20660 281.57538 282.76205 283.81625 284.78198 285.66043
 286.45856 287.17419 287.80823 288.64859
 366.78100 356.32932 345.75564 334.61596 323.01328 311.20160 299.06592 286.86324
 274.56956 262.46088 250.46420 239.75952 229.87584 220.97416 213.15048 206.14680
 199.97512 194.90744 191.48376 189.52008 188.55140 188.60972 189.43904 190.74136
 192.46068 194.55000 196.80732 199.16064 201.59996 204.07428 206.15660 207.99292
 209.61324 210.75256 210.97588 211.19820 211.12952 210.82884 210.45616 210.08048
 209.69180 209.39612 209.19845 209.05677 208.97909 209.30441 209.68473 210.06805
 210.85537 212.02769 213.27201 215.04933 216.97165 219.00897 221.09829 223.17561
 225.22993 227.30825 229.39957 231.49989 233.62321 235.78953 238.03985 240.40417
 243.01949 245.26481 247.26113 249.02045 250.43177 251.54909 252.36541 252.67573
 252.70705 252.47537 251.82969 250.77201 249.37233 247.52765 245.43097 243.25829
 241.04361 238.84193 236.65625 234.48957 232.34389 230.20521 228.22553 226.37685
 224.65417 223.12049 221.74481 220.51113 219.38745 218.34177 217.44009 216.57541
 215.81173 214.98605 214.07837 213.43669 212.88101 212.88321 212.89122 214.31216
 215.61884 217.27139 218.70868 219.29248 220.46132 223.25360 228.07233 232.35989
 235.91399 239.65367 243.31938 246.70786 249.71431 252.30740 255.04271 258.20551
 261.08673 263.43234 265.51038 267.65839 269.83963 271.90952 273.61218 275.16135
 276.82986 278.56894 280.11862 281.48584 282.67343 283.72800 284.69391 285.57501
 286.37033 287.08731 287.71951 288.56326
 366.78100 356.32939 345.75579 334.61618 323.01357 311.20197 299.06636 286.86375
 274.57015 262.46154 250.46494 239.76033 229.87672 220.97512 213.15151 206.14790
 199.97630 194.90869 191.48508 189.52148 188.55287 188.61126 189.44066 190.74305
 192.46244 194.55184 196.80923 199.16262 201.60202 204.07641 206.15881 207.99520
 209.61559 210.75499 210.97838 211.20077 211.13217 210.83156 210.45895 210.08335
 209.69474 209.39913 209.20153 209.05992 208.98231 209.30771 209.68810 210.07150
 210.85889 212.03128 213.27568 215.05307 216.97546 219.01286 221.10225 223.17964
 225.23404 227.31243 229.40382 231.50422 233.62761 235.79400 238.04440 240.40879
 243.02418 245.26958 247.26597 249.02537 250.43676 251.55415 252.37055 252.68094
 252.71233 252.48073 251.83512 250.77751 249.37791 247.53330 245.43669 243.26409
 241.04948 238.84787 236.66227 234.49566 232.35006 230.21145 228.23184 226.38324
 224.66063 223.12702 221.75142 220.51781 219.39420 218.34860 217.44699 216.58238
 215.81878 214.99317 214.08556 213.44396 212.88835 212.92174 213.00204 214.41623
 215.65846 217.31616 218.82857 219.45215 220.65482 223.33255 228.04799 232.28784
 235.80984 239.54163 243.17474 246.50096 249.45528 252.05093 254.82979 258.03040
 260.89224 263.21915 265.31018 267.49350 269.71011 271.79849 273.51956 275.08609
 276.74097 278.47891 280.02808 281.39651 282.58307 283.63849 284.60468 285.48587
 286.28299 286.99969 287.63220 288.47690
 366.78100 356.32947 345.75594 334.61641 323.01388 311.20235 299.06682 286.86429
 274.57076 262.46223 250.46570 239.76116 229.87763 220.97610 213.15257 206.14904
 199.97751 194.90998 191.48645 189.52292 188.55439 188.61286 189.44233 190.74480
 192.46427 194.55374 196.81121 199.16468 201.60415 204.07862 206.16109 207.99755
 209.61802 210.75749 210.98096 211.20343 211.13490 210.83437 210.46184 210.08631
 209.69778 209.40225 209.20472 209.06319 208.98566 209.31113 209.69160 210.07507
 210.86254 212.03501 213.27948 215.05694 216.97941 219.01688 221.10635 223.18382
 225.23829 227.31676 229.40823 231.50870 233.63217 235.79864 238.04911 240.41358
 243.02905 245.27452 247.27099 249.03046 250.44193 251.55940 252.37587 252.68633
 252.71780 252.48627 251.84074 250.78321 249.38368 247.53915 245.44262 243.27009
 241.05556 238.85403 236.66850 234.50197 232.35644 230.21791 228.23838 226.38985
 224.66732 223.13379 221.75826 220.52472 219.40119 218.35566 217.45413 216.58960
 215.82607 215.00054 214.09301 213.45148 212.89595 212.96086 213.11435 214.51285
 215.69492 217.36353 218.95537 219.61263 220.85092 223.41046 228.02666 232.21922
 235.71169 239.43497 243.03119 246.28828 249.19223 251.79660 254.61699 257.84555
 260.68820 262.99930 265.11249 267.33551 269.58850 271.69656 273.44064 275.02878
 276.65417 278.38770 279.93695 281.30408 282.49396 283.54883 284.51511 285.39554
 286.19415 286.91141 287.54486 288.39050
 366.78100 356.32964 345.75628 334.61692 323.01456 311.20320 299.06784 286.86548
 274.57212 262.46376 250.46740 239.76304 229.87968 220.97832 213.15496 206.15160
 199.98024 194.91288 191.48952 189.52616 188.55780 188.61644 189.44608 190.74872
 192.46836 194.55800 196.81564 199.16928 201.60892 204.08356 206.16620 208.00284
 209.62348 210.76312 210.98676 211.20940 211.14104 210.84068 210.46832 210.09296
 209.70460 209.40924 209.21188 209.07052 208.99316 209.31880 209.69944 210.08308
 210.87072 212.04336 213.28800 215.06564 216.98828 219.02592 221.11556 223.19320
 225.24784 227.32648 229.41812 231.51876 233.64240 235.80904 238.05968 240.42432
 243.03996 245.28560 247.28224 249.04188 250.45352 251.57116 252.38780 252.69844
 252.73008 252.49872 251.85336 250.79600 249.39664 247.55228 245.45592 243.28356
 241.06920 238.86784 236.68248 234.51612 232.37076 230.23240 228.25304 226.40468
 224.68232 223.14896 221.77359 220.54023 219.41687 218.37151 217.47015 216.60579
 215.84243 215.01707 214.10971 213.46835 212.91299 213.00462 213.22112 214.61195
 215.72513 217.41103 219.08676 219.78029 221.03917 223.49800 227.99670 232.15471
 235.63103 239.34569 242.89539 246.07220 248.92023 251.53371 254.39525 257.64429
 260.46625 262.77448 264.92548 267.19241 269.47974 271.60764 273.37659 274.98209
 276.57245 278.29938 279.84784 281.21533 282.40375 283.45953 284.42572 285.30704
 286.10629 286.82413 287.45807 288.30511
 366.78100 356.33004 345.75708 334.61812 323.01616 311.20520 299.07025 286.86829
 274.57533 262.46737 250.47141 239.76745 229.88449 220.98353 213.16057 206.15761
 199.98666 194.91970 191.49674 189.53378 188.56582 188.62486 189.45490 190.75794
 192.47798 194.56802 196.82606 199.18011 201.62015 204.09519 206.17823 208.01527
 209.63631 210.77635 211.00039 211.22343 211.15547 210.85551 210.48356 210.10860
 209.72064 209.42568 209.22872 209.08776 209.01080 209.33684 209.71788 210.10192
 210.88997 212.06301 213.30805 215.08609 217.00913 219.04717 221.13721 223.21525
 225.27029 227.34933 229.44137 231.54242 233.66646 235.83350 238.08454 240.44958
 243.06562 245.31166 247.30870 249.06874 250.48078 251.59883 252.41587 252.72691
 252.75895 252.52799 251.88303 250.82607 249.42711 247.58315 245.48719 243.31523
 241.10128 238.90032 236.71536 234.54940 232.40444 230.26648 228.28752 226.43956
 224.71760 223.18464 221.80969 220.57673 219.45377 218.40881 217.50785 216.64389
 215.88093 215.05597 214.14901 213.50805 212.95309 213.05956 213.31105 214.71805
 215.76656 217.43784 219.21713 219.93706 221.26740 223.57828 227.99124 232.10730
 235.55414 239.25336 242.74768 245.83768 248.62810 251.25468 254.16304 257.43268
 260.24393 262.56461 264.75858 267.06631 269.38284 271.52908 273.32272 274.94052
 276.49765 278.21368 279.75949 281.12677 282.31509 283.37057 284.33783 285.21887
 286.01852 286.73544 287.36981 288.22406
 366.78100 356.33030 345.75760 334.61890 323.01720 311.20650 299.07180 286.87010
 274.57740 262.46970 250.47400 239.77030 229.88759 220.98689 213.16419 206.16149
 199.99079 194.92409 191.50139 189.53869 188.57099 188.63029 189.46059 190.76389
 192.48419 194.57449 196.83279 199.18709 201.62739 204.10269 206.18599 208.02329
 209.64459 210.78489 211.00919 211.23249 211.16478 210.86508 210.49338 210.11868
 209.73098 209.43628 209.23958 209.09888 209.02218 209.34848 209.72978 210.11408
 210.90238 212.07568 213.32098 215.09928 217.02258 219.06088 221.15118 223.22948
 225.28478 227.36408 229.45638 231.55768 233.68197 235.84927 238.10057 240.46587
 243.08217 245.32847 247.32577 249.08607 250.49837 251.61667 252.43397 252.74527
 252.77757 252.54687 251.90217 250.84547 249.44677 247.60307 245.50737 243.33567
 241.12197 238.92127 236.73657 234.57087 232.42616 230.28846 228.30976 226.46206
 224.74036 223.20766 221.83296 220.60026 219.47756 218.43286 217.53216 216.66846
 215.90576 215.08106 214.17436 213.53366 212.97896 213.10742 213.41093 214.79802
 215.85030 217.45706 219.26953 220.18411 221.46460 223.73495 227.97110 232.01735
 235.45935 239.15204 242.59207 245.59428 248.32565 250.97015 253.93062 257.22357
 260.03372 262.37137 264.60550 266.95102 269.29526 271.45807 273.27606 274.90643
 276.43283 278.12985 279.67261 281.03897 282.22729 283.28308 284.24924 285.13162
 285.93262 286.65131 287.28613 288.13623
 366.78100 356.33058 345.75816 334.61974 323.01832 311.20789 299.07347 286.87205
 274.57963 262.47221 250.47679 239.77337 229.89095 220.99053 213.16811 206.16568
 199.99526 194.92884 191.50642 189.54400 188.57658 188.63616 189.46674 190.77032
 192.49090 194.58147 196.84005 199.19463 201.63521 204.11079 206.19437 208.03195
 209.65353 210.79411 211.01868 211.24226 211.17484 210.87542 210.50400 210.12958
 209.74216 209.44774 209.25132 209.11090 209.03447 209.36105 209.74263 210.12721
 210.91579 212.08937 213.33495 215.11353 217.03711 219.07569 221.16626 223.24484
 225.30042 227.38000 229.47258 231.57416 233.69874 235.86632 238.11790 240.48348
 243.10005 245.34663 247.34421 249.10479 250.51737 251.63595 252.45353 252.76511
 252.79769 252.56726 251.92284 250.86642 249.46800 247.62458 245.52916 243.35774
 241.14432 238.94390 236.75948 234.59405 232.44963 230.31221 228.33379 226.48637
 224.76495 223.23253 221.85811 220.62569 219.50327 218.45884 217.55842 216.69500
 215.93258 215.10816 214.20174 213.56132 213.00690 213.15559 213.50693 214.87613
 215.93129 217.50510 219.34727 220.41942 221.61501 223.87479 227.93439 231.92883
 235.37762 239.06445 242.44106 245.34372 248.01418 250.68379 253.70161 257.01846
 259.83179 262.18848 264.46628 266.84830 269.21753 271.39621 273.23868 274.88010
 276.37576 278.04846 279.58740 280.95279 282.14148 283.19772 284.16495 285.04691
 285.84604 286.56772 287.20175 288.05444
 366.78100 356.33090 345.75880 334.62070 323.01960 311.20951 299.07541 286.87431
 274.58221 262.47511 250.48001 239.77691 229.89481 220.99472 213.17262 206.17052
 200.00042 194.93432 191.51222 189.55012 188.58302 188.64293 189.47383 190.77773
 192.49863 194.58953 196.84843 199.20333 201.64423 204.12014 206.20404 208.04194
 209.66384 210.80474 211.02964 211.25354 211.18644 210.88735 210.51625 210.14215
 209.75505 209.46095 209.26485 209.12475 209.04865 209.37556 209.75746 210.14236
 210.93126 212.10516 213.35106 215.12996 217.05386 219.09277 221.18367 223.26257
 225.31847 227.39837 229.49127 231.59317 233.71807 235.88598 238.13788 240.50378
 243.12068 245.36758 247.36548 249.12638 250.53928 251.65819 252.47609 252.78799
 252.82089 252.59079 251.94669 250.89059 249.49249 247.64940 245.55430 243.38320
 241.17010 238.97000 236.78590 234.62080 232.47670 230.33961 228.36151 226.51441
 224.79331 223.26121 221.88711 220.65501 219.53291 218.48881 217.58872 216.72562
 215.96352 215.13942 214.23332 213.59322 213.03912 213.20436 213.59474 214.96199
 216.00119 217.56656 219.45033 220.63940 221.77606 223.98470 227.90175 231.86179
 235.30559 238.96977 242.26764 245.06874 247.69316 250.39972 253.47812 256.81702
 259.63586 262.01773 264.34088 266.75854 269.14987 271.34253 273.20953 274.86563
 276.33124 277.98199 279.50266 280.86667 282.05469 283.10992 284.07834 284.96072
 285.76062 286.48331 287.11920 287.97177
 366.78100 356.33107 345.75914 334.62121 323.02028 311.21034 299.07641 286.87548
 274.58355 262.47662 250.48169 239.77876 229.89683 220.99690 213.17497 206.17303
 200.00310 194.93717 191.51524 189.55331 188.58638 188.64645 189.47752 190.78159
 192.50265 194.59372 196.85279 199.20786 201.64893 204.12500 206.20907 208.04714
 209.66921 210.81027 211.03534 211.25941 211.19248 210.89355 210.52262 210.14869
 209.76176 209.46783 209.27190 209.13196 209.05603 209.38310 209.76517 210.15024
 210.93931 212.11338 213.35945 215.13852 217.06258 219.10165 221.19272 223.27179
 225.32786 227.40793 229.50100 231.60307 233.72814 235.89620 238.14827 240.51434
 243.13141 245.37848 247.37655 249.13762 250.55069 251.66976 252.48783 252.79989
 252.83296 252.60303 251.95910 250.90317 249.50524 247.66231 245.56738 243.39645
 241.18351 238.98358 236.79965 234.63472 232.49079 230.35386 228.37593 226.52900
 224.80807 223.27613 221.90220 220.67027 219.54834 218.50441 217.60448 216.74155
 215.97962 215.15569 214.24976 213.60982 213.05589 213.24367 213.68730 215.04655
 216.06308 217.65573 219.56532 220.83792 221.94438 224.07779 227.88731 231.80528
 235.22414 238.84654 242.06180 244.77701 247.37141 250.12080 253.26208 256.62073
 259.44958 261.86185 264.23141 266.68372 269.09265 271.29669 273.18433 274.85532
 276.34018 277.88708 279.41309 280.78070 281.97217 283.02982 283.99902 284.88239
 285.68491 286.40738 287.04553 287.90088
 366.78100 356.33103 345.75907 334.62110 323.02013 311.21016 299.07620 286.87523
 274.58326 262.47629 250.48133 239.77836 229.89639 220.99642 213.17446 206.17249
 200.00252 194.93655 191.51459 189.55262 188.58565 188.64568 189.47672 190.78075
 192.50178 194.59282 196.85185 199.20688 201.64791 204.12395 206.20798 208.04601
 209.66804 210.80908 211.03411 211.25814 211.19117 210.89221 210.52124 210.14727
 209.76030 209.46634 209.27037 209.13040 209.05443 209.38147 209.76350 210.14853
 210.93757 212.11160 213.35763 215.13666 217.06070 219.09973 221.19076 223.26979
 225.32583 227.40586 229.49889 231.60092 233.72596 235.89399 238.14602 240.51205
 243.12909 245.37612 247.37415 249.13519 250.54822 251.66725 252.48528 252.79732
 252.83035 252.60038 251.95641 250.90045 249.50248 247.65951 245.56454 243.39358
 241.18061 238.98064 236.79667 234.63171 232.48774 230.35077 228.37280 226.52584
 224.80487 223.27290 221.89894 220.66697 219.54500 218.50103 217.60107 216.73810
 215.97613 215.15216 214.24620 213.60623 213.05226 213.27116 213.78836 215.12617
 216.12529 217.76840 219.69266 221.01195 222.11292 224.17117 227.88840 231.74220
 235.12820 238.69798 241.83186 244.47705 247.04895 249.84315 253.04994 256.43124
 259.27603 261.72156 264.13702 266.62173 269.04633 271.25989 273.16373 274.83810
 276.30923 277.82114 279.34271 280.71088 281.90338 282.96149 283.93185 284.81476
 285.61728 286.33939 286.97858 287.83496
 366.78100 356.33085 345.75870 334.62055 323.01941 311.20926 299.07511 286.87396
 274.58181 262.47466 250.47951 239.77637 229.89422 220.99407 213.17192 206.16977
 199.99962 194.93348 191.51133 189.54918 188.58203 188.64188 189.47273 190.77658
 192.49744 194.58829 196.84714 199.20199 201.64284 204.11869 206.20254 208.04040
 209.66225 210.80310 211.02795 211.25180 211.18465 210.88551 210.51436 210.14021
 209.75306 209.45891 209.26276 209.12261 209.04647 209.37332 209.75517 210.14002
 210.92887 212.10272 213.34857 215.12743 217.05128 219.09013 221.18098 223.25983
 225.31568 227.39554 229.48839 231.59024 233.71509 235.88294 238.13479 240.50064
 243.11750 245.36435 247.36220 249.12305 250.53590 251.65475 252.47260 252.78446
 252.81731 252.58716 251.94301 250.88686 249.48871 247.64556 245.55042 243.37927
 241.16612 238.96597 236.78182 234.61667 232.47253 230.33538 228.35723 226.51008
 224.78893 223.25678 221.88263 220.65049 219.52834 218.48419 217.58404 216.72089
 215.95874 215.13459 214.22845 213.58830 213.03415 213.28958 213.89307 215.20258
 216.19775 217.88847 219.82800 221.17122 222.28615 224.26770 227.89386 231.67221
 235.02121 238.53249 241.58246 244.16241 246.71851 249.56615 252.84262 256.25009
 259.11569 261.59665 264.05652 266.57050 269.00809 271.22870 273.14661 274.82742
 276.28793 277.76340 279.27972 280.64893 281.83969 282.89822 283.86765 284.75165
 285.55463 286.27594 286.91541 287.77139
 366.78100 356.33058 345.75816 334.61975 323.01833 311.20791 299.07349 286.87208
 274.57966 262.47224 250.47682 239.77341 229.89099 220.99057 213.16815 206.16573
 199.99532 194.92890 191.50648 189.54406 188.57665 188.63623 189.46681 190.77039
 192.49098 194.58156 196.84014 199.19472 201.63531 204.11089 206.19447 208.03205
 209.65363 210.79422 211.01880 211.24238 211.17496 210.87555 210.50413 210.12971
 209.74229 209.44788 209.25146 209.11104 209.03462 209.36120 209.74279 210.12737
 210.91595 212.08953 213.33512 215.11370 217.03728 219.07586 221.16645 223.24503
 225.30061 227.38019 229.47277 231.57436 233.69894 235.86652 238.11810 240.48369
 243.10027 245.34685 247.34443 249.10502 250.51760 251.63618 252.45376 252.76535
 252.79793 252.56751 251.92309 250.86667 249.46826 247.62484 245.52942 243.35800
 241.14459 238.94417 236.75975 234.59433 232.44992 230.31250 228.33408 226.48666
 224.76524 223.23283 221.85841 220.62599 219.50357 218.45916 217.55874 216.69532
 215.93290 215.10849 214.20207 213.56165 213.00723 213.30170 213.99739 215.27892
 216.28540 218.01151 219.95865 221.32581 222.46912 224.36511 227.89661 231.60628
 234.90863 238.34836 241.30934 243.82912 246.38197 249.29373 252.64316 256.07880
 258.96625 261.48325 263.98709 266.53009 268.97940 271.20599 273.13367 274.81647
 276.26202 277.71500 279.22757 280.59692 281.78851 282.84573 283.81555 284.69873
 285.50128 286.22339 286.86234 287.71893
 366.78100 356.33023 345.75745 334.61868 323.01691 311.20613 299.07136 286.86959
 274.57681 262.46904 250.47326 239.76949 229.88672 220.98594 213.16317 206.16040
 199.98962 194.92285 191.50008 189.53730 188.56953 188.62876 189.45898 190.76221
 192.48244 194.57266 196.83089 199.18512 201.62534 204.10057 206.18379 208.02102
 209.64225 210.78247 211.00670 211.22993 211.16215 210.86238 210.49061 210.11583
 209.72806 209.43329 209.23651 209.09574 209.01897 209.34519 209.72642 210.11065
 210.89887 212.07210 213.31732 215.09555 217.01878 219.05700 221.14723 223.22546
 225.28068 227.35991 229.45214 231.55336 233.67759 235.84482 238.09604 240.46127
 243.07750 245.32372 247.32095 249.08117 250.49340 251.61163 252.42885 252.74008
 252.77231 252.54153 251.89676 250.83999 249.44121 247.59744 245.50167 243.32989
 241.11612 238.91535 236.73057 234.56480 232.42003 230.28225 228.30348 226.45570
 224.73393 223.20116 221.82638 220.59361 219.47084 218.42606 217.52529 216.66152
 215.89874 215.07397 214.16720 213.52642 212.97165 213.30730 214.10033 215.35991
 216.38342 218.13948 220.07794 221.47104 222.66028 224.47281 227.89813 231.55037
 234.79172 238.13676 241.00177 243.47403 246.04535 249.03099 252.45500 255.92224
 258.83286 261.38052 263.92078 266.48822 268.94708 271.17703 273.11407 274.81433
 276.27802 277.68808 279.19476 280.56436 281.75742 282.81775 283.79010 284.67877
 285.49127 286.22296 286.86697 287.72473
 366.78100 356.32972 345.75644 334.61716 323.01487 311.20359 299.06831 286.86603
 274.57275 262.46447 250.46819 239.76391 229.88062 220.97934 213.15606 206.15278
 199.98150 194.91422 191.49094 189.52765 188.55937 188.61809 189.44781 190.75053
 192.47025 194.55997 196.81769 199.17140 201.61112 204.08584 206.16856 208.00528
 209.62600 210.76572 210.98944 211.21215 211.14387 210.84359 210.47131 210.09603
 209.70775 209.41247 209.21518 209.07390 208.99662 209.32234 209.70306 210.08678
 210.87450 212.04722 213.29193 215.06965 216.99237 219.03009 221.11981 223.19753
 225.25225 227.33096 229.42268 231.52340 233.64712 235.81384 238.06456 240.42928
 243.04500 245.29071 247.28743 249.04715 250.45887 251.57659 252.39331 252.70403
 252.73574 252.50446 251.85918 250.80190 249.40262 247.55834 245.46206 243.28978
 241.07549 238.87421 236.68893 234.52265 232.37737 230.23909 228.25981 226.41153
 224.68924 223.15596 221.78068 220.54740 219.42412 218.37884 217.47756 216.61327
 215.84999 215.02471 214.11743 213.47615 212.92087 213.30280 214.20515 215.44870
 216.48486 218.26797 220.19028 221.60342 222.85002 224.60257 227.90814 231.50409
 234.67116 237.89709 240.65201 243.09419 245.70898 248.77754 252.27641 255.78053
 258.71719 261.29727 263.86633 266.45230 268.91458 271.14151 273.07770 274.77963
 276.23911 277.67859 279.19098 280.56232 281.75516 282.81696 283.78897 284.67978
 285.49365 286.22876 286.87256 287.73053
 366.78100 356.32910 345.75520 334.61529 323.01239 311.20049 299.06459 286.86169
 274.56778 262.45888 250.46198 239.75708 229.87318 220.97127 213.14737 206.14347
 199.97157 194.90367 191.47976 189.51586 188.54696 188.60506 189.43415 190.73625
 192.45535 194.54445 196.80155 199.15464 201.59374 204.06784 206.14994 207.98604
 209.60613 210.74523 210.96833 211.19043 211.12153 210.82062 210.44772 210.07182
 209.68292 209.38702 209.18911 209.04721 208.96931 209.29441 209.67451 210.05760
 210.84470 212.01680 213.26090 215.03800 216.96009 218.99719 221.08629 223.16339
 225.21749 227.29558 229.38668 231.48678 233.60988 235.77598 238.02607 240.39017
 243.00527 245.25037 247.24646 249.00556 250.41666 251.53376 252.34986 252.65995
 252.69105 252.45915 251.81325 250.75535 249.35544 247.51054 245.41364 243.24074
 241.02584 238.82393 236.63803 234.47113 232.32523 230.18633 228.20642 226.35752
 224.63462 223.10072 221.72482 220.49091 219.36701 218.32111 217.41921 216.55431
 215.79040 214.96450 214.05660 213.41470 212.85880 213.28969 214.30771 215.55469
 216.59320 218.38950 220.29547 221.71983 223.02640 224.75493 227.93752 231.45973
 234.54332 237.62952 240.26642 242.69667 245.37686 248.53615 252.10707 255.64691
 258.61539 261.22589 263.82092 266.42612 268.89008 271.10776 273.03577 274.72366
 276.09302 277.73273 279.22092 280.57626 281.76434 282.82129 283.79105 284.68109
 285.49734 286.23117 286.87677 287.73242
 366.78100 356.32834 345.75369 334.61303 323.00938 311.19672 299.06007 286.85641
 274.56176 262.45210 250.45445 239.74879 229.86414 220.96148 213.13683 206.13217
 199.95952 194.89086 191.46621 189.50155 188.53190 188.58924 189.41759 190.71893
 192.43728 194.52562 196.78197 199.13431 201.57266 204.04600 206.12735 207.96269
 209.58204 210.72038 210.94273 211.16407 211.09442 210.79276 210.41911 210.04245
 209.65280 209.35614 209.15749 209.01483 208.93618 209.26052 209.63987 210.02221
 210.80856 211.97990 213.22325 214.99959 216.92094 218.95728 221.04563 223.12197
 225.17532 227.25266 229.34301 231.44235 233.56470 235.73004 237.97939 240.34273
 242.95708 245.20142 247.19677 248.95511 250.36546 251.48180 252.29715 252.60649
 252.63683 252.40418 251.75752 250.69887 249.29821 247.45256 245.35490 243.18125
 240.96559 238.76294 236.57628 234.40863 232.26197 230.12232 228.14166 226.29201
 224.56835 223.03370 221.65704 220.42239 219.29773 218.25108 217.34842 216.48277
 215.71811 214.89146 213.98280 213.34015 212.78349 213.26692 214.40910 215.67531
 216.70419 218.50230 220.39749 221.82985 223.19029 224.92450 227.99095 231.42641
 234.40919 237.33661 239.85400 242.28355 245.04143 248.29997 251.94406 255.52829
 258.51511 261.15726 263.77850 266.40262 268.87009 271.07895 272.99545 274.67819
 276.09808 277.68872 279.20099 280.56171 281.74930 282.80948 283.77991 284.67099
 285.48898 286.22281 286.86789 287.72351
 366.78100 356.32725 345.75151 334.60976 323.00502 311.19127 299.05352 286.84878
 274.55303 262.44229 250.44354 239.73679 229.85105 220.94730 213.12156 206.11581
 199.94207 194.87232 191.44657 189.48083 188.51008 188.56634 189.39359 190.69384
 192.41110 194.49835 196.75361 199.10486 201.54211 204.01437 206.09462 207.92888
 209.54713 210.68438 210.90564 211.12589 211.05515 210.75240 210.37766 209.99991
 209.60916 209.31142 209.11167 208.96793 208.88818 209.21143 209.58969 209.97094
 210.75620 211.92645 213.16870 214.94396 216.86421 218.89947 220.98672 223.06197
 225.11423 227.19048 229.27974 231.37799 233.49924 235.66350 237.91175 240.27401
 242.88726 245.13052 247.12477 248.88202 250.29128 251.40653 252.22079 252.52904
 252.55829 252.32455 251.67680 250.61706 249.21531 247.36856 245.26982 243.09507
 240.87833 238.67458 236.48683 234.31809 232.17034 230.02960 228.04785 226.19710
 224.47236 222.93661 221.55887 220.32312 219.19738 218.14963 217.24588 216.37914
 215.61339 214.78565 213.87590 213.23215 212.67441 213.22411 214.52283 215.83054
 216.81934 218.58191 220.46716 221.91818 223.33948 225.10208 228.07471 231.41055
 234.27737 237.03661 239.43825 241.88293 244.73497 248.10104 251.80885 255.41608
 258.44373 261.11566 263.74899 266.38907 268.85477 271.04633 272.93591 274.60248
 276.01093 277.69458 279.22406 280.58646 281.77316 282.83014 283.79846 284.68613
 285.50037 286.22861 286.85873 287.69751
 366.78100 356.32777 345.75254 334.61131 323.00709 311.19386 299.05663 286.85240
 274.55717 262.44694 250.44872 239.74249 229.85726 220.95403 213.12880 206.12357
 199.95034 194.88112 191.45589 189.49066 188.52043 188.57720 189.40497 190.70574
 192.42352 194.51129 196.76706 199.11883 201.55660 204.02937 206.11015 207.94492
 209.56369 210.70146 210.92323 211.14400 211.07377 210.77155 210.39732 210.02009
 209.62986 209.33263 209.13340 208.99017 208.91095 209.23472 209.61349 209.99526
 210.78103 211.95180 213.19458 214.97035 216.89112 218.92689 221.01466 223.09043
 225.14320 227.21998 229.30975 231.40852 233.53029 235.69506 237.94383 240.30660
 242.92038 245.16415 247.15892 248.91669 250.32646 251.44223 252.25701 252.56578
 252.59555 252.36232 251.71509 250.65586 249.25463 247.40841 245.31018 243.13595
 240.91972 238.71649 236.52926 234.36103 232.21381 230.07358 228.09235 226.24212
 224.51789 222.98266 221.60544 220.37021 219.24498 218.19775 217.29452 216.42829
 215.66306 214.83584 213.92661 213.28338 212.72615 213.26535 214.53925 215.95261
 217.05037 218.74451 220.52415 221.93094 223.39291 225.19653 228.08995 231.35655
 234.10387 236.66969 238.94807 241.43282 244.40215 247.86800 251.69864 255.41765
 258.51218 261.17990 263.77435 266.39340 268.83276 270.98639 272.83466 274.49344
 275.99942 277.57233 279.08105 280.44034 281.62204 282.67230 283.63245 284.51248
 285.31165 286.02878 286.63974 287.40686
 366.78100 356.32848 345.75395 334.61343 323.00990 311.19738 299.06085 286.85733
 274.56281 262.45328 250.45576 239.75023 229.86571 220.96318 213.13866 206.13414
 199.96161 194.89309 191.46856 189.50404 188.53451 188.59199 189.42047 190.72194
 192.44042 194.52889 196.78537 199.13784 201.57632 204.04980 206.13127 207.96675
 209.58622 210.72470 210.94717 211.16865 211.09913 210.79760 210.42408 210.04755
 209.65803 209.36150 209.16298 209.02046 208.94193 209.26641 209.64588 210.02836
 210.81483 211.98631 213.22978 215.00626 216.92774 218.96421 221.05269 223.12916
 225.18264 227.26011 229.35059 231.45007 233.57254 235.73802 237.98749 240.35097
 242.96544 245.20992 247.20540 248.96387 250.37435 251.49082 252.30630 252.61577
 252.64625 252.41373 251.76720 250.70868 249.30815 247.46263 245.36510 243.19158
 240.97606 238.77353 236.58701 234.41948 232.27296 230.13343 228.15291 226.30339
 224.57986 223.04534 221.66881 220.43429 219.30976 218.26324 217.36072 216.49519
 215.73067 214.90414 213.99562 213.35309 212.79657 213.32555 214.58435 215.95073
 217.24416 218.95578 220.64763 221.98907 223.52045 225.29509 228.05542 231.34061
 233.90240 236.23271 238.38170 240.93338 244.05626 247.62857 251.63695 255.45441
 258.57935 261.24945 263.80789 266.36325 268.75311 270.84085 272.66162 274.31024
 275.90210 277.49579 279.00406 280.36584 281.54950 282.60181 283.56851 284.45529
 285.28732 286.07751 286.76779 287.64749
 366.78100 356.32662 345.75025 334.60787 323.00249 311.18812 299.04974 286.84436
 274.54799 262.43661 250.43723 239.72986 229.84348 220.93910 213.11273 206.10635
 199.93197 194.86160 191.43522 189.46885 188.49747 188.55309 189.37972 190.67934
 192.39596 194.48259 196.73721 199.08783 201.52446 203.99608 206.07570 207.90933
 209.52695 210.66357 210.88420 211.10382 211.03244 210.72907 210.35369 209.97531
 209.58394 209.28556 209.08518 208.94081 208.86043 209.18305 209.56068 209.94130
 210.72592 211.89555 213.13717 214.91180 216.83142 218.86604 220.95267 223.02729
 225.07891 227.15454 229.24316 231.34078 233.46141 235.62503 237.87265 240.23428
 242.84690 245.08952 247.08315 248.83977 250.24839 251.36302 252.17664 252.48426
 252.51289 252.27851 251.63013 250.56976 249.16738 247.32000 245.22063 243.04525
 240.82787 238.62350 236.43512 234.26575 232.11737 229.97599 227.99362 226.14224
 224.41686 222.88049 221.50211 220.26573 219.13936 218.09098 217.18660 216.31923
 215.55285 214.72447 213.81410 213.16972 212.61134 213.25438 214.78123 216.01711
 217.19608 218.89897 220.70398 222.17229 223.69020 225.56139 228.19348 231.34045
 233.69263 235.89728 237.98254 240.55252 243.76031 247.52693 251.55310 255.37311
 258.57135 261.21722 263.79831 266.33963 268.68863 270.72586 272.53918 274.21207
 275.84140 277.38757 278.83752 280.19897 281.39905 282.48517 283.53238 284.51755
 285.40363 286.19266 286.88193 287.76035
 366.78100 356.32536 345.74771 334.60407 322.99742 311.18178 299.04213 286.83549
 274.53785 262.42520 250.42456 239.71591 229.82827 220.92262 213.09498 206.08734
 199.91169 194.84005 191.41240 189.44476 188.47211 188.52647 189.35183 190.65018
 192.36554 194.45089 196.70425 199.05360 201.48896 203.95932 206.03767 207.87003
 209.48638 210.62174 210.84109 211.05945 210.98681 210.68216 210.30552 209.92587
 209.53323 209.23359 209.03194 208.88630 208.80465 209.12601 209.50236 209.88172
 210.66508 211.83343 213.07379 214.84714 216.76550 218.79885 220.88421 222.95757
 225.00792 227.08228 229.16963 231.26599 233.38534 235.54770 237.79406 240.15441
 242.76577 245.00712 246.99948 248.75483 250.16219 251.27555 252.08790 252.39426
 252.42161 252.18597 251.53632 250.47468 249.07104 247.22239 245.12175 242.94510
 240.72646 238.52081 236.33117 234.16053 232.01088 229.86824 227.88459 226.03195
 224.30530 222.76766 221.38802 220.15037 219.02273 217.97308 217.06744 216.19879
 215.43115 214.60151 213.68986 213.04422 212.48457 213.20499 214.90967 216.16412
 217.34735 219.08696 220.91444 222.41779 223.96031 225.80449 228.41985 231.33890
 233.50746 235.56207 237.57594 240.13326 243.44997 247.35109 251.41789 255.38852
 258.45724 261.15189 263.75586 266.30499 268.65430 270.68143 272.47668 274.11459
 275.71024 277.35214 278.91290 280.34146 281.71768 282.98312 284.13763 285.18353
 286.12421 286.96185 287.69363 288.62619
 366.78100 356.32491 345.74681 334.60272 322.99562 311.17953 299.03943 286.83234
 274.53424 262.42115 250.42005 239.71096 229.82287 220.91677 213.08868 206.08058
 199.90449 194.83239 191.40430 189.43620 188.46311 188.51701 189.34192 190.63983
 192.35473 194.43964 196.69254 199.04145 201.47635 203.94626 206.02416 207.85607
 209.47197 210.60688 210.82579 211.04369 210.97060 210.66550 210.28841 209.90831
 209.51522 209.21512 209.01303 208.86693 208.78484 209.10575 209.48165 209.86056
 210.64346 211.81137 213.05127 214.82418 216.74208 218.77499 220.85989 222.93280
 224.98271 227.05661 229.14352 231.23942 233.35833 235.52023 237.76614 240.12604
 242.73695 244.97785 246.96976 248.72466 250.13157 251.24448 252.05638 252.36229
 252.38919 252.15310 251.50300 250.44091 249.03681 247.18772 245.08662 242.90953
 240.69044 238.48434 236.29425 234.12315 231.97306 229.82996 227.84587 225.99277
 224.26568 222.72758 221.34749 220.10940 218.98130 217.93121 217.02511 216.15602
 215.38792 214.55783 213.64573 212.99964 212.43954 213.19035 214.97427 216.31039
 217.49770 219.23207 221.03276 222.55748 224.14694 225.93394 228.53838 231.31734
 233.38316 235.23471 237.12430 239.70799 243.15263 247.15196 251.30670 255.21492
 258.36105 261.15204 263.78677 266.35828 268.72046 270.73868 272.49417 274.14224
 275.72119 277.42218 279.00452 280.52377 281.91376 283.14352 284.26550 285.28192
 286.19611 287.01016 287.72134 288.62762
 366.78100 356.32386 345.74472 334.59957 322.99143 311.17429 299.03315 286.82500
 274.52586 262.41172 250.40958 239.69943 229.81029 220.90315 213.07401 206.06486
 199.88772 194.81458 191.38544 189.41629 188.44215 188.49501 189.31887 190.61573
 192.32958 194.41344 196.66530 199.01316 201.44701 203.91587 205.99273 207.82359
 209.43844 210.57230 210.79016 211.00702 210.93287 210.62673 210.24859 209.86745
 209.47331 209.17216 208.96902 208.82188 208.73874 209.05859 209.43345 209.81131
 210.59317 211.76002 212.99888 214.77074 216.68760 218.71945 220.80331 222.87517
 224.92403 226.99688 229.08274 231.17760 233.29546 235.45632 237.70117 240.06003
 242.66989 244.90975 246.90060 248.65446 250.06032 251.17218 251.98303 252.28789
 252.31375 252.07661 251.42546 250.36232 248.95718 247.10704 245.00489 242.82675
 240.60661 238.39947 236.20833 234.03618 231.88504 229.74090 227.75576 225.90161
 224.17347 222.63433 221.25319 220.01404 218.88490 217.83376 216.92662 216.05647
 215.28733 214.45619 213.54305 212.89590 212.33476 213.13049 215.03201 216.53355
 217.60693 219.19644 220.96002 222.52197 224.15878 226.02861 228.54114 231.33740
 233.25667 234.93697 236.73784 239.39975 242.95149 247.07086 251.24693 255.17850
 258.44492 261.19257 263.82101 266.38043 268.72171 270.74048 272.54556 274.20166
 275.81030 277.34412 278.88162 280.28183 281.62579 282.86127 283.98849 285.00967
 285.92810 286.74597 287.46042 288.37094
 366.78100 356.32208 345.74117 334.59425 322.98434 311.16542 299.02251 286.81259
 274.51168 262.39576 250.39184 239.67993 229.78901 220.88010 213.04918 206.03827
 199.85935 194.78443 191.35352 189.38260 188.40669 188.45777 189.27986 190.57494
 192.28703 194.36911 196.61919 198.96528 201.39736 203.86445 205.93953 207.76862
 209.38170 210.51379 210.72987 210.94495 210.86904 210.56112 210.18121 209.79829
 209.40238 209.09946 208.89454 208.74563 208.66071 208.97880 209.35188 209.72797
 210.50805 211.67314 212.91022 214.68030 216.59539 218.62547 220.70756 222.77764
 224.82473 226.89581 228.97990 231.07298 233.18906 235.34815 237.59123 239.94832
 242.55640 244.79449 246.78357 248.53565 249.93974 251.04982 251.85891 252.16199
 252.18608 251.94716 251.29425 250.22933 248.82241 246.97050 244.86658 242.68667
 240.46475 238.25584 236.06292 233.88901 231.73609 229.59017 227.60326 225.74734
 224.01743 222.47651 221.09360 219.85268 218.72176 217.66885 216.75993 215.88802
 215.11710 214.28419 213.36927 212.72036 212.15744 213.03975 215.13449 216.69685
 217.68895 219.24037 220.97520 222.52722 224.16290 226.06783 228.52829 231.32053
 233.11046 234.59834 236.26451 239.01570 242.75916 247.03189 251.26335 255.17766
 258.51321 261.27042 263.80777 266.32867 268.63034 270.58829 272.37006 274.03699
 275.68619 277.24841 278.76846 280.14786 281.37350 282.56195 283.66541 284.66507
 285.56412 286.36475 287.06418 287.95551
 366.78100 356.32191 345.74083 334.59374 322.98366 311.16457 299.02148 286.81140
 274.51031 262.39423 250.39014 239.67806 229.78697 220.87788 213.04680 206.03571
 199.85663 194.78154 191.35045 189.37937 188.40328 188.45420 189.27611 190.57102
 192.28294 194.36485 196.61477 198.96068 201.39260 203.85951 205.93442 207.76334
 209.37625 210.50817 210.72408 210.93899 210.86291 210.55482 210.17474 209.79165
 209.39556 209.09248 208.88739 208.73831 208.65322 208.97114 209.34405 209.71996
 210.49988 211.66479 212.90171 214.67162 216.58653 218.61645 220.69836 222.76828
 224.81519 226.88610 228.97002 231.06293 233.17885 235.33776 237.58068 239.93759
 242.54550 244.78342 246.77233 248.52425 249.92816 251.03807 251.84699 252.14990
 252.17382 251.93473 251.28164 250.21656 248.80947 246.95739 244.85330 242.67321
 240.45113 238.24204 236.04896 233.87487 231.72179 229.57570 227.58861 225.73253
 224.00244 222.46136 221.07827 219.83718 218.70610 217.65301 216.74393 215.87184
 215.10075 214.26767 213.35258 212.70350 212.14041 213.03630 215.17896 216.84055
 217.80347 219.34201 221.13608 222.70715 224.32066 226.14642 228.65398 231.31992
 232.92223 234.24544 235.90991 238.75221 242.62698 246.98174 251.21075 255.15628
 258.49698 261.27066 263.85806 266.37949 268.68729 270.61865 272.34689 273.96417
 275.60843 277.18958 278.64279 280.04715 281.41656 282.66943 283.81250 284.84802
 285.77939 286.60876 287.33328 288.25659
 366.78100 356.32293 345.74286 334.59679 322.98771 311.16964 299.02757 286.81850
 274.51843 262.40336 250.40028 239.68921 229.79914 220.89107 213.06100 206.05093
 199.87285 194.79878 191.36871 189.39864 188.42357 188.47550 189.29842 190.59435
 192.30728 194.39021 196.64114 198.98807 201.42099 203.88892 205.96485 207.79478
 209.40871 210.54164 210.75856 210.97449 210.89942 210.59235 210.21328 209.83121
 209.43613 209.13406 208.92999 208.78192 208.69785 209.01678 209.39070 209.76763
 210.54856 211.71449 212.95242 214.72335 216.63928 218.67020 220.75313 222.82406
 224.87199 226.94392 229.02885 231.12277 233.23970 235.39963 237.64356 240.00149
 242.61042 244.84934 246.83927 248.59220 249.99713 251.10806 251.91799 252.22191
 252.24684 252.00877 251.35670 250.29263 248.88656 247.03548 244.93241 242.75334
 240.53227 238.32420 236.13213 233.95905 231.80698 229.66191 227.67584 225.82077
 224.09170 222.55162 221.16955 219.92948 218.79941 217.74734 216.83927 215.96819
 215.19812 214.36605 213.45198 212.80391 212.24184 213.09198 215.15344 216.91611
 218.01590 219.56413 221.31271 222.82404 224.40042 226.16406 228.71613 231.26170
 232.69357 233.89203 235.58502 238.47369 242.48907 246.96834 251.16879 255.12656
 258.48788 261.38733 264.00778 266.52548 268.86850 270.81055 272.48547 274.09344
 275.69348 277.32788 278.90451 280.41287 281.83405 283.09143 284.23859 285.27783
 286.21252 287.04486 287.77197 288.69861
 366.78100 356.32118 345.73935 334.59153 322.98070 311.16088 299.01705 286.80623
 274.50440 262.38758 250.38276 239.66993 229.77811 220.86828 213.03646 206.02463
 199.84481 194.76899 191.33716 189.36534 188.38851 188.43869 189.25986 190.55404
 192.26521 194.34639 196.59557 198.94074 201.37192 203.83809 205.91227 207.74044
 209.35262 210.48379 210.69897 210.91315 210.83632 210.52750 210.14667 209.76285
 209.36602 209.06220 208.85637 208.70655 208.62073 208.93790 209.31008 209.68525
 210.46443 211.62860 212.86478 214.63396 216.54813 218.57731 220.65848 222.72766
 224.77383 226.84401 228.92718 231.01936 233.13454 235.29271 237.53489 239.89106
 242.49824 244.73541 246.72359 248.47476 249.87794 250.98712 251.79529 252.09747
 252.12064 251.88082 251.22699 250.16117 248.75334 246.90052 244.79570 242.61487
 240.39205 238.18222 235.98840 233.81357 231.65975 229.51293 227.52510 225.66828
 223.93745 222.39563 221.01180 219.76998 218.63815 217.58433 216.67451 215.80168
 215.02986 214.19603 213.28021 212.63038 212.06656 213.00957 215.25578 217.00029
 218.06339 219.61113 221.36057 222.84480 224.38370 226.21074 228.71382 231.18895
 232.46887 233.57486 235.19705 238.22383 242.40332 246.81271 251.03717 254.96326
 258.38998 261.37491 264.07385 266.64798 269.02844 271.07944 272.82529 274.41208
 275.96771 277.41992 278.89178 280.27631 281.52164 282.73907 283.86182 284.87894
 285.79376 286.60837 287.32004 288.22693
 366.78100 356.31935 345.73569 334.58604 322.97339 311.15174 299.00608 286.79343
 274.48978 262.37112 250.36447 239.64982 229.75617 220.84451 213.01086 205.99721
 199.81555 194.73790 191.30425 189.33060 188.35194 188.40029 189.21964 190.51198
 192.22133 194.30068 196.54803 198.89137 201.32072 203.78507 205.85741 207.68376
 209.29411 210.42346 210.63680 210.84915 210.77050 210.45984 210.07719 209.69154
 209.29289 208.98723 208.77958 208.62793 208.54027 208.85562 209.22597 209.59932
 210.37666 211.53901 212.77336 214.54070 216.45305 218.48040 220.55974 222.62709
 224.67144 226.73979 228.82113 230.91148 233.02483 235.18117 237.42152 239.77587
 242.38122 244.61656 246.60291 248.35226 249.75360 250.86095 251.66730 251.96765
 251.98899 251.74734 251.09169 250.02403 248.61438 246.75973 244.65308 242.47042
 240.24577 238.03412 235.83846 233.66181 231.50616 229.35751 227.36785 225.50920
 223.77655 222.23289 220.84724 219.60359 218.46994 217.41428 216.50263 215.62798
 214.85432 214.01867 213.10102 212.44937 211.88371 212.91522 215.35672 217.22331
 218.19316 219.67210 221.39085 222.81052 224.37592 226.18594 228.74348 231.14516
 232.28285 233.15265 234.69519 237.87582 242.24191 246.64412 250.83643 254.73589
 258.19513 261.22821 263.99521 266.59198 268.98001 271.07040 272.86337 274.50790
 276.11203 277.61240 278.96625 280.23895 281.41116 282.46768 283.44894 284.37903
 285.28934 286.09995 286.80811 287.71057
 366.78100 356.31868 345.73437 334.58405 322.97074 311.14842 299.00210 286.78879
 274.48447 262.36516 250.35784 239.64253 229.74821 220.83589 213.00158 205.98726
 199.80495 194.72663 191.29231 189.31800 188.33868 188.38637 189.20505 190.49674
 192.20542 194.28410 196.53079 198.87347 201.30216 203.76584 205.83752 207.66321
 209.27289 210.40158 210.61426 210.82594 210.74663 210.43531 210.05200 209.66568
 209.26637 208.96005 208.75173 208.59942 208.51110 208.82579 209.19547 209.56815
 210.34484 211.50652 212.74021 214.50689 216.41857 218.44526 220.52394 222.59063
 224.63431 226.70200 228.78268 230.87236 232.98505 235.14073 237.38042 239.73410
 242.33878 244.57347 246.55915 248.30784 249.70852 250.81521 251.62089 251.92057
 251.94126 251.69894 251.04263 249.97431 248.56399 246.70868 244.60136 242.41805
 240.19273 237.98041 235.78410 233.60678 231.45047 229.30115 227.31084 225.45152
 223.71820 222.17389 220.78757 219.54326 218.40894 217.35262 216.44031 215.56499
 214.79068 213.95436 213.03605 212.38373 211.81741 212.88123 215.39458 217.39496
 218.47369 219.96805 221.51891 222.89722 224.44659 226.22981 228.79901 230.91336
 232.00145 232.82344 234.53091 237.83231 242.12383 246.53683 250.73798 254.65337
 258.11496 261.14520 263.89307 266.50128 268.90906 271.00995 272.76111 274.37009
 276.02658 277.58490 279.00110 280.30054 281.46393 282.50723 283.46362 284.34930
 285.16904 285.90030 286.56210 287.42542
 366.78100 356.31776 345.73251 334.58127 322.96703 311.14378 298.99654 286.78230
 274.47705 262.35681 250.34857 239.63233 229.73708 220.82384 212.98860 205.97335
 199.79011 194.71087 191.27562 189.30038 188.32014 188.36689 189.18465 190.47541
 192.18316 194.26092 196.50668 198.84844 201.27619 203.73895 205.80971 207.63446
 209.24322 210.37098 210.58273 210.79349 210.71325 210.40100 210.01676 209.62952
 209.22927 208.92203 208.71279 208.55954 208.47030 208.78406 209.15282 209.52457
 210.30033 211.46109 212.69384 214.45960 216.37036 218.39611 220.47387 222.53963
 224.58238 226.64914 228.72890 230.81765 232.92941 235.08417 237.32293 239.67568
 242.27944 244.51320 246.49795 248.24571 249.64547 250.75122 251.55598 251.85474
 251.87449 251.63125 250.97401 249.90476 248.49352 246.63728 244.52903 242.34479
 240.11855 237.90531 235.70806 233.52982 231.37258 229.22233 227.23109 225.37085
 223.63660 222.09136 220.70412 219.45887 218.32363 217.26639 216.35314 215.47690
 214.70166 213.86442 212.94517 212.29193 211.72469 212.83600 215.46161 217.56473
 218.57935 220.07549 221.63336 223.00648 224.56915 226.29311 228.81667 230.79094
 231.74146 232.45070 234.22719 237.68777 242.01787 246.45685 250.67088 254.59242
 258.06345 261.10562 263.85919 266.46942 268.87732 270.98334 272.69992 274.26633
 275.94052 277.53119 279.01633 280.36508 281.54669 282.59387 283.54971 284.43317
 285.25104 285.96848 286.59253 287.44916
 366.78100 356.31670 345.73040 334.57811 322.96281 311.13851 298.99021 286.77492
 274.46862 262.34732 250.33802 239.62073 229.72443 220.81013 212.97383 205.95753
 199.77324 194.69294 191.25664 189.28034 188.29905 188.34475 189.16145 190.45115
 192.15786 194.23456 196.47926 198.81996 201.24667 203.70837 205.77807 207.60177
 209.20947 210.33618 210.54688 210.75658 210.67528 210.36199 209.97669 209.58839
 209.18709 208.87880 208.66850 208.51420 208.42390 208.73660 209.10431 209.47501
 210.24971 211.40941 212.64112 214.40582 216.31552 218.34022 220.41693 222.48163
 224.52333 226.58903 228.66773 230.75544 232.86614 235.01984 237.25754 239.60925
 242.21195 244.44465 246.42835 248.17506 249.57376 250.67846 251.48216 251.77986
 251.79857 251.55427 250.89597 249.82567 248.41338 246.55608 244.44678 242.26148
 240.03419 237.81989 235.62159 233.44229 231.28400 229.13270 227.14040 225.27910
 223.54380 221.99751 220.60921 219.36291 218.22661 217.16832 216.25402 215.37672
 214.60042 213.76213 212.84183 212.18753 211.61923 212.78740 215.54732 217.73129
 218.65089 220.11160 221.72563 223.12680 224.69211 226.37061 228.84207 230.66528
 231.46138 232.08316 233.95802 237.51942 241.90471 246.36510 250.58444 254.51776
 258.01495 261.08649 263.85709 266.46609 268.87094 270.98355 272.68802 274.24500
 275.92102 277.53986 279.05997 280.41913 281.60040 282.65018 283.60992 284.49313
 285.30719 286.02850 286.65311 287.51688
 366.78100 356.31603 345.72905 334.57608 322.96010 311.13513 298.98615 286.77018
 274.46320 262.34123 250.33125 239.61328 229.71631 220.80133 212.96436 205.94738
 199.76241 194.68143 191.24446 189.26748 188.28551 188.33053 189.14656 190.43559
 192.14161 194.21764 196.46166 198.80169 201.22771 203.68874 205.75776 207.58079
 209.18781 210.31384 210.52387 210.73289 210.65092 210.33694 209.95097 209.56199
 209.16002 208.85104 208.64007 208.48509 208.39412 208.70614 209.07317 209.44320
 210.21722 211.37625 212.60727 214.37130 216.28032 218.30435 220.38037 222.44440
 224.48542 226.55045 228.62848 230.71550 232.82553 234.97855 237.21558 239.56660
 242.16863 244.40065 246.38368 248.12970 249.52773 250.63176 251.43478 251.73181
 251.74983 251.50486 250.84588 249.77491 248.36193 246.50396 244.39398 242.20801
 239.98004 237.76506 235.56609 233.38611 231.22714 229.07516 227.08219 225.22021
 223.48424 221.93726 220.54829 219.30132 218.16434 217.10537 216.19039 215.31242
 214.53544 213.69647 212.77549 212.12052 211.55154 212.76283 215.62465 217.84908
 218.76460 220.20401 221.79213 223.18912 224.82568 226.49104 228.88129 230.49591
 231.13531 231.71815 233.65236 237.34833 241.81868 246.29634 250.52084 254.45993
 257.97424 261.07278 263.86069 266.46078 268.86292 270.99197 272.70322 274.25851
 275.92392 277.55826 279.08603 280.44720 281.62924 282.68015 283.64191 284.52588
 285.34024 286.07010 286.69901 287.56354
 366.78100 356.31603 345.72906 334.57610 322.96013 311.13516 298.98619 286.77022
 274.46326 262.34129 250.33132 239.61335 229.71638 220.80142 212.96445 205.94748
 199.76251 194.68154 191.24458 189.26761 188.28564 188.33067 189.14670 190.43574
 192.14177 194.21780 196.46183 198.80186 201.22790 203.68893 205.75796 207.58099
 209.18802 210.31406 210.52409 210.73312 210.65115 210.33718 209.95122 209.56225
 209.16028 208.85131 208.64034 208.48538 208.39441 208.70644 209.07347 209.44350
 210.21754 211.37657 212.60760 214.37163 216.28066 218.30470 220.38073 222.44476
 224.48579 226.55082 228.62886 230.71589 232.82592 234.97895 237.21598 239.56702
 242.16905 244.40108 246.38411 248.13014 249.52818 250.63221 251.43524 251.73227
 251.75030 251.50534 250.84637 249.77540 248.36243 246.50446 244.39450 242.20853
 239.98056 237.76559 235.56662 233.38666 231.22769 229.07572 227.08275 225.22078
 223.48482 221.93785 220.54888 219.30191 218.16494 217.10598 216.19101 215.31304
 214.53607 213.69710 212.77614 212.12117 211.55220 212.77641 215.66873 217.94881
 218.89151 220.33473 221.89926 223.30872 224.84380 226.49107 228.93250 230.49678
 230.79440 231.13849 233.39990 237.28748 241.78210 246.26115 250.47971 254.41200
 257.93716 261.05844 263.86285 266.45316 268.85388 271.00635 272.71954 274.26065
 275.91614 277.57175 279.10443 280.46664 281.65231 282.70425 283.66800 284.55255
 285.36749 286.10361 286.73468 287.60297
 366.78100 356.31638 345.72976 334.57713 322.96151 311.13689 298.98827 286.77265
 274.46603 262.34440 250.33478 239.61716 229.72054 220.80592 212.96930 205.95267
 199.76805 194.68743 191.25081 189.27419 188.29256 188.33794 189.15432 190.44370
 192.15008 194.22646 196.47083 198.81121 201.23759 203.69897 205.76835 207.59172
 209.19910 210.32548 210.53586 210.74524 210.66362 210.34999 209.96437 209.57575
 209.17413 208.86551 208.65489 208.50026 208.40964 208.72202 209.08940 209.45978
 210.23415 211.39353 212.62491 214.38929 216.29867 218.32305 220.39942 222.46380
 224.50518 226.57056 228.64894 230.73632 232.84669 235.00007 237.23745 239.58883
 242.19121 244.42358 246.40696 248.15334 249.55172 250.65610 251.45948 251.75685
 251.77523 251.53061 250.87199 249.80137 248.38875 246.53112 244.42150 242.23588
 240.00826 237.79364 235.59501 233.41539 231.25677 229.10515 227.11253 225.25091
 223.51528 221.96866 220.58004 219.33342 218.19680 217.13817 216.22355 215.34593
 214.56931 213.73069 212.81007 212.15544 211.58682 212.80878 215.69577 218.04709
 219.01590 220.46027 222.04666 223.47939 224.86893 226.43269 228.89006 230.41756
 230.48503 230.66098 233.20514 237.24107 241.74823 246.22737 250.43661 254.36168
 257.90063 261.04807 263.87146 266.44974 268.84970 271.02155 272.72714 274.25171
 275.88705 277.59030 279.12897 280.49017 281.67487 282.72824 283.69302 284.57895
 285.39319 286.13089 286.76321 287.63596
 366.78100 356.31658 345.73017 334.57775 322.96233 311.13791 298.98950 286.77408
 274.46766 262.34625 250.33683 239.61941 229.72300 220.80858 212.97216 205.95574
 199.77133 194.69091 191.25449 189.27808 188.29666 188.34224 189.15883 190.44841
 192.15499 194.23157 196.47616 198.81674 201.24332 203.70491 205.77449 207.59807
 209.20566 210.33224 210.54282 210.75240 210.67099 210.35757 209.97215 209.58374
 209.18232 208.87390 208.66349 208.50907 208.41865 208.73123 209.09882 209.46940
 210.24398 211.40357 212.63515 214.39973 216.30932 218.33390 220.41048 222.47506
 224.51665 226.58223 228.66081 230.74840 232.85898 235.01256 237.25015 239.60173
 242.20431 244.43689 246.42048 248.16706 249.56564 250.67023 251.47381 251.77139
 251.78998 251.54556 250.88714 249.81672 248.40431 246.54689 244.43747 242.25206
 240.02464 237.81022 235.61181 233.43239 231.27397 229.12255 227.13014 225.26872
 223.53330 221.98689 220.59847 219.35205 218.21564 217.15722 216.24280 215.36538
 214.58897 213.75055 212.83013 212.17572 211.60730 212.83475 215.73473 218.13246
 219.15268 220.55684 222.15962 223.67093 224.98674 226.42076 228.77863 230.19368
 230.16290 230.31857 233.03441 237.17920 241.70801 246.19386 250.39314 254.31448
 257.86703 261.04095 263.88364 266.45020 268.84808 271.03363 272.72824 274.23804
 275.87442 277.60205 279.14771 280.51144 281.69675 282.75073 283.71732 284.60349
 285.41727 286.15665 286.79874 287.67776
 366.78100 356.31659 345.73018 334.57777 322.96236 311.13795 298.98954 286.77413
 274.46772 262.34630 250.33689 239.61948 229.72307 220.80866 212.97225 205.95584
 199.77143 194.69102 191.25461 189.27820 188.29679 188.34238 189.15897 190.44856
 192.15515 194.23174 196.47632 198.81691 201.24350 203.70509 205.77468 207.59827
 209.20586 210.33245 210.54304 210.75263 210.67122 210.35781 209.97240 209.58399
 209.18258 208.87417 208.66376 208.50934 208.41893 208.73152 209.09911 209.46970
 210.24429 211.40388 212.63547 214.40006 216.30965 218.33424 220.41083 222.47542
 224.51701 226.58260 228.66119 230.74877 232.85936 235.01295 237.25054 239.60213
 242.20472 244.43731 246.42090 248.16749 249.56608 250.67067 251.47426 251.77185
 251.79044 251.54603 250.88762 249.81721 248.40479 246.54738 244.43797 242.25256
 240.02515 237.81074 235.61233 233.43292 231.27451 229.12310 227.13069 225.26928
 223.53387 221.98746 220.59905 219.35264 218.21623 217.15781 216.24340 215.36599
 214.58958 213.75117 212.83076 212.17635 211.60794 212.85094 215.78764 218.20879
 219.28241 220.65967 222.24048 223.82697 225.14362 226.46400 228.65099 229.90073
 229.83662 230.05957 232.87044 237.10629 241.67017 246.15944 250.34622 254.26508
 257.83322 261.03232 263.89465 266.44995 268.84637 271.03970 272.72327 274.21970
 275.88016 277.62225 279.17300 280.54089 281.72775 282.78598 283.75439 284.64413
 285.46155 286.20230 286.85663 287.76135
 366.78100 356.31659 345.73019 334.57778 322.96237 311.13796 298.98956 286.77415
 274.46774 262.34633 250.33693 239.61952 229.72311 220.80871 212.97230 205.95589
 199.77148 194.69108 191.25467 189.27826 188.29686 188.34245 189.15904 190.44863
 192.15523 194.23182 196.47641 198.81700 201.24360 203.70519 205.77478 207.59838
 209.20597 210.33256 210.54315 210.75275 210.67134 210.35793 209.97253 209.58412
 209.18271 208.87430 208.66390 208.50949 208.41908 208.73167 209.09927 209.46986
 210.24445 211.40405 212.63564 214.40023 216.30982 218.33442 220.41101 222.47560
 224.51719 226.58279 228.66138 230.74897 232.85957 235.01316 237.25075 239.60234
 242.20494 244.43753 246.42112 248.16772 249.56631 250.67090 251.47449 251.77209
 251.79068 251.54627 250.88786 249.81746 248.40505 246.54764 244.43824 242.25283
 240.02542 237.81101 235.61261 233.43320 231.27479 229.12338 227.13098 225.26957
 223.53416 221.98776 220.59935 219.35294 218.21653 217.15813 216.24372 215.36631
 214.58991 213.75150 212.83109 212.17668 211.60828 212.86792 215.84398 218.28696
 219.38654 220.77997 222.33467 223.93704 225.28015 226.52785 228.53235 229.61089
 229.51796 229.83073 232.71663 237.03386 241.63966 246.12326 250.29594 254.21112
 257.79523 261.01996 263.90283 266.45016 268.84531 271.04614 272.72739 274.21976
 275.89160 277.63776 279.19159 280.56125 281.75073 282.80896 283.77951 284.67065
 285.48727 286.23044 286.88156 287.79742
 366.78100 356.31668 345.73036 334.57805 322.96273 311.13841 298.99009 286.77477
 274.46846 262.34714 250.33782 239.62050 229.72418 220.80986 212.97355 205.95723
 199.77291 194.69259 191.25627 189.27996 188.29864 188.34432 189.16100 190.45068
 192.15736 194.23405 196.47873 198.81941 201.24609 203.70777 205.77746 207.60114
 209.20882 210.33550 210.54618 210.75587 210.67455 210.36123 209.97591 209.58759
 209.18627 208.87796 208.66764 208.51332 208.42300 208.73568 209.10337 209.47405
 210.24873 211.40841 212.64009 214.40478 216.31446 218.33914 220.41582 222.48050
 224.52219 226.58787 228.66655 230.75423 232.86491 235.01859 237.25628 239.60796
 242.21064 244.44332 246.42700 248.17369 249.57237 250.67705 251.48073 251.77841
 251.79710 251.55278 250.89446 249.82414 248.41182 246.55450 244.44519 242.25987
 240.03255 237.81823 235.61991 233.44060 231.28228 229.13096 227.13864 225.27732
 223.54200 221.99569 220.60737 219.36105 218.22473 217.16641 216.25210 215.37478
 214.59846 213.76014 212.83982 212.18551 211.61719 212.89044 215.89865 218.36374
 219.47565 220.89790 222.45351 224.02727 225.38495 226.58604 228.42946 229.34615
 229.20404 229.61258 232.57727 236.97223 241.61334 246.08525 250.24597 254.15622
 257.75250 261.00418 263.90854 266.45105 268.84717 271.05582 272.73932 274.23218
 275.89688 277.64407 279.19922 280.56839 281.75949 282.81836 283.79028 284.67947
 285.49725 286.23724 286.89038 287.80884
 366.78100 356.31682 345.73065 334.57847 322.96329 311.13912 298.99094 286.77576
 274.46959 262.34841 250.33923 239.62206 229.72588 220.81170 212.97553 205.95935
 199.77517 194.69500 191.25882 189.28264 188.30147 188.34729 189.16411 190.45394
 192.16076 194.23758 196.48241 198.82323 201.25005 203.71188 205.78170 207.60552
 209.21335 210.34017 210.55099 210.76082 210.67964 210.36646 209.98129 209.59311
 209.19193 208.88376 208.67358 208.51940 208.42923 208.74205 209.10987 209.48070
 210.25552 211.41534 212.64717 214.41199 216.32181 218.34664 220.42346 222.48828
 224.53011 226.59593 228.67475 230.76258 232.87340 235.02722 237.26505 239.61687
 242.21969 244.45252 246.43634 248.18316 249.58199 250.68681 251.49063 251.78846
 251.80728 251.56310 250.90493 249.83475 248.42257 246.56540 244.45622 242.27104
 240.04387 237.82969 235.63151 233.45234 231.29416 229.14298 227.15081 225.28963
 223.55445 222.00828 220.62010 219.37392 218.23775 217.17957 216.26539 215.38822
 214.61204 213.77386 212.85369 212.19951 211.63133 212.91692 215.95424 218.42940
 219.56435 221.01192 222.58130 224.11444 225.46771 226.62758 228.34135 229.09691
 228.89452 229.41223 232.45299 236.91245 241.58237 246.04799 250.20125 254.10553
 257.70950 260.98462 263.91122 266.45316 268.85117 271.06345 272.74942 274.23965
 275.89920 277.64459 279.20074 280.57095 281.76089 282.81985 283.79111 284.68039
 285.49509 286.23328 286.88538 287.80875
 366.78100 356.31700 345.73100 334.57899 322.96399 311.13999 298.99199 286.77698
 274.47098 262.34998 250.34098 239.62398 229.72797 220.81397 212.97797 205.96197
 199.77796 194.69796 191.26196 189.28596 188.30495 188.35095 189.16795 190.45795
 192.16495 194.24194 196.48694 198.82794 201.25494 203.71693 205.78693 207.61093
 209.21893 210.34593 210.55692 210.76692 210.68592 210.37292 209.98791 209.59991
 209.19891 208.89091 208.68090 208.52690 208.43690 208.74990 209.11790 209.48889
 210.26389 211.42389 212.65589 214.42088 216.33088 218.35588 220.43288 222.49788
 224.53987 226.60587 228.68487 230.77287 232.88386 235.03786 237.27586 239.62786
 242.23085 244.46385 246.44785 248.19485 249.59385 250.69884 251.50284 251.80084
 251.81984 251.57583 250.91783 249.84783 248.43583 246.57883 244.46982 242.28482
 240.05782 237.84382 235.64581 233.46681 231.30881 229.15781 227.16580 225.30480
 223.56980 222.02380 220.63580 219.38979 218.25379 217.19579 216.28179 215.40478
 214.62878 213.79078 212.87078 212.21678 211.64877 212.94629 216.01180 218.48335
 219.65277 221.13161 222.70703 224.20372 225.53789 226.65118 228.26251 228.85124
 228.59845 229.23932 232.34094 236.84789 241.54359 246.01117 250.16298 254.06113
 257.66846 260.96140 263.90894 266.45474 268.85388 271.06506 272.75113 274.24005
 275.89844 277.64398 279.20099 280.57129 281.76144 282.81909 283.79117 284.68085
 285.49533 286.23331 286.88623 287.81046
 366.78100 356.31724 345.73148 334.57972 322.96496 311.14120 298.99344 286.77868
 274.47292 262.35216 250.34340 239.62664 229.73088 220.81712 212.98136 205.96560
 199.78184 194.70208 191.26632 189.29055 188.30979 188.35603 189.17327 190.46351
 192.17075 194.24799 196.49323 198.83447 201.26171 203.72395 205.79419 207.61843
 209.22667 210.35391 210.56515 210.77539 210.69463 210.38187 209.99711 209.60935
 209.20859 208.90083 208.69107 208.53731 208.44755 208.76079 209.12903 209.50027
 210.27551 211.43575 212.66799 214.43323 216.34347 218.36871 220.44595 222.51119
 224.55343 226.61966 228.69890 230.78714 232.89838 235.05262 237.29086 239.64310
 242.24634 244.47958 246.46382 248.21106 249.61030 250.71554 251.51978 251.81802
 251.83726 251.59350 250.93574 249.86598 248.45422 246.59746 244.48870 242.30394
 240.07718 237.86342 235.66566 233.48690 231.32914 229.17838 227.18662 225.32586
 223.59110 222.04534 220.65758 219.41182 218.27606 217.21830 216.30454 215.42777
 214.65201 213.81425 212.89449 212.24073 211.67297 212.97977 216.06718 218.52893
 219.73953 221.25223 222.82971 224.30084 225.59451 226.65990 228.18765 228.60271
 228.32045 229.09344 232.23819 236.77975 241.49960 245.97440 250.12906 254.02312
 257.63010 260.93509 263.90018 266.45590 268.85471 271.05801 272.74539 274.23795
 275.89886 277.64673 279.20352 280.57388 281.76614 282.82483 283.79709 284.68698
 285.50189 286.24155 286.89529 287.82355
 366.78100 356.31758 345.73217 334.58075 322.96633 311.14292 298.99550 286.78109
 274.47567 262.35525 250.34684 239.63042 229.73500 220.82159 212.98617 205.97076
 199.78734 194.70792 191.27251 189.29709 188.31667 188.36326 189.18084 190.47142
 192.17901 194.25659 196.50218 198.84376 201.27134 203.73393 205.80451 207.62909
 209.23768 210.36526 210.57684 210.78743 210.70701 210.39460 210.01018 209.62276
 209.22235 208.91493 208.70551 208.55210 208.46268 208.77627 209.14485 209.51643
 210.29202 211.45260 212.68518 214.45077 216.36135 218.38693 220.46452 222.53010
 224.57269 226.63927 228.71885 230.80744 232.91902 235.07360 237.31219 239.66477
 242.26835 244.50194 246.48652 248.23411 249.63369 250.73927 251.54386 251.84244
 251.86202 251.61861 250.96119 249.89178 248.48036 246.62394 244.51553 242.33111
 240.10469 237.89128 235.69386 233.51544 231.35803 229.20761 227.21620 225.35578
 223.62136 222.07595 220.68853 219.44311 218.30770 217.25028 216.33686 215.46045
 214.68503 213.84762 212.92820 212.27478 211.70737 213.01898 216.11778 218.57133
 219.82663 221.37109 222.94807 224.40315 225.64334 226.66214 228.11253 228.35947
 228.06224 228.96819 232.14595 236.71246 241.45323 245.93607 250.09656 253.98886
 257.59448 260.90714 263.88684 266.45581 268.85367 271.04221 272.72955 274.24164
 275.90149 277.65073 279.20963 280.58054 281.77286 282.83395 283.80447 284.69513
 285.51328 286.25226 286.90518 287.83774
 366.78100 356.31803 345.73307 334.58210 322.96814 311.14517 298.99820 286.78424
 274.47927 262.35930 250.35134 239.63537 229.74041 220.82744 212.99247 205.97751
 199.79454 194.71557 191.28061 189.30564 188.32568 188.37271 189.19074 190.48178
 192.18981 194.26785 196.51388 198.85591 201.28395 203.74698 205.81801 207.64305
 209.25208 210.38012 210.59215 210.80318 210.72322 210.41125 210.02728 209.64032
 209.24035 208.93339 208.72442 208.57145 208.48249 208.79652 209.16555 209.53759
 210.31362 211.47466 212.70769 214.47372 216.38476 218.41079 220.48883 222.55486
 224.59789 226.66493 228.74496 230.83399 232.94603 235.10106 237.34010 239.69313
 242.29716 244.53120 246.51623 248.26426 249.66430 250.77033 251.57537 251.87440
 251.89443 251.65147 250.99450 249.92554 248.51457 246.65860 244.55064 242.36667
 240.14070 237.92774 235.73077 233.55281 231.39584 229.24587 227.25491 225.39494
 223.66097 222.11601 220.72904 219.48408 218.34911 217.29214 216.37918 215.50321
 214.72825 213.89128 212.97231 212.31935 211.75238 213.06340 216.16087 218.61320
 219.91141 221.48433 223.06815 224.50703 225.67958 226.66838 228.03911 228.11850
 227.81467 228.85893 232.06821 236.64700 241.40305 245.89522 250.06569 253.95770
 257.56006 260.87799 263.86935 266.45499 268.84949 271.01834 272.70782 274.23956
 275.90936 277.65988 279.21893 280.59091 281.78412 282.84445 283.81766 284.70697
 285.52414 286.26535 286.91980 287.85187
 366.78100 356.31862 345.73424 334.58387 322.97049 311.14811 299.00173 286.78836
 274.48398 262.36460 250.35722 239.64185 229.74747 220.83509 213.00071 205.98634
 199.80396 194.72558 191.29120 189.31682 188.33745 188.38507 189.20369 190.49531
 192.20394 194.28256 196.52918 198.87180 201.30043 203.76405 205.83567 207.66129
 209.27091 210.39954 210.61216 210.82378 210.74440 210.43303 210.04965 209.66327
 209.26389 208.95752 208.74914 208.59676 208.50838 208.82301 209.19263 209.56525
 210.34187 211.50349 212.73712 214.50374 216.41536 218.44198 220.52061 222.58723
 224.63085 226.69847 228.77910 230.86872 232.98134 235.13696 237.37658 239.73021
 242.33483 244.56945 246.55507 248.30370 249.70432 250.81094 251.61656 251.91619
 251.93681 251.69443 251.03805 249.96968 248.55930 246.70392 244.59654 242.41316
 240.18779 237.97541 235.77903 233.60165 231.44528 229.29590 227.30552 225.44614
 223.71277 222.16839 220.78201 219.53763 218.40325 217.34688 216.43450 215.55912
 214.78474 213.94837 213.02999 212.37761 211.81123 213.11485 216.19482 218.65860
 219.99373 221.59447 223.18538 224.60234 225.72159 226.67574 227.95889 227.89619
 227.58649 228.76178 232.00162 236.58466 241.35132 245.85222 250.03177 253.92365
 257.52222 260.84311 263.84744 266.45456 268.84619 270.99564 272.68982 274.22455
 275.91653 277.67352 279.23489 280.60818 281.80054 282.86249 283.83557 284.72751
 285.54172 286.28461 286.93747 287.86807
 366.78100 356.31928 345.73556 334.58584 322.97312 311.15139 299.00567 286.79295
 274.48923 262.37051 250.36379 239.64907 229.75535 220.84362 213.00990 205.99618
 199.81446 194.73674 191.30302 189.32930 188.35058 188.39885 189.21813 190.51041
 192.21969 194.29897 196.54625 198.88953 201.31881 203.78308 205.85536 207.68164
 209.29192 210.42120 210.63448 210.84676 210.76804 210.45731 210.07459 209.68887
 209.29015 208.98443 208.77671 208.62499 208.53727 208.85254 209.22282 209.59610
 210.37338 211.53566 212.76994 214.53722 216.44950 218.47677 220.55605 222.62333
 224.66761 226.73589 228.81717 230.90745 233.02073 235.17700 237.41728 239.77156
 242.37684 244.61212 246.59840 248.34768 249.74896 250.85624 251.66251 251.96279
 251.98407 251.74235 251.08663 250.01891 248.60919 246.75447 244.64774 242.46502
 240.24030 238.02858 235.83286 233.65614 231.50042 229.35170 227.36197 225.50325
 223.77053 222.22681 220.84109 219.59737 218.46365 217.40793 216.49620 215.62148
 214.84776 214.01204 213.09432 212.44260 211.87688 213.16953 216.22357 218.69731
 220.08795 221.69185 223.29703 224.70137 225.75410 226.69220 227.88681 227.67369
 227.35786 228.67258 231.95317 236.52914 241.29764 245.80623 249.99811 253.89380
 257.48743 260.80847 263.82257 266.45224 268.83615 270.95819 272.65457 274.18375
 275.98315 277.69186 279.24396 280.61713 281.81149 282.87289 283.84637 284.73767
 285.55267 286.29422 286.94867 287.88351
 366.78100 356.31980 345.73660 334.58741 322.97521 311.15401 299.00881 286.79662
 274.49342 262.37522 250.36902 239.65483 229.76163 220.85043 213.01723 206.00403
 199.82284 194.74564 191.31244 189.33924 188.36105 188.40985 189.22965 190.52245
 192.23226 194.31206 196.55986 198.90366 201.33346 203.79827 205.87107 207.69787
 209.30867 210.43848 210.65228 210.86508 210.78688 210.47669 210.09449 209.70929
 209.31109 209.00589 208.79870 208.64750 208.56030 208.87610 209.24691 209.62071
 210.39851 211.56131 212.79611 214.56392 216.47672 218.50452 220.58432 222.65213
 224.69693 226.76573 228.84753 230.93834 233.05214 235.20894 237.44974 239.80454
 242.41035 244.64615 246.63295 248.38275 249.78456 250.89236 251.69916 251.99996
 252.02177 251.78057 251.12537 250.05817 248.64897 246.79478 244.68858 242.50638
 240.28218 238.07099 235.87579 233.69959 231.54439 229.39620 227.40700 225.54880
 223.81660 222.27340 220.88821 219.64501 218.51181 217.45661 216.54542 215.67122
 214.89802 214.06282 213.14563 212.49443 211.92923 213.21724 216.26028 218.72691
 220.16260 221.82507 223.40388 224.76398 225.81226 226.73540 227.80482 227.44266
 227.13245 228.59616 231.90724 236.46936 241.23958 245.76212 249.97122 253.86992
 257.45654 260.77313 263.79559 266.45023 268.82797 270.92459 272.62073 274.10727
 275.96988 277.73395 279.28503 280.65353 281.84326 282.90335 283.87506 284.76566
 285.57867 286.32162 286.97440 287.90768
 366.78100 356.32047 345.73793 334.58940 322.97787 311.15734 299.01280 286.80127
 274.49874 262.38121 250.37567 239.66214 229.76961 220.85908 213.02654 206.01401
 199.83348 194.75695 191.32441 189.35188 188.37435 188.42382 189.24428 190.53775
 192.24822 194.32869 196.57715 198.92162 201.35209 203.81756 205.89102 207.71849
 209.32996 210.46043 210.67489 210.88836 210.81083 210.50129 210.11976 209.73523
 209.33770 209.03316 208.82663 208.67610 208.58957 208.90603 209.27750 209.65197
 210.43044 211.59390 212.82937 214.59784 216.51131 218.53977 220.62024 222.68871
 224.73418 226.80364 228.88611 230.97758 233.09205 235.24951 237.49098 239.84645
 242.45292 244.68938 246.67685 248.42732 249.82979 250.93825 251.74572 252.04719
 252.06965 251.82912 251.17459 250.10806 248.69952 246.84599 244.74046 242.55893
 240.33539 238.12486 235.93033 233.75480 231.60026 229.45273 227.46420 225.60667
 223.87513 222.33260 220.94807 219.70554 218.57300 217.51847 216.60794 215.73441
 214.96187 214.12734 213.21081 212.56028 211.99574 213.27151 216.28568 218.76935
 220.21577 221.93959 223.55574 224.88356 225.83742 226.72272 227.71790 227.29057
 226.95415 228.47369 231.84882 236.41895 241.18965 245.72807 249.94910 253.84636
 257.42404 260.73489 263.76605 266.44769 268.81976 270.89160 272.58508 274.01700
 275.97726 277.76401 279.31668 280.68500 281.87457 282.93283 283.90295 284.79242
 285.60550 286.34296 286.99747 287.93158
 366.78100 356.32125 345.73951 334.59176 322.98101 311.16126 299.01752 286.80677
 274.50502 262.38828 250.38353 239.67078 229.77903 220.86929 213.03754 206.02579
 199.84604 194.77030 191.33855 189.36680 188.39006 188.44031 189.26156 190.55581
 192.26707 194.34832 196.59757 198.94283 201.37408 203.84033 205.91458 207.74284
 209.35509 210.48634 210.70160 210.91585 210.83910 210.53035 210.14961 209.76586
 209.36911 209.06536 208.85962 208.70987 208.62412 208.94138 209.31363 209.68888
 210.46813 211.63239 212.86864 214.63789 216.55215 218.58140 220.66265 222.73190
 224.77816 226.84841 228.93166 231.02392 233.13917 235.29742 237.53967 239.89593
 242.50318 244.74043 246.72868 248.47994 249.88319 250.99244 251.80070 252.10295
 252.12620 251.88645 251.23271 250.16696 248.75921 246.90647 244.80172 242.62097
 240.39822 238.18848 235.99473 233.81998 231.66624 229.51949 227.53174 225.67499
 223.94425 222.40250 221.01875 219.77700 218.64526 217.59151 216.68176 215.80902
 215.03727 214.20352 213.28777 212.63803 212.07428 213.33174 216.30264 218.80894
 220.29170 222.00731 223.71132 225.03830 225.86378 226.68854 227.62126 227.15858
 226.79796 228.35480 231.80363 236.37863 241.14502 245.69342 249.92126 253.81711
 257.38635 260.69046 263.72803 266.43546 268.80096 270.84695 272.54269 274.09027
 275.98685 277.77054 279.32770 280.69904 281.89008 282.94870 283.92108 284.80917
 285.62167 286.35938 287.01096 287.94537
 366.78100 356.32191 345.74081 334.59372 322.98363 311.16453 299.02144 286.81135
 274.51025 262.39416 250.39006 239.67797 229.78688 220.87778 213.04669 206.03560
 199.85650 194.78141 191.35032 189.37922 188.40313 188.45404 189.27594 190.57085
 192.28276 194.36466 196.61457 198.96048 201.39238 203.85929 205.93419 207.76310
 209.37601 210.50791 210.72382 210.93873 210.86263 210.55454 210.17445 209.79135
 209.39526 209.09217 208.88707 208.73798 208.65289 208.97079 209.34370 209.71960
 210.49951 211.66442 212.90132 214.67123 216.58614 218.61604 220.69795 222.76786
 224.81476 226.88567 228.96958 231.06248 233.17839 235.33730 237.58020 239.93711
 242.54502 244.78292 246.77183 248.52373 249.92764 251.03755 251.84645 252.14936
 252.17327 251.93417 251.28108 250.21599 248.80889 246.95680 244.85271 242.67261
 240.45052 238.24143 236.04833 233.87424 231.72114 229.57505 227.58796 225.73186
 224.00177 222.46068 221.07758 219.83649 218.70540 217.65230 216.74321 215.87112
 215.10002 214.26693 213.35184 212.70274 212.13965 213.38454 216.32573 218.83670
 220.38150 222.06743 223.81404 225.18016 225.95317 226.70570 227.50238 227.01341
 226.66110 228.25180 231.77010 236.34380 241.09970 245.65314 249.88835 253.78615
 257.34668 260.64346 263.68570 266.41785 268.77689 270.79572 272.49304 274.11658
 275.98325 277.76523 279.32565 280.69949 281.89267 282.95328 283.92493 284.81409
 285.62604 286.36188 287.01331 287.94620
 366.78100 356.32250 345.74199 334.59549 322.98598 311.16748 299.02497 286.81547
 274.51497 262.39946 250.39596 239.68445 229.79395 220.88545 213.05494 206.04444
 199.86593 194.79143 191.36092 189.39042 188.41492 188.46641 189.28891 190.58440
 192.29690 194.37939 196.62989 198.97639 201.40888 203.87638 205.95187 207.78137
 209.39486 210.52736 210.74386 210.95935 210.88385 210.57634 210.19684 209.81434
 209.41883 209.11633 208.91182 208.76332 208.67881 208.99731 209.37081 209.74730
 210.52780 211.69329 212.93079 214.70128 216.61678 218.64728 220.72977 222.80027
 224.84776 226.91926 229.00376 231.09725 233.21375 235.37324 237.61674 239.97423
 242.58273 244.82123 246.81072 248.56322 249.96771 251.07821 251.88770 252.19120
 252.21570 251.97719 251.32469 250.26018 248.85368 247.00217 244.89867 242.71917
 240.49766 238.28916 236.09665 233.92315 231.77065 229.62514 227.63864 225.78313
 224.05363 222.51312 221.13062 219.89012 218.75961 217.70711 216.79860 215.92710
 215.15659 214.32409 213.40959 212.76108 212.19858 213.43326 216.35037 218.86516
 220.46252 222.15462 223.87265 225.27023 226.07918 226.77238 227.36853 226.87054
 226.55711 228.16333 231.73845 236.31010 241.05365 245.61273 249.85793 253.75735
 257.30734 260.59363 263.63776 266.39145 268.74362 270.73923 272.43936 274.12457
 275.97403 277.75620 279.32095 280.69620 281.89075 282.95200 283.92438 284.81345
 285.62579 286.35968 287.01230 287.94351
 366.78100 356.32315 345.74329 334.59744 322.98859 311.17073 299.02888 286.82003
 274.52017 262.40532 250.40247 239.69161 229.80176 220.89391 213.06405 206.05420
 199.87635 194.80249 191.37264 189.40279 188.42793 188.48008 189.30323 190.59937
 192.31252 194.39567 196.64681 198.99396 201.42711 203.89525 205.97140 207.80155
 209.41569 210.54884 210.76599 210.98214 210.90728 210.60043 210.22158 209.83972
 209.44487 209.14302 208.93916 208.79131 208.70746 209.02660 209.40075 209.77790
 210.55904 211.72519 212.96334 214.73448 216.65063 218.68178 220.76492 222.83607
 224.88422 226.95636 229.04151 231.13566 233.25280 235.41295 237.65710 240.01524
 242.62439 244.86354 246.85368 248.60683 250.01198 251.12312 251.93327 252.23742
 252.26256 252.02471 251.37286 250.30900 248.90315 247.05230 244.94944 242.77059
 240.54974 238.34188 236.15003 233.97718 231.82532 229.68047 227.69462 225.83976
 224.11091 222.57106 221.18920 219.94935 218.81950 217.76764 216.85979 215.98894
 215.21908 214.38723 213.47338 212.82553 212.26367 213.48428 216.36809 218.89714
 220.53893 222.25491 223.91978 225.32274 226.20387 226.85429 227.24448 226.73882
 226.46613 228.07866 231.70428 236.27707 241.00937 245.57541 249.83150 253.73323
 257.27396 260.54837 263.59195 266.36331 268.70627 270.67453 272.37247 274.12747
 275.95062 277.73166 279.30072 280.67923 281.87628 282.93994 283.91171 284.80145
 285.61279 286.34885 286.99756 287.93216
 366.78100 356.32388 345.74476 334.59964 322.99153 311.17441 299.03329 286.82517
 274.52605 262.41193 250.40981 239.69969 229.81058 220.90346 213.07434 206.06522
 199.88810 194.81498 191.38586 189.41674 188.44263 188.49551 189.31939 190.61627
 192.33015 194.41403 196.66591 199.01379 201.44768 203.91656 205.99344 207.82432
 209.43920 210.57308 210.79096 211.00784 210.93373 210.62761 210.24949 209.86837
 209.47425 209.17313 208.97001 208.82289 208.73978 209.05966 209.43454 209.81242
 210.59430 211.76118 213.00006 214.77195 216.68883 218.72071 220.80459 222.87647
 224.92535 226.99823 229.08411 231.17900 233.29688 235.45776 237.70264 240.06152
 242.67140 244.91128 246.90216 248.65605 250.06193 251.17381 251.98469 252.28957
 252.31545 252.07833 251.42721 250.36410 248.95898 247.10886 245.00674 242.82862
 240.60850 238.40138 236.21026 234.03815 231.88703 229.74291 227.75779 225.90367
 224.17555 222.63643 221.25531 220.01620 218.88708 217.83596 216.92884 216.05872
 215.28960 214.45848 213.54537 212.89825 212.33713 213.53944 216.38005 218.92389
 220.62016 222.34625 223.96951 225.36639 226.31277 226.93001 227.15034 226.61473
 226.36159 227.99124 231.66991 236.24580 240.96840 245.53954 249.80356 253.70638
 257.23862 260.50223 263.54422 266.33310 268.67105 270.61734 272.30746 274.11142
 275.92355 277.70471 279.27505 280.65509 281.85303 282.91696 283.89081 284.77921
 285.59140 286.32480 286.97391 287.90570
 366.78100 356.32467 345.74635 334.60202 322.99470 311.17837 299.03805 286.83072
 274.53240 262.41907 250.41775 239.70842 229.82010 220.91377 213.08545 206.07712
 199.90080 194.82847 191.40015 189.43182 188.45850 188.51217 189.33685 190.63452
 192.34920 194.43387 196.68655 199.03522 201.46990 203.93957 206.01725 207.84892
 209.46460 210.59927 210.81795 211.03562 210.96230 210.65697 210.27965 209.89932
 209.50600 209.20567 209.00335 208.85702 208.77470 209.09537 209.47104 209.84972
 210.63239 211.80007 213.03974 214.81242 216.73009 218.76277 220.84744 222.92012
 224.96979 227.04347 229.13014 231.22582 233.34449 235.50617 237.75184 240.11152
 242.72219 244.96287 246.95454 248.70922 250.11589 251.22857 252.04024 252.34592
 252.37259 252.13627 251.48594 250.42362 249.01929 247.16997 245.06864 242.89132
 240.67199 238.46567 236.27534 234.10402 231.95369 229.81037 227.82604 225.97272
 224.24539 222.70706 221.32674 220.08841 218.96009 217.90976 217.00344 216.13411
 215.36579 214.53546 213.62314 212.97681 212.41649 213.59770 216.38841 218.94707
 220.70883 222.43153 224.02495 225.40968 226.40292 226.99527 227.08919 226.49437
 226.23695 227.90359 231.63994 236.21912 240.93227 245.50676 249.77635 253.68036
 257.20355 260.45456 263.49271 266.29196 268.62088 270.54623 272.24115 274.10220
 275.89575 277.67261 279.24335 280.62390 281.82193 282.88538 283.85928 284.74799
 285.55801 286.29276 286.94012 287.87183
 366.78100 356.32550 345.74801 334.60451 322.99802 311.18252 299.04303 286.83653
 274.53903 262.42654 250.42604 239.71755 229.83005 220.92455 213.09706 206.08956
 199.91407 194.84257 191.41508 189.44758 188.47508 188.52959 189.35509 190.65360
 192.36910 194.45461 196.70811 199.05761 201.49312 203.96362 206.04213 207.87463
 209.49113 210.62664 210.84614 211.06465 210.99215 210.68766 210.31116 209.93166
 209.53917 209.23967 209.03818 208.89268 208.81118 209.13269 209.50919 209.88870
 210.67220 211.84071 213.08121 214.85471 216.77322 218.80672 220.89223 222.96573
 225.01624 227.09074 229.17824 231.27475 233.39425 235.55676 237.80326 240.16376
 242.77527 245.01677 247.00928 248.76478 250.17229 251.28579 252.09829 252.40480
 252.43230 252.19681 251.54731 250.48582 249.08232 247.23382 245.13333 242.95683
 240.73834 238.53284 236.34334 234.17285 232.02335 229.88086 227.89736 226.04487
 224.31837 222.78087 221.40138 220.16388 219.03639 217.98689 217.08139 216.21290
 215.44540 214.61591 213.70441 213.05892 212.49942 213.65730 216.39290 218.96451
 220.79250 222.51031 224.08160 225.45178 226.48268 227.06523 227.06126 226.37587
 226.09482 227.81544 231.61205 236.19539 240.89935 245.47266 249.74518 253.64883
 257.16397 260.40555 263.43994 266.24936 268.57599 270.48914 272.17056 274.05963
 275.85660 277.63281 279.20419 280.58429 281.78180 282.84711 283.81906 284.70758
 285.51645 286.24890 286.89941 287.82932
 366.78100 356.32629 345.74957 334.60686 323.00114 311.18643 299.04771 286.84200
 274.54528 262.43357 250.43386 239.72614 229.83943 220.93471 213.10800 206.10128
 199.92657 194.85586 191.42914 189.46243 188.49071 188.54600 189.37228 190.67157
 192.38785 194.47414 196.72843 199.07871 201.51500 203.98628 206.06557 207.89885
 209.51614 210.65242 210.87271 211.09200 211.02028 210.71657 210.34085 209.96214
 209.57042 209.27171 209.07100 208.92628 208.84557 209.16785 209.54514 209.92542
 210.70971 211.87899 213.12028 214.89457 216.81385 218.84814 220.93442 223.00871
 225.05999 227.13528 229.22357 231.32085 233.44114 235.60442 237.85171 240.21299
 242.82528 245.06756 247.06085 248.81714 250.22542 251.33971 252.15299 252.46028
 252.48856 252.25385 251.60513 250.54442 249.14171 247.29399 245.19428 243.01856
 240.80085 238.59613 236.40742 234.23771 232.08899 229.94728 227.96456 226.11285
 224.38713 222.85042 221.47170 220.23499 219.10828 218.05956 217.15485 216.28713
 215.52042 214.69170 213.78099 213.13627 212.57756 213.71407 216.39917 218.98347
 220.87437 222.58443 224.12776 225.48256 226.54910 227.14034 227.06053 226.27141
 225.95667 227.73590 231.58813 236.17557 240.86908 245.43701 249.70837 253.60776
 257.11349 260.34372 263.37415 266.19061 268.51230 270.41373 272.11536 274.04962
 275.81464 277.58334 279.15170 280.53186 281.72961 282.79422 283.76694 284.65506
 285.46445 286.19742 286.84824 287.77618
 366.78100 356.32705 345.75110 334.60916 323.00421 311.19026 299.05231 286.84737
 274.55142 262.44047 250.44152 239.73458 229.84863 220.94468 213.11873 206.11279
 199.93884 194.86889 191.44294 189.47699 188.50605 188.56210 189.38915 190.68920
 192.40626 194.49331 196.74836 199.09941 201.53647 204.00852 206.08857 207.92262
 209.54068 210.67773 210.89878 211.11883 211.04788 210.74494 210.36999 209.99204
 209.60109 209.30315 209.10320 208.95925 208.87930 209.20236 209.58041 209.96146
 210.74651 211.91657 213.15862 214.93367 216.85372 218.88877 220.97583 223.05088
 225.10293 227.17898 229.26804 231.36609 233.48714 235.65119 237.89925 240.26130
 242.87435 245.11740 247.11146 248.86851 250.27756 251.39261 252.20667 252.51472
 252.54377 252.30982 251.66187 250.60193 249.19998 247.35303 245.25408 243.07914
 240.86219 238.65824 236.47029 234.30135 232.15340 230.01245 228.03050 226.17956
 224.45461 222.91866 221.54071 220.30476 219.17882 218.13087 217.22692 216.35997
 215.59403 214.76608 213.85613 213.21218 212.65424 213.76799 216.39938 219.00697
 220.95438 222.65558 224.16605 225.50078 226.60307 227.21983 227.07327 226.17061
 225.81816 227.66183 231.56668 236.16107 240.84380 245.40300 249.67128 253.56721
 257.06229 260.28064 263.30563 266.12961 268.45105 270.34375 272.05515 274.01044
 275.76627 277.52942 279.09650 280.47488 281.67218 282.73593 283.70944 284.59824
 285.40826 286.14325 286.79153 287.72128
 366.78100 356.32780 345.75261 334.61141 323.00722 311.19402 299.05682 286.85263
 274.55743 262.44724 250.44904 239.74284 229.85765 220.95445 213.12926 206.12406
 199.95086 194.88167 191.45647 189.49128 188.52108 188.57788 189.40569 190.70649
 192.42430 194.51210 196.76790 199.11971 201.55751 204.03032 206.11112 207.94592
 209.56473 210.70253 210.92434 211.14514 211.07494 210.77275 210.39855 210.02136
 209.63116 209.33396 209.13477 208.99157 208.91238 209.23618 209.61498 209.99679
 210.78259 211.95340 213.19620 214.97200 216.89281 218.92861 221.01642 223.09222
 225.14502 227.22183 229.31163 231.41044 233.53224 235.69704 237.94585 240.30865
 242.92246 245.16626 247.16106 248.91887 250.32867 251.44448 252.25928 252.56808
 252.59789 252.36469 251.71750 250.65830 249.25710 247.41091 245.31271 243.13852
 240.92232 238.71912 236.53193 234.36373 232.21654 230.07634 228.09514 226.24495
 224.52075 222.98556 221.60836 220.37316 219.24797 218.20077 217.29758 216.43138
 215.66618 214.83899 213.92979 213.28660 212.72940 213.82140 216.40134 219.02592
 221.04124 222.71892 224.19820 225.51888 226.64719 227.30269 227.09634 226.07397
 225.68246 227.59309 231.54694 236.15001 240.82187 245.36813 249.63142 253.52478
 257.01187 260.21921 263.23950 266.07343 268.39981 270.28918 271.98444 273.95563
 275.71219 277.47281 279.03842 280.41605 281.61258 282.67532 283.64963 284.53735
 285.34915 286.08463 286.73276 287.66257
 366.78100 356.32857 345.75415 334.61372 323.01030 311.19787 299.06144 286.85802
 274.56359 262.45417 250.45674 239.75132 229.86689 220.96446 213.14004 206.13561
 199.96319 194.89476 191.47033 189.50591 188.53648 188.59406 189.42263 190.72420
 192.44278 194.53135 196.78793 199.14050 201.57908 204.05265 206.13422 207.96980
 209.58937 210.72795 210.95052 211.17209 211.10267 210.80124 210.42782 210.05139
 209.66196 209.36554 209.16711 209.02469 208.94626 209.27084 209.65041 210.03298
 210.81956 211.99113 213.23471 215.01128 216.93285 218.96943 221.05800 223.13458
 225.18815 227.26572 229.35630 231.45587 233.57845 235.74402 237.99360 240.35717
 242.97174 245.21632 247.21189 248.97047 250.38104 251.49761 252.31319 252.62276
 252.65334 252.42091 251.77448 250.71606 249.31563 247.47021 245.37278 243.19936
 240.98393 238.78150 236.59508 234.42765 232.28123 230.14180 228.16137 226.31195
 224.58852 223.05410 221.67767 220.44324 219.31882 218.27239 217.36997 216.50454
 215.74012 214.91369 214.00526 213.36284 212.80641 213.87570 216.40202 219.04726
 221.12396 222.78738 224.21240 225.52165 226.69131 227.39241 227.12711 225.99524
 225.56456 227.52992 231.52658 236.14059 240.80087 245.33118 249.58823 253.47720
 256.95590 260.15182 263.16840 266.01514 268.35495 270.24887 271.92609 273.88660
 275.64783 277.40756 278.97067 280.34702 281.54324 282.60687 283.57993 284.46817
 285.27982 286.01953 286.66748 287.59659
 366.78100 356.32951 345.75601 334.61652 323.01402 311.20253 299.06704 286.86454
 274.57105 262.46255 250.46606 239.76157 229.87807 220.97658 213.15308 206.14959
 199.97810 194.91060 191.48711 189.52361 188.55512 188.61363 189.44313 190.74564
 192.46514 194.55465 196.81216 199.16566 201.60517 204.07967 206.16218 207.99869
 209.61919 210.75870 210.98220 211.20471 211.13621 210.83572 210.46323 210.08773
 209.69924 209.40374 209.20625 209.06476 208.98726 209.31277 209.69327 210.07678
 210.86429 212.03679 213.28130 215.05880 216.98131 219.01882 221.10832 223.18583
 225.24033 227.31884 229.41035 231.51085 233.63436 235.80086 238.05137 240.41588
 243.03138 245.27689 247.27339 249.03290 250.44441 251.56191 252.37842 252.68892
 252.72043 252.48894 251.84344 250.78595 249.38645 247.54196 245.44547 243.27297
 241.05848 238.85698 236.67149 234.50500 232.35950 230.22101 228.24151 226.39302
 224.67053 223.13703 221.76154 220.52804 219.40455 218.35906 217.45756 216.59307
 215.82957 215.00408 214.09659 213.45509 212.89960 213.93713 216.38846 219.07898
 221.20914 222.82988 224.23624 225.52194 226.71457 227.48520 227.17372 225.92244
 225.44865 227.46840 231.50621 236.13391 240.78226 245.29453 249.54402 253.42842
 256.89917 260.08380 263.09573 265.95526 268.30322 270.19305 271.86801 273.83823
 275.57220 277.32523 278.88757 280.26474 281.46149 282.52438 283.49844 284.38962
 285.20300 285.94199 286.59302 287.52338
 366.78100 356.33022 345.75744 334.61866 323.01688 311.20610 299.07133 286.86955
 274.57677 262.46899 250.47321 239.76943 229.88665 220.98587 213.16309 206.16031
 199.98953 194.92275 191.49998 189.53720 188.56942 188.62864 189.45886 190.76208
 192.48230 194.57252 196.83074 199.18496 201.62518 204.10040 206.18363 208.02085
 209.64207 210.78229 211.00651 211.22973 211.16195 210.86217 210.49039 210.11561
 209.72783 209.43305 209.23628 209.09550 209.01872 209.34494 209.72616 210.11038
 210.89860 212.07182 213.31704 215.09526 217.01848 219.05670 221.14693 223.22515
 225.28037 227.35959 229.45181 231.55303 233.67725 235.84447 238.09569 240.46091
 243.07713 245.32335 247.32058 249.08080 250.49302 251.61124 252.42846 252.73968
 252.77190 252.54112 251.89634 250.83956 249.44078 247.59701 245.50123 243.32945
 241.11567 238.91489 236.73011 234.56433 232.41955 230.28177 228.30299 226.45521
 224.73343 223.20066 221.82588 220.59310 219.47032 218.42554 217.52476 216.66098
 215.89820 215.07342 214.16664 213.52586 212.97108 213.98692 216.38696 219.08565
 221.32538 222.87805 224.17976 225.52495 226.80092 227.59027 227.20074 225.85281
 225.34944 227.41620 231.49022 236.13403 240.76971 245.26106 249.50041 253.37941
 256.84180 260.01312 263.01718 265.88287 268.23495 270.12946 271.82944 273.78494
 275.50412 277.25351 278.81299 280.18719 281.38080 282.44312 283.41574 284.30704
 285.11929 285.86136 286.51224 287.43903
 366.78100 356.33080 345.75860 334.62040 323.01920 311.20900 299.07480 286.87360
 274.58140 262.47420 250.47900 239.77580 229.89360 220.99340 213.17120 206.16900
 199.99880 194.93260 191.51040 189.54820 188.58100 188.64080 189.47160 190.77541
 192.49621 194.58701 196.84581 199.20061 201.64141 204.11721 206.20101 208.03881
 209.66061 210.80141 211.02621 211.25001 211.18281 210.88361 210.51241 210.13821
 209.75101 209.45681 209.26061 209.12041 209.04421 209.37101 209.75281 210.13761
 210.92641 212.10021 213.34601 215.12481 217.04861 219.08741 221.17821 223.25701
 225.31281 227.39261 229.48541 231.58721 233.71201 235.87981 238.13161 240.49741
 243.11421 245.36101 247.35881 249.11961 250.53242 251.65122 252.46902 252.78082
 252.81362 252.58342 251.93922 250.88302 249.48482 247.64162 245.54642 243.37522
 241.16202 238.96182 236.77762 234.61242 232.46822 230.33102 228.35282 226.50562
 224.78442 223.25222 221.87802 220.64582 219.52362 218.47942 217.57922 216.71602
 215.95382 215.12962 214.22342 213.58322 213.02902 214.02872 216.39062 219.09030
 221.41609 222.96062 224.17075 225.53018 226.84732 227.63588 227.20319 225.81458
 225.29454 227.38010 231.47749 236.13693 240.75854 245.22563 249.45444 253.33018
 256.78653 259.94528 262.94290 265.82135 268.19354 270.10974 271.85889 273.53171
 275.45087 277.17969 278.72083 280.08820 281.28070 282.34073 283.31400 284.20560
 285.02115 285.76312 286.41946 287.34012
 366.78100 356.33151 345.76002 334.62252 323.02203 311.21254 299.07905 286.87855
 274.58706 262.48057 250.48608 239.78358 229.90209 221.00260 213.18111 206.17961
 200.01012 194.94463 191.52314 189.56164 188.59515 188.65566 189.48717 190.79168
 192.51318 194.60469 196.86420 199.21971 201.66121 204.13772 206.22223 208.06074
 209.68324 210.82475 211.05026 211.27477 211.20827 210.90978 210.53929 210.16580
 209.77930 209.48581 209.29032 209.15083 209.07534 209.40284 209.78535 210.17086
 210.96037 212.13487 213.38138 215.16089 217.08540 219.12490 221.21641 223.29592
 225.35243 227.43293 229.52644 231.62895 233.75446 235.92296 238.17547 240.54198
 243.15949 245.40700 247.40550 249.16701 250.58052 251.70003 252.51853 252.83104
 252.86455 252.63506 251.99156 250.93607 249.53858 247.69609 245.60159 243.43110
 241.21861 239.01912 236.83562 234.67113 232.52764 230.39115 228.41366 226.56716
 224.84667 223.31518 221.94169 220.71019 219.58870 218.54521 217.64572 216.78322
 216.02173 215.19824 214.29275 213.65325 213.09976 214.07635 216.38364 219.11545
 221.48575 223.03125 224.19193 225.53368 226.85686 227.64502 227.21068 225.81998
 225.27974 227.35165 231.46083 236.13554 240.74345 245.18709 249.40636 253.28168
 256.73181 259.87732 262.86771 265.75638 268.13925 270.05978 271.83069 273.54022
 275.34235 277.06601 278.60922 279.97638 281.16794 282.22809 283.20270 284.09351
 284.90979 285.65268 286.30988 287.22867
 366.78100 356.33223 345.76146 334.62470 323.02493 311.21616 299.08339 286.88362
 274.59285 262.48709 250.49332 239.79155 229.91078 221.01201 213.19125 206.19048
 200.02171 194.95694 191.53617 189.57540 188.60964 188.67087 189.50310 190.80833
 192.53056 194.62280 196.88303 199.23926 201.68149 204.15872 206.24395 208.08319
 209.70642 210.84865 211.07488 211.30011 211.23434 210.93658 210.56681 210.19404
 209.80827 209.51550 209.32074 209.18197 209.10720 209.43543 209.81866 210.20489
 210.99513 212.17036 213.41759 215.19782 217.12305 219.16329 221.25552 223.33575
 225.39298 227.47421 229.56844 231.67168 233.79791 235.96714 238.22037 240.58760
 243.20584 245.45407 247.45330 249.21553 250.62976 251.74999 252.56923 252.88246
 252.91669 252.68792 252.04515 250.99039 249.59362 247.75185 245.65808 243.48831
 241.27654 239.07778 236.89501 234.73124 232.58847 230.45270 228.47593 226.63017
 224.91040 223.37963 222.00686 220.77609 219.65533 218.61256 217.71379 216.85202
 216.09125 215.26848 214.36372 213.72495 213.17218 214.12460 216.37483 219.14545
 221.55785 223.08748 224.20906 225.52455 226.85429 227.65065 227.22539 225.84833
 225.28696 227.32391 231.43755 236.13007 240.72833 245.15184 249.36411 253.23904
 256.68250 259.81525 262.79654 265.69244 268.08582 270.00974 271.78271 273.50629
 275.25836 276.96606 278.50577 279.87299 281.06305 282.12384 283.09662 283.98798
 284.80270 285.54605 286.20499 287.11761
 366.78100 356.33286 345.76272 334.62657 323.02743 311.21929 299.08715 286.88800
 274.59786 262.49272 250.49958 239.79843 229.91829 221.02015 213.20001 206.19986
 200.03172 194.96758 191.54744 189.58729 188.62215 188.68401 189.51687 190.82272
 192.54558 194.63844 196.89930 199.25615 201.69901 204.17687 206.26273 208.10258
 209.72644 210.86930 211.09616 211.32201 211.25687 210.95973 210.59059 210.21845
 209.83330 209.54116 209.34702 209.20888 209.13473 209.46359 209.84745 210.23431
 211.02516 212.20102 213.44888 215.22974 217.15559 219.19645 221.28931 223.37017
 225.42802 227.50988 229.60474 231.70860 233.83545 236.00531 238.25917 240.62703
 243.24588 245.49474 247.49460 249.25746 250.67231 251.79317 252.61303 252.92689
 252.96174 252.73360 252.09146 251.03732 249.64117 247.80003 245.70689 243.53775
 241.32661 239.12846 236.94632 234.78318 232.64104 230.50589 228.52975 226.68461
 224.96547 223.43532 222.06318 220.83304 219.71290 218.67075 217.77261 216.91147
 216.15133 215.32918 214.42504 213.78690 213.23476 214.16736 216.37073 219.16824
 221.63454 223.14142 224.21690 225.50206 226.84467 227.65695 227.23640 225.88580
 225.31277 227.30109 231.41278 236.12607 240.71867 245.12479 249.33044 253.20403
 256.64105 259.75836 262.72824 265.62875 268.03323 269.96481 271.73660 273.44974
 275.18146 276.86740 278.40179 279.76801 280.95728 282.01651 282.98950 283.87888
 284.69324 285.43646 286.09549 287.00037
 366.78100 356.33343 345.76385 334.62828 323.02971 311.22214 299.09056 286.89199
 274.60242 262.49784 250.50527 239.80470 229.92512 221.02755 213.20798 206.20841
 200.04083 194.97726 191.55769 189.59811 188.63354 188.69597 189.52939 190.83582
 192.55925 194.65268 196.91410 199.27153 201.71496 204.19338 206.27981 208.12024
 209.74466 210.88809 211.11552 211.34195 211.27737 210.98080 210.61223 210.24065
 209.85608 209.56451 209.37093 209.23336 209.15979 209.48922 209.87364 210.26107
 211.05250 212.22892 213.47735 215.25878 217.18521 219.22663 221.32006 223.40149
 225.45991 227.54234 229.63777 231.74219 233.86962 236.04005 238.29448 240.66290
 243.28233 245.53176 247.53218 249.29561 250.71104 251.83246 252.65289 252.96732
 253.00275 252.77517 252.13360 251.08003 249.68445 247.84388 245.75131 243.58273
 241.37216 239.17459 236.99302 234.83044 232.68887 230.55430 228.57872 226.73415
 225.01558 223.48601 222.11443 220.88486 219.76529 218.72371 217.82614 216.96557
 216.20599 215.38442 214.48085 213.84328 213.29170 214.20702 216.36954 219.18628
 221.71021 223.19786 224.22336 225.47374 226.82422 227.65453 227.23817 225.92795
 225.35564 227.28780 231.39049 236.12616 240.71584 245.10541 249.30313 253.17519
 256.60693 259.70978 262.66776 265.56985 267.98138 269.91522 271.68503 273.39178
 275.09802 276.76920 278.29919 279.66379 280.85205 281.91144 282.88214 283.77274
 284.58316 285.32559 285.98044 286.88120
 366.78100 356.33396 345.76491 334.62987 323.03183 311.22479 299.09374 286.89570
 274.60666 262.50261 250.51057 239.81053 229.93149 221.03444 213.21540 206.21636
 200.04931 194.98627 191.56723 189.60819 188.64414 188.70710 189.54106 190.84801
 192.57197 194.66593 196.92788 199.28584 201.72980 204.20876 206.29571 208.13667
 209.76163 210.90558 211.13354 211.36050 211.29646 211.00041 210.63237 210.26133
 209.87728 209.58624 209.39320 209.25616 209.18311 209.51307 209.89803 210.28598
 211.07794 212.25490 213.50386 215.28581 217.21277 219.25473 221.34868 223.43064
 225.48960 227.57256 229.66851 231.77347 233.90143 236.07238 238.32734 240.69630
 243.31626 245.56621 247.56717 249.33113 250.74708 251.86904 252.69000 253.00496
 253.04091 252.81387 252.17283 251.11978 249.72474 247.88470 245.79265 243.62461
 241.41457 239.21753 237.03648 234.87444 232.73340 230.59935 228.62431 226.78027
 225.06223 223.53318 222.16214 220.93310 219.81405 218.77301 217.87597 217.01593
 216.25688 215.43584 214.53280 213.89575 213.34471 214.24419 216.36928 219.20232
 221.77991 223.25740 224.23544 225.44815 226.79214 227.63356 227.22771 225.97263
 225.41307 227.28740 231.37375 236.12970 240.71867 245.09222 249.28159 253.15227
 256.57962 259.66940 262.61298 265.51508 267.93277 269.86835 271.63284 273.33307
 275.02115 276.67188 278.19479 279.55710 280.74387 281.79959 282.76898 283.65707
 284.46738 285.20480 285.85690 286.75449
 366.78100 356.33445 345.76591 334.63136 323.03381 311.22727 299.09672 286.89918
 274.61063 262.50708 250.51554 239.81599 229.93744 221.04090 213.22235 206.22380
 200.05726 194.99471 191.57617 189.61762 188.65407 188.71753 189.55198 190.85943
 192.58389 194.67834 196.94079 199.29925 201.74370 204.22316 206.31061 208.15206
 209.77752 210.92197 211.15042 211.37788 211.31433 211.01878 210.65124 210.28069
 209.89715 209.60660 209.41405 209.27751 209.20496 209.53541 209.92087 210.30932
 211.10177 212.27923 213.52868 215.31114 217.23859 219.28104 221.37550 223.45795
 225.51740 227.60086 229.69731 231.80276 233.93122 236.10267 238.35813 240.72758
 243.34803 245.59849 247.59994 249.36439 250.78085 251.90330 252.72475 253.04021
 253.07666 252.85012 252.20957 251.15702 249.76248 247.92293 245.83138 243.66384
 241.45429 239.25774 237.07720 234.91565 232.77511 230.64156 228.66701 226.82347
 225.10592 223.57737 222.20683 220.97828 219.85973 218.81919 217.92264 217.06310
 216.30455 215.48400 214.58146 213.94491 213.39436 214.27982 216.37178 219.21712
 221.84375 223.31989 224.25496 225.42799 226.74989 227.59167 227.20557 226.01060
 225.47061 227.29840 231.36531 236.13681 240.72789 245.08836 249.27017 253.14030
 256.56308 259.63751 262.56461 265.46027 267.87762 269.81207 271.57181 273.26596
 274.94516 276.58282 278.09949 279.46207 280.64697 281.70383 282.67206 283.55914
 284.37054 285.11078 285.76947 286.66171
 366.78100 356.33485 345.76671 334.63256 323.03542 311.22927 299.09913 286.90198
 274.61383 262.51069 250.51954 239.82040 229.94225 221.04611 213.22796 206.22981
 200.06367 195.00152 191.58338 189.62523 188.66209 188.72594 189.56080 190.86865
 192.59350 194.68836 196.95121 199.31007 201.75492 204.23478 206.32263 208.16448
 209.79034 210.93519 211.16405 211.39190 211.32876 211.03361 210.66646 210.29632
 209.91317 209.62303 209.43088 209.29474 209.22259 209.55344 209.93930 210.32815
 211.12101 212.29886 213.54872 215.33157 217.25943 219.30228 221.39713 223.47999
 225.53984 227.62370 229.72055 231.82641 233.95526 236.12711 238.38297 240.75282
 243.37368 245.62453 247.62639 249.39124 250.80809 251.93095 252.75280 253.06866
 253.10551 252.87937 252.23922 251.18707 249.79293 247.95378 245.86264 243.69549
 241.48635 239.29020 237.11006 234.94891 232.80876 230.67562 228.70147 226.85833
 225.14118 223.61304 222.24289 221.01474 219.89660 218.85645 217.96031 217.10116
 216.34302 215.52287 214.62072 213.98458 213.43443 214.31064 216.38077 219.22829
 221.89786 223.38704 224.28770 225.41760 226.70015 227.52226 227.16180 226.03963
 225.53014 227.31700 231.36383 236.14967 240.74429 245.09346 249.26711 253.13560
 256.55411 259.61469 262.52448 265.41068 267.82706 269.75751 271.50928 273.19901
 274.87125 276.49500 278.00787 279.36841 280.55365 281.60770 282.57339 283.45947
 284.27383 285.02094 285.68066 286.54865
 366.78100 356.33524 345.76748 334.63372 323.03695 311.23119 299.10143 286.90467
 274.61691 262.51415 250.52338 239.82462 229.94686 221.05110 213.23334 206.23558
 200.06981 195.00805 191.59029 189.63253 188.66977 188.73401 189.56924 190.87748
 192.60272 194.69796 196.96120 199.32044 201.76568 204.24591 206.33415 208.17639
 209.80263 210.94787 211.17711 211.40534 211.34258 211.04782 210.68106 210.31130
 209.92854 209.63877 209.44701 209.31125 209.23949 209.57073 209.95697 210.34620
 211.13944 212.31768 213.56792 215.35116 217.27940 219.32263 221.41787 223.50111
 225.56135 227.64559 229.74283 231.84907 233.97830 236.15054 238.40678 240.77702
 243.39826 245.64950 247.65173 249.41697 250.83421 251.95745 252.77969 253.09593
 253.13316 252.90740 252.26764 251.21588 249.82212 247.98336 245.89259 243.72583
 241.51707 239.32131 237.14155 234.98079 232.84103 230.70826 228.73450 226.89174
 225.17498 223.64722 222.27746 221.04969 219.93193 218.89217 217.99641 217.13765
 216.37989 215.56012 214.65836 214.02260 213.47284 214.34076 216.39131 219.23537
 221.94641 223.45731 224.32841 225.41273 226.64247 227.43384 227.10112 226.03438
 225.56331 227.35228 231.37701 236.16330 240.77014 245.11777 249.28560 253.15321
 256.56592 259.61102 262.49408 265.35739 267.75613 269.67825 271.42087 273.10495
 274.78738 276.40707 277.91052 279.26727 280.44940 281.50073 282.45880 283.34290
 284.16635 284.93817 285.57385 286.43488
 366.78100 356.33606 345.76911 334.63617 323.04023 311.23529 299.10634 286.91040
 274.62346 262.52151 250.53157 239.83363 229.95669 221.06174 213.24480 206.24786
 200.08291 195.02197 191.60503 189.64809 188.68614 188.75120 189.58726 190.89632
 192.62237 194.71843 196.98249 199.34254 201.78860 204.26966 206.35872 208.20177
 209.82883 210.97489 211.20494 211.43400 211.37206 211.07812 210.71217 210.34323
 209.96129 209.67234 209.48140 209.34646 209.27552 209.60757 209.99463 210.38469
 211.17874 212.35780 213.60886 215.39292 217.32197 219.36603 221.46209 223.54614
 225.60720 227.69226 229.79032 231.89737 234.02743 236.20049 238.45755 240.82860
 243.45066 245.70272 247.70577 249.47183 250.88989 252.01395 252.83700 253.15406
 253.19212 252.96717 252.32823 251.27729 249.88435 248.04640 245.95646 243.79052
 241.58257 239.38763 237.20869 235.04875 232.90980 230.77786 228.80492 226.96297
 225.24703 223.72009 222.35115 221.12420 220.00726 218.96832 218.07337 217.21543
 216.45849 215.63955 214.73860 214.10366 213.55472 214.39679 216.38628 219.22144
 222.00026 223.53435 224.35907 225.38959 226.57466 227.33525 227.01472 226.05203
 225.61263 227.35558 231.38823 236.20610 240.82497 245.16537 249.31795 253.18156
 256.59839 259.61304 262.44977 265.30292 267.68646 269.56387 271.27341 272.96591
 274.64993 276.27457 277.78854 279.15039 280.33466 281.39371 282.37878 283.28485
 284.09906 284.81845 285.45969 286.30963
 366.78100 356.33733 345.77165 334.63998 323.04530 311.24163 299.11395 286.91928
 274.63361 262.53293 250.54426 239.84758 229.97191 221.07823 213.26256 206.26688
 200.10321 195.04354 191.62786 189.67219 188.71151 188.77784 189.61516 190.92549
 192.65282 194.75014 197.01547 199.37679 201.82412 204.30644 206.39677 208.24109
 209.86942 211.01675 211.24807 211.47840 211.41772 211.12505 210.76037 210.39270
 210.01203 209.72435 209.53468 209.40100 209.33133 209.66465 210.05298 210.44431
 211.23963 212.41996 213.67228 215.45761 217.38793 219.43326 221.53058 223.61591
 225.67824 227.76456 229.86389 231.97221 234.10354 236.27786 238.53619 240.90852
 243.53184 245.78517 247.78949 249.55682 250.97614 252.10147 252.92580 253.24412
 253.28345 253.05977 252.42210 251.37242 249.98075 248.14407 246.05540 243.89073
 241.68405 239.49038 237.31270 235.15403 233.01635 230.88568 228.91401 227.07333
 225.35866 223.83298 222.46531 221.23963 220.12396 219.08628 218.19261 217.33594
 216.58026 215.76259 214.86291 214.22924 213.68156 214.48190 216.38490 219.15993
 221.99280 223.53625 224.36180 225.36148 226.53592 227.26624 226.88579 226.09714
 225.55125 227.33435 231.37740 236.25436 240.90746 245.24838 249.38754 253.24022
 256.65710 259.65842 262.47791 265.22940 267.55307 269.43805 271.17114 272.89502
 274.57278 276.15259 277.65073 279.00131 280.18103 281.23672 282.21628 283.11029
 283.89972 284.58307 285.18005 285.94083
 366.78100 356.33712 345.77123 334.63935 323.04446 311.24058 299.11269 286.91781
 274.63192 262.53104 250.54215 239.84527 229.96938 221.07550 213.25961 206.26373
 200.09984 195.03996 191.62407 189.66819 188.70730 188.77342 189.61053 190.92065
 192.64777 194.74488 197.01000 199.37111 201.81823 204.30034 206.39046 208.23457
 209.86269 211.00980 211.24092 211.47103 211.41015 211.11726 210.75238 210.38449
 210.00361 209.71572 209.52584 209.39195 209.32207 209.65519 210.04330 210.43442
 211.22953 212.40965 213.66176 215.44688 217.37699 219.42211 221.51922 223.60434
 225.66645 227.75257 229.85168 231.95980 234.09091 236.26503 238.52314 240.89526
 243.51837 245.77149 247.77560 249.54272 250.96184 252.08695 252.91107 253.22918
 253.26830 253.04441 252.40653 251.35664 249.96476 248.12787 246.03899 243.87410
 241.66722 239.47333 237.29545 235.13656 232.99868 230.86779 228.89591 227.05502
 225.34014 223.81425 222.44637 221.22049 220.10460 219.06672 218.17283 217.31595
 216.56006 215.74218 214.84229 214.20841 213.66052 214.48846 216.47139 219.10600
 221.98886 223.55952 224.31029 225.31566 226.52756 227.29167 226.91306 226.15692
 225.40984 227.22861 231.33331 236.25639 240.91624 245.28358 249.44089 253.29285
 256.71967 259.76810 262.61191 265.32852 267.61859 269.46780 271.06589 272.77493
 274.46347 276.06430 277.38388 278.62601 279.78751 280.83243 281.81210 282.72824
 283.56247 284.30533 284.95428 285.78128
 366.78100 356.33693 345.77087 334.63880 323.04373 311.23966 299.11160 286.91653
 274.63046 262.52940 250.54033 239.84326 229.96719 221.07313 213.25706 206.26099
 200.09693 195.03686 191.62079 189.66472 188.70366 188.76959 189.60652 190.91646
 192.64339 194.74032 197.00525 199.36619 201.81312 204.29505 206.38499 208.22892
 209.85685 211.00379 211.23472 211.46465 211.40358 211.11052 210.74545 210.37738
 209.99632 209.70825 209.51818 209.38411 209.31405 209.64698 210.03491 210.42585
 211.22078 212.40071 213.65264 215.43758 217.36751 219.41244 221.50938 223.59431
 225.65624 227.74217 229.84111 231.94904 234.07997 236.25391 238.51184 240.88377
 243.50670 245.75964 247.76357 249.53050 250.94944 252.07437 252.89830 253.21623
 253.25517 253.03110 252.39303 251.34297 249.95090 248.11383 246.02476 243.85970
 241.65263 239.45856 237.28050 235.12143 232.98336 230.85229 228.88023 227.03916
 225.32409 223.79803 222.42996 221.20389 220.08783 219.04976 218.15569 217.29862
 216.54256 215.72449 214.82442 214.19036 213.64229 214.49017 216.53198 219.13435
 221.94664 223.34641 224.20145 225.45604 226.74214 227.39174 226.86000 226.19516
 225.24590 227.09702 231.27013 236.23210 240.93420 245.31639 249.47104 253.32347
 256.76947 259.82864 262.67242 265.38672 267.72791 269.59598 271.16830 272.70886
 274.28519 275.83658 277.15378 278.22610 279.29129 280.35254 281.36597 282.33502
 283.20682 283.98312 284.66129 285.52554
 366.78100 356.33520 345.76739 334.63359 323.03679 311.23099 299.10118 286.90438
 274.61658 262.51378 250.52297 239.82417 229.94637 221.05057 213.23276 206.23496
 200.06916 195.00735 191.58955 189.63175 188.66895 188.73314 189.56834 190.87654
 192.60174 194.69693 196.96013 199.31933 201.76453 204.24472 206.33292 208.17512
 209.80132 210.94651 211.17571 211.40391 211.34110 211.04630 210.67950 210.30970
 209.92689 209.63709 209.44529 209.30949 209.23768 209.56888 209.95508 210.34428
 211.13747 212.31567 213.56587 215.34906 217.27726 219.32046 221.41566 223.49885
 225.55905 227.64325 229.74045 231.84664 233.97584 236.14804 238.40424 240.77443
 243.39563 245.64683 247.64902 249.41422 250.83142 251.95462 252.77681 253.09301
 253.13021 252.90441 252.26460 251.21280 249.81900 247.98020 245.88939 243.72259
 241.51379 239.31799 237.13818 234.97738 232.83758 230.70477 228.73097 226.88817
 225.17137 223.64356 222.27376 221.04596 219.92816 218.88835 217.99255 217.13375
 216.37595 215.55614 214.65434 214.01854 213.46873 214.41515 216.70135 219.17200
 221.64682 223.35864 224.55406 225.63010 226.67145 227.22998 226.81912 226.22452
 225.37486 227.26979 231.32185 236.16373 240.89128 245.30116 249.45944 253.29741
 256.73657 259.80542 262.67496 265.40005 267.72995 269.61954 271.25513 272.79788
 274.39676 275.85593 277.05640 278.34744 279.56964 280.72476 281.81467 282.80203
 283.69009 284.48090 285.17172 286.05209
 366.78100 356.33425 345.76551 334.63076 323.03302 311.22627 299.09553 286.89778
 274.60904 262.50529 250.51355 239.81380 229.93506 221.03831 213.21957 206.22082
 200.05408 194.99133 191.57259 189.61384 188.65010 188.71335 189.54761 190.85486
 192.57912 194.67337 196.93563 199.29388 201.73814 204.21739 206.30465 208.14590
 209.77116 210.91541 211.14367 211.37092 211.30718 211.01143 210.64369 210.27294
 209.88920 209.59845 209.40571 209.26896 209.19622 209.52647 209.91173 210.29998
 211.09224 212.26949 213.51875 215.30100 217.22826 219.27051 221.36477 223.44702
 225.50628 227.58953 229.68579 231.79104 233.91930 236.09055 238.34581 240.71506
 243.33532 245.58557 247.58683 249.35108 250.76734 251.88959 252.71085 253.02610
 253.06236 252.83561 252.19487 251.14212 249.74738 247.90763 245.81589 243.64814
 241.43840 239.24165 237.06091 234.89916 232.75842 230.62467 228.64993 226.80618
 225.08844 223.55969 222.18895 220.96020 219.84146 218.80071 217.90397 217.04422
 216.28548 215.46473 214.56199 213.92524 213.37450 214.37193 216.76733 219.26534
 221.42273 223.47520 224.72404 225.45329 226.37280 226.99918 227.07050 226.08540
 225.46451 227.25990 231.29558 236.11353 240.90019 245.31187 249.43698 253.22122
 256.61539 259.69247 262.59058 265.31592 267.67886 269.58908 271.23108 272.79645
 274.34494 275.77368 277.06973 278.39603 279.59506 280.68466 281.71152 282.65085
 283.49564 284.24792 284.90512 285.74265
 366.78100 356.33640 345.76980 334.63720 323.04160 311.23700 299.10840 286.91280
 274.62620 262.52460 250.53500 239.83740 229.96080 221.06620 213.24960 206.25300
 200.08840 195.02780 191.61120 189.65460 188.69300 188.75840 189.59480 190.90420
 192.63060 194.72700 196.99140 199.35180 201.79820 204.27960 206.36900 208.21240
 209.83980 210.98620 211.21660 211.44600 211.38440 211.09080 210.72520 210.35660
 209.97500 209.68640 209.49580 209.36120 209.29060 209.62300 210.01040 210.40079
 211.19519 212.37459 213.62599 215.41039 217.33979 219.38419 221.48059 223.56499
 225.62639 227.71179 229.81019 231.91759 234.04799 236.22139 238.47879 240.85019
 243.47259 245.72499 247.72839 249.49479 250.91319 252.03759 252.86099 253.17839
 253.21679 252.99219 252.35359 251.30299 249.91039 248.07279 245.98319 243.81759
 241.60999 239.41539 237.23679 235.07719 232.93859 230.80699 228.83439 226.99279
 225.27719 223.75059 222.38199 221.15539 220.03879 219.00019 218.10559 217.24799
 216.49139 215.67279 214.77219 214.13759 213.58899 214.48997 216.67084 219.33215
 221.57607 223.37820 224.64543 225.41119 226.29086 226.89676 227.10664 226.11432
 225.57449 227.28044 231.28969 236.12399 240.88704 245.30780 249.43013 253.19547
 256.56747 259.61224 262.49106 265.22147 267.57672 269.48233 271.13684 272.68073
 274.19943 275.63245 276.86429 278.08417 279.28174 280.35672 281.39218 282.35382
 283.21872 283.98892 284.66174 285.51917
 366.78100 356.33826 345.77352 334.64278 323.04904 311.24630 299.11956 286.92582
 274.64108 262.54134 250.55360 239.85786 229.98312 221.09038 213.27564 206.28090
 200.11816 195.05942 191.64468 189.68994 188.73020 188.79746 189.63572 190.94698
 192.67523 194.77349 197.03975 199.40201 201.85027 204.33353 206.42479 208.27005
 209.89931 211.04757 211.27983 211.51109 211.45135 211.15961 210.79587 210.42913
 210.04939 209.76265 209.57391 209.44117 209.37243 209.70669 210.09595 210.48821
 211.28447 212.46573 213.71899 215.50525 217.43651 219.48277 221.58103 223.66729
 225.73055 227.81781 229.91807 232.02733 234.15959 236.33485 238.59411 240.96737
 243.59163 245.84589 247.85115 249.61941 251.03967 252.16593 252.99119 253.31044
 253.35070 253.12796 252.49122 251.44248 250.05174 248.21600 246.12826 243.96452
 241.75878 239.56604 237.38930 235.23156 233.09482 230.96508 228.99434 227.15460
 225.44086 223.91612 222.54938 221.32464 220.20990 219.17316 218.28042 217.42468
 216.66994 215.85320 214.95446 214.32172 213.77498 214.61014 216.70027 219.28906
 221.77603 223.42581 224.77281 225.78584 226.47354 226.76839 226.69397 226.13403
 225.88725 227.69704 231.45290 236.14815 240.90129 245.35574 249.47902 253.23476
 256.58307 259.60675 262.44241 265.09180 267.40292 269.30920 270.98279 272.55191
 274.08182 275.37631 276.81403 278.33575 279.76898 281.03702 282.19391 283.24200
 284.18460 285.02402 285.75732 286.69180
 366.78100 356.33919 345.77539 334.64558 323.05277 311.25097 299.12516 286.93235
 274.64855 262.54974 250.56293 239.86813 229.99432 221.10252 213.28871 206.29490
 200.13310 195.07529 191.66148 189.70768 188.74887 188.81706 189.65626 190.96845
 192.69764 194.79684 197.06403 199.42722 201.87642 204.36061 206.45280 208.29900
 209.92919 211.07838 211.31158 211.54377 211.48496 211.19416 210.83135 210.46555
 210.08674 209.80093 209.61313 209.48132 209.41351 209.74871 210.13890 210.53209
 211.32929 212.51148 213.76567 215.55287 217.48506 219.53225 221.63145 223.71864
 225.78283 227.87103 229.97222 232.08241 234.21561 236.39180 238.65200 241.02619
 243.65138 245.90658 247.91277 249.68196 251.10316 252.23035 253.05654 253.37674
 253.41793 253.19612 252.56032 251.51251 250.12270 248.28790 246.20109 244.03828
 241.83348 239.64167 237.46586 235.30906 233.17325 231.04445 229.07464 227.23583
 225.52303 223.99922 222.63341 221.40961 220.29580 219.25999 218.36819 217.51338
 216.75957 215.94377 215.04596 214.41415 213.86835 214.68642 216.78366 219.28387
 221.74504 223.60771 225.07320 226.03502 226.49092 226.47858 226.76340 225.65034
 225.61894 227.69702 231.56479 236.23949 240.97961 245.45398 249.58727 253.34789
 256.65527 259.65598 262.45786 265.02979 267.23499 269.05215 270.60184 272.59229
 274.04562 276.12857 277.97678 279.59961 281.00406 282.24664 283.38031 284.40732
 285.33099 286.15356 286.87210 287.78784
 366.78100 356.33973 345.77645 334.64718 323.05491 311.25363 299.12836 286.93608
 274.65281 262.55454 250.56826 239.87399 230.00072 221.10944 213.29617 206.30289
 200.14162 195.08435 191.67107 189.71780 188.75953 188.82825 189.66798 190.98071
 192.71043 194.81016 197.07788 199.44161 201.89134 204.37606 206.46879 208.31552
 209.94624 211.09597 211.32969 211.56242 211.50415 211.21387 210.85160 210.48633
 210.10805 209.82278 209.63550 209.50423 209.43696 209.77268 210.16341 210.55714
 211.35486 212.53759 213.79232 215.58004 217.51277 219.56049 221.66022 223.74795
 225.81267 227.90140 230.00313 232.11385 234.24758 236.42430 238.68503 241.05976
 243.68548 245.94121 247.94794 249.71766 251.13939 252.26712 253.09384 253.41457
 253.45629 253.23502 252.59975 251.55247 250.16320 248.32893 246.24265 244.08038
 241.87610 239.68483 237.50956 235.35328 233.21801 231.08974 229.12046 227.28219
 225.56992 224.04664 222.68137 221.45809 220.34482 219.30955 218.41827 217.56400
 216.81073 215.99545 215.09818 214.46690 213.92163 214.73256 216.84242 219.30318
 221.67572 223.64912 225.09326 226.01797 226.55260 226.42615 227.05284 225.59254
 225.58980 227.67181 231.59956 236.30545 241.07283 245.57625 249.71883 253.46776
 256.80621 259.82748 262.63419 265.18790 267.36633 269.14575 270.65393 272.76028
 275.64502 278.12671 280.27423 282.15988 283.79175 285.23553 286.55276 287.74609
 288.81937 289.77512 290.61005 291.67407
 366.78100 356.33915 345.77530 334.64545 323.05260 311.25075 299.12490 286.93206
 274.64821 262.54936 250.56251 239.86766 229.99381 221.10196 213.28811 206.29426
 200.13241 195.07456 191.66071 189.70686 188.74801 188.81617 189.65532 190.96747
 192.69662 194.79577 197.06292 199.42607 201.87522 204.35937 206.45152 208.29767
 209.92782 211.07697 211.31013 211.54228 211.48343 211.19258 210.82973 210.46388
 210.08503 209.79918 209.61133 209.47948 209.41163 209.74678 210.13693 210.53009
 211.32724 212.50939 213.76354 215.55069 217.48284 219.52999 221.62914 223.71629
 225.78044 227.86859 229.96974 232.07989 234.21304 236.38920 238.64935 241.02350
 243.64865 245.90380 247.90995 249.67910 251.10025 252.22740 253.05355 253.37370
 253.41485 253.19300 252.55716 251.50931 250.11946 248.28461 246.19776 244.03491
 241.83006 239.63821 237.46236 235.30551 233.16966 231.04081 229.07096 227.23211
 225.51927 223.99542 222.62957 221.40572 220.29187 219.25602 218.36417 217.50932
 216.75547 215.93962 215.04177 214.40992 213.86407 214.71463 216.88467 219.29301
 221.69083 223.71010 225.04640 225.85492 226.34767 226.60690 227.08810 225.73534
 225.48511 227.48285 231.52188 236.27577 241.02861 245.51013 249.63701 253.36794
 256.70630 259.77548 262.68893 265.39069 267.72678 269.60611 270.99991 273.23502
 275.95474 278.52759 280.75400 282.70892 284.40073 285.89755 287.26318 288.50037
 289.61307 290.60391 291.46951 292.57260
 366.78100 356.33843 345.77385 334.64328 323.04970 311.24713 299.12055 286.92698
 274.64240 262.54283 250.55525 239.85968 229.98510 221.09253 213.27795 206.28338
 200.12081 195.06223 191.64766 189.69308 188.73351 188.80093 189.63936 190.95078
 192.67921 194.77763 197.04406 199.40648 201.85491 204.33833 206.42976 208.27519
 209.90461 211.05304 211.28546 211.51689 211.45731 211.16574 210.80216 210.43559
 210.05601 209.76944 209.58086 209.44829 209.37972 209.71414 210.10357 210.49599
 211.29242 212.47384 213.72727 215.51369 217.44512 219.49154 221.58997 223.67639
 225.73982 227.82724 229.92767 232.03710 234.16952 236.34495 238.60437 240.97780
 243.60222 245.85665 247.86207 249.63050 251.05092 252.17735 253.00277 253.32220
 253.36262 253.14005 252.50348 251.45490 250.06433 248.22875 246.14118 243.97760
 241.77203 239.57945 237.40288 235.24530 233.10873 230.97915 229.00858 227.16900
 225.45543 223.93086 222.56428 221.33971 220.22513 219.18856 218.29598 217.44041
 216.68583 215.86926 214.97068 214.33811 213.79153 214.68582 216.91417 219.26347
 221.65105 223.75839 225.16167 225.79930 226.10738 226.44810 226.51108 225.86203
 225.60651 227.43010 231.50070 236.27502 241.02843 245.48242 249.58029 253.27428
 256.56070 259.56577 262.42062 265.10638 267.48511 269.49796 271.21835 273.16910
 275.30887 277.35672 279.24957 280.91159 282.34995 283.62253 284.78354 285.83536
 286.78134 287.62375 288.35968 289.29749
 366.78100 356.33949 345.77598 334.64647 323.05397 311.25246 299.12695 286.93444
 274.65093 262.55242 250.56592 239.87141 229.99790 221.10639 213.29288 206.29937
 200.13787 195.08036 191.66685 189.71334 188.75483 188.82332 189.66282 190.97531
 192.70480 194.80429 197.07178 199.43527 201.88477 204.36926 206.46175 208.30824
 209.93873 211.08822 211.32172 211.55421 211.49570 211.20519 210.84268 210.47717
 210.09867 209.81316 209.62565 209.49414 209.42663 209.76212 210.15261 210.54611
 211.34360 212.52609 213.78058 215.56807 217.50056 219.54806 221.64755 223.73504
 225.79953 227.88802 229.98951 232.10001 234.23350 236.40999 238.67048 241.04497
 243.67046 245.92596 247.93245 249.70194 251.12343 252.25092 253.07741 253.39791
 253.43940 253.21789 252.58238 251.53487 250.14536 248.31086 246.22435 244.06184
 241.85733 239.66582 237.49031 235.33381 233.19830 231.06979 229.10028 227.26177
 225.54926 224.02575 222.66025 221.43674 220.32323 219.28772 218.39621 217.54170
 216.78820 215.97269 215.07518 214.44367 213.89816 214.74753 216.88562 219.28989
 221.62715 223.64575 225.18411 225.91264 226.14926 226.33792 226.22636 225.67567
 225.70441 227.66299 231.58440 236.32294 241.10783 245.58827 249.69241 253.39711
 256.68011 259.61066 262.38174 264.96637 267.25577 269.18991 270.95944 273.03036
 275.14014 277.03726 279.00510 280.75714 282.27341 283.61490 284.83878 285.94757
 286.94479 287.83279 288.60858 289.59720
 366.78100 356.34025 345.77749 334.64874 323.05699 311.25624 299.13148 286.93973
 274.65698 262.55922 250.57347 239.87972 230.00697 221.11621 213.30346 206.31071
 200.14995 195.09320 191.68045 189.72769 188.76994 188.83919 189.67944 190.99268
 192.72293 194.82318 197.09142 199.45567 201.90592 204.39117 206.48441 208.33166
 209.96291 211.11315 211.34740 211.58065 211.52290 211.23314 210.87139 210.50664
 210.12888 209.84413 209.65738 209.52662 209.45987 209.79612 210.18737 210.58161
 211.37986 212.56311 213.81835 215.60660 217.53985 219.58810 221.68834 223.77659
 225.84184 227.93108 230.03333 232.14458 234.27883 236.45607 238.71732 241.09257
 243.71881 245.97506 247.98231 249.75256 251.17480 252.30305 253.13030 253.45154
 253.49379 253.27304 252.63828 251.59153 250.20278 248.36903 246.28327 244.12152
 241.91777 239.72701 237.55226 235.39651 233.26176 231.13400 229.16525 227.32750
 225.61574 224.09299 222.72824 221.50549 220.39273 219.35798 218.46723 217.61347
 216.86072 216.04597 215.14921 214.51846 213.97371 214.79706 216.89674 219.30397
 221.63910 223.60925 225.11833 225.93546 226.22302 226.39754 226.38466 225.38802
 225.33447 227.56268 231.61871 236.35825 241.14421 245.65585 249.79187 253.52834
 256.82495 259.75815 262.47601 264.99649 267.19873 269.05637 270.78403 273.02036
 275.17651 277.33563 279.30524 281.03473 282.53143 283.85562 285.06375 286.15826
 287.14261 288.01920 288.78497 289.76086
 366.78100 356.33981 345.77662 334.64742 323.05523 311.25404 299.12885 286.93665
 274.65346 262.55527 250.56908 239.87488 230.00169 221.11050 213.29731 206.30411
 200.14292 195.08573 191.67254 189.71935 188.76115 188.82996 189.66977 190.98258
 192.71238 194.81219 197.08000 199.44381 201.89361 204.37842 206.47123 208.31804
 209.94884 211.09865 211.33246 211.56527 211.50707 211.21688 210.85469 210.48950
 210.11131 209.82611 209.63892 209.50773 209.44054 209.77634 210.16715 210.56096
 211.35877 212.54157 213.79638 215.58419 217.51700 219.56480 221.66461 223.75242
 225.81723 227.90604 230.00784 232.11865 234.25246 236.42927 238.69007 241.06488
 243.69069 245.94650 247.95330 249.72311 251.14492 252.27273 253.09953 253.42034
 253.46215 253.24096 252.60577 251.55857 250.16938 248.33519 246.24900 244.08680
 241.88261 239.69142 237.51623 235.36003 233.22484 231.09665 229.12746 227.28926
 225.57707 224.05388 222.68869 221.46550 220.35230 219.31711 218.42592 217.57173
 216.81853 216.00334 215.10615 214.47496 213.92976 214.78824 216.95827 219.29747
 221.61559 223.63799 225.10063 225.87286 226.19124 226.34769 226.67767 225.49654
 225.43500 227.58032 231.60022 236.33272 241.10306 245.59940 249.73924 253.49174
 256.82587 259.81650 262.57068 265.11136 267.33551 269.16592 270.87967 273.21228
 275.54193 277.74518 279.65173 281.32584 282.77463 284.05643 285.22586 286.28531
 287.23816 288.08670 288.82794 289.77258
 366.78100 356.33929 345.77557 334.64586 323.05315 311.25143 299.12572 286.93301
 274.64929 262.55058 250.56387 239.86916 229.99544 221.10373 213.29002 206.29630
 200.13459 195.07688 191.66316 189.70945 188.75074 188.81902 189.65831 190.97060
 192.69988 194.79917 197.06646 199.42975 201.87903 204.36332 206.45561 208.30189
 209.93218 211.08147 211.31475 211.54704 211.48833 211.19761 210.83490 210.46919
 210.09047 209.80476 209.61705 209.48533 209.41762 209.75291 210.14320 210.53648
 211.33377 212.51606 213.77034 215.55763 217.48992 219.53720 221.63649 223.72378
 225.78806 227.87635 229.97764 232.08792 234.22121 236.39750 238.65779 241.03207
 243.65736 245.91265 247.91893 249.68822 251.10951 252.23679 253.06308 253.38337
 253.42465 253.20294 252.56723 251.51951 250.12980 248.29509 246.20837 244.04566
 241.84095 239.64924 237.47352 235.31681 233.18110 231.05238 229.08267 227.24396
 225.53124 224.00753 222.64182 221.41810 220.30439 219.26868 218.37696 217.52225
 216.76854 215.95282 215.05511 214.42340 213.87769 214.77307 217.00565 219.28435
 221.56334 223.66997 225.17000 225.84299 226.03008 226.20381 226.34839 225.60559
 225.61166 227.64580 231.60754 236.31352 241.05411 245.51279 249.63141 253.38992
 256.73206 259.74609 262.53696 265.14105 267.43094 269.28796 270.96744 273.35440
 275.58911 277.75381 279.63156 281.28040 282.70728 283.96973 285.12152 286.16495
 287.10342 287.93912 288.66919 289.59955
 366.78100 356.34026 345.77752 334.64877 323.05703 311.25629 299.13155 286.93980
 274.65706 262.55932 250.57358 239.87983 230.00709 221.11635 213.30361 206.31086
 200.15012 195.09338 191.68064 189.72789 188.77015 188.83941 189.67967 190.99293
 192.72318 194.82344 197.09170 199.45596 201.90621 204.39147 206.48473 208.33199
 209.96324 211.11350 211.34776 211.58102 211.52327 211.23353 210.87179 210.50705
 210.12930 209.84456 209.65782 209.52708 209.46034 209.79659 210.18785 210.58211
 211.38037 212.56362 213.81888 215.60714 217.54040 219.58865 221.68891 223.77717
 225.84243 227.93168 230.03394 232.14520 234.27946 236.45671 238.71797 241.09323
 243.71949 245.97575 247.98300 249.75326 251.17552 252.30378 253.13103 253.45229
 253.49455 253.27381 252.63906 251.59232 250.20358 248.36984 246.28409 244.12235
 241.91861 239.72787 237.55312 235.39738 233.26264 231.13490 229.16616 227.32841
 225.61667 224.09393 222.72919 221.50644 220.39370 219.35896 218.46822 217.61447
 216.86173 216.04699 215.15025 214.51950 213.97476 214.83006 216.98059 219.29532
 221.54527 223.60739 225.14656 225.81799 225.97620 226.12794 226.01851 225.51607
 225.69519 227.69299 231.63940 236.33929 241.09473 245.55878 249.67708 253.42378
 256.75177 259.70532 262.44458 265.01758 267.30518 269.22928 271.03049 273.32620
 275.47879 277.50186 279.33762 280.94952 282.34448 283.57867 284.70471 285.72479
 286.64224 287.45926 288.17297 289.08252
 366.78100 356.34110 345.77921 334.65131 323.06042 311.26052 299.13663 286.94573
 274.66384 262.56694 250.58204 239.88915 230.01725 221.12736 213.31546 206.32357
 200.16367 195.10778 191.69588 189.74399 188.78709 188.85719 189.69830 191.01240
 192.74351 194.84461 197.11372 199.47882 201.92993 204.41603 206.51013 208.35824
 209.99034 211.14145 211.37655 211.61066 211.55376 211.26487 210.90397 210.54007
 210.16318 209.87928 209.69339 209.56349 209.49760 209.83470 210.22681 210.62191
 211.42102 212.60512 213.86122 215.65033 217.58443 219.63354 221.73464 223.82375
 225.88985 227.97996 230.08306 232.19516 234.33027 236.50837 238.77048 241.14658
 243.77369 246.03079 248.03890 249.81000 251.23310 252.36221 253.19031 253.51242
 253.55552 253.33563 252.70173 251.65584 250.26794 248.43505 246.35015 244.18925
 241.98636 239.79646 237.62257 235.46767 233.33378 231.20688 229.23899 227.40209
 225.69119 224.16930 222.80540 221.58351 220.47161 219.43772 218.54782 217.69493
 216.94303 216.12913 215.23324 214.60334 214.05945 214.88402 216.96962 219.28859
 221.55888 223.58792 225.06589 225.71960 225.90823 226.10596 226.06142 225.47672
 225.61522 227.69644 231.64236 236.35149 241.12469 245.61507 249.75893 253.52756
 256.86343 259.79126 262.46338 264.96207 267.20343 269.11609 270.96558 273.30151
 275.43369 277.47067 279.40891 281.11084 282.58371 283.88681 285.07568 286.15274
 287.12143 287.98407 288.73761 289.69797
 366.78100 356.34125 345.77950 334.65175 323.06100 311.26125 299.13750 286.94675
 274.66500 262.56824 250.58349 239.89074 230.01899 221.12924 213.31749 206.32574
 200.16599 195.11024 191.69849 189.74674 188.78999 188.86024 189.70149 191.01574
 192.74699 194.84824 197.11749 199.48273 201.93398 204.42023 206.51448 208.36273
 209.99498 211.14623 211.38148 211.61573 211.55898 211.27023 210.90948 210.54573
 210.16898 209.88523 209.69948 209.56973 209.50398 209.84122 210.23347 210.62872
 211.42797 212.61222 213.86847 215.65772 217.59197 219.64122 221.74247 223.83172
 225.89797 227.98822 230.09147 232.20372 234.33897 236.51722 238.77947 241.15571
 243.78296 246.04021 248.04846 249.81971 251.24296 252.37221 253.20046 253.52271
 253.56596 253.34621 252.71246 251.66671 250.27896 248.44621 246.36146 244.20071
 241.99796 239.80820 237.63445 235.47970 233.34595 231.21920 229.25145 227.41470
 225.70395 224.18220 222.81845 221.59670 220.48495 219.45120 218.56145 217.70870
 216.95695 216.14320 215.24745 214.61769 214.07394 214.90540 217.00566 219.27397
 221.54568 223.61935 225.07349 225.64180 225.78609 225.97592 226.16322 225.56062
 225.67261 227.75882 231.64774 236.34163 241.10443 245.59856 249.75909 253.55898
 256.89960 259.86426 262.54620 265.02844 267.23984 269.12369 271.02182 273.38406
 275.58252 277.83722 279.82526 281.57089 283.08157 284.41815 285.63757 286.74231
 287.73587 288.62064 289.39359 290.37857
 366.78100 356.34169 345.78037 334.65306 323.06274 311.26343 299.14011 286.94980
 274.66849 262.57217 250.58786 239.89554 230.02423 221.13491 213.32360 206.33229
 200.17297 195.11766 191.70634 189.75503 188.79871 188.86940 189.71109 191.02577
 192.75746 194.85914 197.12883 199.49451 201.94620 204.43289 206.52757 208.37626
 210.00894 211.16063 211.39631 211.63100 211.57468 211.28637 210.92606 210.56274
 210.18643 209.90311 209.71780 209.58848 209.52317 209.86086 210.25354 210.64923
 211.44891 212.63360 213.89028 215.67997 217.61466 219.66434 221.76603 223.85571
 225.92240 228.01308 230.11677 232.22946 234.36514 236.54383 238.80651 241.18320
 243.81088 246.06857 248.07726 249.84894 251.27263 252.40231 253.23100 253.55368
 253.59737 253.37806 252.74474 251.69943 250.31211 248.47980 246.39548 244.23517
 242.03286 239.84354 237.67023 235.51591 233.38260 231.25628 229.28897 227.45266
 225.74234 224.22103 222.85771 221.63640 220.52508 219.49177 218.60245 217.75014
 216.99883 216.18551 215.29020 214.66088 214.11757 214.93834 217.02776 219.28174
 221.50792 223.60225 225.08572 225.64384 225.72861 225.80257 226.00403 225.63884
 225.98857 227.95833 231.69872 236.34201 241.07578 245.55670 249.72467 253.53735
 256.90649 259.87769 262.58029 265.10663 267.35178 269.24387 271.18872 273.61670
 276.01602 278.33514 280.34195 282.10410 283.62906 284.97827 286.20923 287.32437
 288.32733 289.22046 290.00070 290.99500
 366.78100 356.34199 345.78097 334.65396 323.06394 311.26493 299.14192 286.95190
 274.67089 262.57487 250.59086 239.89885 230.02783 221.13882 213.32780 206.33679
 200.17778 195.12276 191.71175 189.76073 188.80472 188.87571 189.71769 191.03268
 192.76466 194.86665 197.13664 199.50262 201.95461 204.44159 206.53658 208.38557
 210.01855 211.17054 211.40652 211.64151 211.58550 211.29748 210.93747 210.57445
 210.19844 209.91543 209.73041 209.60140 209.53638 209.87437 210.26736 210.66334
 211.46333 212.64831 213.90530 215.69529 217.63027 219.68026 221.78224 223.87223
 225.93922 228.03020 230.13419 232.24717 234.38316 236.56214 238.82513 241.20212
 243.83010 246.08809 248.09707 249.86906 251.29305 252.42303 253.25202 253.57500
 253.61899 253.39998 252.76696 251.72195 250.33493 248.50292 246.41891 244.25889
 242.05688 239.86786 237.69485 235.54084 233.40782 231.28181 229.31479 227.47878
 225.76877 224.24775 222.88474 221.66372 220.55271 219.51970 218.63068 217.77867
 217.02765 216.21464 215.31963 214.69061 214.14760 214.96570 217.05464 219.28271
 221.47736 223.56541 225.03818 225.65872 225.72667 225.68964 225.73093 225.60884
 226.16408 228.10875 231.76414 236.38101 241.10970 245.58871 249.73166 253.54309
 256.93143 259.89078 262.54422 265.07034 267.35995 269.29849 271.39328 273.90073
 276.45218 278.70682 280.65781 282.37094 283.85349 285.16519 286.36188 287.44604
 288.42108 289.28940 290.04791 291.01459
 366.78100 356.34191 345.78082 334.65374 323.06365 311.26456 299.14147 286.95139
 274.67030 262.57421 250.59012 239.89804 230.02695 221.13786 213.32677 206.33569
 200.17660 195.12151 191.71042 189.75934 188.80325 188.87416 189.71607 191.03099
 192.76290 194.86481 197.13472 199.50064 201.95255 204.43946 206.53437 208.38329
 210.01620 211.16811 211.40402 211.63894 211.58285 211.29476 210.93467 210.57158
 210.19550 209.91241 209.72732 209.59823 209.53315 209.87106 210.26397 210.65988
 211.45980 212.64471 213.90162 215.69153 217.62645 219.67636 221.77827 223.86818
 225.93510 228.02601 230.12992 232.24283 234.37875 236.55766 238.82057 241.19748
 243.82540 246.08331 248.09222 249.86413 251.28805 252.41796 253.24687 253.56978
 253.61370 253.39461 252.76152 251.71643 250.32935 248.49726 246.41317 244.25308
 242.05099 239.86191 237.68882 235.53473 233.40164 231.27556 229.30847 227.47238
 225.76229 224.24121 222.87812 221.65703 220.54594 219.51286 218.62377 217.77168
 217.02059 216.20751 215.31242 214.68333 214.14024 214.97888 217.10231 219.26822
 221.42754 223.52771 224.98999 225.64449 225.67505 225.51146 225.63855 225.57913
 226.20126 228.15781 231.78917 236.41789 241.16954 245.65204 249.80177 253.59735
 256.97882 259.94162 262.57855 265.06732 267.32321 269.27997 271.70428 274.42288
 276.96500 279.14395 281.02945 282.68509 284.11789 285.38556 286.54211 287.58987
 288.53223 289.37137 290.10446 291.03867
 366.78100 356.34198 345.78096 334.65393 323.06391 311.26489 299.14187 286.95184
 274.67082 262.57480 250.59078 239.89875 230.02773 221.13871 213.32769 206.33666
 200.17764 195.12262 191.71160 189.76057 188.80455 188.87553 189.71751 191.03248
 192.76446 194.86644 197.13642 199.50239 201.95437 204.44135 206.53633 208.38531
 210.01828 211.17026 211.40624 211.64122 211.58519 211.29717 210.93715 210.57413
 210.19810 209.91508 209.73006 209.60104 209.53601 209.87399 210.26697 210.66295
 211.46292 212.64790 213.90488 215.69486 217.62983 219.67981 221.78179 223.87177
 225.93875 228.02972 230.13370 232.24668 234.38266 236.56163 238.82461 241.20159
 243.82957 246.08754 248.09652 249.86850 251.29248 252.42245 253.25143 253.57441
 253.61839 253.39936 252.76634 251.72132 250.33430 248.50227 246.41825 244.25823
 242.05621 239.86718 237.69416 235.54014 233.40712 231.28110 229.31407 227.47805
 225.76803 224.24701 222.88398 221.66296 220.55194 219.51892 218.62989 217.77787
 217.02685 216.21383 215.31880 214.68978 214.14676 214.99292 217.12236 219.26379
 221.38161 223.50237 225.01649 225.59148 225.47900 225.35262 225.55730 225.58229
 226.27469 228.23151 231.82764 236.45128 241.21617 245.70294 249.85458 253.62773
 256.97455 259.98248 262.68796 265.20844 267.49747 269.28439 271.94186 274.65479
 277.23151 279.44012 281.35135 283.02954 284.48184 285.76678 286.93909 288.00113
 288.95630 289.80688 290.54996 291.49689
 366.78100 356.34206 345.78113 334.65419 323.06426 311.26532 299.14239 286.95245
 274.67152 262.57558 250.59165 239.89971 230.02877 221.13984 213.32890 206.33797
 200.17903 195.12410 191.71316 189.76223 188.80629 188.87736 189.71942 191.03449
 192.76655 194.86861 197.13868 199.50474 201.95681 204.44387 206.53894 208.38800
 210.02107 211.17313 211.40920 211.64426 211.58832 211.30039 210.94045 210.57752
 210.20158 209.91865 209.73371 209.60478 209.53984 209.87791 210.27097 210.66703
 211.46710 212.65216 213.90923 215.69929 217.63436 219.68442 221.78649 223.87655
 225.94362 228.03468 230.13874 232.25181 234.38787 236.56694 238.83000 241.20707
 243.83513 246.09320 248.10226 249.87433 251.29839 252.42846 253.25752 253.58058
 253.62465 253.40571 252.77278 251.72784 250.34091 248.50897 246.42504 244.26510
 242.06317 239.87423 237.70129 235.54736 233.41442 231.28849 229.32155 227.48562
 225.77568 224.25475 222.89181 221.67088 220.55994 219.52700 218.63807 217.78613
 217.03520 216.22226 215.32733 214.69839 214.15546 214.99866 217.11211 219.25009
 221.36458 223.53345 225.01553 225.40445 225.23167 225.27858 225.33180 225.48036
 226.28954 228.34239 231.91237 236.50038 241.24551 245.74159 249.91896 253.69771
 256.96634 259.87320 262.64673 265.21616 267.51285 269.61545 271.98553 274.44757
 276.72473 278.91678 280.81366 282.47925 283.92065 285.19595 286.35947 287.41351
 288.36151 289.20572 289.94321 290.88306
 366.78100 356.34178 345.78055 334.65333 323.06311 311.26388 299.14066 286.95043
 274.66921 262.57299 250.58876 239.89654 230.02532 221.13609 213.32487 206.33364
 200.17442 195.11920 191.70797 189.75675 188.80053 188.87130 189.71308 191.02786
 192.75963 194.86141 197.13118 199.49696 201.94874 204.43551 206.53029 208.37907
 210.01184 211.16362 211.39940 211.63417 211.57795 211.28972 210.92950 210.56628
 210.19005 209.90683 209.72161 209.59238 209.52716 209.86493 210.25771 210.65349
 211.45326 212.63804 213.89482 215.68459 217.61937 219.66915 221.77092 223.86070
 225.92747 228.01825 230.12203 232.23480 234.37058 236.54936 238.81213 241.18891
 243.81668 246.07446 248.08324 249.85501 251.27879 252.40857 253.23734 253.56012
 253.60390 253.38467 252.75145 251.70622 250.31900 248.48678 246.40255 244.24233
 242.04011 239.85088 237.67766 235.52344 233.39021 231.26399 229.29676 227.46054
 225.75032 224.22909 222.86587 221.64465 220.53342 219.50020 218.61097 217.75875
 217.00753 216.19430 215.29908 214.66986 214.12663 214.98203 217.09056 219.25894
 221.23653 223.40269 224.93834 225.26259 225.09190 225.07520 225.20772 225.38223
 226.33955 228.50362 232.04874 236.58122 241.32805 245.82381 249.98517 253.78186
 257.12976 260.00180 262.58920 265.08224 267.38354 269.56876 271.87143 274.20291
 276.30389 278.12463 279.74387 281.23795 282.53094 283.67490 284.71860 285.66412
 286.51450 287.27176 287.93332 288.77637
 366.78100 356.34125 345.77950 334.65176 323.06101 311.26126 299.13751 286.94676
 274.66502 262.56827 250.58352 239.89077 230.01902 221.12928 213.31753 206.32578
 200.16603 195.11028 191.69854 189.74679 188.79004 188.86029 189.70154 191.01580
 192.74705 194.84830 197.11755 199.48280 201.93406 204.42031 206.51456 208.36281
 209.99507 211.14632 211.38157 211.61582 211.55907 211.27033 210.90958 210.54583
 210.16908 209.88533 209.69959 209.56984 209.50409 209.84134 210.23359 210.62885
 211.42810 212.61235 213.86860 215.65785 217.59211 219.64136 221.74261 223.83186
 225.89811 227.98837 230.09162 232.20387 234.33912 236.51737 238.77963 241.15588
 243.78313 246.04038 248.04863 249.81989 251.24314 252.37239 253.20064 253.52289
 253.56615 253.34640 252.71265 251.66690 250.27915 248.44641 246.36166 244.20091
 241.99816 239.80841 237.63467 235.47992 233.34617 231.21942 229.25168 227.41493
 225.70418 224.18243 222.81868 221.59694 220.48519 219.45144 218.56169 217.70894
 216.95720 216.14345 215.24770 214.61795 214.07420 214.95486 217.08417 219.28387
 221.11980 223.12047 224.75766 225.17039 225.04268 224.89113 225.12616 225.21561
 226.33798 228.54095 232.14532 236.66609 241.40422 245.90363 250.07111 253.85776
 257.20761 260.16208 262.77505 265.22260 267.49710 269.60165 271.73471 273.94141
 275.94257 277.63727 279.12988 280.48871 281.71173 282.83884 283.86865 284.80157
 285.64066 286.38785 287.04059 287.87244
 366.78100 356.34135 345.77969 334.65204 323.06139 311.26174 299.13808 286.94743
 274.66578 262.56913 250.58447 239.89182 230.02017 221.13052 213.31886 206.32721
 200.16756 195.11191 191.70025 189.74860 188.79195 188.86230 189.70364 191.01799
 192.74934 194.85069 197.12003 199.48538 201.93673 204.42307 206.51742 208.36577
 209.99812 211.14946 211.38481 211.61916 211.56251 211.27385 210.91320 210.54955
 210.17290 209.88924 209.70359 209.57394 209.50829 209.84563 210.23798 210.63333
 211.43268 212.61702 213.87337 215.66272 217.59706 219.64641 221.74776 223.83711
 225.90345 227.99380 230.09715 232.20950 234.34484 236.52319 238.78554 241.16189
 243.78923 246.04658 248.05493 249.82628 251.24962 252.37897 253.20732 253.52967
 253.57301 253.35336 252.71971 251.67406 250.28640 248.45375 246.36910 244.20844
 242.00579 239.81614 237.64249 235.48783 233.35418 231.22753 229.25988 227.42322
 225.71257 224.19092 222.82727 221.60561 220.49396 219.46031 218.57066 217.71800
 216.96635 216.15270 215.25705 214.62739 214.08374 214.96387 217.07948 219.30634
 221.09502 222.91859 224.58186 225.15300 224.98241 224.74393 224.85556 225.19542
 226.28116 228.57573 232.23547 236.77357 241.51472 246.00476 250.16005 253.92661
 257.24301 260.16122 262.80389 265.29813 267.63120 269.75739 271.87021 273.98160
 275.90012 277.50735 278.86420 280.13052 281.32382 282.41757 283.45441 284.39374
 285.23853 285.99084 286.64804 287.48557
 366.78100 356.34165 345.78029 334.65294 323.06259 311.26324 299.13988 286.94953
 274.66818 262.57183 250.58747 239.89512 230.02377 221.13441 213.32306 206.33171
 200.17236 195.11700 191.70565 189.75430 188.79794 188.86859 189.71024 191.02489
 192.75653 194.85818 197.12783 199.49348 201.94512 204.43177 206.52642 208.37506
 210.00771 211.15936 211.39501 211.62965 211.57330 211.28495 210.92460 210.56124
 210.18489 209.90154 209.71618 209.58683 209.52148 209.85913 210.25177 210.64742
 211.44707 212.63171 213.88836 215.67801 217.61266 219.66230 221.76395 223.85360
 225.92025 228.01089 230.11454 232.22719 234.36283 236.54148 238.80413 241.18078
 243.80842 246.06607 248.07472 249.84636 251.27001 252.39966 253.22831 253.55095
 253.59460 253.37525 252.74190 251.69654 250.30919 248.47684 246.39248 244.23213
 242.02978 239.84043 237.66707 235.51272 233.37937 231.25302 229.28566 227.44931
 225.73896 224.21760 222.85425 221.63290 220.52155 219.48819 218.59884 217.74649
 216.99513 216.18178 215.28643 214.65708 214.11372 214.98816 217.09465 219.30937
 221.07474 222.89452 224.54651 225.08569 224.85757 224.56215 224.58104 225.30415
 226.27177 228.68167 232.39566 236.91635 241.62625 246.10912 250.25066 253.99709
 257.29935 260.20325 262.83188 265.31134 267.65082 269.82068 271.98669 274.10043
 275.97668 277.53574 278.81183 280.09009 281.30054 282.43661 283.50867 284.47986
 285.35333 286.13120 286.81070 287.67667
 366.78100 356.34253 345.78207 334.65560 323.06613 311.26766 299.14520 286.95573
 274.67526 262.57980 250.59633 239.90486 230.03439 221.14593 213.33546 206.34499
 200.18653 195.13206 191.72159 189.77112 188.81566 188.88719 189.72972 191.04526
 192.77779 194.88032 197.15085 199.51739 201.96992 204.45745 206.55299 208.40252
 210.03605 211.18858 211.42512 211.66065 211.60518 211.31772 210.95825 210.59578
 210.22031 209.93785 209.75338 209.62491 209.56045 209.89898 210.29251 210.68904
 211.48958 212.67511 213.93264 215.72318 217.65871 219.70924 221.81177 223.90231
 225.96984 228.06137 230.16591 232.27944 234.41597 236.59550 238.85904 241.23657
 243.86510 246.12364 248.13317 249.90570 251.33023 252.46077 253.29030 253.61383
 253.65837 253.43990 252.80743 251.76296 250.37650 248.54503 246.46156 244.30210
 242.10063 239.91216 237.73969 235.58623 233.45376 231.32829 229.36183 227.52636
 225.81689 224.29642 222.93396 221.71349 220.60302 219.57056 218.68209 217.83062
 217.08015 216.26769 215.37322 214.74475 214.20229 215.03865 217.06273 219.36435
 220.99875 222.84592 224.51968 224.90173 224.71408 224.42461 224.38071 225.32101
 226.23650 228.73119 232.53445 237.06219 241.75508 246.23012 250.35582 254.08003
 257.36386 260.26617 262.89777 265.35730 267.65414 269.82303 272.05774 274.22830
 276.06366 277.50955 278.77707 280.08813 281.29852 282.43161 283.50504 284.47748
 285.35208 286.13092 286.81128 287.67834
 366.78100 356.34373 345.78446 334.65918 323.07091 311.27364 299.15237 286.96409
 274.68482 262.59055 250.60828 239.91800 230.04873 221.16146 213.35219 206.36291
 200.20564 195.15237 191.74310 189.79382 188.83955 188.91228 189.75601 191.07274
 192.80646 194.91019 197.18192 199.54965 202.00337 204.49210 206.58883 208.43956
 210.07428 211.22801 211.46574 211.70247 211.64819 211.36192 211.00365 210.64238
 210.26810 209.98683 209.80356 209.67629 209.61302 209.95274 210.34747 210.74520
 211.54693 212.73365 213.99238 215.78411 217.72084 219.77256 221.87629 223.96802
 226.03675 228.12947 230.23520 232.34993 234.48766 236.66838 238.93311 241.31184
 243.94157 246.20130 248.21202 249.98575 251.41148 252.54321 253.37393 253.69866
 253.74439 253.52712 252.89584 251.85257 250.46730 248.63703 246.55475 244.39648
 242.19621 240.00894 237.83766 235.68539 233.55412 231.42985 229.46458 227.63030
 225.92203 224.40276 223.04149 221.82221 220.71294 219.68167 218.79440 217.94412
 217.19485 216.38358 215.49031 214.86303 214.32176 215.10086 216.96643 219.44792
 221.05522 222.72415 224.46129 224.73895 224.52374 224.24696 224.28380 225.23505
 226.15047 228.71817 232.63055 237.20049 241.89755 246.36310 250.46062 254.16479
 257.42398 260.32034 262.97784 265.43918 267.70172 269.86960 272.10587 274.26260
 276.02725 277.43402 278.66504 279.93970 281.13092 282.20166 283.19659 284.10840
 284.93298 285.66730 286.30878 287.12625
 366.78100 356.34336 345.78372 334.65809 323.06945 311.27181 299.15017 286.96154
 274.68190 262.58726 250.60462 239.91398 230.04435 221.15671 213.34707 206.35743
 200.19979 195.14616 191.73652 189.78688 188.83224 188.90461 189.74797 191.06433
 192.79769 194.90105 197.17242 199.53978 201.99314 204.48150 206.57787 208.42823
 210.06259 211.21595 211.45331 211.68968 211.63504 211.34840 210.98976 210.62812
 210.25349 209.97185 209.78821 209.66057 209.59694 209.93630 210.33066 210.72802
 211.52938 212.71575 213.97411 215.76547 217.70183 219.75320 221.85656 223.94792
 226.01628 228.10864 230.21401 232.32837 234.46573 236.64609 238.91045 241.28882
 243.91818 246.17754 248.18790 249.96127 251.38663 252.51799 253.34835 253.67271
 253.71808 253.50044 252.86880 251.82516 250.43953 248.60889 246.52625 244.36761
 242.16697 239.97934 237.80770 235.65506 233.52342 231.39878 229.43315 227.59851
 225.88987 224.37023 223.00860 221.78896 220.67932 219.64768 218.76004 217.90941
 217.15977 216.34813 215.45449 214.82686 214.28522 215.08745 216.98282 219.39091
 221.23152 222.81938 224.33116 224.62784 224.37263 224.01851 224.19810 225.11128
 226.25925 228.88161 232.80603 237.35870 242.03372 246.48814 250.56796 254.26308
 257.49893 260.37234 263.02893 265.50589 267.78879 269.96204 272.19299 274.34183
 276.10428 277.47760 278.61176 279.64426 280.67694 281.72308 282.70746 283.60281
 284.39264 285.11670 285.74924 286.55536
 366.78100 356.34280 345.78260 334.65640 323.06720 311.26900 299.14680 286.95760
 274.67740 262.58219 250.59899 239.90779 230.03759 221.14939 213.33919 206.34899
 200.19079 195.13659 191.72639 189.77619 188.82099 188.89279 189.73559 191.05139
 192.78419 194.88699 197.15779 199.52458 201.97738 204.46518 206.56098 208.41078
 210.04458 211.19738 211.43418 211.66998 211.61478 211.32758 210.96838 210.60618
 210.23098 209.94878 209.76458 209.63638 209.57217 209.91097 210.30477 210.70157
 211.50237 212.68817 213.94597 215.73677 217.67257 219.72337 221.82617 223.91697
 225.98477 228.07657 230.18137 232.29517 234.43197 236.61177 238.87556 241.25336
 243.88216 246.14096 248.15076 249.92356 251.34836 252.47916 253.30896 253.63276
 253.67756 253.45936 252.82716 251.78296 250.39676 248.56556 246.48236 244.32315
 242.12195 239.93375 237.76155 235.60835 233.47615 231.35095 229.38475 227.54955
 225.84035 224.32015 222.95795 221.73775 220.62755 219.59535 218.70715 217.85595
 217.10575 216.29354 215.39934 214.77114 214.22894 215.06729 217.04799 219.32027
 221.27983 222.85350 224.17108 224.50865 224.28334 223.84543 224.01134 224.98346
 226.30580 228.98651 232.95235 237.51471 242.16666 246.60167 250.66492 254.34169
 257.56815 260.44031 263.08664 265.55234 267.83597 270.02063 272.27844 274.43848
 276.16486 277.47223 278.56311 279.54944 280.53677 281.55530 282.53967 283.43781
 284.22195 284.93109 285.56796 286.37961
 366.78100 356.34294 345.78289 334.65683 323.06777 311.26972 299.14766 286.95860
 274.67855 262.58349 250.60043 239.90938 230.03932 221.15127 213.34121 206.35115
 200.19310 195.13904 191.72898 189.77893 188.82387 188.89581 189.73876 191.05470
 192.78764 194.89059 197.16153 199.52847 201.98142 204.46936 206.56530 208.41525
 210.04919 211.20213 211.43908 211.67502 211.61996 211.33291 210.97385 210.61180
 210.23674 209.95468 209.77063 209.64257 209.57851 209.91746 210.31140 210.70834
 211.50929 212.69523 213.95317 215.74412 217.68006 219.73100 221.83395 223.92489
 225.99283 228.08478 230.18972 232.30366 234.44061 236.62055 238.88450 241.26244
 243.89138 246.15033 248.16027 249.93321 251.35816 252.48910 253.31904 253.64299
 253.68793 253.46987 252.83782 251.79376 250.40770 248.57665 246.49359 244.33453
 242.13348 239.94542 237.77336 235.62031 233.48825 231.36320 229.39714 227.56208
 225.85303 224.33297 222.97091 221.75086 220.64080 219.60874 218.72069 217.86963
 217.11957 216.30752 215.41346 214.78540 214.24335 215.08522 217.07423 219.29509
 221.29349 222.85474 224.02101 224.35422 224.15211 223.71463 223.84142 224.83803
 226.30466 229.09654 233.10767 237.67938 242.31187 246.72523 250.77092 254.42412
 257.64087 260.52216 263.17126 265.61267 267.87933 270.07819 272.37234 274.52472
 276.18619 277.40897 278.44986 279.44742 280.49945 281.55283 282.53839 283.44446
 284.25116 284.95886 285.59369 286.40268
 366.78100 356.34336 345.78371 334.65807 323.06943 311.27179 299.15014 286.96150
 274.68186 262.58722 250.60457 239.91393 230.04429 221.15664 213.34700 206.35736
 200.19972 195.14607 191.73643 189.78679 188.83215 188.90450 189.74786 191.06422
 192.79757 194.90093 197.17229 199.53965 201.99300 204.48136 206.57772 208.42808
 210.06243 211.21579 211.45315 211.68951 211.63486 211.34822 210.98958 210.62793
 210.25329 209.97165 209.78801 209.66036 209.59672 209.93608 210.33044 210.72779
 211.52915 212.71551 213.97386 215.76522 217.70158 219.75294 221.85629 223.94765
 226.01601 228.10837 230.21372 232.32808 234.46544 236.64579 238.91015 241.28851
 243.91787 246.17722 248.18758 249.96094 251.38630 252.51765 253.34801 253.67237
 253.71772 253.50008 252.86844 251.82480 250.43915 248.60851 246.52587 244.36723
 242.16658 239.97894 237.80730 235.65466 233.52301 231.39837 229.43273 227.59808
 225.88944 224.36980 223.00816 221.78851 220.67887 219.64723 218.75959 217.90894
 217.15930 216.34766 215.45401 214.82637 214.28473 215.11656 217.08189 219.28841
 221.30121 222.85802 223.91306 224.18941 223.96622 223.56058 223.70476 224.69339
 226.26137 229.21213 233.28662 237.85040 242.45825 246.84711 250.87213 254.50090
 257.70969 260.60425 263.26675 265.69406 267.94604 270.15771 272.46997 274.59766
 276.18268 277.32315 278.30621 279.34125 280.51553 281.57108 282.55249 283.45792
 284.26712 284.98047 285.60272 286.40970
 366.78100 356.34361 345.78421 334.65882 323.07043 311.27303 299.15164 286.96325
 274.68386 262.58946 250.60707 239.91668 230.04728 221.15989 213.35050 206.36110
 200.20371 195.15032 191.74092 189.79153 188.83714 188.90975 189.75335 191.06996
 192.80357 194.90717 197.17878 199.54639 201.99999 204.48860 206.58521 208.43581
 210.07042 211.22403 211.46164 211.69824 211.64385 211.35746 210.99906 210.63767
 210.26328 209.98188 209.79849 209.67110 209.60770 209.94731 210.34192 210.73953
 211.54113 212.72774 213.98635 215.77795 217.71456 219.76617 221.86977 223.96138
 226.02999 228.12259 230.22820 232.34281 234.48042 236.66102 238.92563 241.30424
 243.93384 246.19345 248.20406 249.97766 251.40327 252.53488 253.36548 253.69009
 253.73570 253.51831 252.88691 251.84352 250.45813 248.62773 246.54534 244.38695
 242.18655 239.99916 237.82777 235.67537 233.54398 231.41959 229.45420 227.61980
 225.91141 224.39202 223.03062 221.81123 220.70184 219.67044 218.78305 217.93266
 217.18326 216.37187 215.47848 214.85109 214.30969 215.13696 217.09148 219.27565
 221.29790 222.85612 223.82100 224.03192 223.77505 223.36823 223.55612 224.56107
 226.21053 229.32033 233.47794 238.02797 242.60300 246.96643 250.97049 254.57826
 257.78156 260.68854 263.36453 265.78494 268.02942 270.24948 272.56882 274.66959
 276.19272 277.29321 278.24612 279.28561 280.43027 281.47983 282.44238 283.32254
 284.13635 284.88065 285.50595 286.31152
 366.78100 356.34375 345.78451 334.65926 323.07101 311.27377 299.15252 286.96428
 274.68503 262.59078 250.60854 239.91829 230.04904 221.16180 213.35255 206.36331
 200.20606 195.15281 191.74357 189.79432 188.84007 188.91283 189.75658 191.07334
 192.80709 194.91084 197.18260 199.55035 202.00410 204.49286 206.58961 208.44037
 210.07512 211.22887 211.46663 211.70338 211.64913 211.36289 211.00464 210.64339
 210.26915 209.98790 209.80466 209.67741 209.61416 209.95392 210.34867 210.74642
 211.54818 212.73493 213.99369 215.78544 217.72219 219.77395 221.87770 223.96945
 226.03821 228.13096 230.23672 232.35147 234.48922 236.66998 238.93473 241.31348
 243.94324 246.20299 248.21375 249.98750 251.41325 252.54501 253.37576 253.70051
 253.74627 253.52902 252.89777 251.85453 250.46928 248.63904 246.55679 244.39854
 242.19830 240.01105 237.83980 235.68756 233.55631 231.43207 229.46682 227.63257
 225.92433 224.40508 223.04383 221.82459 220.71534 219.68410 218.79685 217.94660
 217.19736 216.38611 215.49286 214.86562 214.32437 215.15048 217.10229 219.26271
 221.28877 222.84068 223.73438 223.87874 223.58904 223.15712 223.37935 224.43002
 226.17128 229.42271 233.66515 238.20978 242.75327 247.09160 251.07584 254.66649
 257.86786 260.78574 263.47049 265.87985 268.11206 270.33264 272.65506 274.73941
 276.20157 277.25647 278.18500 279.25269 280.39819 281.45221 282.41763 283.30038
 284.10968 284.84293 285.48410 286.29419
 366.78100 356.34398 345.78495 334.65993 323.07190 311.27488 299.15386 286.96583
 274.68681 262.59278 250.61076 239.92074 230.05171 221.16469 213.35566 206.36664
 200.20962 195.15659 191.74757 189.79854 188.84452 188.91750 189.76147 191.07845
 192.81242 194.91640 197.18838 199.55635 202.01033 204.49930 206.59628 208.44726
 210.08223 211.23621 211.47419 211.71116 211.65714 211.37111 211.01309 210.65207
 210.27804 209.99702 209.81399 209.68697 209.62395 209.96392 210.35890 210.75687
 211.55885 212.74583 214.00480 215.79678 217.73375 219.78573 221.88971 223.98168
 226.05066 228.14363 230.24961 232.36459 234.50256 236.68354 238.94851 241.32749
 243.95747 246.21744 248.22842 250.00239 251.42837 252.56035 253.39132 253.71630
 253.76227 253.54525 252.91423 251.87120 250.48618 248.65615 246.57413 244.41611
 242.21608 240.02906 237.85803 235.70601 233.57499 231.45096 229.48594 227.65191
 225.94389 224.42487 223.06384 221.84482 220.73580 219.70477 218.81775 217.96772
 217.21870 216.40768 215.51465 214.88763 214.34660 215.16757 217.10722 219.25815
 221.27701 222.81470 223.65349 223.72093 223.39186 222.93846 223.18770 224.29918
 226.14664 229.52684 233.84413 238.38885 242.90755 247.22412 251.19098 254.76677
 257.96741 260.89749 263.59149 265.98691 268.20279 270.41312 272.73093 274.79553
 276.20779 277.23553 278.15042 279.24533 280.39801 281.45386 282.42291 283.30826
 284.11191 284.83710 285.47345 286.28928
 366.78100 356.34435 345.78570 334.66106 323.07341 311.27676 299.15611 286.96847
 274.68982 262.59617 250.61452 239.92487 230.05623 221.16958 213.36093 206.37228
 200.21563 195.16299 191.75434 189.80569 188.85204 188.92540 189.76975 191.08710
 192.82145 194.92580 197.19816 199.56651 202.02086 204.51021 206.60756 208.45892
 210.09427 211.24862 211.48697 211.72433 211.67068 211.38503 211.02738 210.66673
 210.29309 210.01244 209.82979 209.70314 209.64050 209.98085 210.37620 210.77455
 211.57690 212.76426 214.02361 215.81596 217.75331 219.80566 221.91002 224.00237
 226.07172 228.16507 230.27143 232.38678 234.52513 236.70648 238.97183 241.35119
 243.98154 246.24189 248.25324 250.02759 251.45395 252.58630 253.41765 253.74300
 253.78936 253.57271 252.94206 251.89941 250.51476 248.68512 246.60347 244.44582
 242.24617 240.05953 237.88888 235.73723 233.60658 231.48293 229.51829 227.68464
 225.97699 224.45834 223.09769 221.87905 220.77040 219.73975 218.85310 218.00346
 217.25481 216.44416 215.55151 214.92486 214.38422 215.19432 217.10826 219.25421
 221.25877 222.78137 223.57918 223.56503 223.18460 222.71707 222.98753 224.16975
 226.13129 229.63663 234.01534 238.56207 243.06274 247.36250 251.31500 254.87697
 258.07739 261.01511 263.71552 266.09924 268.29712 270.49475 272.79697 274.83890
 276.21844 277.23282 278.14362 279.25626 280.41272 281.46994 282.43967 283.32507
 284.12729 284.84784 285.48184 286.29633
 366.78100 356.34480 345.78660 334.66240 323.07520 311.27900 299.15880 286.97160
 274.69340 262.60021 250.61901 239.92981 230.06161 221.17541 213.36721 206.37901
 200.22281 195.17061 191.76241 189.81421 188.86101 188.93481 189.77961 191.09741
 192.83221 194.93702 197.20982 199.57862 202.03342 204.52322 206.62102 208.47282
 210.10862 211.26342 211.50222 211.74002 211.68682 211.40162 211.04442 210.68422
 210.31102 210.03083 209.84863 209.72243 209.66023 210.00103 210.39683 210.79563
 211.59843 212.78623 214.04603 215.83883 217.77663 219.82943 221.93423 224.02703
 226.09683 228.19064 230.29744 232.41324 234.55204 236.73384 238.99964 241.37944
 244.01024 246.27104 248.28284 250.05764 251.48444 252.61724 253.44904 253.77484
 253.82164 253.60545 252.97525 251.93305 250.54885 248.71965 246.63845 244.48125
 242.28205 240.09585 237.92565 235.77445 233.64425 231.52105 229.55685 227.72365
 226.01645 224.49826 223.13806 221.91986 220.81166 219.78146 218.89526 218.04606
 217.29786 216.48766 215.59546 214.96926 214.42906 215.22574 217.10797 219.24286
 221.23906 222.74857 223.51160 223.41324 222.96982 222.48891 222.77501 224.03387
 226.11607 229.74750 234.18625 238.73320 243.22035 247.50816 251.45061 255.00110
 258.20221 261.14438 263.83832 266.21384 268.39502 270.57397 272.85315 274.86520
 276.21936 277.23026 278.14410 279.29520 280.45792 281.51532 282.48767 283.37445
 284.17847 284.90369 285.53763 286.35464
 366.78100 356.34524 345.78748 334.66372 323.07697 311.28121 299.16145 286.97469
 274.69693 262.60417 250.62342 239.93466 230.06690 221.18114 213.37338 206.38562
 200.22987 195.17811 191.77035 189.82259 188.86983 188.94407 189.78932 191.10756
 192.84280 194.94804 197.22128 199.59052 202.04576 204.53601 206.63425 208.48649
 210.12273 211.27797 211.51721 211.75546 211.70270 211.41794 211.06118 210.70142
 210.32866 210.04891 209.86715 209.74139 209.67963 210.02087 210.41711 210.81636
 211.61960 212.80784 214.06808 215.86132 217.79956 219.85280 221.95805 224.05129
 226.12153 228.21577 230.32301 232.43925 234.57850 236.76074 239.02698 241.40722
 244.03846 246.29970 248.31195 250.08719 251.51443 252.64767 253.47991 253.80615
 253.85340 253.63764 253.00788 251.96612 250.58236 248.75360 246.67284 244.51609
 242.31733 240.13157 237.96181 235.81105 233.68129 231.55854 229.59478 227.76202
 226.05526 224.53750 223.17774 221.95999 220.85223 219.82247 218.93671 218.08795
 217.34019 216.53043 215.63868 215.01292 214.47316 215.25533 217.10330 219.23116
 221.22357 222.72348 223.44560 223.26419 222.74832 222.24722 222.54333 223.88895
 226.10104 229.85649 234.35962 238.90907 243.38588 247.66589 251.59917 255.13873
 258.33865 261.28461 263.97156 266.32224 268.50662 270.65326 272.89584 274.87839
 276.21680 277.23132 278.15314 279.35294 280.52521 281.58356 282.55676 283.44525
 284.25064 284.97586 285.61218 286.42673
 366.78100 356.34571 345.78842 334.66513 323.07884 311.28355 299.16426 286.97797
 274.70068 262.60839 250.62810 239.93981 230.07252 221.18723 213.37994 206.39265
 200.23736 195.18607 191.77878 189.83149 188.87920 188.95391 189.79962 191.11833
 192.85404 194.95975 197.23346 199.60317 202.05888 204.54959 206.64830 208.50101
 210.13772 211.29343 211.53314 211.77185 211.71956 211.43527 211.07898 210.71969
 210.34740 210.06811 209.88682 209.76153 209.70024 210.04195 210.43866 210.83837
 211.64208 212.83079 214.09150 215.88521 217.82392 219.87763 221.98334 224.07705
 226.14776 228.24247 230.35018 232.46689 234.60660 236.78931 239.05602 241.43673
 244.06844 246.33015 248.34286 250.11857 251.54628 252.67999 253.51270 253.83941
 253.88712 253.67183 253.04254 252.00125 250.61796 248.78967 246.70938 244.55309
 242.35480 240.16951 238.00022 235.84993 233.72064 231.59835 229.63506 227.80277
 226.09648 224.57919 223.21990 222.00261 220.89532 219.86603 218.98074 218.13245
 217.38516 216.57587 215.68458 215.05929 214.52000 215.28561 217.09442 219.22064
 221.21082 222.69398 223.38330 223.11345 222.52713 222.00166 222.29936 223.73344
 226.08896 229.96848 234.52499 239.08839 243.55652 247.82732 251.75075 255.27861
 258.47986 261.43341 264.12402 266.40842 268.62344 270.73935 272.93430 274.87125
 276.20139 277.23236 278.18140 279.42316 280.60373 281.66248 282.63785 283.52695
 284.33237 285.06067 285.69342 286.51025
 366.78100 356.34595 345.78890 334.66585 323.07980 311.28474 299.16569 286.97964
 274.70259 262.61054 250.63049 239.94244 230.07539 221.19033 213.38328 206.39623
 200.24118 195.19013 191.78308 189.83603 188.88398 188.95893 189.80487 191.12382
 192.85977 194.96572 197.23967 199.60962 202.06557 204.55652 206.65547 208.50841
 210.14536 211.30131 211.54126 211.78021 211.72816 211.44411 211.08806 210.72900
 210.35695 210.07790 209.89685 209.77180 209.71075 210.05270 210.44965 210.84960
 211.65354 212.84249 214.10344 215.89739 217.83634 219.89029 221.99624 224.09019
 226.16114 228.25608 230.36403 232.48098 234.62093 236.80388 239.07083 241.45178
 244.08373 246.34567 248.35862 250.13457 251.56252 252.69647 253.52942 253.85637
 253.90432 253.68927 253.06021 252.01916 250.63611 248.80806 246.72801 244.57196
 242.37391 240.18886 238.01981 235.86975 233.74070 231.61865 229.65560 227.82355
 226.11750 224.60045 223.24140 222.02434 220.91729 219.88824 219.00319 218.15514
 217.40809 216.59904 215.70799 215.08294 214.54388 215.30350 217.09816 219.19655
 221.19893 222.67383 223.31126 222.96674 222.30290 221.75504 222.05055 223.58533
 226.08105 230.06831 234.68465 239.26695 243.72571 247.98788 251.90617 255.42479
 258.63132 261.59695 264.30029 266.45508 268.72791 270.84201 272.98184 274.85602
 276.16171 277.20932 278.22522 279.50430 280.68881 281.75107 282.72589 283.61630
 284.42599 285.15097 285.79184 286.60663
 366.78100 356.34608 345.78917 334.66625 323.08033 311.28542 299.16650 286.98059
 274.70367 262.61175 250.63184 239.94392 230.07700 221.19209 213.38517 206.39826
 200.24334 195.19242 191.78551 189.83859 188.88667 188.96176 189.80784 191.12693
 192.86301 194.96909 197.24318 199.61326 202.06934 204.56043 206.65951 208.51260
 210.14968 211.30576 211.54585 211.78493 211.73301 211.44910 211.09318 210.73427
 210.36235 210.08343 209.90252 209.77760 209.71668 210.05877 210.45585 210.85594
 211.66002 212.84910 214.11019 215.90427 217.84335 219.89744 222.00352 224.09761
 226.16869 228.26377 230.37186 232.48894 234.62902 236.81211 239.07919 241.46028
 244.09236 246.35444 248.36753 250.14361 251.57169 252.70578 253.53886 253.86594
 253.91403 253.69911 253.07020 252.02928 250.64636 248.81845 246.73853 244.58261
 242.38470 240.19978 238.03087 235.88095 233.75203 231.63012 229.66720 227.83528
 226.12937 224.61245 223.25354 222.03662 220.92970 219.90079 219.01587 218.16795
 217.42104 216.61212 215.72121 215.09629 214.55737 215.31657 217.11028 219.17511
 221.15862 222.67299 223.26846 222.79141 222.06573 221.49734 221.80257 223.43753
 226.06787 230.16409 234.84651 239.46217 243.90491 248.14226 252.05005 255.56956
 258.78851 261.77356 264.48053 266.49896 268.79950 270.94943 273.04645 274.87192
 276.13443 277.16571 278.26910 279.56961 280.75739 281.81784 282.79556 283.68698
 284.49658 285.22684 285.86682 286.68985
 366.78100 356.34651 345.79001 334.66752 323.08202 311.28753 299.16904 286.98354
 274.70705 262.61556 250.63606 239.94857 230.08207 221.19758 213.39109 206.40459
 200.25010 195.19961 191.79311 189.84662 188.89512 188.97063 189.81714 191.13664
 192.87315 194.97966 197.25416 199.62467 202.08117 204.57268 206.67219 208.52569
 210.16320 211.31971 211.56021 211.79972 211.74822 211.46473 211.10924 210.75074
 210.37925 210.10076 209.92026 209.79577 209.73527 210.07778 210.47529 210.87579
 211.68030 212.86981 214.13131 215.92582 217.86532 219.91983 222.02634 224.12084
 226.19235 228.28786 230.39636 232.51387 234.65437 236.83788 239.10539 241.48689
 244.11940 246.38191 248.39541 250.17192 251.60042 252.73493 253.56844 253.89594
 253.94445 253.72996 253.10146 252.06097 250.67847 248.85098 246.77149 244.61599
 242.41850 240.23401 238.06551 235.91602 233.78752 231.66603 229.70354 227.87204
 226.16655 224.65006 223.29156 222.07507 220.96857 219.94008 219.05559 218.20809
 217.46160 216.65311 215.76261 215.13812 214.59962 215.34271 217.09833 219.17610
 221.11096 222.62524 223.27815 222.70444 221.76570 221.16217 221.53873 223.33916
 226.10829 230.26514 234.98419 239.65396 244.09018 248.28685 252.18330 255.70822
 258.95166 261.95563 264.65866 266.61182 268.81442 271.01364 273.11334 274.90869
 276.16226 277.18143 278.30322 279.60669 280.79294 281.85321 282.83011 283.72208
 284.53369 285.26514 285.90662 286.74048
 366.78100 356.34686 345.79072 334.66858 323.08344 311.28930 299.17116 286.98602
 274.70987 262.61873 250.63959 239.95245 230.08631 221.20217 213.39603 206.40989
 200.25575 195.20561 191.79947 189.85333 188.90219 188.97805 189.82491 191.14476
 192.88162 194.98848 197.26334 199.63420 202.09106 204.58292 206.68278 208.53664
 210.17450 211.33136 211.57222 211.81208 211.76094 211.47780 211.12265 210.76451
 210.39337 210.11523 209.93509 209.81095 209.75081 210.09367 210.49153 210.89239
 211.69725 212.88711 214.14897 215.94383 217.88369 219.93854 222.04540 224.14026
 226.21212 228.30798 230.41684 232.53470 234.67556 236.85942 239.12728 241.50914
 244.14200 246.40486 248.41872 250.19558 251.62443 252.75929 253.59315 253.92101
 253.96987 253.75573 253.12759 252.08745 250.70531 248.87817 246.79903 244.64389
 242.44675 240.26261 238.09447 235.94532 233.81718 231.69604 229.73390 227.90276
 226.19762 224.68148 223.32334 222.10720 221.00106 219.97292 219.08878 218.24164
 217.49550 216.68736 215.79721 215.17307 214.63493 215.36351 217.08485 219.17427
 221.09410 222.54793 223.19858 222.70145 221.67767 220.72073 221.15340 223.32375
 226.20981 230.37334 235.12695 239.83340 244.27902 248.44379 252.32448 255.86517
 259.11542 262.11111 264.80008 266.77414 268.81570 271.03595 273.14957 274.91562
 276.21188 277.28812 278.36450 279.63293 280.81274 281.87057 282.84622 283.73917
 284.55243 285.28961 285.93494 286.77954
 366.78100 356.34694 345.79088 334.66882 323.08376 311.28970 299.17164 286.98658
 274.71052 262.61946 250.64040 239.95334 230.08728 221.20322 213.39716 206.41110
 200.25704 195.20698 191.80092 189.85486 188.90379 188.97973 189.82667 191.14661
 192.88355 194.99049 197.26543 199.63637 202.09331 204.58525 206.68519 208.53913
 210.17707 211.33401 211.57495 211.81489 211.76383 211.48077 211.12571 210.76765
 210.39659 210.11853 209.93847 209.81441 209.75435 210.09729 210.49523 210.89617
 211.70111 212.89105 214.15299 215.94793 217.88787 219.94281 222.04975 224.14469
 226.21663 228.31257 230.42151 232.53945 234.68038 236.86432 239.13226 241.51420
 244.14714 246.41008 248.42402 250.20096 251.62990 252.76484 253.59878 253.92672
 253.97566 253.76160 253.13354 252.09348 250.71142 248.88436 246.80530 244.65024
 242.45318 240.26912 238.10106 235.95200 233.82394 231.70288 229.74082 227.90976
 226.20470 224.68864 223.33058 222.11452 221.00846 219.98040 219.09634 218.24928
 217.50322 216.69516 215.80510 215.18104 214.64297 215.36864 217.08308 219.14809
 221.08875 222.50790 223.05167 222.57953 221.62671 220.43774 220.83675 223.20805
 226.23640 230.48709 235.27321 240.00722 244.46466 248.60487 252.47844 256.00494
 259.26569 262.24356 264.88394 266.90314 268.86884 271.06363 273.13400 274.85583
 276.20087 277.37311 278.46930 279.66919 280.83835 281.89514 282.86963 283.76569
 284.58148 285.31943 285.97110 286.82617
 366.78100 356.34695 345.79091 334.66886 323.08382 311.28977 299.17173 286.98668
 274.71064 262.61959 250.64055 239.95350 230.08746 221.20341 213.39737 206.41132
 200.25728 195.20723 191.80118 189.85514 188.90409 188.98005 189.82700 191.14696
 192.88391 194.99087 197.26582 199.63678 202.09373 204.58569 206.68564 208.53960
 210.17755 211.33451 211.57546 211.81541 211.76437 211.48132 211.12628 210.76823
 210.39719 210.11914 209.93910 209.81505 209.75501 210.09796 210.49592 210.89687
 211.70183 212.89178 214.15374 215.94869 217.88864 219.94360 222.05055 224.14551
 226.21746 228.31342 230.42237 232.54033 234.68128 236.86524 239.13319 241.51515
 244.14810 246.41106 248.42501 250.20197 251.63092 252.76587 253.59983 253.92778
 253.97674 253.76269 253.13465 252.09460 250.71256 248.88551 246.80647 244.65142
 242.45438 240.27033 238.10229 235.95324 233.82519 231.70415 229.74210 227.91106
 226.20601 224.68997 223.33192 222.11588 221.00983 219.98179 219.09774 218.25070
 217.50465 216.69661 215.80656 215.18252 214.64447 215.37160 217.08954 219.12192
 221.07277 222.49190 222.93396 222.35635 221.45840 220.21384 220.58891 223.06778
 226.25531 230.62573 235.43921 240.18405 244.64609 248.78386 252.60521 256.13306
 259.40726 262.38559 264.97430 267.02631 268.99557 271.11981 273.09485 274.77664
 276.17844 277.40067 278.52731 279.67816 280.83618 281.89349 282.86810 283.76358
 284.58002 285.32193 285.97522 286.83929
 366.78100 356.34706 345.79111 334.66917 323.08423 311.29029 299.17234 286.98740
 274.71146 262.62052 250.64157 239.95463 230.08869 221.20475 213.39880 206.41286
 200.25892 195.20898 191.80303 189.85709 188.90615 188.98221 189.82926 191.14932
 192.88638 194.99343 197.26849 199.63955 202.09661 204.58866 206.68872 208.54278
 210.18084 211.33789 211.57895 211.81901 211.76807 211.48512 211.13018 210.77224
 210.40130 210.12335 209.94341 209.81947 209.75953 210.10258 210.50064 210.90170
 211.70675 212.89681 214.15887 215.95393 217.89398 219.94904 222.05610 224.15116
 226.22321 228.31927 230.42833 232.54639 234.68744 236.87150 239.13956 241.52162
 244.15467 246.41773 248.43179 250.20885 251.63790 252.77296 253.60702 253.93507
 253.98413 253.77019 253.14225 252.10230 250.72036 248.89342 246.81448 244.65953
 242.46259 240.27865 238.11071 235.96176 233.83382 231.71288 229.75094 227.91999
 226.21505 224.69911 223.34117 222.12522 221.01928 219.99134 219.10740 218.26045
 217.51451 216.70657 215.81662 215.19268 214.65474 215.37749 217.08508 219.10983
 221.03136 222.46904 222.87679 222.15498 221.19611 219.98772 220.37833 222.94244
 226.27855 230.75874 235.60983 240.36574 244.81430 248.95412 252.77321 256.24036
 259.46445 262.45883 265.03882 267.14578 269.15909 271.19269 273.06451 274.71823
 276.15826 277.40131 278.51483 279.63342 280.78195 281.83511 282.80612 283.69788
 284.51321 285.25525 285.91089 286.78207
 366.78100 356.34711 345.79122 334.66933 323.08444 311.29055 299.17266 286.98777
 274.71188 262.62099 250.64210 239.95521 230.08932 221.20543 213.39954 206.41365
 200.25976 195.20987 191.80398 189.85808 188.90719 188.98330 189.83041 191.15052
 192.88763 194.99474 197.26985 199.64096 202.09807 204.59018 206.69029 208.54440
 210.18251 211.33962 211.58073 211.82084 211.76995 211.48706 211.13217 210.77428
 210.40339 210.12550 209.94561 209.82172 209.76183 210.10494 210.50305 210.90416
 211.70927 212.89938 214.16149 215.95660 217.89671 219.95182 222.05893 224.15404
 226.22614 228.32225 230.43136 232.54947 234.69058 236.87469 239.14280 241.52491
 244.15802 246.42113 248.43524 250.21235 251.64146 252.77657 253.61068 253.93879
 253.98790 253.77401 253.14612 252.10623 250.72434 248.89745 246.81856 244.66367
 242.46678 240.28289 238.11500 235.96611 233.83822 231.71733 229.75544 227.92455
 226.21966 224.70377 223.34588 222.12999 221.02410 219.99621 219.11231 218.26542
 217.51953 216.71164 215.82175 215.19786 214.65997 215.37813 217.07480 219.10481
 221.00069 222.42249 222.83092 222.00159 220.92903 219.72670 220.12415 222.79541
 226.29753 230.88565 235.78214 240.56299 245.01282 249.12823 252.94238 256.39630
 259.56937 262.52487 265.10760 267.26416 269.29843 271.26068 273.06207 274.65497
 276.05896 277.28497 278.46646 279.74518 280.91843 281.96945 282.93719 283.82761
 284.63876 285.37720 286.02750 286.90900
 366.78100 356.34695 345.79091 334.66886 323.08381 311.28976 299.17172 286.98667
 274.71062 262.61957 250.64053 239.95348 230.08743 221.20339 213.39734 206.41129
 200.25724 195.20720 191.80115 189.85510 188.90405 188.98001 189.82696 191.14691
 192.88387 194.99082 197.26577 199.63672 202.09368 204.58563 206.68558 208.53953
 210.17749 211.33444 211.57539 211.81535 211.76430 211.48125 211.12620 210.76816
 210.39711 210.11906 209.93901 209.81497 209.75492 210.09787 210.49583 210.89678
 211.70173 212.89168 214.15364 215.94859 217.88854 219.94349 222.05045 224.14540
 226.21735 228.31330 230.42226 232.54021 234.68116 236.86512 239.13307 241.51502
 244.14797 246.41093 248.42488 250.20183 251.63078 252.76574 253.59969 253.92764
 253.97660 253.76255 253.13450 252.09445 250.71241 248.88536 246.80631 244.65126
 242.45422 240.27017 238.10212 235.95308 233.82503 231.70398 229.74193 227.91089
 226.20584 224.68979 223.33174 222.11570 221.00965 219.98160 219.09756 218.25051
 217.50446 216.69641 215.80637 215.18232 214.64427 215.36714 217.07500 219.08894
 220.97383 222.38399 222.73984 221.85535 220.69167 219.47235 219.85941 222.65654
 226.33337 231.02057 235.94710 240.74443 245.19644 249.31792 253.13985 256.56943
 259.71454 262.59924 265.16544 267.32703 269.35413 271.29211 273.06381 274.61957
 276.02261 277.29660 278.53912 279.80450 280.97299 282.02377 282.99063 283.87769
 284.68567 285.42218 286.07455 286.95944
 354.97500 345.04800 334.58700 324.11500 313.32600 302.53700 291.65000 280.76700
 269.93100 259.19300 248.62200 238.61700 229.08700 220.35500 212.54000 205.53500
 199.46400 194.49300 191.14300 189.19000 188.08900 188.01400 188.72400 189.90600
 191.46900 193.38200 195.40300 197.55600 199.80700 202.06000 204.28800 206.47900
 208.55200 210.37800 212.02500 213.65900 214.99800 216.11800 217.17200 218.25900
 219.49400 220.64500 221.67900 222.61400 223.54500 224.98200 226.57100 228.19000
 229.79700 231.81100 233.86500 235.97200 238.24200 240.55300 242.89900 245.25300
 247.48800 249.53500 251.36600 252.84800 254.09800 255.16700 256.02700 256.25300
 256.09500 255.54300 253.93500 252.56600 251.38400 250.24500 249.05200 247.70100
 246.01600 243.99600 241.78400 239.39300 236.81300 234.22300 231.65800 229.14400
 226.74000 224.47300 222.33500 220.32500 218.44000 216.67700 214.96200 213.47200
 212.20000 211.10800 210.26000 209.63900 209.24400 209.03100 209.05800 209.33300
 209.78400 210.62600 211.33100 212.39100 213.62500 214.84668 217.72949 219.47640
 220.32566 220.86828 220.88710 220.27371 219.43733 218.84250 219.04934 220.86203
 222.60583 225.72206 229.03064 232.61777 236.12270 239.51333 242.70767 245.68587
 248.41061 250.90679 253.19353 254.91714 256.48655 257.94920 259.39966 260.69384
 261.81714 262.77997 263.71679 264.54570 265.26305 265.89772 266.47676 267.00133
 267.47312 267.89325 268.26027 268.72800
