|-------------------------------------------------------------------------|
|   File Name : in_temp.dat
|   Subject   : temperature profiles used for initial guess atmosphere
|   File Type : input of gmtr
|   Data Type : atmospherical data
|   Author/s  : WRF-Chem
|   Date      : Fri Jul 26 15:39:24 2024
|-------------------------------------------------------------------------|

 WRF-Chem temperature
#
 values of T (K)    (8f10.5)
#
 354.97500 345.04800 334.58700 324.11500 313.32600 302.53700 291.65000 280.76700
 269.93100 259.19300 248.62200 238.61700 229.08700 220.35500 212.54000 205.53500
 199.46400 194.49300 191.14300 189.19000 188.08900 188.01400 188.72400 189.90600
 191.46900 193.38200 195.40300 197.55600 199.80700 202.06000 204.28800 206.47900
 208.55200 210.37800 212.02500 213.65900 214.99800 216.11800 217.17200 218.25900
 219.49400 220.64500 221.67900 222.61400 223.54500 224.98200 226.57100 228.19000
 229.79700 231.81100 233.86500 235.97200 238.24200 240.55300 242.89900 245.25300
 247.48800 249.53500 251.36600 252.84800 254.09800 255.16700 256.02700 256.25300
 256.09500 255.54300 253.93500 252.56600 251.38400 250.24500 249.05200 247.70100
 246.01600 243.99600 241.78400 239.39300 236.81300 234.22300 231.65800 229.14400
 226.74000 224.47300 222.33500 220.32500 218.44000 216.67700 214.96200 213.47200
 212.20000 211.10800 210.26000 209.63900 209.24400 209.03100 209.05800 209.33300
 209.78400 210.62600 211.33100 212.39100 213.62500 214.84668 217.72949 219.47640
 220.32566 220.86828 220.88710 220.27371 219.43733 218.84250 219.04934 220.86203
 222.60583 225.72206 229.03064 232.61777 236.12270 239.51333 242.70767 245.68587
 248.41061 250.90679 253.19353 254.91714 256.48655 257.94920 259.39966 260.69384
 261.81714 262.77997 263.71679 264.54570 265.26305 265.89772 266.47676 267.00133
 267.47312 267.89325 268.26027 268.72800
 366.78100 356.33500 345.76700 334.63300 323.03600 311.23000 299.10000 286.90300
 274.61500 262.51200 250.52100 239.82200 229.94400 221.04800 213.23000 206.23200
 200.06600 195.00400 191.58600 189.62800 188.66500 188.72900 189.56400 190.87200
 192.59700 194.69200 196.95500 199.31400 201.75900 204.23900 206.32700 208.16900
 209.79500 210.94000 211.16900 211.39700 211.33400 211.03900 210.67200 210.30200
 209.91900 209.62900 209.43700 209.30100 209.22900 209.56000 209.94600 210.33500
 211.12800 212.30600 213.55600 215.33900 217.26700 219.31000 221.40500 223.48800
 225.54800 227.63200 229.72900 231.83500 233.96400 236.13600 238.39200 240.76200
 243.38300 245.63400 247.63600 249.40100 250.81800 251.94100 252.76300 253.07900
 253.11600 252.89000 252.25000 251.19800 249.80400 247.96500 245.87400 243.70700
 241.49800 239.30200 237.12200 234.96100 232.82100 230.68800 228.71400 226.87100
 225.15400 223.62600 222.25600 221.02800 219.91000 218.87000 217.97400 217.11500
 216.35700 215.53700 214.63500 213.99900 213.44900 212.85855 212.01316 212.61654
 214.26826 216.08686 218.14273 220.53346 223.40855 226.78828 231.49734 235.90155
 239.42278 243.28576 247.23140 251.11907 254.80144 258.23331 261.38913 264.27520
 266.89312 269.26852 271.44504 273.08845 274.58484 275.98591 277.39845 278.65879
 279.75272 280.69038 281.56708 282.34086 283.01050 283.60295 284.14348 284.63317
 285.07358 285.46577 285.80838 286.24500
 381.81900 372.39900 361.20600 349.77600 337.62200 324.85300 311.81000 298.35300
 284.86000 271.32400 258.56100 246.30400 236.08700 226.79600 218.44800 211.29000
 205.52200 200.89400 197.38100 194.84800 193.01500 192.31500 192.25000 192.43100
 192.91200 193.53700 194.13600 194.71200 195.26200 195.83100 196.39300 196.97600
 197.60400 198.14900 198.58400 199.05700 199.69500 200.37800 201.05400 201.70800
 202.31300 202.85700 203.35500 203.86200 204.56900 205.29700 206.02600 206.98700
 208.19300 209.44100 210.96900 212.57600 214.46200 216.51300 218.63000 220.85300
 223.34100 225.96200 228.73900 231.69700 234.70600 237.70600 240.69200 243.65700
 246.73700 249.69900 252.52100 255.06300 257.29000 259.23300 260.63300 261.68000
 262.46100 262.79800 262.69100 262.22400 261.06900 259.52500 257.70700 255.50700
 253.00100 250.30200 247.39800 244.45200 241.65400 239.05400 236.73300 234.59000
 232.59500 230.72500 228.83400 226.82600 224.66600 222.38700 220.10400 217.71500
 215.45900 213.06600 210.54600 208.09300 205.35400 202.08130 196.05959 200.71215
 209.01611 216.90438 223.84126 229.78593 235.00632 240.20838 245.98943 250.68668
 254.32982 257.93487 261.55666 264.96801 268.15192 271.06452 273.76717 276.25691
 278.57680 280.74479 282.77456 284.60533 286.27232 287.81705 289.31715 290.65561
 291.81734 292.81312 293.70701 294.49387 295.17482 295.77730 296.32696 296.82492
 297.27278 297.67160 298.02000 298.46400
 399.33000 389.90700 379.81300 368.66800 357.52200 345.30100 333.07400 320.22700
 307.21600 293.84800 280.37600 267.29600 254.61000 242.98700 232.15100 221.97700
 212.67200 204.28600 197.66900 192.82100 189.48600 187.45200 186.81400 187.08900
 187.78100 189.05400 190.64800 192.54200 194.63000 196.75200 198.67100 200.15800
 201.53500 202.48700 202.97500 203.34000 203.53900 203.49700 203.38500 203.24700
 203.00500 202.78600 202.60300 202.43700 202.42600 202.88800 203.42000 203.95100
 204.89500 205.99200 207.30100 208.95800 210.73800 213.10000 215.56400 218.18000
 220.96600 223.91800 226.96100 230.09200 233.29300 236.55700 239.95500 243.53700
 246.84500 249.39000 251.54200 253.47400 255.19500 256.48400 257.43100 258.05900
 258.21200 258.04000 257.58200 256.64300 255.23900 253.50700 251.40800 249.05600
 246.57600 243.99400 241.38900 238.83000 236.34400 233.98600 231.96900 230.11800
 228.42300 226.89900 225.54800 224.29700 223.10500 221.96500 220.95800 220.11300
 219.49000 218.92000 218.32500 217.88100 217.42300 216.96366 216.35568 216.80261
 217.73415 218.28582 218.64258 219.10077 220.44626 222.53987 226.38451 230.35736
 233.59734 237.39164 241.29814 245.22796 248.98002 252.51130 255.78595 258.80109
 261.54781 264.05210 266.34239 268.04198 269.58951 271.01303 272.35754 273.55718
 274.59842 275.49092 276.28989 276.99307 277.60161 278.14001 278.63122 279.07623
 279.47646 279.83287 280.14422 280.54100
 399.73800 389.78500 379.66200 368.15100 356.64100 344.35000 331.79200 318.88800
 305.72600 292.49300 279.20900 266.73800 254.69600 244.21100 234.45700 225.43300
 217.56900 210.45100 204.30000 199.30600 195.45800 192.57600 191.02700 190.38600
 190.23900 190.53400 191.16600 191.92500 192.79500 193.76600 194.73200 195.31200
 195.80000 196.05200 196.11500 196.11500 196.03900 195.72300 195.34000 194.98900
 194.75100 194.79200 195.13300 195.59800 196.50600 198.13600 199.85800 201.56600
 204.17900 206.82300 209.89300 213.28400 216.82800 220.60500 224.38700 228.20900
 232.03200 235.82500 239.56000 243.25800 246.84500 250.20100 253.70900 257.46800
 261.53000 264.22100 266.60100 268.68100 270.32900 271.74100 272.83600 273.47400
 273.89800 274.00200 273.75700 273.28800 272.37100 271.10000 269.58900 267.77900
 265.81600 263.72100 261.39300 258.91600 256.29800 253.42300 250.33100 247.11400
 243.83700 240.52900 237.24900 233.99900 230.72800 227.51500 224.25400 220.95200
 217.62700 213.65600 210.12100 206.78900 204.01000 201.99491 199.07309 198.76551
 199.40006 200.48994 201.46112 202.31912 203.45100 204.96110 207.47502 210.85391
 213.70530 217.29629 220.99574 224.72316 228.28753 231.64854 234.68024 237.40893
 239.70644 241.60899 243.46854 245.67368 247.68154 249.52395 251.24767 252.78566
 254.12057 255.26479 256.23740 257.09036 257.82852 258.48160 259.07744 259.61723
 260.10271 260.53504 260.91270 261.39400
 399.73800 389.78500 379.66200 368.15100 356.64100 344.35000 331.79200 318.88800
 305.72600 292.49300 279.20900 266.73800 254.69600 244.21100 234.45700 225.43300
 217.56900 210.45100 204.30000 199.30600 195.45800 192.57600 191.02700 190.38600
 190.23900 190.53400 191.16600 191.92500 192.79500 193.76600 194.73200 195.31200
 195.80000 196.05200 196.11500 196.11500 196.03900 195.72300 195.34000 194.98900
 194.75100 194.79200 195.13300 195.59800 196.50600 198.13600 199.85800 201.56600
 204.17900 206.82300 209.89300 213.28400 216.82800 220.60500 224.38700 228.20900
 232.03200 235.82500 239.56000 243.25800 246.84500 250.20100 253.70900 257.46800
 261.53000 264.22100 266.60100 268.68100 270.32900 271.74100 272.83600 273.47400
 273.89800 274.00200 273.75700 273.28800 272.37100 271.10000 269.58900 267.77900
 265.81600 263.72100 261.39300 258.91600 256.29800 253.42300 250.33100 247.11400
 243.83700 240.52900 237.24900 233.99900 230.72800 227.51500 224.25400 220.95200
 217.62700 213.65600 210.12100 206.78900 204.01000 201.99491 199.07309 198.76551
 199.40006 200.48994 201.46112 202.31912 203.45100 204.96110 207.47502 210.85391
 213.70530 217.29629 220.99574 224.72316 228.28753 231.64854 234.68024 237.40893
 239.70644 241.60899 243.46854 245.67368 247.68154 249.52395 251.24767 252.78566
 254.12057 255.26479 256.23740 257.09036 257.82852 258.48160 259.07744 259.61723
 260.10271 260.53504 260.91270 261.39400
 399.33000 389.90700 379.81300 368.66800 357.52200 345.30100 333.07400 320.22700
 307.21600 293.84800 280.37600 267.29600 254.61000 242.98700 232.15100 221.97700
 212.67200 204.28600 197.66900 192.82100 189.48600 187.45200 186.81400 187.08900
 187.78100 189.05400 190.64800 192.54200 194.63000 196.75200 198.67100 200.15800
 201.53500 202.48700 202.97500 203.34000 203.53900 203.49700 203.38500 203.24700
 203.00500 202.78600 202.60300 202.43700 202.42600 202.88800 203.42000 203.95100
 204.89500 205.99200 207.30100 208.95800 210.73800 213.10000 215.56400 218.18000
 220.96600 223.91800 226.96100 230.09200 233.29300 236.55700 239.95500 243.53700
 246.84500 249.39000 251.54200 253.47400 255.19500 256.48400 257.43100 258.05900
 258.21200 258.04000 257.58200 256.64300 255.23900 253.50700 251.40800 249.05600
 246.57600 243.99400 241.38900 238.83000 236.34400 233.98600 231.96900 230.11800
 228.42300 226.89900 225.54800 224.29700 223.10500 221.96500 220.95800 220.11300
 219.49000 218.92000 218.32500 217.88100 217.42300 216.96366 216.35568 216.80261
 217.73415 218.28582 218.64258 219.10077 220.44626 222.53987 226.38451 230.35736
 233.59734 237.39164 241.29814 245.22796 248.98002 252.51130 255.78595 258.80109
 261.54781 264.05210 266.34239 268.04198 269.58951 271.01303 272.35754 273.55718
 274.59842 275.49092 276.28989 276.99307 277.60161 278.14001 278.63122 279.07623
 279.47646 279.83287 280.14422 280.54100
 381.81900 372.39900 361.20600 349.77600 337.62200 324.85300 311.81000 298.35300
 284.86000 271.32400 258.56100 246.30400 236.08700 226.79600 218.44800 211.29000
 205.52200 200.89400 197.38100 194.84800 193.01500 192.31500 192.25000 192.43100
 192.91200 193.53700 194.13600 194.71200 195.26200 195.83100 196.39300 196.97600
 197.60400 198.14900 198.58400 199.05700 199.69500 200.37800 201.05400 201.70800
 202.31300 202.85700 203.35500 203.86200 204.56900 205.29700 206.02600 206.98700
 208.19300 209.44100 210.96900 212.57600 214.46200 216.51300 218.63000 220.85300
 223.34100 225.96200 228.73900 231.69700 234.70600 237.70600 240.69200 243.65700
 246.73700 249.69900 252.52100 255.06300 257.29000 259.23300 260.63300 261.68000
 262.46100 262.79800 262.69100 262.22400 261.06900 259.52500 257.70700 255.50700
 253.00100 250.30200 247.39800 244.45200 241.65400 239.05400 236.73300 234.59000
 232.59500 230.72500 228.83400 226.82600 224.66600 222.38700 220.10400 217.71500
 215.45900 213.06600 210.54600 208.09300 205.35400 202.08130 196.05959 200.71215
 209.01611 216.90438 223.84126 229.78593 235.00632 240.20838 245.98943 250.68668
 254.32982 257.93487 261.55666 264.96801 268.15192 271.06452 273.76717 276.25691
 278.57680 280.74479 282.77456 284.60533 286.27232 287.81705 289.31715 290.65561
 291.81734 292.81312 293.70701 294.49387 295.17482 295.77730 296.32696 296.82492
 297.27278 297.67160 298.02000 298.46400
 366.78100 356.33681 345.77062 334.63843 323.04324 311.23904 299.11085 286.91566
 274.62947 262.52828 250.53909 239.84190 229.96571 221.07152 213.25533 206.25913
 200.09494 195.03475 191.61856 189.66237 188.70118 188.76699 189.60380 190.91361
 192.64042 194.73722 197.00203 199.36284 201.80965 204.29146 206.38127 208.22508
 209.85289 210.99970 211.23051 211.46031 211.39912 211.10593 210.74074 210.37255
 209.99136 209.70317 209.51298 209.37879 209.30860 209.64140 210.02921 210.42002
 211.21483 212.39464 213.64645 215.43126 217.36107 219.40588 221.50268 223.58749
 225.64930 227.73511 229.83392 231.94173 234.07254 236.24635 238.50416 240.87597
 243.49877 245.75158 247.75539 249.52220 250.94101 252.06582 252.88963 253.20744
 253.24625 253.02206 252.38386 251.33367 249.94148 248.10429 246.01510 243.84991
 241.64272 239.44853 237.27034 235.11115 232.97295 230.84176 228.86957 227.02838
 225.31319 223.78700 222.41881 221.19262 220.07643 219.03824 218.14404 217.28685
 216.53066 215.71247 214.81228 214.17809 213.62990 213.07796 211.77654 211.47336
 212.17154 214.06009 215.98898 216.97821 218.82814 222.88504 228.83873 233.86964
 237.69211 241.40894 245.13208 248.96758 252.91632 256.09647 258.66681 261.17670
 264.02353 266.73492 269.10522 271.14066 272.98672 274.74503 276.38492 278.04123
 279.74579 281.38300 282.87744 284.23315 285.41327 286.46042 287.41907 288.29086
 289.08032 289.78696 290.41507 291.24570
 366.78100 356.33426 345.76553 334.63079 323.03306 311.22632 299.09559 286.89785
 274.60911 262.50538 250.51364 239.81391 229.93517 221.03844 213.21970 206.22096
 200.05423 194.99149 191.57276 189.61402 188.65029 188.71355 189.54781 190.85508
 192.57934 194.67361 196.93587 199.29414 201.73840 204.21766 206.30493 208.14619
 209.77146 210.91572 211.14399 211.37125 211.30751 211.01178 210.64404 210.27331
 209.88957 209.59884 209.40610 209.26936 209.19663 209.52689 209.91216 210.30042
 211.09269 212.26995 213.51921 215.30148 217.22874 219.27101 221.36527 223.44753
 225.50680 227.59006 229.68633 231.79159 233.91986 236.09112 238.34638 240.71565
 243.33591 245.58618 247.58744 249.35171 250.76797 251.89023 252.71150 253.02676
 253.06303 252.83629 252.19556 251.14282 249.74808 247.90835 245.81661 243.64888
 241.43914 239.24241 237.06167 234.89993 232.75920 230.62546 228.65073 226.80699
 225.08926 223.56052 222.18978 220.96105 219.84231 218.80158 217.90484 217.04511
 216.28637 215.46563 214.56290 213.92616 213.37543 212.95058 211.94823 211.62436
 212.25565 214.15045 216.00777 217.01770 218.73476 222.79276 228.78648 233.79073
 237.60498 241.33189 245.08156 248.93332 252.87154 256.00815 258.53833 261.05676
 263.88223 266.60355 269.00916 271.04361 272.86658 274.60315 276.24835 277.91547
 279.62817 281.27255 282.77258 284.12820 285.30930 286.35703 287.31595 288.18863
 288.97903 289.68756 290.31290 291.14749
 366.78100 356.33196 345.76091 334.62387 323.02383 311.21478 299.08174 286.88170
 274.59065 262.48461 250.49057 239.78852 229.90748 221.00844 213.18739 206.18635
 200.01731 194.95226 191.53122 189.57018 188.60413 188.66509 189.49705 190.80200
 192.52396 194.61592 196.87587 199.23183 201.67379 204.15074 206.23570 208.07466
 209.69761 210.83957 211.06553 211.29048 211.22444 210.92640 210.55635 210.18331
 209.79727 209.50422 209.30918 209.17014 209.09509 209.42305 209.80601 210.19196
 210.98192 212.15688 213.40383 215.18379 217.10875 219.14870 221.24066 223.32062
 225.37757 227.45853 229.55249 231.65544 233.78140 235.95036 238.20331 240.57027
 243.18823 245.43618 247.43514 249.19710 250.61105 251.73101 252.54997 252.86292
 252.89688 252.66784 252.02479 250.96975 249.57271 247.73066 245.63662 243.46658
 241.25453 239.05549 236.87245 234.70840 232.56536 230.42932 228.45227 226.60623
 224.88619 223.35515 221.98210 220.75106 219.63002 218.58697 217.68793 216.82589
 216.06484 215.24180 214.33676 213.69771 213.14467 212.83455 212.10248 211.76573
 212.35901 214.23721 216.01666 217.05844 218.67438 222.71686 228.74071 233.71117
 237.51503 241.25203 245.02798 248.89471 252.81589 255.91208 258.41162 260.94012
 263.74023 266.46899 268.90900 270.94220 272.74341 274.46106 276.11295 277.79208
 279.51529 281.16443 282.67130 284.02802 285.20956 286.25793 287.21725 288.09018
 288.87982 289.59039 290.21854 291.04700
 366.78100 356.33008 345.75717 334.61825 323.01633 311.20542 299.07050 286.86858
 274.57566 262.46775 250.47183 239.76791 229.88500 220.98408 213.16116 206.15825
 199.98733 194.92041 191.49750 189.53458 188.56666 188.62574 189.45583 190.75891
 192.47899 194.56908 196.82716 199.18124 201.62133 204.09641 206.17949 208.01657
 209.63766 210.77774 211.00182 211.22491 211.15699 210.85707 210.48516 210.11024
 209.72232 209.42741 209.23049 209.08957 209.01265 209.33874 209.71982 210.10390
 210.89199 212.06507 213.31015 215.08824 217.01132 219.04940 221.13949 223.21757
 225.27265 227.35173 229.44382 231.54490 233.66898 235.83607 238.08715 240.45223
 243.06832 245.31440 247.31148 249.07156 250.48365 251.60173 252.41881 252.72990
 252.76198 252.53106 251.88615 250.82923 249.43031 247.58640 245.49048 243.31856
 241.10464 238.90373 236.71881 234.55289 232.40798 230.27006 228.29114 226.44323
 224.72131 223.18839 221.81348 220.58056 219.45764 218.41272 217.51181 216.64789
 215.88497 215.06006 214.15314 213.51222 212.95731 212.73926 212.22429 211.91962
 212.46530 214.31459 216.04128 217.10231 218.62900 222.66029 228.69447 233.62697
 237.41911 241.16931 244.97357 248.85301 252.75139 255.81166 258.28867 260.82794
 263.59756 266.32864 268.79779 270.83075 272.61542 274.32138 275.98267 277.67633
 279.40829 281.06216 282.57416 283.93182 285.11346 286.16254 287.12241 287.99564
 288.78931 289.49673 290.12701 290.95978
 366.78100 356.32850 345.75399 334.61349 323.00998 311.19748 299.06097 286.85747
 274.56296 262.45346 250.45595 239.75045 229.86594 220.96344 213.13893 206.13443
 199.96192 194.89342 191.46891 189.50441 188.53490 188.59240 189.42090 190.72239
 192.44089 194.52938 196.78588 199.13837 201.57687 204.05036 206.13186 207.96735
 209.58685 210.72534 210.94784 211.16933 211.09983 210.79832 210.42482 210.04831
 209.65881 209.36230 209.16380 209.02129 208.94279 209.26729 209.64678 210.02928
 210.81577 211.98727 213.23076 215.00726 216.92875 218.96525 221.05374 223.13024
 225.18373 227.26123 229.35172 231.45122 233.57371 235.73921 237.98870 240.35220
 242.96669 245.21119 247.20669 248.96518 250.37568 251.49217 252.30767 252.61716
 252.64766 252.41515 251.76865 250.71014 249.30964 247.46413 245.36663 243.19312
 240.97762 238.77511 236.58861 234.42110 232.27460 230.13509 228.15459 226.30508
 224.58158 223.04708 221.67057 220.43607 219.31156 218.26506 217.36255 216.49705
 215.73254 214.90604 213.99753 213.35503 212.79852 212.65764 212.32477 212.07643
 212.57629 214.38788 216.08067 217.14581 218.59482 222.62193 228.64531 233.54283
 237.32458 241.08875 244.91957 248.80890 252.67703 255.70543 258.16660 260.71716
 263.45230 266.17874 268.67255 270.70798 272.48529 274.18600 275.85886 277.56894
 279.30643 280.96704 282.48419 283.84232 285.02481 286.07425 287.03433 287.90900
 288.70206 289.41125 290.03870 290.87598
 366.78100 356.32706 345.75112 334.60919 323.00425 311.19031 299.05237 286.84743
 274.55150 262.44056 250.44162 239.73468 229.84875 220.94481 213.11887 206.11293
 199.93899 194.86906 191.44312 189.47718 188.50624 188.56230 189.38937 190.68943
 192.40649 194.49355 196.74862 199.09968 201.53674 204.00880 206.08886 207.92293
 209.54099 210.67805 210.89911 211.11917 211.04824 210.74530 210.37036 209.99242
 209.60148 209.30355 209.10361 208.95967 208.87973 209.20280 209.58086 209.96192
 210.74698 211.91704 213.15911 214.93417 216.85423 218.88929 220.97635 223.05142
 225.10348 227.17954 229.26860 231.36667 233.48773 235.65179 237.89985 240.26191
 242.87498 245.11804 247.11210 248.86916 250.27822 251.39329 252.20735 252.51541
 252.54447 252.31054 251.66260 250.60266 249.20072 247.35378 245.25485 243.07991
 240.86297 238.65903 236.47109 234.30216 232.15422 230.01328 228.03134 226.18040
 224.45547 222.91953 221.54159 220.30565 219.17972 218.13178 217.22784 216.36090
 215.59496 214.76703 213.85709 213.21315 212.65521 212.58348 212.41386 212.22725
 212.69144 214.46385 216.13226 217.17859 218.57674 222.59938 228.59485 233.46390
 237.23647 241.01297 244.86713 248.76105 252.59229 255.59293 258.04611 260.60727
 263.30374 266.01758 268.53201 270.57187 272.35294 274.06055 275.74539 277.46902
 279.21066 280.87772 282.39847 283.75784 284.93900 285.98999 286.94885 287.82495
 288.61880 289.32825 289.95612 290.79489
 366.78100 356.32580 345.74861 334.60541 322.99922 311.18402 299.04483 286.83863
 274.54144 262.42924 250.42905 239.72085 229.83366 220.92846 213.10127 206.09407
 199.91887 194.84768 191.42048 189.45329 188.48109 188.53590 189.36170 190.66051
 192.37631 194.46212 196.71592 199.06573 201.50153 203.97233 206.05114 207.88394
 209.50075 210.63655 210.85636 211.07516 211.00297 210.69877 210.32258 209.94338
 209.55119 209.25199 209.05080 208.90560 208.82440 209.14621 209.52301 209.90282
 210.68662 211.85543 213.09623 214.87004 216.78884 218.82265 220.90845 222.98226
 225.03306 227.10786 229.19567 231.29247 233.41228 235.57508 237.82189 240.18269
 242.79450 245.03630 247.02911 248.78491 250.19272 251.30652 252.11933 252.42613
 252.45393 252.21874 251.56954 250.50835 249.10515 247.25696 245.15676 242.98057
 240.76237 238.55718 236.36798 234.19779 232.04859 229.90640 227.92320 226.07100
 224.34481 222.80761 221.42842 220.19122 219.06403 218.01483 217.10964 216.24144
 215.47425 214.64505 213.73386 213.08866 212.52946 212.51833 212.49188 212.37160
 212.81119 214.54993 216.18863 217.19600 218.58252 222.59029 228.54163 233.38965
 237.15509 240.94191 244.81557 248.70964 252.49570 255.47305 257.92783 260.49921
 263.15408 265.84726 268.37317 270.41776 272.21323 273.94128 275.64462 277.37964
 279.12463 280.79419 282.31735 283.67865 284.86002 285.90955 286.87067 287.74670
 288.53973 289.25146 289.88013 290.72046
 366.78100 356.32477 345.74655 334.60232 322.99510 311.17887 299.03864 286.83142
 274.53319 262.41997 250.41874 239.70951 229.82129 220.91506 213.08683 206.07861
 199.90238 194.83016 191.40193 189.43370 188.46048 188.51425 189.33903 190.63680
 192.35157 194.43635 196.68912 199.03790 201.47267 203.94244 206.02022 207.85199
 209.46777 210.60254 210.82131 211.03909 210.96586 210.66063 210.28341 209.90318
 209.50996 209.20973 209.00750 208.86128 208.77905 209.09983 209.47560 209.85437
 210.63715 211.80492 213.04470 214.81747 216.73524 218.76802 220.85279 222.92557
 224.97534 227.04911 229.13589 231.23166 233.35043 235.51221 237.75798 240.11776
 242.72853 244.96930 246.96108 248.71585 250.12263 251.23540 252.04717 252.35295
 252.37972 252.14350 251.49327 250.43104 249.02682 247.17759 245.07637 242.89914
 240.67991 238.47369 236.28346 234.11224 231.96201 229.81878 227.83456 225.98133
 224.25410 222.71588 221.33565 220.09743 218.96920 217.91897 217.01275 216.14352
 215.37530 214.54507 213.63284 212.98662 212.42639 212.46548 212.55775 212.50806
 212.93803 214.64536 216.24857 217.21008 218.61044 222.59656 228.49442 233.31708
 237.07465 240.87244 244.76483 248.65659 252.38712 255.34264 257.80887 260.39178
 263.00497 265.67075 268.20071 270.25232 272.06955 273.82654 275.54926 277.29453
 279.04285 280.71701 282.24579 283.60745 284.78943 285.83960 286.80164 287.67798
 288.47171 289.18433 289.81354 290.65631
 366.78100 356.32397 345.74494 334.59991 322.99188 311.17485 299.03382 286.82579
 274.52676 262.41273 250.41070 239.70067 229.81164 220.90462 213.07559 206.06656
 199.88953 194.81650 191.38747 189.41844 188.44441 188.49738 189.32135 190.61832
 192.33229 194.41626 196.66823 199.01620 201.45017 203.91914 205.99611 207.82708
 209.44205 210.57602 210.79399 211.01096 210.93693 210.63090 210.25287 209.87185
 209.47782 209.17679 208.97376 208.82673 208.74370 209.06367 209.43864 209.81661
 210.59858 211.76555 213.00452 214.77649 216.69346 218.72543 220.80940 222.88137
 224.93034 227.00331 229.08928 231.18425 233.30222 235.46319 237.70816 240.06713
 242.67710 244.91708 246.90805 248.66202 250.06799 251.17996 251.99093 252.29590
 252.32187 252.08484 251.43381 250.37078 248.96575 247.11572 245.01369 242.83566
 240.61563 238.40860 236.21757 234.04554 231.89451 229.75048 227.76545 225.91142
 224.18339 222.64436 221.26333 220.02431 218.89528 217.84425 216.93722 216.06719
 215.29816 214.46713 213.55410 212.90707 212.34604 212.42546 212.61304 212.63533
 213.06761 214.75372 216.30473 217.22401 218.67381 222.60939 228.44621 233.24419
 236.99501 240.80457 244.71526 248.60274 252.26675 255.19991 257.68546 260.28256
 262.85565 265.48969 268.01807 270.07950 271.92889 273.71921 275.46088 277.21518
 278.96768 280.64658 282.18027 283.54221 284.72540 285.77612 286.73853 287.61560
 288.41089 289.12390 289.75464 290.59879
 366.78100 356.32353 345.74405 334.59858 322.99010 311.17263 299.03115 286.82268
 274.52321 262.40873 250.40626 239.69578 229.80631 220.89883 213.06936 206.05989
 199.88241 194.80894 191.37946 189.40999 188.43551 188.48804 189.31157 190.60809
 192.32162 194.40514 196.65667 199.00420 201.43772 203.90625 205.98277 207.81330
 209.42782 210.56135 210.77888 210.99540 210.92093 210.61445 210.23598 209.85450
 209.46003 209.15856 208.95508 208.80761 208.72413 209.04366 209.41818 209.79571
 210.57724 211.74376 212.98229 214.75381 216.67034 218.70186 220.78539 222.85692
 224.90544 226.97797 229.06349 231.15802 233.27554 235.43607 237.68060 240.03912
 242.64865 244.88817 246.87870 248.63223 250.03775 251.14928 251.95980 252.26433
 252.28985 252.05238 251.40091 250.33743 248.93196 247.08148 244.97901 242.80053
 240.58006 238.37259 236.18111 234.00864 231.85716 229.71269 227.72721 225.87274
 224.14427 222.60479 221.22332 219.98384 218.85437 217.80289 216.89542 216.02495
 215.25547 214.42400 213.51052 212.86305 212.30157 212.40550 212.65102 212.75864
 213.20471 214.85567 216.38469 217.25888 218.72194 222.62946 228.41380 233.17398
 236.91147 240.73285 244.66307 248.54495 252.13261 255.04124 257.55304 260.16653
 262.70346 265.30493 267.82684 269.90512 271.79858 273.62735 275.38245 277.13788
 278.89661 280.58246 282.12128 283.48495 284.66940 285.71930 286.68335 287.56024
 288.35822 289.07202 289.70251 290.55005
 366.78100 356.32322 345.74344 334.59767 322.98889 311.17111 299.02933 286.82055
 274.52078 262.40600 250.40322 239.69244 229.80267 220.89489 213.06511 206.05533
 199.87755 194.80378 191.37400 189.40422 188.42944 188.48166 189.30489 190.60111
 192.31433 194.39755 196.64877 198.99600 201.42922 203.89744 205.97366 207.80389
 209.41811 210.55133 210.76855 210.98477 210.91000 210.60322 210.22444 209.84266
 209.44788 209.14611 208.94233 208.79455 208.71077 209.02999 209.40422 209.78144
 210.56266 211.72888 212.96710 214.73833 216.65455 218.68577 220.76899 222.84022
 224.88844 226.96066 229.04588 231.14010 233.25733 235.41755 237.66177 240.01999
 242.62921 244.86844 246.85866 248.61188 250.01710 251.12832 251.93855 252.24277
 252.26799 252.03021 251.37844 250.31466 248.90888 247.05810 244.95532 242.77655
 240.55577 238.34799 236.15621 233.98343 231.83166 229.68688 227.70110 225.84632
 224.11754 222.57777 221.19599 219.95621 218.82643 217.77466 216.86688 215.99610
 215.22632 214.39454 213.48077 212.83299 212.27121 212.39563 212.68962 212.85625
 213.35219 214.98979 216.43962 217.29852 218.83064 222.65218 228.36545 233.08942
 236.82092 240.65889 244.61101 248.48372 251.98750 254.86900 257.41180 260.04388
 262.55096 265.11835 267.63147 269.73471 271.68106 273.55606 275.32111 277.06845
 278.82553 280.52402 282.06699 283.43027 284.61597 285.66693 286.62994 287.50958
 288.30759 289.02063 289.65436 290.50394
 366.78100 356.32301 345.74301 334.59702 322.98803 311.17004 299.02804 286.81905
 274.51906 262.40407 250.40107 239.69008 229.80009 220.89210 213.06210 206.05211
 199.87412 194.80013 191.37013 189.40014 188.42515 188.47716 189.30016 190.59617
 192.30918 194.39219 196.64319 198.99020 201.42321 203.89121 205.96722 207.79723
 209.41124 210.54424 210.76125 210.97726 210.90227 210.59527 210.21628 209.83429
 209.43930 209.13730 208.93331 208.78532 208.70133 209.02033 209.39434 209.77135
 210.55236 211.71836 212.95637 214.72738 216.64339 218.67439 220.75740 222.82841
 224.87641 226.94842 229.03343 231.12744 233.24444 235.40445 237.64846 240.00647
 242.61547 244.85448 246.84449 248.59750 250.00250 251.11351 251.92352 252.22753
 252.25253 252.01454 251.36255 250.29856 248.89256 247.04157 244.93858 242.75959
 240.53859 238.33060 236.13861 233.96561 231.81362 229.66863 227.68264 225.82764
 224.09865 222.55866 221.17667 219.93667 218.80668 217.75469 216.84670 215.97570
 215.20571 214.37372 213.45973 212.81173 212.24974 212.39233 212.72919 212.95045
 213.46497 215.13197 216.59425 217.32286 218.85139 222.67064 228.33305 233.01740
 236.73836 240.58905 244.55948 248.41585 251.83011 254.68558 257.26611 259.92194
 262.40735 264.93817 267.43781 269.56683 271.56808 273.49310 275.26801 277.00519
 278.75739 280.46997 282.01492 283.37930 284.56396 285.61545 286.58215 287.46078
 288.25827 288.97394 289.60651 290.46082
 366.78100 356.32307 345.74314 334.59721 322.98828 311.17035 299.02842 286.81949
 274.51956 262.40463 250.40170 239.69077 229.80085 220.89292 213.06299 206.05306
 199.87513 194.80120 191.37127 189.40134 188.42641 188.47848 189.30155 190.59762
 192.31069 194.39376 196.64483 198.99190 201.42497 203.89304 205.96911 207.79918
 209.41325 210.54632 210.76339 210.97946 210.90454 210.59761 210.21868 209.83675
 209.44182 209.13989 208.93596 208.78803 208.70410 209.02317 209.39724 209.77431
 210.55538 211.72145 212.95952 214.73059 216.64666 218.67773 220.76080 222.83187
 224.87994 226.95201 229.03708 231.13116 233.24823 235.40830 237.65237 240.01044
 242.61951 244.85858 246.84865 248.60172 250.00679 251.11786 251.92793 252.23200
 252.25707 252.01914 251.36721 250.30328 248.89735 247.04642 244.94349 242.76456
 240.54363 238.33570 236.14377 233.97085 231.81892 229.67399 227.68806 225.83313
 224.10420 222.56427 221.18234 219.94241 218.81248 217.76055 216.85262 215.98169
 215.21176 214.37983 213.46590 212.81797 212.25604 212.40453 212.75536 213.06746
 213.56898 215.19810 216.76530 217.43845 218.91176 222.68163 228.28525 232.92827
 236.63869 240.50607 244.49733 248.33919 251.66760 254.50313 257.12646 259.80728
 262.27689 264.76743 267.24414 269.39731 271.45425 273.43225 275.21744 276.94507
 278.69336 280.41840 281.96552 283.33105 284.51642 285.56918 286.53592 287.41507
 288.21320 288.93002 289.56274 290.41824
 366.78100 356.32341 345.74382 334.59822 322.98963 311.17204 299.03045 286.82186
 274.52226 262.40767 250.40508 239.69449 229.80490 220.89730 213.06771 206.05812
 199.88053 194.80694 191.37734 189.40775 188.43316 188.48557 189.30897 190.60538
 192.31879 194.40220 196.65361 199.00101 201.43442 203.90283 205.97924 207.80965
 209.42405 210.55746 210.77487 210.99128 210.91669 210.61009 210.23150 209.84991
 209.45532 209.15373 208.95013 208.80254 208.71895 209.03836 209.41277 209.79017
 210.57158 211.73799 212.97640 214.74781 216.66421 218.69562 220.77903 222.85044
 224.89885 226.97125 229.05666 231.15107 233.26848 235.42888 237.67329 240.03170
 242.64111 244.88052 246.87092 248.62433 250.02974 251.14115 251.95156 252.25596
 252.28137 252.04378 251.39219 250.32860 248.92300 247.07241 244.96982 242.79123
 240.57064 238.36304 236.17145 233.99886 231.84727 229.70268 227.71708 225.86249
 224.13390 222.59431 221.21272 219.97312 218.84353 217.79194 216.88435 216.01376
 215.24416 214.41257 213.49898 212.85139 212.28979 212.43315 212.77187 213.17786
 213.70483 215.25372 216.87680 217.55794 219.00833 222.68465 228.23199 232.83443
 236.54117 240.43245 244.44608 248.27271 251.51404 254.32361 256.98541 259.68777
 262.14423 264.59491 267.04733 269.22842 271.34653 273.38342 275.18164 276.89987
 278.63763 280.36850 281.91629 283.28281 284.46732 285.52261 286.48773 287.36734
 288.16751 288.88565 289.51855 290.37772
 366.78100 356.32350 345.74401 334.59851 322.99001 311.17252 299.03102 286.82252
 274.52303 262.40853 250.40603 239.69554 229.80604 220.89855 213.06905 206.05955
 199.88206 194.80856 191.37906 189.40957 188.43507 188.48757 189.31108 190.60758
 192.32108 194.40459 196.65609 199.00359 201.43710 203.90560 205.98210 207.81261
 209.42711 210.56061 210.77812 210.99462 210.92012 210.61363 210.23513 209.85364
 209.45914 209.15764 208.95415 208.80665 208.72315 209.04266 209.41716 209.79466
 210.57617 211.74267 212.98117 214.75268 216.66918 218.70068 220.78419 222.85569
 224.90419 226.97670 229.06220 231.15670 233.27421 235.43471 237.67922 240.03772
 242.64722 244.88673 246.87723 248.63073 250.03624 251.14774 251.95824 252.26275
 252.28825 252.05075 251.39926 250.33576 248.93026 247.07977 244.97727 242.79877
 240.57828 238.37078 236.17928 234.00679 231.85529 229.71079 227.72530 225.87080
 224.14231 222.60281 221.22131 219.98182 218.85232 217.80082 216.89333 216.02283
 215.25333 214.42184 213.50834 212.86084 212.29935 212.45219 212.81329 213.25644
 213.84489 215.33792 216.95413 217.67006 219.12161 222.68532 228.18912 232.75911
 236.46399 240.37692 244.40443 248.20485 251.35153 254.12700 256.82364 259.54724
 261.99713 264.41684 266.84955 269.06644 271.25031 273.34985 275.16669 276.87582
 278.59402 280.31799 281.86472 283.23163 284.41782 285.47244 286.43839 287.31967
 288.11966 288.83850 289.47232 290.33405
 366.78100 356.32349 345.74399 334.59848 322.98998 311.17247 299.03096 286.82246
 274.52295 262.40844 250.40594 239.69543 229.80593 220.89842 213.06891 206.05941
 199.88190 194.80840 191.37889 189.40938 188.43488 188.48737 189.31086 190.60736
 192.32085 194.40435 196.65584 199.00333 201.43683 203.90532 205.98182 207.81231
 209.42680 210.56030 210.77779 210.99428 210.91978 210.61327 210.23477 209.85326
 209.45875 209.15725 208.95374 208.80624 208.72273 209.04222 209.41672 209.79421
 210.57571 211.74220 212.98069 214.75219 216.66868 218.70017 220.78367 222.85516
 224.90366 226.97615 229.06164 231.15614 233.27363 235.43413 237.67862 240.03711
 242.64661 244.88610 246.87659 248.63009 250.03558 251.14708 251.95757 252.26206
 252.28756 252.05005 251.39855 250.33504 248.92953 247.07903 244.97652 242.79801
 240.57751 238.37000 236.17850 234.00599 231.85448 229.70998 227.72447 225.86997
 224.14146 222.60195 221.22045 219.98094 218.85143 217.79993 216.89242 216.02192
 215.25241 214.42090 213.50740 212.85989 212.29839 212.46851 212.87045 213.31778
 213.97514 215.43127 217.00725 217.79181 219.25047 222.69714 228.16077 232.70938
 236.40436 240.32964 244.35849 248.12297 251.17220 253.91270 256.64587 259.39536
 261.84695 264.24353 266.65921 268.91434 271.16183 273.31854 275.15024 276.85052
 278.54666 280.27087 281.81866 283.18600 284.37195 285.42578 286.39270 287.27487
 288.07532 288.79510 289.42926 290.29294
 366.78100 356.32351 345.74401 334.59852 322.99003 311.17254 299.03104 286.82255
 274.52306 262.40857 250.40607 239.69558 229.80609 220.89859 213.06910 206.05961
 199.88212 194.80862 191.37913 189.40964 188.43515 188.48765 189.31116 190.60767
 192.32117 194.40468 196.65619 199.00370 201.43720 203.90571 205.98222 207.81273
 209.42723 210.56074 210.77825 210.99475 210.92026 210.61377 210.23528 209.85378
 209.45929 209.15780 208.95431 208.80681 208.72332 209.04283 209.41734 209.79484
 210.57635 211.74286 212.98136 214.75287 216.66938 218.70089 220.78439 222.85590
 224.90441 226.97692 229.06242 231.15693 233.27444 235.43494 237.67945 240.03796
 242.64747 244.88697 246.87748 248.63099 250.03650 251.14800 251.95851 252.26302
 252.28852 252.05103 251.39954 250.33605 248.93055 247.08006 244.97757 242.79908
 240.57858 238.37109 236.17960 234.00710 231.85561 229.71112 227.72563 225.87113
 224.14264 222.60315 221.22166 219.98216 218.85267 217.80118 216.89368 216.02319
 215.25370 214.42221 213.50871 212.86122 212.29973 212.48738 212.93071 213.38261
 214.09236 215.51848 217.04262 217.92694 219.40518 222.72218 228.14552 232.67140
 236.34755 240.27724 244.30046 248.02432 250.98236 253.69133 256.46277 259.24084
 261.70172 264.07993 266.47937 268.77139 271.07669 273.28482 275.12729 276.82480
 278.51300 280.22488 281.77182 283.13824 284.32455 285.37927 286.34644 287.22867
 288.02939 288.74863 289.38321 290.25021
 366.78100 356.32380 345.74459 334.59939 322.99119 311.17398 299.03278 286.82458
 274.52537 262.41117 250.40897 239.69876 229.80956 220.90236 213.07315 206.06395
 199.88675 194.81354 191.38434 189.41514 188.44093 188.49373 189.31752 190.61432
 192.32812 194.41191 196.66371 199.01151 201.44530 203.91410 205.99090 207.82169
 209.43649 210.57029 210.78808 211.00488 210.93068 210.62447 210.24627 209.86507
 209.47086 209.16966 208.96646 208.81925 208.73605 209.05585 209.43064 209.80844
 210.59024 211.75703 212.99583 214.76763 216.68442 218.71622 220.80002 222.87181
 224.92061 226.99341 229.07920 231.17400 233.29180 235.45259 237.69739 240.05619
 242.66598 244.90578 246.89657 248.65037 250.05617 251.16796 251.97876 252.28356
 252.30935 252.07215 251.42095 250.35774 248.95254 247.10234 245.00013 242.82193
 240.60173 238.39452 236.20332 234.03112 231.87991 229.73571 227.75051 225.89630
 224.16810 222.62890 221.24769 220.00849 218.87929 217.82808 216.92088 216.05068
 215.28147 214.45027 213.53707 212.88986 212.32866 212.52135 212.97661 213.45172
 214.21420 215.60754 217.07248 218.06680 219.58208 222.75348 228.13707 232.62593
 236.27986 240.21335 244.22675 247.90799 250.78233 253.46283 256.27182 259.07986
 261.55890 263.92703 266.31747 268.64822 271.00378 273.25412 275.10742 276.80341
 278.50009 280.17953 281.72299 283.09021 284.27579 285.33203 286.29868 287.18060
 287.98285 288.70297 289.33868 290.20572
 366.78100 356.32444 345.74588 334.60132 322.99375 311.17719 299.03663 286.82907
 274.53051 262.41695 250.41539 239.70582 229.81726 220.91070 213.08214 206.07358
 199.89702 194.82445 191.39589 189.42733 188.45377 188.50721 189.33165 190.62909
 192.34352 194.42796 196.68040 199.02884 201.46328 203.93272 206.01016 207.84159
 209.45703 210.59147 210.80991 211.02735 210.95379 210.64823 210.27066 209.89010
 209.49654 209.19598 208.99342 208.84686 208.76430 209.08473 209.46017 209.83861
 210.62105 211.78849 213.02793 214.80036 216.71780 218.75024 220.83468 222.90712
 224.95656 227.03000 229.11643 231.21187 233.33031 235.49175 237.73719 240.09663
 242.70707 244.94750 246.93894 248.69338 250.09982 251.21226 252.02370 252.32914
 252.35557 252.11901 251.46845 250.40589 249.00133 247.15177 245.05021 242.87264
 240.65308 238.44652 236.25596 234.08440 231.93384 229.79027 227.80571 225.95215
 224.22459 222.68603 221.30547 220.06691 218.93834 217.88778 216.98122 216.11166
 215.34310 214.51254 213.59998 212.95341 212.39285 212.57487 213.00494 213.51350
 214.34929 215.71095 217.12009 218.21483 219.76427 222.78392 228.12674 232.56671
 236.20137 240.13918 244.13704 247.76910 250.56470 253.22174 256.06659 258.90732
 261.41376 263.78595 266.17899 268.55182 270.95343 273.24011 275.10617 276.79608
 278.50287 280.13010 281.66870 283.03656 284.22321 285.27942 286.24655 287.12903
 287.92975 288.65143 289.28668 290.15356
 366.78100 356.32528 345.74756 334.60383 322.99711 311.18139 299.04167 286.83494
 274.53722 262.42450 250.42378 239.71506 229.82733 220.92161 213.09389 206.08617
 199.91044 194.83872 191.41100 189.44328 188.47056 188.52483 189.35011 190.64839
 192.36367 194.44894 196.70222 199.05150 201.48678 203.95706 206.03533 207.86761
 209.48389 210.61917 210.83844 211.05672 210.98400 210.67928 210.30255 209.92283
 209.53011 209.23039 209.02867 208.88294 208.80122 209.12250 209.49878 209.87805
 210.66133 211.82961 213.06989 214.84317 216.76144 218.79472 220.88000 222.95328
 225.00355 227.07783 229.16511 231.26139 233.38067 235.54294 237.78922 240.14950
 242.76078 245.00205 246.99433 248.74961 250.15689 251.27017 252.08244 252.38872
 252.41600 252.18028 251.53055 250.46883 249.06511 247.21639 245.11567 242.93894
 240.72022 238.51450 236.32478 234.15405 232.00433 229.86161 227.87789 226.02517
 224.29844 222.76072 221.38100 220.14328 219.01555 217.96583 217.06011 216.19139
 215.42367 214.59394 213.68222 213.03650 212.47678 212.64032 213.02669 213.56523
 214.48616 215.82042 217.19273 218.37628 219.94704 222.82030 228.11252 232.50572
 236.12344 240.06369 244.03568 247.60739 250.32820 252.96739 255.84648 258.72046
 261.26263 263.65359 266.06189 268.47955 270.91910 273.23254 275.10977 276.79251
 278.49463 280.09479 281.63345 283.00180 284.19064 285.24756 286.21506 287.10043
 287.90323 288.62549 289.26190 290.13318
 366.78100 356.32625 345.74950 334.60675 323.00100 311.18624 299.04749 286.84174
 274.54499 262.43324 250.43349 239.72574 229.83899 220.93423 213.10748 206.10073
 199.92598 194.85523 191.42848 189.46173 188.48998 188.54523 189.37147 190.67072
 192.38697 194.47322 196.72747 199.07772 201.51397 203.98522 206.06446 207.89771
 209.51496 210.65121 210.87146 211.09071 211.01896 210.71521 210.33946 209.96070
 209.56895 209.27020 209.06945 208.92470 208.84395 209.16620 209.54345 209.92370
 210.70794 211.87719 213.11844 214.89269 216.81194 218.84619 220.93244 223.00669
 225.05793 227.13318 229.22143 231.31868 233.43893 235.60218 237.84943 240.21068
 242.82293 245.06517 247.05842 248.81467 250.22292 251.33717 252.15042 252.45767
 252.48592 252.25116 251.60241 250.54166 249.13891 247.29116 245.19141 243.01566
 240.79791 238.59316 236.40440 234.23465 232.08590 229.94415 227.96140 226.10965
 224.38390 222.84715 221.46839 220.23164 219.10489 218.05614 217.15139 216.28364
 215.51689 214.68814 213.77739 213.13263 212.57388 212.71353 213.04343 213.61555
 214.61569 215.92584 217.27925 218.54480 220.13589 222.87962 228.09729 232.45988
 236.05789 239.99409 243.92311 247.41830 250.06859 252.69704 255.60785 258.51511
 261.10184 263.52896 265.96735 268.43082 270.90201 273.23380 275.12088 276.79449
 278.48660 280.07098 281.60852 282.97797 284.16827 285.22763 286.19739 287.08527
 287.89859 288.62628 289.26782 290.13550
 366.78100 356.32730 345.75160 334.60990 323.00520 311.19151 299.05381 286.84911
 274.55341 262.44271 250.44401 239.73731 229.85161 220.94792 213.12222 206.11652
 199.94282 194.87312 191.44742 189.48172 188.51102 188.56733 189.39463 190.69493
 192.41223 194.49953 196.75483 199.10613 201.54343 204.01574 206.09604 207.93034
 209.54864 210.68594 210.90724 211.12754 211.05684 210.75415 210.37945 210.00175
 209.61105 209.31335 209.11365 208.96995 208.89025 209.21356 209.59186 209.97316
 210.75846 211.92876 213.17106 214.94636 216.86666 218.90197 220.98927 223.06457
 225.11687 227.19317 229.28247 231.38077 233.50207 235.66637 237.91468 240.27698
 242.89028 245.13358 247.12788 248.88518 250.29448 251.40978 252.22409 252.53239
 252.56169 252.32799 251.68029 250.62059 249.21889 247.37219 245.27350 243.09880
 240.88210 238.67840 236.49070 234.32200 232.17430 230.03360 228.05191 226.20121
 224.47651 222.94081 221.56311 220.32741 219.20171 218.15401 217.25032 216.38362
 215.61792 214.79022 213.88052 213.23682 212.67912 212.79140 213.05669 213.66667
 214.73270 216.02861 217.37167 218.70654 220.33566 222.96983 228.08627 232.43507
 236.00688 239.92879 243.79762 247.20068 249.78886 252.41095 255.35114 258.29242
 260.93173 263.41208 265.89294 268.40338 270.90100 273.24475 275.14178 276.80743
 278.49265 280.04819 281.58386 282.95316 284.14383 285.20187 286.17438 287.06409
 287.87531 288.60641 289.24960 290.11481
 366.78100 356.32839 345.75378 334.61317 323.00956 311.19696 299.06035 286.85674
 274.56213 262.45252 250.45491 239.74930 229.86469 220.96208 213.13747 206.13287
 199.96026 194.89165 191.46704 189.50243 188.53282 188.59021 189.41860 190.71999
 192.43838 194.52678 196.78317 199.13556 201.57395 204.04734 206.12873 207.96412
 209.58351 210.72190 210.94429 211.16569 211.09608 210.79447 210.42086 210.04425
 209.65464 209.35803 209.15942 209.01681 208.93820 209.26260 209.64199 210.02438
 210.81077 211.98216 213.22555 215.00194 216.92333 218.95972 221.04811 223.12451
 225.17790 227.25529 229.34568 231.44507 233.56746 235.73285 237.98224 240.34563
 242.96002 245.20442 247.19981 248.95820 250.36859 251.48498 252.30037 252.60976
 252.64015 252.40754 251.76093 250.70233 249.30172 247.45611 245.35850 243.18489
 240.96928 238.76667 236.58006 234.41245 232.26585 230.12624 228.14563 226.29602
 224.57241 223.03780 221.66119 220.42658 219.30197 218.25536 217.35276 216.48715
 215.72254 214.89593 213.98732 213.34471 212.78810 212.87138 213.06816 213.72638
 214.83186 216.12254 217.47488 218.86166 220.53200 223.08327 228.08313 232.43030
 235.97421 239.87207 243.66583 246.96249 249.49641 252.11336 255.08025 258.05667
 260.75800 263.30325 265.83478 268.38913 270.90674 273.25629 275.15936 276.82199
 278.50238 280.03055 281.56357 282.93399 284.12506 285.18396 286.15527 287.04391
 287.85846 288.58926 289.23303 290.09430
 366.78100 356.32918 345.75536 334.61555 323.01273 311.20091 299.06509 286.86227
 274.56846 262.45964 250.46282 239.75800 229.87418 220.97237 213.14855 206.14473
 199.97291 194.90509 191.48128 189.51746 188.54864 188.60682 189.43600 190.73819
 192.45737 194.54655 196.80373 199.15691 201.59610 204.07028 206.15246 207.98864
 209.60882 210.74801 210.97119 211.19337 211.12455 210.82374 210.45092 210.07510
 209.68628 209.39046 209.19265 209.05083 208.97301 209.29819 209.67837 210.06156
 210.84874 212.02092 213.26510 215.04228 216.96447 219.00165 221.09083 223.16801
 225.22219 227.30038 229.39156 231.49174 233.61492 235.78110 238.03129 240.39547
 243.01065 245.25583 247.25201 249.01120 250.42238 251.53956 252.35574 252.66592
 252.69711 252.46529 251.81947 250.76165 249.36183 247.51702 245.42020 243.24738
 241.03256 238.83074 236.64493 234.47811 232.33229 230.19347 228.21365 226.36484
 224.64202 223.10820 221.73238 220.49856 219.37475 218.32893 217.42711 216.56229
 215.79847 214.97266 214.06484 213.42302 212.86720 212.93567 213.09744 213.78258
 214.91812 216.22124 217.56508 219.00638 220.73532 223.19301 228.09407 232.43958
 235.95721 239.82274 243.53194 246.71413 249.20221 251.81543 254.80544 257.81769
 260.58633 263.20181 265.78537 268.37930 270.91245 273.26138 275.16879 276.83453
 278.51605 280.01926 281.55106 282.92044 284.10883 285.16696 286.13528 287.02271
 287.83737 288.57065 289.21387 290.07037
 366.78100 356.33009 345.75717 334.61826 323.01634 311.20543 299.07051 286.86860
 274.57569 262.46777 250.47186 239.76794 229.88503 220.98411 213.16120 206.15828
 199.98737 194.92046 191.49754 189.53463 188.56671 188.62580 189.45588 190.75897
 192.47906 194.56914 196.82723 199.18131 201.62140 204.09648 206.17957 208.01666
 209.63774 210.77783 211.00191 211.22500 211.15708 210.85717 210.48525 210.11034
 209.72243 209.42751 209.23060 209.08968 209.01277 209.33885 209.71994 210.10403
 210.89211 212.06520 213.31028 215.08837 217.01145 219.04954 221.13963 223.21771
 225.27280 227.35188 229.44397 231.54505 233.66914 235.83622 238.08731 240.45240
 243.06848 245.31457 247.31165 249.07174 250.48382 251.60191 252.41900 252.73008
 252.76217 252.53125 251.88634 250.82942 249.43051 247.58660 245.49068 243.31877
 241.10485 238.90394 236.71902 234.55311 232.40819 230.27028 228.29137 226.44345
 224.72154 223.18862 221.81371 220.58079 219.45788 218.41297 217.51205 216.64814
 215.88522 215.06031 214.15339 213.51248 212.95757 213.00421 213.11444 213.86159
 214.99594 216.30444 217.66669 219.13606 220.91043 223.31145 228.11073 232.44534
 235.95016 239.78372 243.40593 246.47327 248.91797 251.52335 254.52788 257.57236
 260.40964 263.09872 265.73782 268.37198 270.92023 273.26624 275.17346 276.84225
 278.52551 280.02310 281.53439 282.89673 284.08350 285.13983 286.10727 286.99564
 287.81079 288.54584 289.18799 290.04187
 366.78100 356.33083 345.75866 334.62049 323.01932 311.20915 299.07497 286.87380
 274.58163 262.47446 250.47929 239.77612 229.89395 220.99378 213.17161 206.16944
 199.99926 194.93309 191.51092 189.54875 188.58158 188.64141 189.47224 190.77607
 192.49690 194.58773 196.84656 199.20138 201.64221 204.11804 206.20187 208.03970
 209.66153 210.80236 211.02719 211.25102 211.18385 210.88468 210.51350 210.13933
 209.75216 209.45799 209.26182 209.12165 209.04548 209.37231 209.75414 210.13897
 210.92779 212.10162 213.34745 215.12628 217.05011 219.08894 221.17977 223.25860
 225.31443 227.39426 229.48709 231.58891 233.71374 235.88157 238.13340 240.49923
 243.11606 245.36289 247.36072 249.12155 250.53438 251.65321 252.47103 252.78286
 252.81569 252.58552 251.94135 250.88518 249.48701 247.64384 245.54867 243.37750
 241.16432 238.96415 236.77998 234.61481 232.47064 230.33347 228.35530 226.50813
 224.78696 223.25479 221.88062 220.64844 219.52627 218.48210 217.58193 216.71876
 215.95659 215.13242 214.22625 213.58608 213.03191 213.06464 213.14197 213.90747
 215.14842 216.37560 217.67033 219.25299 221.12794 223.41977 228.15161 232.48190
 235.96669 239.76283 243.28940 246.23091 248.62347 251.21674 254.23444 257.31070
 260.22253 262.99661 265.69910 268.37677 270.93805 273.27536 275.17749 276.84460
 278.52576 280.09732 281.48892 282.84372 284.03381 285.09143 286.06039 286.94940
 287.76523 288.49982 289.14014 289.98758
 366.78100 356.33180 345.76059 334.62339 323.02318 311.21398 299.08077 286.88057
 274.58936 262.48316 250.48895 239.78675 229.90554 221.00634 213.18514 206.18393
 200.01473 194.94952 191.52832 189.56711 188.60091 188.66170 189.49350 190.79829
 192.52009 194.61189 196.87168 199.22748 201.66927 204.14607 206.23086 208.06966
 209.69245 210.83425 211.06004 211.28484 211.21863 210.92043 210.55023 210.17702
 209.79082 209.49761 209.30241 209.16320 209.08800 209.41579 209.79859 210.18438
 210.97418 212.14897 213.39577 215.17557 217.10036 219.14016 221.23195 223.31175
 225.36854 227.44934 229.54313 231.64593 233.77172 235.94052 238.19331 240.56011
 243.17791 245.42570 247.42450 249.18629 250.60009 251.71988 252.53868 252.85147
 252.88527 252.65606 252.01286 250.95766 249.56045 247.71825 245.62404 243.45384
 241.24163 239.04243 236.85922 234.69502 232.55181 230.41561 228.43840 226.59220
 224.87200 223.34079 221.96759 220.73638 219.61518 218.57197 217.67277 216.81056
 216.04936 215.22615 214.32095 213.68174 213.12854 213.13835 213.16156 213.93159
 215.27170 216.49876 217.67397 219.30809 221.32742 223.65894 228.21666 232.51192
 235.98347 239.73857 243.15735 245.96049 248.29565 250.88849 253.93134 257.05151
 260.04834 262.91315 265.67838 268.39404 270.95697 273.27499 275.16577 276.83344
 278.51553 280.10297 281.45724 282.81049 283.99945 285.05487 286.02179 286.90479
 287.71918 288.44711 289.06818 289.89496
 366.78100 356.33282 345.76264 334.62646 323.02728 311.21910 299.08692 286.88774
 274.59756 262.49238 250.49920 239.79802 229.91784 221.01966 213.19948 206.19930
 200.03112 194.96694 191.54676 189.58658 188.62140 188.68322 189.51604 190.82186
 192.54468 194.63750 196.89832 199.25514 201.69796 204.17578 206.26160 208.10142
 209.72524 210.86806 211.09488 211.32070 211.25552 210.95834 210.58916 210.21698
 209.83180 209.53961 209.34543 209.20725 209.13307 209.46189 209.84571 210.23253
 211.02335 212.19917 213.44699 215.22781 217.15363 219.19445 221.28727 223.36809
 225.42591 227.50773 229.60255 231.70637 233.83319 236.00301 238.25683 240.62465
 243.24347 245.49229 247.49211 249.25493 250.66975 251.79057 252.61039 252.92421
 252.95903 252.73085 252.08867 251.03449 249.63831 247.79713 245.70395 243.53477
 241.32359 239.12541 236.94323 234.78005 232.63787 230.50269 228.52651 226.68133
 224.96215 223.43197 222.05979 220.82961 219.70943 218.66725 217.76907 216.90789
 216.14771 215.32553 214.42135 213.78317 213.23099 213.21321 213.17122 213.99741
 215.35727 216.59373 217.72980 219.38101 221.49071 223.89882 228.28020 232.53081
 235.98788 239.70003 243.00623 245.67029 247.96034 250.57033 253.64763 256.81647
 259.89560 262.84122 265.65845 268.40271 270.96356 273.26129 275.14114 276.80954
 278.49576 280.05649 281.43774 282.79407 283.98288 285.03708 286.00113 286.88455
 287.69708 288.42581 289.04285 289.86465
 366.78100 356.33388 345.76475 334.62963 323.03151 311.22438 299.09326 286.89514
 274.60601 262.50189 250.50977 239.80964 229.93052 221.03340 213.21427 206.21515
 200.04802 194.98490 191.56578 189.60665 188.64253 188.70541 189.53928 190.84616
 192.57004 194.66391 196.92579 199.28367 201.72754 204.20642 206.29330 208.13417
 209.75905 210.90293 211.13080 211.35768 211.29356 210.99743 210.62931 210.25819
 209.87406 209.58294 209.38981 209.25269 209.17957 209.50944 209.89432 210.28220
 211.07407 212.25095 213.49983 215.28170 217.20858 219.25046 221.34433 223.42621
 225.48509 227.56796 229.66384 231.76872 233.89659 236.06747 238.32235 240.69122
 243.31110 245.56098 247.56185 249.32573 250.74161 251.86348 252.68436 252.99923
 253.03511 252.80799 252.16686 251.11374 249.71862 247.87849 245.78637 243.61825
 241.40812 239.21100 237.02988 234.86775 232.72663 230.59251 228.61738 226.77326
 225.05514 223.52601 222.15489 220.92577 219.80664 218.76552 217.86840 217.00827
 216.24915 215.42803 214.52490 213.88778 213.33665 213.28917 213.17696 214.07965
 215.43352 216.65102 217.83400 219.49289 221.61929 224.09596 228.33287 232.54834
 235.99010 239.65872 242.85524 245.38805 247.63963 250.27094 253.38225 256.59470
 259.74518 262.76108 265.62708 268.40112 270.96280 273.24222 275.11407 276.78629
 278.47275 280.03128 281.41531 282.76846 283.95267 285.00406 285.96384 286.84622
 287.65833 288.38782 289.00125 289.81628
 366.78100 356.33486 345.76672 334.63258 323.03544 311.22930 299.09916 286.90202
 274.61388 262.51075 250.51961 239.82047 229.94233 221.04619 213.22805 206.22991
 200.06377 195.00163 191.58349 189.62535 188.66221 188.72607 189.56093 190.86879
 192.59365 194.68851 196.95138 199.31024 201.75510 204.23496 206.32282 208.16468
 209.79054 210.93540 211.16426 211.39212 211.32898 211.03384 210.66670 210.29656
 209.91342 209.62328 209.43114 209.29501 209.22287 209.55373 209.93959 210.32845
 211.12131 212.29917 213.54903 215.33189 217.25975 219.30261 221.39747 223.48033
 225.54019 227.62405 229.72091 231.82677 233.95564 236.12750 238.38336 240.75322
 243.37408 245.62494 247.62680 249.39166 250.80852 251.93138 252.75324 253.06910
 253.10596 252.87982 252.23968 251.18754 249.79340 247.95427 245.86313 243.69599
 241.48685 239.29071 237.11057 234.94943 232.80929 230.67615 228.70201 226.85887
 225.14173 223.61359 222.24345 221.01531 219.89717 218.85703 217.96090 217.10176
 216.34362 215.52348 214.62134 213.98520 213.43506 213.36310 213.19308 214.14853
 215.53030 216.68954 217.94450 219.62994 221.73447 224.26326 228.37611 232.56419
 235.99550 239.61736 242.70042 245.10992 247.33507 249.98851 253.12859 256.37598
 259.59323 262.67920 265.59503 268.39798 270.95648 273.21359 275.07242 276.74731
 278.43414 279.99744 281.37979 282.72501 283.90689 284.95496 285.91589 286.79715
 287.60977 288.33533 288.94937 289.75919
 366.78100 356.33588 345.76875 334.63563 323.03951 311.23438 299.10526 286.90914
 274.62201 262.51989 250.52977 239.83164 229.95452 221.05939 213.24227 206.24515
 200.08002 195.01890 191.60178 189.64465 188.68253 188.74741 189.58328 190.89216
 192.61804 194.71391 196.97779 199.33767 201.78354 204.26442 206.35330 208.19617
 209.82305 210.96893 211.19880 211.42768 211.36555 211.07143 210.70531 210.33618
 209.95406 209.66494 209.47381 209.33869 209.26757 209.59944 209.98632 210.37620
 211.17007 212.34895 213.59983 215.38370 217.31258 219.35646 221.45233 223.53621
 225.59708 227.68196 229.77984 231.88671 234.01659 236.18947 238.44634 240.81722
 243.43910 245.69097 247.69385 249.45973 250.87760 252.00148 252.82436 253.14123
 253.17911 252.95399 252.31486 251.26374 249.87062 248.03249 245.94237 243.77624
 241.56812 239.37300 237.19387 235.03375 232.89463 230.76250 228.78938 226.94726
 225.23113 223.70401 222.33489 221.10776 219.99064 218.95152 218.05639 217.19827
 216.44115 215.62202 214.72090 214.08578 213.53665 213.44141 213.21638 214.19862
 215.62666 216.76038 218.06567 219.73192 221.81416 224.40916 228.43542 232.60332
 236.01152 239.57469 242.55008 244.84201 247.03853 249.71188 252.87195 256.15265
 259.43896 262.59583 265.55634 268.38229 270.93454 273.17041 275.02628 276.70917
 278.39072 279.95154 281.33069 282.67142 283.84894 284.89474 285.85040 286.73102
 287.54425 288.26431 288.87537 289.68384
 366.78100 356.33612 345.76924 334.63636 323.04048 311.23559 299.10671 286.91083
 274.62395 262.52207 250.53219 239.83431 229.95743 221.06255 213.24567 206.24878
 200.08390 195.02302 191.60614 189.64926 188.68738 188.75250 189.58862 190.89774
 192.62386 194.71997 196.98409 199.34421 201.79033 204.27145 206.36057 208.20369
 209.83081 210.97693 211.20705 211.43616 211.37428 211.08040 210.71452 210.34564
 209.96376 209.67488 209.48400 209.34912 209.27824 209.61035 209.99747 210.38759
 211.18171 212.36083 213.61195 215.39607 217.32519 219.36931 221.46542 223.54954
 225.61066 227.69578 229.79390 231.90102 234.03114 236.20426 238.46138 240.83250
 243.45461 245.70673 247.70985 249.47597 250.89409 252.01821 252.84133 253.15845
 253.19657 252.97169 252.33280 251.28192 249.88904 248.05116 245.96128 243.79540
 241.58752 239.39264 237.21376 235.05388 232.91499 230.78311 228.81023 226.96835
 225.25247 223.72559 222.35671 221.12983 220.01295 218.97406 218.07918 217.22130
 216.46442 215.64554 214.74466 214.10978 213.56090 213.47855 213.28395 214.24236
 215.70590 216.82338 218.13164 219.82655 221.92578 224.57230 228.52162 232.65770
 236.03229 239.52844 242.39630 244.58061 246.74919 249.43903 252.62425 255.94843
 259.30597 262.51050 265.49411 268.33450 270.88510 273.11279 274.98764 276.69257
 278.36688 279.91412 281.28336 282.62952 283.80838 284.85291 285.80524 286.68478
 287.50336 288.21634 288.82889 289.63123
 366.78100 356.33589 345.76878 334.63567 323.03956 311.23445 299.10534 286.90923
 274.62212 262.52001 250.52990 239.83179 229.95468 221.05957 213.24245 206.24534
 200.08023 195.01912 191.60201 189.64490 188.68279 188.74768 189.58357 190.89246
 192.61835 194.71424 196.97813 199.33802 201.78391 204.26480 206.35369 208.19658
 209.82347 210.96936 211.19925 211.42814 211.36603 211.07192 210.70581 210.33670
 209.95459 209.66548 209.47436 209.33925 209.26814 209.60003 209.98692 210.37681
 211.17070 212.34959 213.60048 215.38437 217.31326 219.35715 221.45304 223.53693
 225.59782 227.68271 229.78060 231.88749 234.01738 236.19027 238.44716 240.81805
 243.43994 245.69183 247.69472 249.46061 250.87850 252.00239 252.82527 253.14216
 253.18005 252.95494 252.31583 251.26472 249.87161 248.03350 245.94339 243.77728
 241.56917 239.37406 237.19495 235.03484 232.89573 230.76362 228.79051 226.94840
 225.23229 223.70518 222.33607 221.10896 219.99185 218.95274 218.05763 217.19952
 216.44241 215.62329 214.72218 214.08707 213.53796 213.48788 213.36958 214.30550
 215.78809 216.82993 218.17732 219.98024 222.05991 224.69299 228.58960 232.70599
 236.02997 239.44551 242.20677 244.30856 246.48227 249.20523 252.43068 255.80942
 259.22012 262.45386 265.44913 268.28912 270.82947 273.03687 274.91437 276.63251
 278.31207 279.86002 281.23224 282.58145 283.76358 284.81021 285.76538 286.64893
 287.47342 288.18451 288.79230 289.59494
 366.78100 356.33783 345.77266 334.64149 323.04733 311.24416 299.11699 286.92282
 274.63765 262.53748 250.54931 239.85315 229.97798 221.08481 213.26964 206.27447
 200.11130 195.05214 191.63697 189.68180 188.72163 188.78846 189.62629 190.93712
 192.66496 194.76279 197.02862 199.39045 201.83828 204.32111 206.41194 208.25678
 209.88561 211.03344 211.26527 211.49610 211.43593 211.14376 210.77960 210.41243
 210.03226 209.74509 209.55592 209.42275 209.35358 209.68742 210.07625 210.46808
 211.26391 212.44474 213.69757 215.48341 217.41424 219.46007 221.55790 223.64373
 225.70656 227.79339 229.89323 232.00206 234.13389 236.30872 238.56755 240.94038
 243.56421 245.81805 247.82288 249.59071 251.01054 252.13637 252.96120 253.28003
 253.31987 253.09670 252.45953 251.41036 250.01919 248.18302 246.09485 243.93069
 241.72452 239.53135 237.35418 235.19601 233.05884 230.92868 228.95751 227.11734
 225.40317 223.87800 222.51083 221.28566 220.17050 219.13333 218.24016 217.38399
 216.62882 215.81165 214.91248 214.27932 213.73215 213.61584 213.34103 214.37723
 215.90425 216.87790 218.32285 220.15657 222.15727 224.74155 228.64511 232.69592
 235.97670 239.30386 241.96712 244.01329 246.21538 248.99092 252.26155 255.69957
 259.15295 262.41763 265.42572 268.26144 270.79993 272.99686 274.86014 276.53577
 278.16086 279.68924 281.10181 282.45056 283.63062 284.67426 285.62732 286.50833
 287.32437 288.03375 288.64081 289.43893
 366.78100 356.33965 345.77630 334.64695 323.05460 311.25325 299.12790 286.93555
 274.65220 262.55385 250.56750 239.87315 229.99980 221.10845 213.29510 206.30175
 200.14040 195.08305 191.66969 189.71634 188.75799 188.82664 189.66629 190.97894
 192.70859 194.80824 197.07589 199.43954 201.88919 204.37384 206.46649 208.31314
 209.94379 211.09344 211.32709 211.55974 211.50139 211.21104 210.84869 210.48334
 210.10499 209.81964 209.63229 209.50094 209.43359 209.76924 210.15989 210.55354
 211.35119 212.53384 213.78849 215.57614 217.50878 219.55643 221.65608 223.74373
 225.80838 227.89703 229.99868 232.10933 234.24298 236.41963 238.68028 241.05493
 243.68058 245.93623 247.94288 249.71253 251.13418 252.26183 253.08848 253.40913
 253.45078 253.22943 252.59408 251.54673 250.15738 248.32303 246.23668 244.07433
 241.86998 239.67863 237.50328 235.34693 233.21158 231.08323 229.11388 227.27552
 225.56317 224.03982 222.67447 221.45112 220.33777 219.30242 218.41107 217.55672
 216.80337 215.98802 215.09067 214.45932 213.91397 213.74397 213.34233 214.40849
 215.99072 217.01390 218.51202 220.27350 222.21039 224.79541 228.75121 232.66528
 235.89999 239.14618 241.73857 243.74385 245.94656 248.76703 252.09828 255.59544
 259.08722 262.37445 265.39035 268.22684 270.76758 272.96594 274.81851 276.46979
 278.07187 279.58313 280.99246 282.26996 283.41217 284.44766 285.39404 286.26880
 287.07706 287.79129 288.39810 289.19550
 366.78100 356.33880 345.77461 334.64441 323.05122 311.24902 299.12282 286.92963
 274.64543 262.54624 250.55904 239.86384 229.98965 221.09745 213.28325 206.28906
 200.12686 195.06867 191.65447 189.70027 188.74108 188.80888 189.64769 190.95949
 192.68829 194.78710 197.05390 199.41671 201.86551 204.34931 206.44112 208.28692
 209.91673 211.06553 211.29833 211.53014 211.47094 211.17974 210.81655 210.45035
 210.07116 209.78496 209.59676 209.46457 209.39637 209.73118 210.12098 210.51378
 211.31059 212.49239 213.74620 215.53300 217.46480 219.51161 221.61041 223.69722
 225.76102 227.84882 229.94963 232.05943 234.19223 236.36804 238.62784 241.00165
 243.62645 245.88125 247.88706 249.65586 251.07667 252.20347 253.02927 253.34908
 253.38988 253.16769 252.53149 251.48329 250.09310 248.25790 246.17071 244.00751
 241.80231 239.61012 237.43392 235.27672 233.14053 231.01133 229.04114 227.20194
 225.48874 223.96455 222.59835 221.37416 220.25996 219.22376 218.33157 217.47637
 216.72218 215.90598 215.00778 214.37559 213.82939 213.72440 213.47632 214.49167
 216.02858 217.15157 218.61482 220.32692 222.23666 224.85117 228.84219 232.56770
 235.80403 238.96210 241.48294 243.45804 245.65936 248.53775 251.94498 255.50510
 259.03094 262.33923 265.36823 268.21356 270.75916 272.95419 274.80115 276.44299
 278.01019 279.46994 280.80725 282.03067 283.19699 284.24295 285.19934 286.07724
 286.88834 287.60620 288.21454 289.01471
 366.78100 356.33807 345.77314 334.64221 323.04828 311.24535 299.11842 286.92449
 274.63956 262.53963 250.55170 239.85577 229.98084 221.08791 213.27298 206.27805
 200.11512 195.05619 191.64126 189.68633 188.72640 188.79347 189.63154 190.94261
 192.67068 194.76875 197.03482 199.39689 201.84496 204.32803 206.41910 208.26417
 209.89324 211.04131 211.27338 211.50445 211.44452 211.15259 210.78866 210.42173
 210.04180 209.75487 209.56595 209.43302 209.36409 209.69816 210.08723 210.47930
 211.27537 212.45644 213.70951 215.49558 217.42665 219.47272 221.57079 223.65686
 225.71993 227.80700 229.90707 232.01614 234.14821 236.32328 238.58235 240.95542
 243.57949 245.83356 247.83863 249.60670 251.02677 252.15284 252.97791 253.29698
 253.33705 253.11412 252.47719 251.42826 250.03733 248.20140 246.11347 243.94954
 241.74361 239.55068 237.37375 235.21582 233.07889 230.94896 228.97803 227.13810
 225.42417 223.89924 222.53231 221.30738 220.19245 219.15552 218.26259 217.40666
 216.65173 215.83480 214.93587 214.30294 213.75601 213.69882 213.56369 214.71410
 216.04277 217.22395 218.68369 220.36293 222.28029 224.93321 228.91003 232.43367
 235.70241 238.77061 241.20430 243.12216 245.34261 248.30931 251.81952 255.43961
 258.99289 262.32663 265.35693 268.19824 270.74710 272.93164 274.78915 276.45468
 278.01807 279.45084 280.74060 281.90308 283.00787 284.05392 285.01208 285.89230
 286.70642 287.43646 288.05344 288.85425
 366.78100 356.33849 345.77398 334.64348 323.04997 311.24746 299.12095 286.92744
 274.64294 262.54343 250.55592 239.86041 229.98590 221.09340 213.27889 206.28438
 200.12187 195.06336 191.64886 189.69435 188.73484 188.80233 189.64082 190.95232
 192.68081 194.77930 197.04579 199.40828 201.85678 204.34027 206.43176 208.27725
 209.90674 211.05524 211.28773 211.51922 211.45971 211.16820 210.80470 210.43819
 210.05868 209.77217 209.58367 209.45116 209.38265 209.71714 210.10663 210.49913
 211.29562 212.47711 213.73060 215.51709 217.44859 219.49508 221.59357 223.68006
 225.74355 227.83105 229.93154 232.04103 234.17352 236.34901 238.60851 240.98200
 243.60649 245.86098 247.86647 249.63497 251.05546 252.18195 253.00744 253.32693
 253.36743 253.14492 252.50841 251.45990 250.06939 248.23389 246.14638 243.98287
 241.77736 239.58485 237.40835 235.25084 233.11433 230.98482 229.01431 227.17481
 225.46130 223.93679 222.57028 221.34577 220.23127 219.19476 218.30225 217.44674
 216.69223 215.87573 214.97722 214.34471 213.79820 213.74240 213.65442 214.92500
 215.94221 216.99467 218.71983 220.44687 222.40138 225.04234 228.90950 232.38776
 235.61690 238.57523 240.97536 242.84184 245.06902 248.11658 251.70357 255.39656
 258.97488 262.32016 265.35251 268.14993 270.68732 272.90356 274.85458 276.61789
 278.21085 279.59171 280.77557 281.85947 283.01401 284.06708 285.03751 285.94022
 286.79498 287.55615 288.22110 289.06848
 366.78100 356.33737 345.77174 334.64010 323.04547 311.24184 299.11421 286.91958
 274.63394 262.53331 250.54468 239.84805 229.97241 221.07878 213.26315 206.26752
 200.10389 195.04425 191.62862 189.67299 188.71236 188.77873 189.61609 190.92646
 192.65383 194.75120 197.01657 199.37793 201.82530 204.30767 206.39804 208.24241
 209.87077 211.01814 211.24951 211.47988 211.41924 211.12661 210.76198 210.39435
 210.01372 209.72608 209.53645 209.40282 209.33319 209.66656 210.05492 210.44629
 211.24166 212.42203 213.67440 215.45976 217.39013 219.43550 221.53287 223.61824
 225.68060 227.76697 229.86634 231.97471 234.10607 236.28044 238.53881 240.91118
 243.53455 245.78791 247.79228 249.55965 250.97902 252.10439 252.92875 253.24712
 253.28649 253.06286 252.42523 251.37559 249.98396 248.14733 246.05870 243.89406
 241.68743 239.49380 237.31617 235.15754 233.01990 230.88927 228.91764 227.07701
 225.36238 223.83674 222.46911 221.24348 220.12785 219.09022 218.19658 217.33995
 216.58432 215.76669 214.86706 214.23342 213.68579 213.73193 213.92458 214.86697
 216.00725 217.23701 218.89047 220.66655 222.67982 225.27728 228.93686 232.53989
 235.46179 238.30296 240.60474 242.56129 244.89804 248.03394 251.65344 255.35219
 258.97418 262.31070 265.35355 268.20529 270.80545 273.11145 275.12427 276.83206
 278.13467 279.27316 280.72427 282.15344 283.57877 284.89178 286.08972 287.17496
 288.15103 289.02020 289.77951 290.74716
 366.78100 356.33373 345.76447 334.62920 323.03094 311.22367 299.09241 286.89414
 274.60488 262.50061 250.50835 239.80808 229.92882 221.03155 213.21229 206.21302
 200.04576 194.98249 191.56323 189.60396 188.63970 188.70243 189.53617 190.84290
 192.56664 194.66037 196.92210 199.27984 201.72357 204.20231 206.28904 208.12978
 209.75451 210.89825 211.12598 211.35272 211.28845 210.99219 210.62392 210.25266
 209.86839 209.57713 209.38386 209.24660 209.17333 209.50307 209.88780 210.27554
 211.06727 212.24400 213.49274 215.27447 217.20121 219.24294 221.33668 223.41841
 225.47715 227.55988 229.65562 231.76035 233.88809 236.05882 238.31356 240.68229
 243.30203 245.55176 247.55250 249.31623 250.73197 251.85370 252.67444 252.98917
 253.02491 252.79764 252.15637 251.10311 249.70784 247.86758 245.77531 243.60705
 241.39678 239.19952 237.01825 234.85599 232.71472 230.58046 228.60519 226.76093
 225.04266 223.51340 222.14213 220.91287 219.79360 218.75234 217.85507 216.99481
 216.23554 215.41427 214.51101 213.87374 213.32248 213.60497 214.24226 214.82739
 216.16467 217.53648 219.05373 220.85324 222.81015 225.27672 228.97578 232.48521
 235.39502 238.13589 240.31784 242.19987 244.61047 247.86491 251.60175 255.38649
 259.03177 262.37161 265.45071 268.34903 270.96243 273.16772 274.92273 276.12851
 277.45255 279.32684 281.37976 283.24445 284.85815 286.28586 287.58844 288.76849
 289.82980 290.77490 291.60052 292.65271
 366.78100 356.33387 345.76475 334.62962 323.03149 311.22437 299.09324 286.89511
 274.60598 262.50186 250.50973 239.80960 229.93048 221.03335 213.21422 206.21510
 200.04797 194.98484 191.56571 189.60659 188.64246 188.70533 189.53921 190.84608
 192.56995 194.66383 196.92570 199.28357 201.72745 204.20632 206.29319 208.13406
 209.75894 210.90281 211.13068 211.35756 211.29343 210.99730 210.62918 210.25805
 209.87392 209.58279 209.38967 209.25254 209.17941 209.50929 209.89416 210.28203
 211.07391 212.25078 213.49965 215.28152 217.20840 219.25027 221.34414 223.42602
 225.48489 227.56776 229.66364 231.76851 233.89638 236.06726 238.32213 240.69100
 243.31087 245.56075 247.56162 249.32549 250.74137 251.86324 252.68411 252.99899
 253.03486 252.80773 252.16660 251.11348 249.71835 247.87822 245.78610 243.61797
 241.40784 239.21072 237.02959 234.86746 232.72634 230.59221 228.61708 226.77295
 225.05483 223.52570 222.15457 220.92545 219.80632 218.76519 217.86807 217.00794
 216.24881 215.42768 214.52456 213.88743 213.33630 213.62938 214.29881 214.93912
 216.23891 217.60539 219.23802 221.07713 222.97237 225.30511 228.96603 232.39470
 235.18759 237.77084 239.91263 241.86728 244.36909 247.76103 251.63295 255.49213
 259.13040 262.44431 265.46237 268.26392 270.73535 272.78256 274.37549 275.55109
 276.81842 278.70593 280.84540 282.76645 284.42896 285.89984 287.24179 288.45752
 289.55093 290.52463 291.37521 292.45920
 366.78100 356.33650 345.76999 334.63749 323.04199 311.23748 299.10898 286.91348
 274.62697 262.52547 250.53597 239.83846 229.96196 221.06746 213.25095 206.25445
 200.08995 195.02944 191.61294 189.65644 188.69493 188.76043 189.59693 190.90642
 192.63292 194.72942 196.99391 199.35441 201.80091 204.28240 206.37190 208.21540
 209.84289 210.98939 211.21989 211.44938 211.38788 211.09438 210.72887 210.36037
 209.97887 209.69036 209.49986 209.36536 209.29485 209.62735 210.01485 210.40534
 211.19984 212.37934 213.63083 215.41533 217.34482 219.38932 221.48582 223.57031
 225.63181 227.71731 229.81580 231.92330 234.05380 236.22729 238.48479 240.85629
 243.47878 245.73128 247.73478 249.50127 250.91977 252.04427 252.86776 253.18526
 253.22376 252.99925 252.36075 251.31025 249.91774 248.08024 245.99074 243.82523
 241.61773 239.42323 237.24472 235.08522 232.94672 230.81521 228.84271 227.00121
 225.28570 223.75920 222.39070 221.16419 220.04769 219.00919 218.11468 217.25718
 216.50068 215.68217 214.78167 214.14717 213.59866 213.76993 214.22554 215.07030
 216.32677 217.58655 219.33093 221.19997 223.09723 225.38858 228.88103 232.34042
 234.94839 237.37785 239.49454 241.60876 244.20628 247.71268 251.67226 255.51155
 259.09924 262.43332 265.40283 268.11206 270.48080 272.45529 274.05664 275.32605
 276.56708 277.99622 279.60321 281.28058 282.87271 284.28137 285.56653 286.73083
 287.77795 288.71045 289.52505 290.56317
 366.78100 356.33685 345.77071 334.63856 323.04341 311.23927 299.11112 286.91597
 274.62983 262.52868 250.53953 239.84239 229.96624 221.07209 213.25595 206.25980
 200.09565 195.03551 191.61936 189.66321 188.70207 188.76792 189.60477 190.91463
 192.64148 194.73833 197.00319 199.36404 201.81089 204.29275 206.38260 208.22645
 209.85431 211.00116 211.23202 211.46187 211.40072 211.10758 210.74243 210.37428
 209.99314 209.70499 209.51484 209.38070 209.31055 209.64340 210.03126 210.42211
 211.21696 212.39682 213.64867 215.43352 217.36338 219.40823 221.50508 223.58994
 225.65179 227.73764 229.83650 231.94435 234.07520 236.24906 238.50691 240.87876
 243.50162 245.75447 247.75832 249.52518 250.94403 252.06888 252.89274 253.21059
 253.24944 253.02530 252.38715 251.33700 249.94486 248.10771 246.01856 243.85342
 241.64627 239.45212 237.27398 235.11483 232.97668 230.84554 228.87339 227.03224
 225.31710 223.79095 222.42280 221.19666 220.08051 219.04236 218.14822 217.29107
 216.53492 215.71678 214.81663 214.18248 213.63434 213.81306 214.28528 215.16821
 216.41255 217.68059 219.36235 221.22038 223.11569 225.37477 228.78807 232.26315
 234.77168 237.08099 239.11211 241.31293 244.06686 247.70576 251.70032 255.57190
 259.14444 262.37106 265.32541 268.00201 270.34515 272.30914 273.86124 275.12744
 276.41208 277.85599 279.42032 280.87607 282.38742 283.78412 285.05844 286.21286
 287.25113 288.17572 288.98343 290.01276
 366.78100 356.33480 345.76659 334.63239 323.03518 311.22898 299.09877 286.90157
 274.61336 262.51016 250.51895 239.81975 229.94155 221.04534 213.22714 206.22893
 200.06273 195.00052 191.58232 189.62411 188.66091 188.72470 189.55950 190.86729
 192.59209 194.68689 196.94968 199.30848 201.75327 204.23307 206.32086 208.16266
 209.78845 210.93325 211.16204 211.38984 211.32664 211.03143 210.66423 210.29402
 209.91082 209.62061 209.42841 209.29220 209.22000 209.55079 209.93659 210.32539
 211.11818 212.29598 213.54577 215.32857 217.25636 219.29916 221.39395 223.47675
 225.53654 227.62034 229.71713 231.82293 233.95173 236.12352 238.37932 240.74911
 243.36991 245.62070 247.62250 249.38729 250.80409 251.92688 252.74868 253.06448
 253.10127 252.87507 252.23486 251.18266 249.78845 247.94925 245.85804 243.69084
 241.48163 239.28543 237.10523 234.94402 232.80382 230.67061 228.69641 226.85320
 225.13600 223.60779 222.23759 221.00938 219.89118 218.85098 217.95477 217.09557
 216.33736 215.51716 214.61495 213.97875 213.42854 213.72710 214.45470 215.29842
 216.38670 217.64055 219.38647 221.21596 223.10603 225.38940 228.77892 232.24748
 234.66753 236.86954 238.82356 241.06168 243.98592 247.66600 251.67429 255.56367
 259.16141 262.37665 265.26343 267.90717 270.21960 272.11697 273.64743 274.95923
 276.27158 277.71335 279.24542 280.64731 281.90732 283.20422 284.44836 285.57550
 286.58920 287.49191 288.28052 289.28549
 366.78100 356.33340 345.76380 334.62820 323.02960 311.22200 299.09040 286.89180
 274.60220 262.49760 250.50500 239.80440 229.92480 221.02720 213.20760 206.20800
 200.04040 194.97680 191.55720 189.59760 188.63300 188.69540 189.52880 190.83520
 192.55860 194.65200 196.91340 199.27080 201.71420 204.19260 206.27901 208.11941
 209.74381 210.88721 211.11461 211.34101 211.27641 210.97981 210.61121 210.23961
 209.85501 209.56341 209.36981 209.23221 209.15861 209.48801 209.87241 210.25981
 211.05121 212.22761 213.47601 215.25741 217.18381 219.22521 221.31861 223.40001
 225.45841 227.54081 229.63621 231.74061 233.86801 236.03841 238.29281 240.66121
 243.28061 245.53001 247.53041 249.29381 250.70921 251.83061 252.65101 252.96541
 253.00081 252.77321 252.13161 251.07801 249.68241 247.84181 245.74921 243.58061
 241.37001 239.17241 236.99081 234.82821 232.68661 230.55201 228.57641 226.73181
 225.01321 223.48361 222.11202 220.88242 219.76282 218.72122 217.82362 216.96302
 216.20342 215.38182 214.47822 213.84062 213.28902 213.66986 214.57414 215.39314
 216.66562 217.81459 219.36023 221.09814 222.97803 225.33315 228.70515 232.22050
 234.55843 236.58646 238.46399 240.74330 243.80750 247.53893 251.53406 255.43719
 259.06955 262.30676 265.18613 267.81583 270.12546 272.01532 273.54501 274.86807
 276.16705 277.55801 279.04041 280.41837 281.62585 282.70737 283.71725 284.74588
 285.77100 286.68387 287.48135 288.49765
 366.78100 356.33266 345.76232 334.62599 323.02665 311.21831 299.08597 286.88663
 274.59630 262.49096 250.49762 239.79628 229.91594 221.01761 213.19727 206.19693
 200.02859 194.96425 191.54392 189.58358 188.61824 188.67990 189.51256 190.81822
 192.54089 194.63355 196.89421 199.25087 201.69353 204.17120 206.25686 208.09652
 209.72018 210.86284 211.08951 211.31517 211.24983 210.95249 210.58315 210.21082
 209.82548 209.53314 209.33880 209.20046 209.12613 209.45479 209.83845 210.22511
 211.01577 212.19144 213.43910 215.21976 217.14542 219.18608 221.27875 223.35941
 225.41707 227.49873 229.59339 231.69705 233.82372 235.99338 238.24704 240.61470
 243.23336 245.48203 247.48169 249.24435 250.65901 251.77967 252.59934 252.91300
 252.94766 252.71932 252.07698 251.02265 249.62631 247.78497 245.69163 243.52229
 241.31096 239.11262 236.93028 234.76694 232.62460 230.48927 228.51293 226.66759
 224.94825 223.41791 222.04558 220.81524 219.69490 218.65256 217.75422 216.89288
 216.13255 215.31021 214.40587 213.76753 213.21519 213.66054 214.71141 215.50929
 216.75517 217.85243 219.34268 221.13013 223.05727 225.40804 228.70404 232.18121
 234.37366 236.29886 238.13803 240.48793 243.64560 247.43623 251.43503 255.33572
 258.95886 262.18738 265.06244 267.69095 270.02509 271.94431 273.50470 274.85977
 276.16537 277.54147 279.00906 280.38846 281.60135 282.71548 283.88333 284.96246
 285.93301 286.79730 287.55234 288.51453
 366.78100 356.33318 345.76336 334.62753 323.02871 311.22089 299.08907 286.89024
 274.60042 262.49560 250.50278 239.80195 229.92213 221.02431 213.20449 206.20467
 200.03684 194.97302 191.55320 189.59338 188.62855 188.69073 189.52391 190.83009
 192.55326 194.64644 196.90762 199.26480 201.70798 204.18615 206.27233 208.11251
 209.73669 210.87986 211.10704 211.33322 211.26840 210.97157 210.60275 210.23093
 209.84611 209.55429 209.36046 209.22264 209.14882 209.47800 209.86217 210.24935
 211.04053 212.21671 213.46488 215.24606 217.17224 219.21342 221.30660 223.38777
 225.44595 227.52813 229.62331 231.72748 233.85466 236.02484 238.27902 240.64719
 243.26637 245.51555 247.51573 249.27891 250.69408 251.81526 252.63544 252.94962
 252.98479 252.75697 252.11515 251.06133 249.66550 247.82468 245.73186 243.56304
 241.35222 239.15439 236.97257 234.80975 232.66793 230.53310 228.55728 226.71246
 224.99364 223.46381 222.09199 220.86217 219.74235 218.70053 217.80270 216.94188
 216.18206 215.36024 214.45641 213.81859 213.26677 213.73254 214.82329 215.66942
 216.82784 218.08899 219.67874 221.44495 223.35829 225.57196 228.97061 232.11882
 234.18199 236.01016 237.87163 240.28844 243.49161 247.30638 251.31822 255.20538
 258.77509 261.95065 264.83682 267.50775 269.84326 271.78329 273.34506 274.67435
 276.06595 277.84842 279.52744 281.38022 282.98361 284.40225 285.69650 286.86902
 287.92358 288.86267 289.68304 290.72849
 366.78100 356.33416 345.76532 334.63048 323.03265 311.22581 299.09497 286.89713
 274.60829 262.50445 250.51262 239.81278 229.93394 221.03710 213.21826 206.21942
 200.05259 194.98975 191.57091 189.61207 188.64823 188.71139 189.54555 190.85272
 192.57688 194.67104 196.93320 199.29136 201.73552 204.21469 206.30185 208.14301
 209.76817 210.91233 211.14049 211.36766 211.30382 211.00798 210.64014 210.26930
 209.88546 209.59462 209.40179 209.26495 209.19211 209.52227 209.90743 210.29559
 211.08776 212.26492 213.51408 215.29624 217.22340 219.26556 221.35973 223.44189
 225.50105 227.58421 229.68037 231.78553 233.91369 236.08486 238.34002 240.70918
 243.32934 245.57950 247.58066 249.34483 250.76099 251.88315 252.70431 253.01947
 253.05563 252.82880 252.18796 251.13512 249.74028 247.90044 245.80860 243.64076
 241.43093 239.23409 237.05325 234.89141 232.75057 230.61673 228.64190 226.79806
 225.08022 223.55138 222.18054 220.95170 219.83287 218.79203 217.89519 217.03535
 216.27651 215.45567 214.55283 213.91600 213.36516 213.81319 214.88261 215.80424
 216.86885 218.20477 219.92097 221.67403 223.51270 225.60976 229.09285 232.09642
 234.12009 235.77876 237.51999 239.96027 243.25319 247.13220 251.17961 255.07062
 258.58344 261.75739 264.64841 267.27811 269.58389 271.35605 272.80682 274.19232
 276.20013 278.10983 280.19098 282.02872 283.61911 285.02618 286.30994 287.47293
 288.51892 289.45038 290.26407 291.30106
 366.78100 356.33532 345.76763 334.63395 323.03726 311.23158 299.10190 286.90521
 274.61753 262.51485 250.52416 239.82548 229.94779 221.05211 213.23443 206.23674
 200.07106 195.00938 191.59169 189.63401 188.67132 188.73564 189.57096 190.87927
 192.60459 194.69991 196.96322 199.32254 201.76785 204.24817 206.33649 208.17880
 209.80512 210.95044 211.17975 211.40807 211.34538 211.05070 210.68402 210.31433
 209.93165 209.64196 209.45028 209.31460 209.24291 209.57423 209.96055 210.34986
 211.14318 212.32149 213.57181 215.35513 217.28344 219.32676 221.42208 223.50539
 225.56571 227.65002 229.74734 231.85366 233.98297 236.15529 238.41161 240.78192
 243.40324 245.65455 247.65687 249.42219 250.83950 251.96282 252.78513 253.10145
 253.13877 252.91308 252.27340 251.22172 249.82803 247.98935 245.89866 243.73198
 241.52330 239.32761 237.14793 234.98725 232.84756 230.71488 228.74119 226.89851
 225.18183 223.65414 222.28446 221.05678 219.93909 218.89941 218.00372 217.14504
 216.38736 215.56767 214.66599 214.03031 213.48062 213.90720 214.93729 215.90062
 216.96181 218.27332 220.08508 221.90019 223.69023 225.64421 229.12126 231.96486
 233.87804 235.47021 237.21881 239.67445 243.03006 246.96751 251.05493 254.94072
 258.45709 261.57605 264.44034 267.05048 269.25372 271.00507 272.45273 274.08646
 276.20404 278.31088 280.36359 282.16602 283.72586 285.10593 286.36502 287.50568
 288.53159 289.44513 290.24323 291.26025
 366.78100 356.33508 345.76715 334.63323 323.03631 311.23039 299.10046 286.90354
 274.61562 262.51270 250.52177 239.82285 229.94493 221.04900 213.23108 206.23316
 200.06724 195.00531 191.58739 189.62947 188.66655 188.73062 189.56570 190.87378
 192.59885 194.69393 196.95701 199.31609 201.76116 204.24124 206.32932 208.17140
 209.79747 210.94255 211.17163 211.39970 211.33678 211.04186 210.67494 210.30501
 209.92209 209.63217 209.44024 209.30432 209.23240 209.56348 209.94955 210.33863
 211.13171 212.30979 213.55986 215.34294 217.27102 219.31409 221.40917 223.49225
 225.55233 227.63640 229.73348 231.83956 233.96864 236.14071 238.39679 240.76687
 243.38794 245.63902 247.64110 249.40618 250.82325 251.94633 252.76841 253.08449
 253.12156 252.89564 252.25572 251.20379 249.80987 247.97095 245.88003 243.71310
 241.50418 239.30826 237.12834 234.96741 232.82749 230.69457 228.72064 226.87772
 225.16080 223.63288 222.26295 221.03503 219.91711 218.87719 217.98126 217.12234
 216.36442 215.54449 214.64257 214.00665 213.45673 213.92937 215.03995 215.94865
 216.95747 218.32391 220.19415 222.08675 223.82156 225.59131 229.14139 231.78067
 233.57678 235.21051 237.06635 239.59821 242.98091 246.94374 251.03609 254.88156
 258.34000 261.51587 264.38272 266.94620 269.04959 270.74979 272.05417 274.11172
 276.57239 278.96811 281.04120 282.86151 284.43686 285.83063 287.10223 288.25421
 289.29028 290.21292 291.01892 292.04605
 366.78100 356.33281 345.76262 334.62643 323.02724 311.21905 299.08686 286.88767
 274.59747 262.49228 250.49909 239.79790 229.91771 221.01952 213.19933 206.19914
 200.03095 194.96676 191.54657 189.58638 188.62119 188.68300 189.51581 190.82161
 192.54442 194.63723 196.89804 199.25485 201.69766 204.17547 206.26128 208.10109
 209.72490 210.86771 211.09452 211.32033 211.25514 210.95795 210.58876 210.21656
 209.83137 209.53918 209.34499 209.20680 209.13261 209.46142 209.84523 210.23204
 211.02285 212.19866 213.44647 215.22728 217.15309 219.19390 221.28670 223.36751
 225.42532 227.50713 229.60194 231.70575 233.83256 236.00237 238.25618 240.62399
 243.24280 245.49161 247.49142 249.25423 250.66904 251.78984 252.60965 252.92346
 252.95827 252.73008 252.08789 251.03370 249.63751 247.79632 245.70313 243.53394
 241.32275 239.12456 236.94237 234.77918 232.63699 230.50179 228.52560 226.68041
 224.96122 223.43103 222.05884 220.82865 219.70846 218.66627 217.76808 216.90689
 216.14670 215.32451 214.42032 213.78213 213.22993 213.84059 215.21774 216.03433
 216.85214 218.23195 220.20024 222.17506 223.88673 225.57193 229.13554 231.69426
 233.45218 235.13911 237.09053 239.67725 243.05089 247.01799 251.10951 254.93393
 258.35059 261.54849 264.35382 266.95526 269.11908 270.82730 272.02319 274.13760
 276.92841 279.39444 281.52841 283.40216 285.02374 286.45844 287.76736 288.95316
 290.01965 290.96939 291.79904 292.85635
 366.78100 356.32977 345.75654 334.61731 323.01508 311.20385 299.06862 286.86639
 274.57316 262.46493 250.46870 239.76447 229.88124 220.98002 213.15679 206.15356
 199.98233 194.91510 191.49187 189.52864 188.56041 188.61918 189.44895 190.75172
 192.47149 194.56126 196.81903 199.17280 201.61257 204.08734 206.17011 208.00688
 209.62765 210.76742 210.99119 211.21396 211.14573 210.84551 210.47328 210.09805
 209.70982 209.41459 209.21736 209.07613 208.99890 209.32467 209.70544 210.08921
 210.87698 212.04975 213.29452 215.07229 216.99506 219.03283 221.12260 223.20037
 225.25514 227.33391 229.42568 231.52645 233.65022 235.81699 238.06777 240.43254
 243.04831 245.29408 247.29085 249.05062 250.46239 251.58016 252.39693 252.70770
 252.73947 252.50824 251.86301 250.80578 249.40655 247.56232 245.46609 243.29386
 241.07963 238.87840 236.69317 234.52694 232.38171 230.24348 228.26425 226.41603
 224.69380 223.16057 221.78534 220.55211 219.42888 218.38365 217.48242 216.61819
 215.85496 215.02973 214.12250 213.48127 212.92604 213.69054 215.41920 216.25731
 216.78859 218.08859 220.15799 222.16164 223.90012 225.68689 229.15448 231.61658
 233.36053 235.03352 237.02306 239.70779 243.14034 247.10164 251.20425 255.10796
 258.56363 261.75409 264.69962 267.12982 269.35403 271.21280 272.74915 274.12106
 276.44354 279.02744 281.26334 283.22665 284.92572 286.42896 287.80045 289.04291
 290.16037 291.15549 292.02478 293.13263
 366.78100 356.32713 345.75126 334.60939 323.00452 311.19064 299.05277 286.84790
 274.55203 262.44116 250.44229 239.73542 229.84955 220.94568 213.11981 206.11393
 199.94006 194.87019 191.44432 189.47845 188.50758 188.56371 189.39084 190.69097
 192.40809 194.49522 196.75035 199.10148 201.53861 204.01074 206.09087 207.92500
 209.54313 210.68026 210.90138 211.12151 211.05064 210.74777 210.37290 209.99503
 209.60416 209.30629 209.10642 208.96255 208.88267 209.20580 209.58393 209.96506
 210.75019 211.92032 213.16245 214.93758 216.85771 218.89283 220.97996 223.05509
 225.10722 227.18335 229.27248 231.37061 233.49174 235.65587 237.90400 240.26612
 242.87925 245.12238 247.11651 248.87364 250.28277 251.39790 252.21203 252.52016
 252.54928 252.31541 251.66754 250.60767 249.20580 247.35893 245.26006 243.08519
 240.86832 238.66445 236.47657 234.30770 232.15983 230.01896 228.03709 226.18622
 224.46135 222.92548 221.54761 220.31174 219.18586 218.13799 217.23412 216.36725
 215.60138 214.77351 213.86364 213.21977 212.66190 213.54552 215.56541 216.54228
 216.93260 217.95793 220.03650 222.05083 223.78108 225.67595 228.96432 231.47978
 233.07178 234.69286 236.75262 239.55826 243.14131 247.18942 251.32678 255.24199
 258.81189 262.02185 264.91586 267.48340 269.69092 271.59726 273.20151 274.60846
 275.96353 277.86349 280.04651 281.98026 283.65378 285.13440 286.48526 287.70905
 288.80969 289.78983 290.64606 291.73721
 366.78100 356.32639 345.74978 334.60718 323.00157 311.18696 299.04835 286.84274
 274.54613 262.43453 250.43492 239.72731 229.84070 220.93609 213.10949 206.10288
 199.92827 194.85766 191.43105 189.46444 188.49284 188.54823 189.37462 190.67401
 192.39040 194.47680 196.73119 199.08158 201.51797 203.98936 206.06875 207.90215
 209.51954 210.65593 210.87632 211.09571 211.02410 210.72050 210.34489 209.96628
 209.57467 209.27606 209.07546 208.93085 208.85024 209.17263 209.55002 209.93041
 210.71481 211.88420 213.12559 214.89998 216.81937 218.85377 220.94016 223.01455
 225.06594 227.14133 229.22972 231.32712 233.44751 235.61090 237.85829 240.21968
 242.83208 245.07447 247.06786 248.82425 250.23264 251.34703 252.16043 252.46782
 252.49621 252.26160 251.61299 250.55239 249.14978 247.30217 245.20256 243.02695
 240.80934 238.60474 236.41613 234.24652 232.09791 229.95630 227.97370 226.12209
 224.39648 222.85987 221.48126 220.24465 219.11805 218.06944 217.16483 216.29722
 215.53061 214.70201 213.79140 213.14679 212.58818 213.48924 215.59679 216.80359
 217.11510 217.89653 219.95406 221.86211 223.54297 225.59872 228.58411 231.09059
 232.71138 234.46393 236.58127 239.44872 243.11411 247.25505 251.43634 255.42313
 259.01370 262.25446 265.19720 267.85675 270.15912 272.10153 273.74161 275.16806
 276.44189 277.57819 278.89603 280.35056 281.90018 283.31335 284.60269 285.77072
 286.82126 287.75674 288.57397 289.61545
 366.78100 356.32664 345.75028 334.60792 323.00257 311.18821 299.04985 286.84449
 274.54813 262.43677 250.43741 239.73005 229.84370 220.93934 213.11298 206.10662
 199.93226 194.86190 191.43554 189.46918 188.49783 188.55347 189.38011 190.67975
 192.39639 194.48303 196.73767 199.08831 201.52496 203.99660 206.07624 207.90988
 209.52752 210.66416 210.88480 211.10445 211.03309 210.72973 210.35437 209.97601
 209.58465 209.28629 209.08593 208.94158 208.86122 209.18386 209.56150 209.94214
 210.72678 211.89642 213.13806 214.91271 216.83235 218.86699 220.95363 223.02827
 225.07991 227.15555 229.24419 231.34184 233.46248 235.62612 237.87376 240.23540
 242.84804 245.09068 247.08432 248.84097 250.24961 251.36425 252.17789 252.48553
 252.51417 252.27981 251.63146 250.57110 249.16874 247.32138 245.22202 243.04666
 240.82930 238.62494 236.43659 234.26723 232.11887 229.97751 227.99515 226.14379
 224.41843 222.88207 221.50372 220.26736 219.14100 218.09264 217.18828 216.32092
 215.55456 214.72620 213.81585 213.17149 212.61313 213.48613 215.54994 217.06667
 217.36310 218.01218 220.05458 221.83899 223.35448 225.41074 228.50439 230.55927
 232.35861 234.08984 236.11784 239.16609 242.91594 247.17076 251.38850 255.36876
 258.98843 262.24158 265.21875 267.94235 270.33075 272.32401 274.01025 275.48691
 276.80438 278.00873 279.13394 280.17169 281.14935 282.18826 283.17798 284.11450
 285.09821 285.98306 286.75604 287.74112
 366.78100 356.32524 345.74749 334.60373 322.99697 311.18121 299.04146 286.83470
 274.53694 262.42419 250.42343 239.71467 229.82692 220.92116 213.09340 206.08564
 199.90989 194.83813 191.41037 189.44262 188.46986 188.52410 189.34935 190.64759
 192.36283 194.44807 196.70132 199.05056 201.48580 203.95605 206.03429 207.86653
 209.48278 210.61802 210.83726 211.05550 210.98275 210.67799 210.30123 209.92148
 209.52872 209.22896 209.02720 208.88145 208.79969 209.12093 209.49718 209.87642
 210.65966 211.82791 213.06815 214.84139 216.75963 218.79288 220.87812 222.95136
 225.00161 227.07585 229.16309 231.25934 233.37858 235.54082 237.78706 240.14731
 242.75855 244.99979 246.99204 248.74728 250.15452 251.26777 252.08001 252.38625
 252.41349 252.17774 251.52798 250.46622 249.06247 247.21371 245.11295 242.93619
 240.71744 238.51168 236.32192 234.15117 232.00141 229.85865 227.87490 226.02214
 224.29538 222.75762 221.37787 220.14011 219.01235 217.96260 217.05684 216.18808
 215.42033 214.59057 213.67881 213.03305 212.47330 213.40976 215.62228 217.14485
 217.59474 218.54068 220.31931 221.95923 223.46625 225.50316 228.40712 230.16771
 231.91432 233.72861 235.85426 239.00401 242.84677 247.11046 251.35020 255.33092
 258.92499 262.16473 265.14151 267.86847 270.25082 272.22147 273.89188 275.38327
 276.72745 277.97351 279.12744 280.20755 281.10767 281.98965 282.93292 283.79755
 284.57785 285.29218 285.94550 286.89526
 366.78100 356.32544 345.74788 334.60431 322.99775 311.18219 299.04263 286.83606
 274.53850 262.42594 250.42538 239.71682 229.82925 220.92369 213.09613 206.08857
 199.91301 194.84144 191.41388 189.44632 188.47376 188.52819 189.35363 190.65207
 192.36751 194.45295 196.70638 199.05582 201.49126 203.96170 206.04013 207.87257
 209.48901 210.62445 210.84389 211.06232 210.98976 210.68520 210.30864 209.92908
 209.53651 209.23695 209.03539 208.88983 208.80826 209.12970 209.50614 209.88558
 210.66902 211.83745 213.07789 214.85133 216.76977 218.80320 220.88864 222.96208
 225.01252 227.08696 229.17439 231.27083 233.39027 235.55271 237.79915 240.15958
 242.77102 245.01246 247.00490 248.76033 250.16777 251.28121 252.09365 252.40009
 252.42752 252.19196 251.54240 250.48084 249.07727 247.22871 245.12815 242.95159
 240.73303 238.52746 236.33790 234.16734 232.01778 229.87522 227.89165 226.03909
 224.31253 222.77497 221.39540 220.15784 219.03028 217.98072 217.07516 216.20659
 215.43903 214.60947 213.69791 213.05234 212.49278 213.42421 215.62485 217.17540
 217.75713 218.67894 220.43152 222.05029 223.51299 225.52411 228.36870 229.86000
 231.59334 233.40947 235.61531 238.89810 242.84996 247.14650 251.41620 255.42621
 259.03735 262.27182 265.23715 267.95447 270.33350 272.27975 273.87338 275.27533
 276.55942 277.78629 278.98605 280.13254 281.09393 282.01999 282.97144 283.83813
 284.62277 285.34662 286.05127 286.99298
 366.78100 356.33140 345.75979 334.62219 323.02158 311.21198 299.07837 286.87777
 274.58617 262.47956 250.48496 239.78235 229.90075 221.00115 213.17954 206.17794
 200.00833 194.94273 191.52112 189.55952 188.59292 188.65331 189.48471 190.78910
 192.51050 194.60189 196.86129 199.21669 201.65808 204.13448 206.21887 208.05727
 209.67966 210.82106 211.04646 211.27085 211.20425 210.90564 210.53504 210.16144
 209.77483 209.48123 209.28562 209.14602 209.07041 209.39781 209.78021 210.16560
 210.95500 212.12939 213.37579 215.15518 217.07958 219.11898 221.21037 223.28977
 225.34616 227.42656 229.51995 231.62235 233.74775 235.91614 238.16854 240.53493
 243.15233 245.39973 247.39812 249.15952 250.57291 251.69231 252.51070 252.82310
 252.85650 252.62689 251.98329 250.92768 249.53008 247.68747 245.59287 243.42227
 241.20966 239.01006 236.82645 234.66185 232.51824 230.38164 228.40404 226.55743
 224.83683 223.30522 221.93162 220.70002 219.57841 218.53481 217.63520 216.77260
 216.01099 215.18739 214.28179 213.64218 213.08858 213.74455 215.32568 217.21780
 218.05812 218.75145 220.68779 222.16711 223.47130 225.33658 228.08734 229.40820
 231.05629 232.90880 235.28694 238.81819 242.90422 247.23015 251.51535 255.53207
 259.16895 262.45544 265.46466 268.17715 270.51532 272.46677 274.11316 275.49530
 276.71100 277.77734 278.82254 280.06784 281.23135 282.29529 283.30469 284.32068
 285.24988 286.07733 286.80017 287.72134
 366.78100 356.34023 345.77746 334.64869 323.05692 311.25615 299.13138 286.93960
 274.65683 262.55906 250.57329 239.87952 230.00675 221.11598 213.30321 206.31044
 200.14967 195.09290 191.68013 189.72736 188.76958 188.83881 189.67904 190.99227
 192.72250 194.82273 197.09096 199.45519 201.90542 204.39065 206.48388 208.33111
 209.96234 211.11256 211.34679 211.58002 211.52225 211.23248 210.87071 210.50594
 210.12817 209.84340 209.65663 209.52586 209.45909 209.79532 210.18654 210.58077
 211.37900 212.56223 213.81746 215.60569 217.53892 219.58715 221.68738 223.77561
 225.84084 227.93007 230.03230 232.14353 234.27775 236.45498 238.71621 241.09144
 243.71767 245.97390 247.98113 249.75136 251.17359 252.30182 253.12905 253.45028
 253.49251 253.27173 252.63696 251.59019 250.20142 248.36765 246.28188 244.12011
 241.91634 239.72557 237.55080 235.39503 233.26026 231.13249 229.16371 227.32594
 225.61417 224.09140 222.72663 221.50386 220.39109 219.35632 218.46555 217.61178
 216.85901 216.04424 215.14747 214.51669 213.97192 214.23543 215.00978 217.00624
 218.52545 219.63229 221.35388 222.51347 223.66409 225.36989 227.61206 228.96826
 230.33598 232.24277 234.88225 238.53227 242.74821 247.16107 251.49817 255.54106
 259.19046 262.51620 265.57285 268.31430 270.69424 272.71997 274.40613 275.78220
 276.83545 277.97055 279.44916 280.86392 282.25723 283.55182 284.73291 285.80289
 286.76523 287.62222 288.37085 289.32489
 366.78100 356.34179 345.78059 334.65338 323.06317 311.26396 299.14076 286.95055
 274.66934 262.57313 250.58893 239.89672 230.02551 221.13630 213.32510 206.33389
 200.17468 195.11948 191.70827 189.75706 188.80085 188.87165 189.71344 191.02823
 192.76002 194.86182 197.13161 199.49740 201.94919 204.43599 206.53078 208.37957
 210.01236 211.16416 211.39995 211.63474 211.57854 211.29033 210.93012 210.56691
 210.19071 209.90750 209.72229 209.59308 209.52788 209.86567 210.25846 210.65425
 211.45405 212.63884 213.89563 215.68543 217.62022 219.67001 221.77180 223.86160
 225.92839 228.01918 230.12297 232.23577 234.37156 236.55035 238.81314 241.18994
 243.81773 246.07552 248.08432 249.85611 251.27990 252.40969 253.23849 253.56128
 253.60507 253.38586 252.75266 251.70745 250.32024 248.48803 246.40383 244.24362
 242.04141 239.85220 237.67900 235.52479 233.39158 231.26538 229.29817 227.46196
 225.75175 224.23055 222.86734 221.64613 220.53492 219.50172 218.61251 217.76030
 217.00909 216.19589 215.30068 214.67147 214.12827 214.36952 215.04411 216.61012
 218.66731 220.31773 221.82695 222.85088 223.90610 225.56831 227.63286 228.75478
 230.00888 231.80415 234.43524 238.17943 242.48344 246.92755 251.25037 255.24785
 258.87689 262.23306 265.36050 268.18707 270.63748 272.66251 274.32297 275.73184
 277.10117 278.73795 280.30417 281.75696 283.17670 284.44308 285.59845 286.64514
 287.58652 288.42480 289.15714 290.09039
 366.78100 356.33688 345.77076 334.63864 323.04352 311.23939 299.11127 286.91615
 274.63003 262.52891 250.53979 239.84267 229.96655 221.07243 213.25630 206.26018
 200.09606 195.03594 191.61982 189.66370 188.70258 188.76846 189.60534 190.91521
 192.64209 194.73897 197.00385 199.36473 201.81161 204.29349 206.38337 208.22724
 209.85512 211.00200 211.23288 211.46276 211.40164 211.10852 210.74340 210.37528
 209.99415 209.70603 209.51591 209.38179 209.31167 209.64455 210.03243 210.42331
 211.21819 212.39806 213.64994 215.43482 217.36470 219.40958 221.50646 223.59134
 225.65322 227.73910 229.83797 231.94585 234.07673 236.25061 238.50849 240.88037
 243.50325 245.75613 247.76001 249.52688 250.94576 252.07064 252.89452 253.21240
 253.25128 253.02716 252.38904 251.33891 249.94679 248.10967 246.02055 243.85543
 241.64831 239.45419 237.27607 235.11695 232.97882 230.84770 228.87558 227.03446
 225.31934 223.79322 222.42510 221.19898 220.08286 219.04473 218.15061 217.29349
 216.53737 215.71925 214.81913 214.18501 213.63689 214.13562 215.33066 216.50803
 218.36879 220.32896 221.91519 223.00473 224.06676 225.65102 227.74106 228.68301
 229.95622 231.74413 234.36066 238.10638 242.44458 246.87860 251.18982 255.17798
 258.78314 262.08774 265.14169 267.88126 270.24527 272.27026 274.05884 275.64044
 277.15369 278.78720 280.33401 281.72867 282.98682 284.19553 285.31064 286.32086
 287.22946 288.03854 288.74536 289.64612
 366.78100 356.33274 345.76248 334.62623 323.02697 311.21871 299.08645 286.88720
 274.59694 262.49168 250.49842 239.79716 229.91691 221.01865 213.19839 206.19813
 200.02988 194.96562 191.54536 189.58510 188.61984 188.68159 189.51433 190.82007
 192.54281 194.63556 196.89630 199.25304 201.69578 204.17352 206.25927 208.09901
 209.72275 210.86549 211.09224 211.31798 211.25272 210.95546 210.58620 210.21395
 209.82869 209.53643 209.34217 209.20391 209.12966 209.45840 209.84214 210.22888
 211.01963 212.19537 213.44311 215.22385 217.14959 219.19034 221.28308 223.36382
 225.42156 227.50331 229.59805 231.70179 233.82853 235.99827 238.25202 240.61976
 243.23850 245.48724 247.48699 249.24973 250.66447 251.78521 252.60495 252.91870
 252.95344 252.72518 252.08292 251.02867 249.63241 247.79115 245.69789 243.52863
 241.31738 239.11912 236.93686 234.77360 232.63135 230.49609 228.51983 226.67457
 224.95531 223.42506 222.05280 220.82254 219.70228 218.66003 217.76177 216.90051
 216.14025 215.31799 214.41374 213.77548 213.22322 213.91498 215.54622 216.70209
 218.09717 219.95265 221.81219 223.13051 224.22351 225.69902 227.82233 228.51282
 229.80440 231.57065 234.24139 238.06906 242.47020 246.92191 251.25858 255.27380
 258.87555 262.14294 265.16226 267.90192 270.28464 272.28098 273.99326 275.58136
 277.07944 278.44760 279.85858 281.22888 282.44254 283.55463 284.64850 285.65918
 286.56821 287.37769 288.08484 288.98602
 366.78100 356.33283 345.76267 334.62650 323.02733 311.21916 299.08700 286.88783
 274.59766 262.49250 250.49933 239.79816 229.91799 221.01983 213.19966 206.19949
 200.03133 194.96716 191.54699 189.58682 188.62166 188.68349 189.51632 190.82216
 192.54499 194.63782 196.89865 199.25549 201.69832 204.17615 206.26199 208.10182
 209.72565 210.86848 211.09532 211.32115 211.25598 210.95882 210.58965 210.21748
 209.83231 209.54015 209.34598 209.20781 209.13365 209.46248 209.84631 210.23314
 211.02398 212.19981 213.44764 215.22848 217.15431 219.19514 221.28797 223.36881
 225.42664 227.50847 229.60331 231.70714 233.83397 236.00380 238.25764 240.62547
 243.24430 245.49313 247.49297 249.25580 250.67063 251.79147 252.61130 252.92513
 252.95996 252.73180 252.08963 251.03546 249.63930 247.79813 245.70496 243.53579
 241.32463 239.12646 236.94429 234.78113 232.63896 230.50379 228.52762 226.68246
 224.96329 223.43312 222.06096 220.83079 219.71062 218.66845 217.77029 216.90912
 216.14895 215.32679 214.42262 213.78445 213.23228 213.91188 215.52473 216.89360
 218.21690 219.85011 221.81882 223.31204 224.38612 225.77426 227.94838 228.36636
 229.54617 231.24129 233.98596 237.96585 242.43320 246.90286 251.24263 255.24393
 258.82809 262.08240 265.11566 267.88632 270.32144 272.39960 274.14960 275.64798
 277.09265 278.44012 279.61484 280.88394 282.06635 283.14658 284.17514 285.17139
 286.08072 286.89047 287.59784 288.49933
 366.78100 356.33530 345.76760 334.63390 323.03720 311.23149 299.10179 286.90509
 274.61739 262.51469 250.52399 239.82529 229.94759 221.05188 213.23418 206.23648
 200.07078 195.00908 191.59138 189.63368 188.67098 188.73528 189.57057 190.87887
 192.60417 194.69947 196.96277 199.32207 201.76737 204.24767 206.33596 208.17826
 209.80456 210.94986 211.17916 211.40746 211.34476 211.05006 210.68336 210.31365
 209.93095 209.64125 209.44955 209.31385 209.24215 209.57345 209.95975 210.34904
 211.14234 212.32064 213.57094 215.35424 217.28254 219.32584 221.42114 223.50444
 225.56473 227.64903 229.74633 231.85263 233.98193 236.15423 238.41053 240.78083
 243.40212 245.65342 247.65572 249.42102 250.83832 251.96162 252.78392 253.10022
 253.13751 252.91181 252.27211 251.22041 249.82671 247.98801 245.89731 243.73061
 241.52191 239.32620 237.14650 234.98580 232.84610 230.71340 228.73970 226.89700
 225.18030 223.65259 222.28289 221.05519 219.93749 218.89779 218.00209 217.14339
 216.38569 215.56599 214.66428 214.02858 213.47888 214.03868 215.37480 216.98717
 218.47769 220.04659 221.93747 223.40063 224.46547 225.83243 227.90025 228.24538
 229.27138 230.91298 233.73666 237.85657 242.37462 246.85208 251.18294 255.16531
 258.73700 261.99002 265.03452 267.81287 270.26392 272.38428 274.18994 275.70712
 277.08179 278.44019 279.66855 280.84479 282.00394 283.06192 284.05371 284.96637
 285.89484 286.72626 287.45255 288.37811
 366.78100 356.33674 345.77048 334.63823 323.04297 311.23871 299.11045 286.91519
 274.62894 262.52768 250.53842 239.84116 229.96490 221.07065 213.25439 206.25813
 200.09387 195.03361 191.61736 189.66110 188.69984 188.76558 189.60232 190.91207
 192.63881 194.73555 197.00029 199.36103 201.80778 204.28952 206.37926 208.22300
 209.85074 210.99749 211.22823 211.45797 211.39671 211.10345 210.73820 210.36994
 209.98868 209.70042 209.51016 209.37591 209.30565 209.63839 210.02613 210.41687
 211.21162 212.39136 213.64310 215.42784 217.35758 219.40233 221.49907 223.58381
 225.64555 227.73129 229.83004 231.93778 234.06852 236.24226 238.50000 240.87175
 243.49449 245.74723 247.75097 249.51771 250.93646 252.06120 252.88494 253.20268
 253.24142 253.01717 252.37891 251.32865 249.93639 248.09913 246.00988 243.84462
 241.63736 239.44310 237.26484 235.10559 232.96733 230.83607 228.86381 227.02255
 225.30730 223.78104 222.41278 221.18652 220.07026 219.03201 218.13775 217.28049
 216.52423 215.70597 214.80572 214.17146 213.62320 214.11813 215.29393 217.00291
 218.66476 220.33365 222.13518 223.52060 224.56801 225.87332 227.77016 228.01572
 228.95322 230.65895 233.65143 237.79677 242.32526 246.80934 251.14030 255.12595
 258.70248 261.95712 264.99475 267.75421 270.19272 272.31204 274.13181 275.68008
 277.07388 278.43622 279.70035 280.88605 282.04404 283.09335 284.06805 284.95422
 285.78455 286.59769 287.30798 288.21323
 366.78100 356.33592 345.76884 334.63576 323.03968 311.23459 299.10551 286.90943
 274.62235 262.52027 250.53019 239.83211 229.95503 221.05995 213.24287 206.24578
 200.08070 195.01962 191.60254 189.64546 188.68338 188.74830 189.58422 190.89314
 192.61905 194.71497 196.97889 199.33881 201.78473 204.26565 206.35457 208.19749
 209.82441 210.97032 211.20024 211.42916 211.36708 211.07300 210.70692 210.33784
 209.95576 209.66668 209.47560 209.34051 209.26943 209.60135 209.98827 210.37819
 211.17211 212.35103 213.60195 215.38587 217.31478 219.35870 221.45462 223.53854
 225.59946 227.68438 229.78230 231.88922 234.01914 236.19206 238.44897 240.81989
 243.44181 245.69373 247.69665 249.46257 250.88049 252.00441 252.82733 253.14424
 253.18216 252.95708 252.31800 251.26692 249.87384 248.03576 245.94568 243.77960
 241.57151 239.37643 237.19735 235.03727 232.89819 230.76611 228.79303 226.95095
 225.23487 223.70779 222.33870 221.11162 219.99454 218.95546 218.06038 217.20230
 216.44522 215.62614 214.72506 214.08997 213.54089 214.08582 215.37877 216.95485
 218.70288 220.49684 222.33887 223.67622 224.66946 225.89194 227.65790 227.81282
 228.72285 230.43770 233.53693 237.73436 242.28078 246.76735 251.09061 255.07732
 258.66400 261.93210 264.96872 267.72076 270.15546 272.26923 274.08276 275.63385
 277.03607 278.41049 279.70865 280.94638 282.10553 283.15497 284.12863 285.00842
 285.83670 286.62476 287.31320 288.19055
 366.78100 356.33402 345.76505 334.63007 323.03209 311.22511 299.09414 286.89616
 274.60718 262.50320 250.51123 239.81125 229.93227 221.03529 213.21632 206.21734
 200.05036 194.98738 191.56841 189.60943 188.64545 188.70847 189.54250 190.84952
 192.57354 194.66756 196.92959 199.28761 201.73163 204.21065 206.29768 208.13870
 209.76372 210.90774 211.13577 211.36279 211.29881 211.00284 210.63486 210.26388
 209.87990 209.58893 209.39595 209.25897 209.18599 209.51602 209.90104 210.28906
 211.08108 212.25811 213.50713 215.28915 217.21617 219.25820 221.35222 223.43424
 225.49326 227.57629 229.67231 231.77733 233.90535 236.07638 238.33140 240.70042
 243.32044 245.57047 247.57149 249.33551 250.75153 251.87356 252.69458 253.00960
 253.04563 252.81865 252.17767 251.12469 249.72972 247.88974 245.79776 243.62978
 241.41981 239.22283 237.04185 234.87987 232.73890 230.60492 228.62994 226.78596
 225.06799 223.53901 222.16803 220.93905 219.82008 218.77910 217.88212 217.02214
 216.26317 215.44219 214.53921 213.90223 213.35126 214.00096 215.54263 216.94217
 218.58000 220.51514 222.49881 223.79544 224.74049 225.93364 227.71648 227.77505
 228.54723 230.15334 233.39278 237.68228 242.23830 246.72043 251.02571 255.00243
 258.59857 261.88406 264.92548 267.68457 270.13016 272.26718 274.10175 275.66849
 277.09027 278.47220 279.78845 281.06873 282.24161 283.30124 284.28601 285.20963
 286.10483 286.90204 287.59842 288.48593
 366.78100 356.33337 345.76374 334.62811 323.02948 311.22185 299.09022 286.89159
 274.60196 262.49733 250.50470 239.80407 229.92444 221.02682 213.20719 206.20756
 200.03993 194.97630 191.55667 189.59704 188.63241 188.69478 189.52815 190.83452
 192.55789 194.65126 196.91263 199.27000 201.71337 204.19174 206.27811 208.11848
 209.74285 210.88622 211.11359 211.33996 211.27533 210.97871 210.61008 210.23845
 209.85382 209.56219 209.36856 209.23093 209.15730 209.48667 209.87104 210.25841
 211.04978 212.22615 213.47452 215.25589 217.18226 219.22363 221.31700 223.39837
 225.45674 227.53911 229.63448 231.73885 233.86622 236.03660 238.29097 240.65934
 243.27871 245.52808 247.52845 249.29182 250.70719 251.82856 252.64893 252.96330
 252.99867 252.77104 252.12941 251.07578 249.68015 247.83952 245.74689 243.57826
 241.36763 239.17000 236.98837 234.82574 232.68411 230.54949 228.57386 226.72923
 225.01060 223.48097 222.10934 220.87971 219.76008 218.71845 217.82082 216.96019
 216.20056 215.37893 214.47530 213.83767 213.28604 213.97603 215.61124 217.01122
 218.51614 220.58784 222.62225 223.88013 224.81361 226.03946 227.83258 227.74561
 228.34386 229.93466 233.27489 237.61940 242.17355 246.65195 250.94536 254.91928
 258.52347 261.81448 264.85077 267.60422 270.06073 272.23822 274.12924 275.76028
 277.21387 278.59610 279.91925 281.21841 282.39667 283.45520 284.44144 285.35934
 286.24503 287.03372 287.72272 288.60074
 366.78100 356.33405 345.76511 334.63016 323.03222 311.22527 299.09433 286.89638
 274.60744 262.50349 250.51155 239.81160 229.93266 221.03571 213.21677 206.21782
 200.05088 194.98793 191.56899 189.61004 188.64610 188.70915 189.54320 190.85026
 192.57431 194.66837 196.93042 199.28848 201.73253 204.21159 206.29864 208.13970
 209.76475 210.90881 211.13686 211.36392 211.29997 211.00403 210.63608 210.26514
 209.88119 209.59025 209.39730 209.26036 209.18741 209.51746 209.90252 210.29057
 211.08263 212.25968 213.50874 215.29079 217.21785 219.25990 221.35396 223.43601
 225.49507 227.57812 229.67418 231.77923 233.90729 236.07834 238.33340 240.70245
 243.32251 245.57256 247.57361 249.33767 250.75372 251.87578 252.69683 253.01189
 253.04794 252.82100 252.18005 251.12711 249.73216 247.89222 245.80027 243.63233
 241.42238 239.22544 237.04449 234.88255 232.74160 230.60766 228.63271 226.78876
 225.07082 223.54187 222.17093 220.94198 219.82304 218.78209 217.88515 217.02520
 216.26626 215.44531 214.54237 213.90542 213.35448 214.02368 215.61012 217.04080
 218.60110 220.74669 222.70824 223.94710 224.88445 226.12766 227.83623 227.55699
 228.10771 229.73587 233.18907 237.56125 242.12096 246.59369 250.88138 254.86005
 258.47012 261.75397 264.76678 267.49500 269.94067 272.12714 274.04947 275.72787
 277.23895 278.66898 280.02258 281.33340 282.51410 283.57001 284.55353 285.45239
 286.30188 287.06128 287.72467 288.57010
 366.78100 356.33388 345.76476 334.62964 323.03152 311.22441 299.09329 286.89517
 274.60605 262.50193 250.50981 239.80969 229.93057 221.03345 213.21434 206.21522
 200.04810 194.98498 191.56586 189.60674 188.64262 188.70550 189.53938 190.84627
 192.57015 194.66403 196.92591 199.28379 201.72767 204.20655 206.29343 208.13431
 209.75920 210.90308 211.13096 211.35784 211.29372 210.99760 210.62948 210.25836
 209.87424 209.58313 209.39001 209.25289 209.17977 209.50965 209.89453 210.28241
 211.07429 212.25118 213.50006 215.28194 217.20882 219.25070 221.34458 223.42646
 225.48534 227.56822 229.66411 231.76899 233.89687 236.06775 238.32263 240.69151
 243.31139 245.56127 247.56215 249.32604 250.74192 251.86380 252.68468 252.99956
 253.03544 252.80832 252.16720 251.11408 249.71897 247.87885 245.78673 243.61861
 241.40849 239.21137 237.03025 234.86813 232.72701 230.59290 228.61778 226.77366
 225.05554 223.52642 222.15530 220.92618 219.80706 218.76594 217.86883 217.00871
 216.24959 215.42847 214.52535 213.88823 213.33711 214.03194 215.67953 217.05037
 218.59996 220.76105 222.67986 223.95045 224.93086 226.20546 227.82587 227.57951
 227.89705 229.59567 233.16217 237.56084 242.10548 246.57738 250.85780 254.84131
 258.46048 261.74371 264.73474 267.43909 269.87070 272.05508 273.97195 275.65292
 277.19983 278.65976 280.08334 281.44406 282.63449 283.70621 284.70435 285.66263
 286.53003 287.30243 287.97720 288.83710
 366.78100 356.33383 345.76466 334.62949 323.03132 311.22415 299.09298 286.89481
 274.60564 262.50147 250.50930 239.80913 229.92995 221.03278 213.21361 206.21444
 200.04727 194.98410 191.56493 189.60576 188.64159 188.70442 189.53825 190.84508
 192.56891 194.66274 196.92457 199.28240 201.72623 204.20506 206.29189 208.13272
 209.75755 210.90138 211.12920 211.35603 211.29186 210.99569 210.62752 210.25635
 209.87218 209.58101 209.38784 209.25067 209.17750 209.50733 209.89216 210.27999
 211.07182 212.24865 213.49748 215.27931 217.20614 219.24797 221.34180 223.42363
 225.48245 227.56528 229.66111 231.76594 233.89377 236.06460 238.31943 240.68826
 243.30809 245.55792 247.55875 249.32258 250.73841 251.86024 252.68107 252.99590
 253.03173 252.80456 252.16339 251.11022 249.71505 247.87488 245.78270 243.61453
 241.40436 239.20719 237.02602 234.86385 232.72268 230.58851 228.61334 226.76917
 225.05100 223.52183 222.15066 220.92149 219.80232 218.76115 217.86398 217.00381
 216.24464 215.42347 214.52030 213.88313 213.33195 214.03996 215.72400 217.15649
 218.60448 220.65248 222.55859 223.89728 224.99030 226.29440 227.74129 227.75986
 227.90298 229.62032 233.16095 237.57275 242.10846 246.56967 250.84619 254.84195
 258.48108 261.77448 264.75635 267.44501 269.86710 272.04614 273.96341 275.64737
 277.19785 278.70361 280.18307 281.55246 282.75452 283.83832 284.89996 285.87424
 286.75046 287.53076 288.21240 289.08109
 366.78100 356.33628 345.76956 334.63684 323.04112 311.23640 299.10768 286.91196
 274.62524 262.52352 250.53380 239.83608 229.95936 221.06464 213.24792 206.25119
 200.08647 195.02575 191.60903 189.65231 188.69059 188.75587 189.59215 190.90143
 192.62771 194.72399 196.98827 199.34855 201.79483 204.27611 206.36539 208.20867
 209.83595 210.98223 211.21251 211.44179 211.38007 211.08635 210.72063 210.35191
 209.97019 209.68147 209.49075 209.35603 209.28530 209.61758 210.00486 210.39514
 211.18942 212.36870 213.61998 215.40426 217.33354 219.37782 221.47410 223.55838
 225.61966 227.70494 229.80322 231.91050 234.04078 236.21406 238.47134 240.84262
 243.46490 245.71718 247.72046 249.48674 250.90502 252.02930 252.85258 253.16986
 253.20814 252.98341 252.34469 251.29397 249.90125 248.06353 245.97381 243.80809
 241.60037 239.40565 237.22693 235.06721 232.92849 230.79677 228.82405 226.98233
 225.26661 223.73989 222.37117 221.14445 220.02773 218.98901 218.09429 217.23657
 216.47985 215.66113 214.76041 214.12569 213.57697 214.17766 215.63390 217.23532
 218.83249 220.72224 222.54727 223.91066 225.05074 226.30963 227.59982 227.67630
 227.78175 229.54297 233.12637 237.56412 242.10216 246.56450 250.84375 254.86307
 258.53851 261.85873 264.84555 267.52347 269.93826 272.11636 274.03061 275.69382
 277.23950 278.74371 280.27890 281.65479 282.86621 283.99780 285.07434 286.04959
 286.92676 287.70786 288.39020 289.25980
 366.78100 356.33782 345.77264 334.64146 323.04729 311.24411 299.11693 286.92275
 274.63757 262.53739 250.54922 239.85304 229.97786 221.08468 213.26950 206.27432
 200.11114 195.05197 191.63679 189.68161 188.72143 188.78825 189.62607 190.93690
 192.66472 194.76254 197.02836 199.39018 201.83800 204.32083 206.41165 208.25647
 209.88529 211.03311 211.26493 211.49575 211.43558 211.14340 210.77922 210.41204
 210.03186 209.74468 209.55551 209.42233 209.35315 209.68697 210.07579 210.46761
 211.26343 212.44426 213.69708 215.48290 217.41372 219.45954 221.55736 223.64319
 225.70601 227.79283 229.89265 232.00147 234.13329 236.30811 238.56694 240.93976
 243.56358 245.81740 247.82222 249.59004 251.00987 252.13569 252.96051 253.27933
 253.31915 253.09597 252.45879 251.40962 250.01844 248.18226 246.09408 243.92990
 241.72372 239.53055 237.35337 235.19519 233.05801 230.92783 228.95665 227.11648
 225.40230 223.87712 222.50994 221.28476 220.16958 219.13240 218.23923 217.38305
 216.62787 215.81069 214.91151 214.27833 213.73116 214.27718 215.60828 217.19630
 218.98946 220.86897 222.62878 223.96074 225.08101 226.28336 227.48239 227.46857
 227.58282 229.39639 233.05254 237.53339 242.07565 246.53877 250.82262 254.86021
 258.57303 261.93457 264.94867 267.64398 270.07523 272.27802 274.20453 275.85623
 277.35944 278.82608 280.35693 281.73190 282.94247 284.08167 285.16821 286.15253
 287.03781 287.82614 288.51483 289.39249
 366.78100 356.33584 345.76868 334.63553 323.03937 311.23421 299.10505 286.90889
 274.62174 262.51958 250.52942 239.83126 229.95410 221.05894 213.24179 206.24463
 200.07947 195.01831 191.60115 189.64400 188.68184 188.74668 189.58252 190.89136
 192.61721 194.71305 196.97689 199.33673 201.78257 204.26341 206.35226 208.19510
 209.82194 210.96778 211.19762 211.42647 211.36431 211.07015 210.70399 210.33483
 209.95268 209.66352 209.47236 209.33720 209.26604 209.59788 209.98473 210.37457
 211.16841 212.34725 213.59809 215.38194 217.31078 219.35462 221.45046 223.53430
 225.59515 227.67999 229.77783 231.88467 234.01451 236.18735 238.44420 240.81504
 243.43688 245.68872 247.69156 249.45741 250.87525 251.99909 252.82193 253.13877
 253.17662 252.95146 252.31230 251.26114 249.86798 248.02982 245.93967 243.77351
 241.56535 239.37019 237.19103 235.03088 232.89172 230.75956 228.78640 226.94424
 225.22809 223.70093 222.33177 221.10461 219.98745 218.94829 218.05314 217.19498
 216.43782 215.61866 214.71750 214.08235 213.53319 214.18715 215.74753 217.22008
 218.88168 220.84048 222.65013 223.98500 225.11285 226.32487 227.60791 227.33031
 227.42931 229.21764 232.93796 237.46834 241.98595 246.42969 250.70229 254.73769
 258.46127 261.84418 264.89114 267.63538 270.12326 272.39264 274.38214 276.06964
 277.56070 278.98077 280.42432 281.78806 282.98209 284.05179 285.08185 286.04883
 286.91855 287.69302 288.36957 289.23178
 366.78100 356.33469 345.76638 334.63206 323.03475 311.22844 299.09813 286.90081
 274.61250 262.50919 250.51788 239.81856 229.94025 221.04394 213.22563 206.22732
 200.06100 194.99869 191.58038 189.62207 188.65875 188.72244 189.55713 190.86482
 192.58950 194.68419 196.94688 199.30557 201.75026 204.22994 206.31763 208.15932
 209.78501 210.92969 211.15838 211.38607 211.32276 211.02745 210.66013 210.28982
 209.90651 209.61620 209.42388 209.28757 209.21526 209.54595 209.93163 210.32032
 211.11301 212.29070 213.54039 215.32307 217.25076 219.29345 221.38814 223.47082
 225.53051 227.61420 229.71089 231.81657 233.94526 236.11695 238.37264 240.74233
 243.36301 245.61370 247.61539 249.38008 250.79676 251.91945 252.74114 253.05683
 253.09351 252.86720 252.22689 251.17458 249.78027 247.94095 245.84964 243.68233
 241.47302 239.27670 237.09639 234.93508 232.79477 230.66145 228.68714 226.84383
 225.12652 223.59821 222.22789 220.99958 219.88127 218.84096 217.94464 217.08533
 216.32702 215.50671 214.60439 213.96808 213.41777 214.12659 215.80971 217.39487
 218.84096 220.84038 222.72044 224.04498 225.18764 226.41653 227.71173 227.26425
 227.37939 229.09529 232.83081 237.40320 241.87958 246.30252 250.55183 254.57925
 258.29849 261.68121 264.74139 267.51886 270.06247 272.39001 274.43500 276.17844
 277.71051 279.12582 280.48999 281.82513 283.01251 284.07150 285.04944 285.95654
 286.80252 287.55588 288.21399 289.05267
 366.78100 356.33530 345.76759 334.63389 323.03718 311.23148 299.10178 286.90507
 274.61737 262.51466 250.52396 239.82526 229.94755 221.05185 213.23415 206.23644
 200.07074 195.00903 191.59133 189.63363 188.67092 188.73522 189.57051 190.87881
 192.60411 194.69940 196.96270 199.32199 201.76729 204.24759 206.33588 208.17818
 209.80447 210.94977 211.17907 211.40736 211.34466 211.04995 210.68325 210.31355
 209.93084 209.64114 209.44944 209.31373 209.24203 209.57332 209.95962 210.34892
 211.14221 212.32051 213.57080 215.35410 217.28240 219.32569 221.42099 223.50428
 225.56458 227.64888 229.74617 231.85247 233.98176 236.15406 238.41036 240.78065
 243.40195 245.65324 247.65554 249.42084 250.83813 251.96143 252.78373 253.10002
 253.13732 252.91161 252.27191 251.22021 249.82650 247.98780 245.89709 243.73039
 241.52169 239.32598 237.14628 234.98557 232.84587 230.71317 228.73946 226.89676
 225.18005 223.65235 222.28265 221.05494 219.93724 218.89753 218.00183 217.14313
 216.38542 215.56572 214.66402 214.02831 213.47861 214.15738 215.76105 217.56096
 218.94016 220.85893 222.74489 224.06680 225.21523 226.44847 227.72539 227.28827
 227.42068 229.17560 232.84222 237.35982 241.81622 246.20172 250.44244 254.47841
 258.20557 261.58832 264.64307 267.42456 269.98999 272.34937 274.43094 276.21078
 277.78412 279.21698 280.55066 281.85626 283.03656 284.09143 285.06244 285.94467
 286.73856 287.45108 288.07520 288.87054
 366.78100 356.33591 345.76882 334.63572 323.03963 311.23454 299.10545 286.90936
 274.62226 262.52017 250.53008 239.83199 229.95490 221.05980 213.24271 206.24562
 200.08053 195.01944 191.60234 189.64525 188.68316 188.74807 189.58397 190.89288
 192.61879 194.71470 196.97861 199.33851 201.78442 204.26533 206.35424 208.19715
 209.82405 210.96996 211.19987 211.42878 211.36669 211.07259 210.70650 210.33741
 209.95532 209.66623 209.47513 209.34004 209.26895 209.60086 209.98777 210.37767
 211.17158 212.35049 213.60140 215.38531 217.31421 219.35812 221.45403 223.53794
 225.59885 227.68375 229.78166 231.88857 234.01848 236.19138 238.44829 240.81920
 243.44111 245.69302 247.69592 249.46183 250.87974 252.00365 252.82656 253.14346
 253.18137 252.95628 252.31719 251.26610 249.87300 248.03491 245.94482 243.77873
 241.57064 239.37554 237.19645 235.03636 232.89727 230.76518 228.79208 226.94999
 225.23390 223.70681 222.33772 221.11062 219.99353 218.95444 218.05935 217.20126
 216.44416 215.62507 214.72398 214.08889 213.53979 214.19353 215.73801 217.64513
 219.13890 220.91299 222.72784 224.03830 225.18010 226.40926 227.67436 227.33936
 227.40892 229.20547 232.84491 237.34149 241.76900 246.12904 250.36821 254.40657
 258.14313 261.53281 264.58499 267.36380 269.93420 272.30386 274.37936 276.15729
 277.76096 279.23172 280.57581 281.84879 283.03143 284.08496 285.05029 285.92154
 286.68726 287.34454 287.91995 288.66861
 366.78100 356.33613 345.76926 334.63639 323.04053 311.23566 299.10679 286.91092
 274.62405 262.52218 250.53231 239.83444 229.95758 221.06271 213.24584 206.24897
 200.08410 195.02323 191.60636 189.64950 188.68763 188.75276 189.58889 190.89802
 192.62415 194.72028 196.98441 199.34455 201.79068 204.27181 206.36094 208.20407
 209.83120 210.97733 211.20747 211.43660 211.37473 211.08086 210.71499 210.34612
 209.96425 209.67538 209.48452 209.34965 209.27878 209.61091 209.99804 210.38817
 211.18230 212.36144 213.61257 215.39670 217.32583 219.36996 221.46609 223.55022
 225.61135 227.69649 229.79462 231.90175 234.03188 236.20501 238.46214 240.83327
 243.45541 245.70754 247.71067 249.47680 250.89493 252.01906 252.84219 253.15932
 253.19746 252.97259 252.33372 251.28285 249.88998 248.05211 245.96224 243.79638
 241.58851 239.39364 237.21477 235.05490 232.91603 230.78416 228.81130 226.96943
 225.25356 223.72669 222.35782 221.13095 220.01408 218.97521 218.08035 217.22248
 216.46561 215.64674 214.74587 214.11100 213.56213 214.21362 215.75282 217.66595
 219.30186 220.95822 222.66141 223.96628 225.13965 226.37924 227.64290 227.36020
 227.39812 229.19548 232.83835 237.34760 241.74808 246.07396 250.30946 254.35434
 258.10260 261.49850 264.54968 267.32800 269.90106 272.27222 274.31592 276.07364
 277.69528 279.19073 280.55200 281.83179 283.00732 284.05750 285.02194 285.88815
 286.65588 287.30902 287.90091 288.68912
 366.78100 356.33659 345.77017 334.63776 323.04234 311.23793 299.10952 286.91410
 274.62769 262.52628 250.53686 239.83945 229.96303 221.06862 213.25221 206.25579
 200.09138 195.03097 191.61455 189.65814 188.69672 188.76231 189.59890 190.90848
 192.63507 194.73166 196.99624 199.35683 201.80341 204.28500 206.37459 208.21817
 209.84576 210.99234 211.22293 211.45252 211.39110 211.09769 210.73228 210.36386
 209.98245 209.69403 209.50362 209.36921 209.29879 209.63138 210.01897 210.40955
 211.20414 212.38372 213.63531 215.41990 217.34948 219.39407 221.49065 223.57524
 225.63683 227.72241 229.82100 231.92859 234.05917 236.23276 238.49034 240.86193
 243.48452 245.73710 247.74069 249.50728 250.92586 252.05045 252.87403 253.19162
 253.23021 253.00579 252.36738 251.31697 249.92455 248.08714 245.99772 243.83231
 241.62490 239.43048 237.25207 235.09265 232.95424 230.82283 228.85041 227.00900
 225.29359 223.76717 222.39876 221.17234 220.05593 219.01752 218.12310 217.26569
 216.50928 215.69086 214.79045 214.15603 213.60762 214.24568 215.75314 217.69225
 219.43369 221.00200 222.57196 223.86700 225.06624 226.34633 227.63576 227.43454
 227.44945 229.18114 232.83896 237.36702 241.73289 246.02547 250.25253 254.30386
 258.06564 261.47116 264.52594 267.30911 269.89453 272.27902 274.30585 276.03601
 277.64996 279.15021 280.51297 281.79068 282.96310 284.01254 284.97583 285.84344
 286.61667 287.29553 287.89062 288.68549
 366.78100 356.33773 345.77247 334.64120 323.04694 311.24367 299.11641 286.92214
 274.63688 262.53661 250.54835 239.85208 229.97682 221.08355 213.26829 206.27302
 200.10976 195.05049 191.63523 189.67996 188.71970 188.78643 189.62417 190.93490
 192.66264 194.76037 197.02611 199.38784 201.83558 204.31831 206.40905 208.25378
 209.88252 211.03025 211.26199 211.49272 211.43246 211.14019 210.77593 210.40866
 210.02840 209.74113 209.55187 209.41860 209.34933 209.68307 210.07180 210.46354
 211.25927 212.44001 213.69274 215.47848 217.40921 219.45495 221.55268 223.63842
 225.70115 227.78789 229.88762 231.99636 234.12809 236.30283 238.56156 240.93430
 243.55803 245.81177 247.81650 249.58424 251.00397 252.12971 252.95444 253.27318
 253.31291 253.08965 252.45238 251.40312 250.01185 248.17559 246.08732 243.92306
 241.71679 239.52353 237.34626 235.18800 233.05073 230.92047 228.94920 227.10893
 225.39467 223.86940 222.50214 221.27687 220.16161 219.12434 218.23108 217.37481
 216.61955 215.80228 214.90302 214.26975 213.72249 214.31297 215.70810 217.75169
 219.55771 221.05258 222.49786 223.77940 225.00912 226.30359 227.59761 227.43744
 227.48320 229.21585 232.84238 237.36476 241.70393 245.96683 250.18414 254.24043
 258.01596 261.43533 264.49997 267.29498 269.89545 272.29599 274.31857 276.03204
 277.63159 279.12408 280.47382 281.74884 282.92105 283.97247 284.93887 285.81277
 286.59167 287.27969 287.88272 288.67471
 366.78100 356.33917 345.77535 334.64552 323.05270 311.25087 299.12504 286.93222
 274.64839 262.54956 250.56274 239.86791 229.99409 221.10226 213.28843 206.29461
 200.13278 195.07495 191.66113 189.70730 188.74848 188.81665 189.65582 190.96800
 192.69717 194.79634 197.06352 199.42669 201.87587 204.36004 206.45221 208.29839
 209.92856 211.07773 211.31091 211.54308 211.48426 211.19343 210.83060 210.46478
 210.08595 209.80013 209.61230 209.48047 209.41265 209.74782 210.13799 210.53117
 211.32834 212.51052 213.76469 215.55186 217.48404 219.53121 221.63038 223.71756
 225.78173 227.86991 229.97108 232.08125 234.21443 236.39060 238.65077 241.02495
 243.65012 245.90530 247.91147 249.68064 251.10182 252.22899 253.05517 253.37534
 253.41651 253.19469 252.55886 251.51103 250.12121 248.28638 246.19956 244.03673
 241.83190 239.64008 237.46425 235.30742 233.17160 231.04277 229.07295 227.23412
 225.52129 223.99747 222.63164 221.40781 220.29399 219.25816 218.36634 217.51151
 216.75768 215.94186 215.04403 214.41220 213.86638 214.39555 215.64580 217.80867
 219.69904 221.09941 222.41797 223.66241 224.90114 226.28322 227.61078 227.55914
 227.53162 229.13142 232.81885 237.37955 241.68974 245.92061 250.12148 254.18044
 257.96906 261.40140 264.47900 267.28586 269.89948 272.31039 274.33014 276.03418
 277.62155 279.10544 280.44635 281.69711 282.86252 283.90829 284.85974 285.73093
 286.52249 287.22870 287.83673 288.63800
 366.78100 356.33996 345.77691 334.64787 323.05582 311.25478 299.12973 286.93769
 274.65465 262.55660 250.57056 239.87651 230.00347 221.11243 213.29938 206.30634
 200.14529 195.08825 191.67520 189.72216 188.76412 188.83307 189.67303 190.98598
 192.71594 194.81590 197.08385 199.44781 201.89776 204.38272 206.47567 208.32263
 209.95359 211.10354 211.33750 211.57045 211.51241 211.22236 210.86032 210.49528
 210.11723 209.83219 209.64514 209.51410 209.44706 209.78301 210.17397 210.56792
 211.36588 212.54883 213.80379 215.59175 217.52470 219.57266 221.67261 223.76057
 225.82552 227.91448 230.01644 232.12739 234.26135 236.43830 238.69926 241.07422
 243.70017 245.95613 247.96308 249.73304 251.15499 252.28295 253.10991 253.43086
 253.47282 253.25177 252.61673 251.56969 250.18064 248.34660 246.26055 244.09851
 241.89446 239.70342 237.52838 235.37233 233.23729 231.10924 229.14020 227.30215
 225.59011 224.06707 222.70202 221.47898 220.36593 219.33089 218.43985 217.58580
 216.83276 216.01771 215.12067 214.48962 213.94458 214.44536 215.62849 217.81720
 219.83823 221.18512 222.37465 223.55156 224.76106 226.14972 227.56569 227.64854
 227.62231 229.15170 232.82817 237.40681 241.69496 245.88167 250.06868 254.12988
 257.92944 261.37344 264.46198 267.27969 269.90607 272.32593 274.34146 276.03571
 277.61081 279.08496 280.42630 281.64313 282.79660 283.83875 284.79111 285.66254
 286.46045 287.17068 287.78323 288.59024
 366.78100 356.33971 345.77642 334.64713 323.05484 311.25355 299.12826 286.93597
 274.65268 262.55439 250.56810 239.87381 230.00053 221.10924 213.29595 206.30266
 200.14137 195.08408 191.67079 189.71750 188.75921 188.82792 189.66763 190.98034
 192.71005 194.80976 197.07747 199.44118 201.89089 204.37560 206.46831 208.31502
 209.94573 211.09544 211.32915 211.56187 211.50358 211.21329 210.85100 210.48571
 210.10742 209.82213 209.63484 209.50355 209.43626 209.77197 210.16268 210.55639
 211.35410 212.53681 213.79152 215.57923 217.51194 219.55965 221.65936 223.74707
 225.81178 227.90050 230.00221 232.11292 234.24663 236.42334 238.68405 241.05876
 243.68447 245.94018 247.94689 249.71660 251.13831 252.26602 253.09273 253.41344
 253.45515 253.23386 252.59857 251.55128 250.16199 248.32770 246.24141 244.07912
 241.87484 239.68355 237.50826 235.35197 233.21668 231.08839 229.11910 227.28081
 225.56852 224.04523 222.67994 221.45665 220.34336 219.30807 218.41678 217.56249
 216.80920 215.99391 215.09662 214.46533 213.92004 214.44266 215.67738 217.77979
 219.91251 221.33002 222.42017 223.46088 224.58934 225.97742 227.49812 227.68852
 227.68124 229.18167 232.84108 237.43535 241.71225 245.85577 250.02771 254.09195
 257.90292 261.35968 264.45581 267.27893 269.91187 272.33386 274.33737 276.02081
 277.58734 279.05392 280.39572 281.59354 282.73923 283.78171 284.73724 285.60818
 286.40714 287.12665 287.74152 288.55084
 366.78100 356.33934 345.77568 334.64602 323.05336 311.25170 299.12604 286.93338
 274.64972 262.55106 250.56440 239.86974 229.99608 221.10442 213.29076 206.29710
 200.13544 195.07778 191.66412 189.71046 188.75180 188.82014 189.65948 190.97182
 192.70116 194.80050 197.06784 199.43118 201.88052 204.36486 206.45720 208.30354
 209.93388 211.08322 211.31656 211.54890 211.49024 211.19958 210.83692 210.47126
 210.09260 209.80694 209.61928 209.48762 209.41996 209.75530 210.14564 210.53899
 211.33633 212.51867 213.77301 215.56035 217.49269 219.54003 221.63937 223.72671
 225.79105 227.87939 229.98073 232.09107 234.22441 236.40075 238.66109 241.03543
 243.66077 245.91611 247.92245 249.69179 251.11313 252.24047 253.06681 253.38715
 253.42849 253.20683 252.57117 251.52351 250.13385 248.29919 246.21253 244.04987
 241.84521 239.65355 237.47789 235.32123 233.18557 231.05691 229.08725 227.24859
 225.53593 224.01227 222.64661 221.42295 220.30929 219.27363 218.38197 217.52731
 216.77365 215.95799 215.06033 214.42867 213.88301 214.43239 215.73035 217.75266
 219.94881 221.44841 222.50056 223.43335 224.46645 225.82645 227.41116 227.66786
 227.68135 229.18530 232.84749 237.46117 241.73801 245.84500 249.99985 254.06570
 257.88937 261.35837 264.45972 267.28113 269.90878 272.31870 274.29712 275.96863
 277.53912 279.00546 280.34644 281.54471 282.69125 283.73392 284.69086 285.56552
 286.36490 287.08725 287.70419 288.51614
 366.78100 356.34018 345.77735 334.64853 323.05670 311.25588 299.13105 286.93923
 274.65640 262.55858 250.57275 239.87893 230.00610 221.11528 213.30246 206.30963
 200.14881 195.09198 191.67916 189.72633 188.76851 188.83768 189.67786 190.99103
 192.72121 194.82138 197.08956 199.45374 201.90391 204.38909 206.48226 208.32944
 209.96061 211.11079 211.34496 211.57814 211.52031 211.23049 210.86866 210.50384
 210.12601 209.84119 209.65437 209.52354 209.45672 209.79289 210.18407 210.57824
 211.37642 212.55959 213.81477 215.60294 217.53612 219.58429 221.68447 223.77265
 225.83782 227.92700 230.02917 232.14035 234.27452 236.45170 238.71287 241.08805
 243.71422 245.97040 247.97757 249.74775 251.16993 252.29810 253.12528 253.44645
 253.48863 253.26780 252.63298 251.58615 250.19733 248.36350 246.27768 244.11585
 241.91203 239.72121 237.54638 235.39056 233.25573 231.12791 229.15908 227.32126
 225.60943 224.08661 222.72178 221.49896 220.38613 219.35131 218.46049 217.60666
 216.85384 216.03901 215.14219 214.51136 213.96654 214.48259 215.70181 217.78348
 220.02745 221.46506 222.51888 223.45636 224.42535 225.71944 227.31894 227.62141
 227.65991 229.18166 232.85464 237.48669 241.76537 245.84091 249.96980 254.03427
 257.86600 261.34134 264.44678 267.27213 269.89978 272.29901 274.25281 275.90833
 277.48193 278.95145 280.29056 281.49591 282.65033 283.69510 284.65152 285.52869
 286.32932 287.05087 287.67139 288.48587
 366.78100 356.34212 345.78125 334.65437 323.06449 311.26561 299.14274 286.95286
 274.67198 262.57610 250.59223 239.90035 230.02947 221.14060 213.32972 206.33884
 200.17996 195.12509 191.71421 189.76333 188.80745 188.87858 189.72070 191.03582
 192.76794 194.87007 197.14019 199.50631 201.95844 204.44556 206.54068 208.38980
 210.02293 211.17505 211.41117 211.64629 211.59042 211.30254 210.94266 210.57979
 210.20391 209.92103 209.73615 209.60728 209.54240 209.88052 210.27364 210.66977
 211.46989 212.65501 213.91214 215.70226 217.63738 219.68750 221.78963 223.87975
 225.94687 228.03799 230.14212 232.25524 234.39136 236.57048 238.83361 241.21073
 243.83885 246.09698 248.10610 249.87822 251.30234 252.43247 253.26159 253.58471
 253.62883 253.40996 252.77708 251.73220 250.34533 248.51345 246.42957 244.26969
 242.06782 239.87894 237.70606 235.55218 233.41931 231.29343 229.32655 227.49068
 225.78080 224.25992 222.89704 221.67617 220.56529 219.53241 218.64353 217.79166
 217.04078 216.22790 215.33302 214.70415 214.16127 214.59030 215.60393 217.84789
 220.14526 221.45377 222.48062 223.44104 224.37573 225.62073 227.24248 227.61667
 227.68799 229.20831 232.87436 237.51630 241.79491 245.83073 249.93109 253.98006
 257.80527 261.27856 264.39590 267.24594 269.89600 272.30792 274.25870 275.89716
 277.45181 278.91116 280.24194 281.45474 282.61453 283.65985 284.62006 285.49728
 286.29532 287.01859 287.64423 288.46094
 366.78100 356.34380 345.78460 334.65941 323.07121 311.27401 299.15281 286.96461
 274.68541 262.59122 250.60902 239.91882 230.04962 221.16242 213.35322 206.36403
 200.20683 195.15363 191.74443 189.79523 188.84104 188.91384 189.75764 191.07444
 192.80824 194.91204 197.18385 199.55165 202.00545 204.49425 206.59105 208.44186
 210.07666 211.23046 211.46826 211.70506 211.65086 211.36467 211.00647 210.64527
 210.27107 209.98987 209.80667 209.67948 209.61628 209.95608 210.35088 210.74868
 211.55049 212.73729 213.99609 215.78789 217.72469 219.77649 221.88030 223.97210
 226.04090 228.13370 230.23950 232.35430 234.49211 236.67291 238.93771 241.31651
 243.94631 246.20612 248.21692 249.99072 251.41652 252.54832 253.37912 253.70393
 253.74973 253.53253 252.90133 251.85813 250.47294 248.64274 246.56054 244.40234
 242.20214 240.01494 237.84375 235.69155 233.56035 231.43615 229.47095 227.63675
 225.92856 224.40936 223.04816 221.82896 220.71976 219.68857 218.80137 217.95117
 217.20197 216.39077 215.49757 214.87038 214.32918 214.68576 215.52821 217.88594
 220.22250 221.52460 222.47574 223.34496 224.23192 225.47675 227.16512 227.66017
 227.78302 229.28166 232.91196 237.55975 241.84177 245.84001 249.89241 253.91403
 257.72278 261.18591 264.31693 267.20221 269.89224 272.33392 274.29855 275.92859
 277.45374 278.89215 280.20807 281.42474 282.58655 283.63385 284.59515 285.47275
 286.27390 286.99255 287.62671 288.44379
 366.78100 356.34438 345.78575 334.66113 323.07350 311.27688 299.15625 286.96863
 274.69001 262.59638 250.61476 239.92513 230.05651 221.16989 213.36126 206.37264
 200.21601 195.16339 191.75476 189.80614 188.85252 188.92589 189.77027 191.08764
 192.82202 194.92640 197.19877 199.56715 202.02152 204.51090 206.60827 208.45965
 210.09503 211.24940 211.48778 211.72515 211.67153 211.38591 211.02828 210.66766
 210.29403 210.01341 209.83078 209.70416 209.64154 209.98191 210.37729 210.77566
 211.57804 212.76541 214.02479 215.81717 217.75454 219.80692 221.91129 224.00367
 226.07305 228.16642 230.27280 232.38817 234.52655 236.70792 238.97330 241.35268
 243.98305 246.24343 248.25480 250.02918 251.45556 252.58793 253.41931 253.74468
 253.79106 253.57443 252.94381 251.90119 250.51656 248.68694 246.60531 244.44769
 242.24807 240.06144 237.89082 235.73919 233.60857 231.48494 229.52032 227.68670
 225.97907 224.46045 223.09982 221.88120 220.77257 219.74195 218.85533 218.00570
 217.25708 216.44645 215.55383 214.92721 214.38658 214.72542 215.52599 217.87592
 220.23221 221.66278 222.55084 223.22713 224.02663 225.28159 227.05194 227.68304
 227.88338 229.37935 232.96484 237.61501 241.91847 245.89185 249.88402 253.87227
 257.65869 261.10559 264.23801 267.14636 269.86703 272.32483 274.30209 275.93692
 277.45099 278.87387 280.17780 281.40378 282.56879 283.61691 284.57800 285.45853
 286.26056 286.98102 287.61456 288.43875
 366.78100 356.34429 345.78558 334.66087 323.07316 311.27646 299.15575 286.96804
 274.68933 262.59562 250.61391 239.92420 230.05549 221.16878 213.36008 206.37137
 200.21466 195.16195 191.75324 189.80453 188.85082 188.92411 189.76840 191.08570
 192.81999 194.92428 197.19657 199.56486 202.01915 204.50844 206.60573 208.45702
 210.09232 211.24661 211.48490 211.72219 211.66848 211.38277 211.02506 210.66435
 210.29065 210.00994 209.82723 209.70052 209.63781 209.97810 210.37339 210.77168
 211.57397 212.76127 214.02056 215.81285 217.75014 219.80243 221.90672 223.99901
 226.06830 228.16159 230.26789 232.38318 234.52147 236.70276 238.96805 241.34734
 243.97763 246.23792 248.24921 250.02351 251.44980 252.58209 253.41338 253.73867
 253.78496 253.56825 252.93754 251.89483 250.51013 248.68042 246.59871 244.44100
 242.24129 240.05458 237.88387 235.73216 233.60145 231.47775 229.51304 227.67933
 225.97162 224.45291 223.09220 221.87349 220.76478 219.73407 218.84737 217.99766
 217.24895 216.43824 215.54553 214.91882 214.37811 214.73215 215.56860 217.84029
 220.22633 221.76912 222.66199 223.16428 223.85107 225.07957 226.89397 227.63304
 227.93181 229.46869 233.02498 237.67867 242.01704 245.98485 249.91699 253.86562
 257.63116 261.05878 264.17746 267.08551 269.81259 272.25903 274.23492 275.88834
 277.41754 278.84131 280.14157 281.39255 282.56314 283.61127 284.57437 285.45566
 286.25821 286.98245 287.61823 288.44107
 366.78100 356.34415 345.78531 334.66046 323.07262 311.27577 299.15493 286.96708
 274.68824 262.59439 250.61255 239.92270 230.05385 221.16701 213.35816 206.36932
 200.21247 195.15963 191.75078 189.80194 188.84809 188.92125 189.76540 191.08255
 192.81671 194.92086 197.19302 199.56117 202.01533 204.50448 206.60164 208.45279
 210.08795 211.24210 211.48026 211.71741 211.66356 211.37772 211.01987 210.65903
 210.28518 210.00434 209.82149 209.69465 209.63180 209.97196 210.36711 210.76526
 211.56742 212.75457 214.01373 215.80588 217.74304 219.79519 221.89935 223.99150
 226.06066 228.15381 230.25996 232.37512 234.51327 236.69443 238.95958 241.33874
 243.96889 246.22905 248.24020 250.01436 251.44051 252.57266 253.40382 253.72897
 253.77513 253.55828 252.92744 251.88459 250.49975 248.66990 246.58806 244.43021
 242.23036 240.04352 237.87267 235.72083 233.58998 231.46614 229.50129 227.66745
 225.95960 224.44076 223.07991 221.86107 220.75222 219.72137 218.83453 217.98468
 217.23584 216.42499 215.53215 214.90530 214.36446 214.73659 215.61580 217.79878
 220.24345 221.81052 222.74283 223.16077 223.75603 224.91199 226.71272 227.51521
 227.91966 229.53767 233.08705 237.74501 242.12460 246.09270 249.97820 253.88963
 257.63043 261.03442 264.12982 267.02368 269.73959 272.15958 274.12558 275.80325
 277.36218 278.80139 280.10263 281.39246 282.56818 283.61737 284.58084 285.46344
 286.26819 286.99655 287.62964 288.45706
 366.78100 356.34420 345.78540 334.66061 323.07281 311.27601 299.15521 286.96742
 274.68862 262.59482 250.61302 239.92323 230.05443 221.16763 213.35883 206.37003
 200.21324 195.16044 191.75164 189.80284 188.84905 188.92225 189.76645 191.08365
 192.81786 194.92206 197.19426 199.56246 202.01667 204.50587 206.60307 208.45427
 210.08947 211.24368 211.48188 211.71908 211.66528 211.37949 211.02169 210.66089
 210.28709 210.00630 209.82350 209.69670 209.63390 209.97410 210.36931 210.76751
 211.56971 212.75691 214.01612 215.80832 217.74552 219.79772 221.90193 223.99413
 226.06333 228.15653 230.26273 232.37794 234.51614 236.69734 238.96254 241.34175
 243.97195 246.23215 248.24335 250.01756 251.44376 252.57596 253.40716 253.73236
 253.77857 253.56177 252.93097 251.88817 250.50338 248.67358 246.59178 244.43398
 242.23419 240.04739 237.87659 235.72479 233.59400 231.47020 229.50540 227.67160
 225.96380 224.44501 223.08421 221.86541 220.75661 219.72582 218.83902 217.98922
 217.24042 216.42963 215.53683 214.91003 214.36923 214.75063 215.65170 217.76369
 220.26353 221.83151 222.78738 223.17996 223.70540 224.77853 226.52435 227.35921
 227.87694 229.59811 233.15479 237.81825 242.22765 246.20255 250.05312 253.92894
 257.63425 261.00964 264.08109 266.96075 269.66183 272.06073 274.01410 275.71167
 277.30347 278.76035 280.07114 281.40234 282.58334 283.63525 284.60019 285.48386
 286.29089 287.01788 287.65521 288.48193
 366.78100 356.34442 345.78584 334.66126 323.07368 311.27710 299.15652 286.96894
 274.69036 262.59678 250.61520 239.92562 230.05704 221.17046 213.36188 206.37330
 200.21672 195.16414 191.75556 189.80698 188.85340 188.92682 189.77124 191.08866
 192.82308 194.92750 197.19992 199.56834 202.02276 204.51218 206.60960 208.46102
 210.09644 211.25086 211.48928 211.72670 211.67312 211.38754 211.02996 210.66938
 210.29580 210.01522 209.83264 209.70606 209.64348 209.98390 210.37932 210.77774
 211.58016 212.76758 214.02700 215.81942 217.75684 219.80926 221.91368 224.00610
 226.07552 228.16894 230.27536 232.39078 234.52920 236.71062 238.97604 241.35546
 243.98588 246.24630 248.25772 250.03214 251.45856 252.59098 253.42240 253.74782
 253.79424 253.57766 252.94708 251.90450 250.51992 248.69034 246.60877 244.45119
 242.25161 240.06503 237.89445 235.74287 233.61229 231.48871 229.52413 227.69055
 225.98297 224.46439 223.10381 221.88523 220.77665 219.74607 218.85949 218.00991
 217.26133 216.45075 215.55817 214.93159 214.39101 214.77383 215.67827 217.73997
 220.26161 221.86072 222.81081 223.19969 223.67685 224.64706 226.33099 227.20270
 227.83484 229.66136 233.22873 237.89220 242.32649 246.31206 250.13951 253.96928
 257.63397 260.97702 264.02640 266.89517 269.58981 271.97678 273.91885 275.62616
 277.24545 278.72137 280.06741 281.41150 282.59787 283.65170 284.61993 285.50610
 286.31418 287.04556 287.68192 288.50705
 366.78100 356.34464 345.78629 334.66193 323.07458 311.27822 299.15787 286.97051
 274.69216 262.59880 250.61745 239.92809 230.05973 221.17338 213.36502 206.37667
 200.22031 195.16796 191.75960 189.81125 188.85789 188.93153 189.77618 191.09382
 192.82847 194.93311 197.20576 199.57440 202.02905 204.51869 206.61634 208.46798
 210.10362 211.25827 211.49691 211.73456 211.68120 211.39585 211.03849 210.67814
 210.30478 210.02443 209.84207 209.71571 209.65336 209.99400 210.38965 210.78829
 211.59094 212.77858 214.03823 215.83087 217.76852 219.82116 221.92580 224.01845
 226.08809 228.18174 230.28838 232.40403 234.54267 236.72432 238.98996 241.36960
 244.00025 246.26089 248.27254 250.04718 251.47383 252.60647 253.43812 253.76376
 253.81041 253.59405 252.96369 251.92134 250.53698 248.70763 246.62627 244.46892
 242.26956 240.08321 237.91285 235.76150 233.63114 231.50778 229.54343 227.71007
 226.00272 224.48436 223.12401 221.90565 220.79730 219.76694 218.88059 218.03123
 217.28287 216.47252 215.58016 214.95381 214.41345 214.79843 215.70799 217.72049
 220.23701 221.90446 222.83365 223.19374 223.62131 224.54185 226.13959 227.02335
 227.78889 229.73584 233.31517 237.97467 242.43167 246.43060 250.23740 254.01768
 257.62973 260.93475 263.96127 266.82455 269.51721 271.89624 273.82928 275.54251
 277.18533 278.67963 280.08142 281.43338 282.62201 283.68115 284.65134 285.53955
 286.35284 287.08609 287.73019 288.56720
 366.78100 356.34468 345.78636 334.66205 323.07473 311.27841 299.15809 286.97077
 274.69246 262.59914 250.61782 239.92850 230.06018 221.17386 213.36555 206.37723
 200.22091 195.16859 191.76027 189.81196 188.85864 188.93232 189.77700 191.09468
 192.82937 194.93405 197.20673 199.57541 202.03009 204.51978 206.61746 208.46914
 210.10482 211.25950 211.49818 211.73587 211.68255 211.39723 211.03991 210.67959
 210.30628 210.02596 209.84364 209.71732 209.65500 209.99569 210.39137 210.79005
 211.59273 212.78041 214.04010 215.83278 217.77046 219.82314 221.92782 224.02050
 226.09019 228.18387 230.29055 232.40623 234.54491 236.72660 238.99228 241.37196
 244.00264 246.26332 248.27501 250.04969 251.47637 252.60905 253.44073 253.76642
 253.81310 253.59678 252.96646 251.92414 250.53982 248.71051 246.62919 244.47187
 242.27255 240.08623 237.91592 235.76460 233.63428 231.51096 229.54664 227.71333
 226.00601 224.48769 223.12737 221.90905 220.80074 219.77042 218.88410 218.03478
 217.28646 216.47614 215.58383 214.95751 214.41719 214.81412 215.75189 217.69894
 220.18643 221.94734 222.87694 223.21834 223.57597 224.33249 225.90109 226.89452
 227.79637 229.83972 233.42120 238.06444 242.55315 246.56787 250.34355 254.06245
 257.62186 260.88364 263.88559 266.74661 269.43802 271.80905 273.73398 275.45370
 277.12207 278.63312 280.10709 281.46722 282.65549 283.71494 284.68686 285.57764
 286.39197 287.12564 287.76779 288.61615
 366.78100 356.34453 345.78606 334.66160 323.07413 311.27766 299.15719 286.96972
 274.69126 262.59779 250.61632 239.92685 230.05838 221.17191 213.36345 206.37498
 200.21851 195.16604 191.75757 189.80911 188.85564 188.92917 189.77370 191.09123
 192.82577 194.93030 197.20283 199.57136 202.02589 204.51543 206.61296 208.46449
 210.10002 211.25455 211.49308 211.73062 211.67715 211.39168 211.03421 210.67374
 210.30028 210.01981 209.83734 209.71087 209.64840 209.98894 210.38447 210.78300
 211.58553 212.77306 214.03260 215.82513 217.76266 219.81519 221.91972 224.01226
 226.08179 228.17532 230.28185 232.39738 234.53591 236.71745 238.98298 241.36251
 243.99304 246.25357 248.26511 250.03964 251.46617 252.59870 253.43023 253.75577
 253.80230 253.58583 252.95536 251.91289 250.52843 248.69896 246.61749 244.46002
 242.26055 240.07408 237.90362 235.75215 233.62168 231.49821 229.53374 227.70028
 225.99281 224.47434 223.11387 221.89540 220.78694 219.75647 218.87000 218.02053
 217.27206 216.46160 215.56913 214.94266 214.40219 214.82004 215.80725 217.68378
 220.11452 221.96609 222.93568 223.24622 223.51477 224.10437 225.66260 226.78490
 227.82567 229.95923 233.54028 238.16396 242.67633 246.71028 250.45590 254.11769
 257.61438 260.82950 263.80838 266.66666 269.35538 271.71909 273.64090 275.37244
 277.06100 278.60065 280.12781 281.49872 282.69119 283.75293 284.72522 285.61731
 286.42923 287.16461 287.80594 288.65012
 366.78100 356.34437 345.78573 334.66110 323.07347 311.27683 299.15620 286.96857
 274.68993 262.59630 250.61467 239.92503 230.05640 221.16977 213.36113 206.37250
 200.21587 195.16323 191.75460 189.80597 188.85233 188.92570 189.77007 191.08743
 192.82180 194.92617 197.19853 199.56690 202.02127 204.51063 206.60800 208.45937
 210.09473 211.24910 211.48747 211.72483 211.67120 211.38557 211.02793 210.66730
 210.29367 210.01303 209.83040 209.70377 209.64113 209.98150 210.37687 210.77523
 211.57760 212.76497 214.02433 215.81670 217.75407 219.80643 221.91080 224.00317
 226.07253 228.16590 230.27227 232.38763 234.52600 236.70737 238.97273 241.35210
 243.98247 246.24283 248.25420 250.02857 251.45493 252.58730 253.41867 253.74403
 253.79040 253.57377 252.94313 251.90050 250.51587 248.68623 246.60460 244.44697
 242.24733 240.06070 237.89007 235.73843 233.60780 231.48417 229.51953 227.68590
 225.97827 224.45963 223.09900 221.88037 220.77173 219.74110 218.85447 218.00483
 217.25620 216.44557 215.55293 214.92630 214.38567 214.82494 215.86278 217.67921
 220.03560 221.95396 222.99422 223.27429 223.44633 223.89108 225.43202 226.66426
 227.84647 230.08070 233.66206 238.26437 242.80098 246.85907 250.57149 254.17433
 257.61221 260.78256 263.74039 266.59384 269.27841 271.63126 273.54849 275.29007
 277.00317 278.60269 280.14490 281.52219 282.71954 283.78369 284.75931 285.65082
 286.46280 287.19614 287.83536 288.68015
 366.78100 356.34427 345.78555 334.66082 323.07310 311.27637 299.15565 286.96792
 274.68920 262.59547 250.61375 239.92402 230.05530 221.16857 213.35985 206.37112
 200.21440 195.16167 191.75295 189.80422 188.85050 188.92377 189.76805 191.08532
 192.81960 194.92387 197.19615 199.56442 202.01870 204.50797 206.60525 208.45652
 210.09180 211.24607 211.48435 211.72162 211.66790 211.38217 211.02445 210.66372
 210.29000 210.00927 209.82655 209.69982 209.63710 209.97737 210.37265 210.77092
 211.57320 212.76047 214.01975 215.81202 217.74930 219.80157 221.90585 223.99812
 226.06740 228.16067 230.26695 232.38222 234.52050 236.70177 238.96705 241.34632
 243.97660 246.23687 248.24815 250.02242 251.44870 252.58097 253.41225 253.73752
 253.78380 253.56707 252.93635 251.89362 250.50890 248.67917 246.59745 244.43972
 242.24000 240.05327 237.88255 235.73082 233.60010 231.47637 229.51165 227.67792
 225.97020 224.45147 223.09075 221.87202 220.76330 219.73257 218.84585 217.99612
 217.24740 216.43667 215.54395 214.91722 214.37650 214.83347 215.91315 217.68135
 219.96065 221.92014 223.03502 223.29736 223.38359 223.70538 225.21103 226.52283
 227.84550 230.19696 233.78918 238.37189 242.92868 247.00537 250.69205 254.23682
 257.61838 260.74548 263.67880 266.52405 269.20013 271.54199 273.46121 275.22141
 276.96274 278.60980 280.15817 281.53650 282.73489 283.80161 284.77734 285.66925
 286.48166 287.21347 287.85373 288.69543
 366.78100 356.34423 345.78545 334.66068 323.07290 311.27613 299.15535 286.96758
 274.68880 262.59503 250.61326 239.92348 230.05471 221.16793 213.35916 206.37038
 200.21361 195.16083 191.75206 189.80328 188.84951 188.92274 189.76696 191.08419
 192.81841 194.92264 197.19486 199.56309 202.01731 204.50654 206.60377 208.45499
 210.09022 211.24444 211.48267 211.71989 211.66612 211.38034 211.02257 210.66180
 210.28802 210.00725 209.82447 209.69770 209.63492 209.97515 210.37037 210.76860
 211.57082 212.75805 214.01728 215.80950 217.74673 219.79895 221.90318 223.99540
 226.06463 228.15785 230.26408 232.37931 234.51753 236.69876 238.96398 241.34321
 243.97343 246.23366 248.24488 250.01911 251.44534 252.57756 253.40879 253.73401
 253.78024 253.56346 252.93269 251.88991 250.50514 248.67536 246.59359 244.43582
 242.23604 240.04927 237.87849 235.72672 233.59594 231.47217 229.50739 227.67362
 225.96585 224.44707 223.08630 221.86752 220.75875 219.72797 218.84120 217.99142
 217.24265 216.43187 215.53910 214.91233 214.37155 214.84367 215.95911 217.68930
 219.89163 221.87747 223.05611 223.30669 223.32138 223.54346 225.00128 226.36758
 227.82793 230.30968 233.92204 238.48375 243.05556 247.15022 250.81694 254.30701
 257.63867 260.72406 263.63120 266.46277 269.12399 271.44647 273.36121 275.13440
 276.87967 278.63382 280.19269 281.56906 282.76535 283.82870 284.80383 285.69382
 286.50198 287.23029 287.86932 288.70639
 366.78100 356.34422 345.78544 334.66066 323.07288 311.27610 299.15532 286.96753
 274.68875 262.59497 250.61319 239.92341 230.05463 221.16785 213.35907 206.37029
 200.21351 195.16073 191.75195 189.80317 188.84939 188.92260 189.76682 191.08404
 192.81826 194.92248 197.19470 199.56292 202.01714 204.50636 206.60358 208.45480
 210.09002 211.24424 211.48245 211.71967 211.66589 211.38011 211.02233 210.66155
 210.28777 210.00699 209.82421 209.69743 209.63465 209.97487 210.37009 210.76831
 211.57052 212.75774 214.01696 215.80918 217.74640 219.79862 221.90284 223.99506
 226.06428 228.15750 230.26372 232.37894 234.51716 236.69837 238.96359 241.34281
 243.97303 246.23325 248.24447 250.01869 251.44491 252.57713 253.40835 253.73357
 253.77979 253.56301 252.93223 251.88944 250.50466 248.67488 246.59310 244.43532
 242.23554 240.04876 237.87798 235.72620 233.59542 231.47164 229.50686 227.67308
 225.96529 224.44651 223.08573 221.86695 220.75817 219.72739 218.84061 217.99083
 217.24205 216.43127 215.53849 214.91171 214.37093 214.85611 216.00238 217.69942
 219.82626 221.82394 223.05418 223.29962 223.26035 223.40079 224.80136 226.20204
 227.79190 230.41187 234.05943 238.60690 243.19124 247.29999 250.94945 254.39055
 257.66653 260.70636 263.58594 266.40421 269.05280 271.36847 273.29279 275.07935
 276.85062 278.62125 280.18707 281.56796 282.76605 283.82968 284.80283 285.69278
 286.49646 287.22366 287.85782 288.69684
 366.78100 356.34443 345.78587 334.66130 323.07373 311.27716 299.15660 286.96903
 274.69046 262.59689 250.61533 239.92576 230.05719 221.17062 213.36206 206.37349
 200.21692 195.16435 191.75579 189.80722 188.85365 188.92708 189.77152 191.08895
 192.82338 194.92781 197.20025 199.56868 202.02311 204.51254 206.60998 208.46141
 210.09684 211.25128 211.48971 211.72714 211.67357 211.38801 211.03044 210.66987
 210.29630 210.01574 209.83317 209.70660 209.64403 209.98447 210.37990 210.77833
 211.58076 212.76820 214.02763 215.82006 217.75749 219.80993 221.91436 224.00679
 226.07622 228.16966 230.27609 232.39152 234.52995 236.71139 238.97682 241.35625
 243.98668 246.24712 248.25855 250.03298 251.45942 252.59185 253.42328 253.74871
 253.79515 253.57858 252.94801 251.90544 250.52088 248.69131 246.60974 244.45217
 242.25261 240.06604 237.89547 235.74390 233.61334 231.48977 229.52520 227.69163
 225.98407 224.46550 223.10493 221.88636 220.77780 219.74723 218.86066 218.01109
 217.26253 216.45196 215.55939 214.93283 214.39226 214.88274 216.04152 217.69833
 219.77608 221.76978 223.02042 223.25235 223.18045 223.27608 224.63045 226.05934
 227.76367 230.50870 234.19402 238.72749 243.31729 247.44397 251.09215 254.48387
 257.71423 260.71765 263.56476 266.35950 268.98016 271.26266 273.17465 274.98654
 276.84839 278.63010 280.19788 281.57962 282.77734 283.84125 284.81430 285.70074
 286.50235 287.22461 287.85312 288.68497
 366.78100 356.34477 345.78654 334.66231 323.07508 311.27885 299.15861 286.97138
 274.69315 262.59992 250.61869 239.92946 230.06123 221.17500 213.36677 206.37854
 200.22230 195.17007 191.76184 189.81361 188.86038 188.93415 189.77892 191.09669
 192.83146 194.93623 197.20899 199.57776 202.03253 204.52230 206.62007 208.47184
 210.10761 211.26238 211.50115 211.73892 211.68569 211.40045 211.04322 210.68299
 210.30976 210.02953 209.84730 209.72107 209.65884 209.99961 210.39538 210.79414
 211.59691 212.78468 214.04445 215.83722 217.77499 219.82776 221.93253 224.02530
 226.09507 228.18883 230.29560 232.41137 234.55014 236.73191 238.99768 241.37745
 244.00822 246.26899 248.28076 250.05553 251.48229 252.61506 253.44683 253.77260
 253.81937 253.60314 252.97291 251.93068 250.54645 248.71722 246.63598 244.47875
 242.27952 240.09329 237.92306 235.77183 233.64160 231.51837 229.55414 227.72091
 226.01367 224.49544 223.13521 221.91698 220.80875 219.77852 218.89229 218.04306
 217.29483 216.48460 215.59237 214.96613 214.42590 214.91954 216.08583 217.67567
 219.72871 221.72902 222.98070 223.17999 223.07405 223.14064 224.46425 225.92697
 227.73938 230.60260 234.33644 238.85716 243.44852 247.58578 251.20871 254.58786
 257.77176 260.72549 263.54126 266.31857 268.92737 271.20932 273.13370 274.95370
 276.80652 278.58743 280.15073 281.52863 282.72403 283.78577 284.75607 285.63913
 286.44064 287.16385 287.79504 288.62674
 366.78100 356.34526 345.78751 334.66377 323.07703 311.28128 299.16154 286.97480
 274.69705 262.60431 250.62357 239.93482 230.06708 221.18134 213.37359 206.38585
 200.23011 195.17836 191.77062 189.82288 188.87013 188.94439 189.78965 191.10790
 192.84316 194.94842 197.22167 199.59093 202.04619 204.53644 206.63470 208.48696
 210.12321 211.27847 211.51773 211.75598 211.70324 211.41850 211.06175 210.70201
 210.32927 210.04952 209.86778 209.74204 209.68029 210.02155 210.41781 210.81707
 211.62032 212.80858 214.06884 215.86209 217.80035 219.85361 221.95886 224.05212
 226.12238 228.21663 230.32389 232.44015 234.57940 236.76166 239.02792 241.40817
 244.03943 246.30069 248.31294 250.08820 251.51546 252.64871 253.48097 253.80723
 253.85448 253.63874 253.00900 251.96725 250.58351 248.75477 246.67402 244.51728
 242.31854 240.13279 237.96305 235.81231 233.68256 231.55982 229.59608 227.76333
 226.05659 224.53885 223.17910 221.96136 220.85362 219.82387 218.93813 218.08939
 217.34164 216.53190 215.64016 215.01441 214.47467 214.96754 216.13202 217.64783
 219.64790 221.65749 222.94394 223.12439 223.00508 223.02036 224.29189 225.75229
 227.68613 230.64586 234.44972 238.98096 243.57594 247.74664 251.41008 254.69916
 257.83331 260.75546 263.53140 266.28690 268.86749 271.11267 273.00235 274.85144
 276.82721 278.62927 280.19846 281.57950 282.77792 283.84055 284.81360 285.70010
 286.50912 287.23630 287.88403 288.72229
 366.78100 356.34604 345.78909 334.66613 323.08018 311.28522 299.16626 286.98031
 274.70335 262.61140 250.63144 239.94348 230.07653 221.19157 213.38462 206.39766
 200.24270 195.19175 191.78479 189.83784 188.88588 188.96093 189.80697 191.12601
 192.86206 194.96810 197.24215 199.61219 202.06823 204.55928 206.65832 208.51137
 210.14841 211.30445 211.54450 211.78354 211.73159 211.44763 211.09167 210.73272
 210.36076 210.08181 209.90085 209.77589 209.71494 210.05698 210.45403 210.85407
 211.65811 212.84716 214.10820 215.90225 217.84129 219.89534 222.00138 224.09542
 226.16647 228.26151 230.36956 232.48660 234.62664 236.80969 239.07673 241.45778
 244.08982 246.35186 248.36491 250.14095 251.56900 252.70304 253.53608 253.86313
 253.91117 253.69622 253.06726 252.02630 250.64335 248.81539 246.73544 244.57948
 242.38152 240.19657 238.02761 235.87766 233.74870 231.62674 229.66379 227.83183
 226.12588 224.60892 223.24997 222.03301 220.92605 219.89710 219.01214 218.16419
 217.41723 216.60827 215.71732 215.09236 214.55341 215.03160 216.16138 217.61815
 219.57646 221.57344 222.88916 223.04163 222.90961 222.89632 224.15068 225.63506
 227.65421 230.69077 234.55389 239.09158 243.68211 247.82892 251.42966 254.91841
 258.03412 260.90771 263.62766 266.31543 268.84460 271.03210 272.91898 274.80780
 276.74118 278.50775 280.03970 281.39096 282.56744 283.60791 284.55508 285.44263
 286.24667 286.90765 287.33038 287.86911
 366.78100 356.34583 345.78866 334.66548 323.07931 311.28414 299.16497 286.97879
 274.70162 262.60945 250.62928 239.94110 230.07393 221.18876 213.38159 206.39442
 200.23924 195.18807 191.78090 189.83373 188.88155 188.95638 189.80221 191.12104
 192.85686 194.96269 197.23652 199.60635 202.06218 204.55300 206.65183 208.50466
 210.14149 211.29731 211.53714 211.77597 211.72380 211.43962 211.08345 210.72428
 210.35211 210.07294 209.89176 209.76659 209.70542 210.04725 210.44407 210.84390
 211.64773 212.83656 214.09738 215.89121 217.83004 219.88387 221.98970 224.08352
 226.15435 228.24918 230.35701 232.47383 234.61366 236.79649 239.06332 241.44414
 244.07597 246.33780 248.35063 250.12646 251.55428 252.68811 253.52094 253.84777
 253.89559 253.68042 253.05125 252.01008 250.62690 248.79873 246.71856 244.56239
 242.36422 240.17904 238.00987 235.85970 233.73053 231.60835 229.64518 227.81301
 226.10684 224.58966 223.23049 222.01332 220.90615 219.87697 218.99180 218.14363
 217.39646 216.58729 215.69611 215.07094 214.53177 215.04192 216.24889 217.59216
 219.41032 221.42413 222.81100 222.94148 222.83394 222.73636 223.95363 225.52652
 227.61046 230.72290 234.64874 239.19984 243.80367 247.96892 251.56999 255.05888
 258.15833 260.99594 263.69418 266.33484 268.80658 270.96393 272.88101 274.76132
 276.68457 278.46503 280.02231 281.39468 282.58765 283.65100 284.64352 285.55792
 286.41037 287.18033 287.85294 288.71011
 366.78100 356.34578 345.78856 334.66534 323.07912 311.28390 299.16467 286.97845
 274.70123 262.60901 250.62879 239.94057 230.07335 221.18813 213.38091 206.39369
 200.23847 195.18725 191.78002 189.83280 188.88058 188.95536 189.80114 191.11992
 192.85570 194.96148 197.23526 199.60504 202.06082 204.55160 206.65037 208.50315
 210.13993 211.29571 211.53549 211.77427 211.72205 211.43783 211.08161 210.72239
 210.35017 210.07095 209.88972 209.76450 209.70328 210.04506 210.44184 210.84162
 211.64540 212.83418 214.09496 215.88874 217.82752 219.88130 221.98707 224.08085
 226.15163 228.24641 230.35419 232.47097 234.61075 236.79353 239.06031 241.44109
 244.07287 246.33465 248.34742 250.12320 251.55098 252.68476 253.51754 253.84432
 253.89210 253.67688 253.04766 252.00644 250.62322 248.79500 246.71477 244.55855
 242.36033 240.17511 238.00589 235.85567 233.72645 231.60423 229.64101 227.80879
 226.10257 224.58535 223.22612 222.00890 220.90168 219.87246 218.98724 218.13902
 217.39180 216.58258 215.69136 215.06614 214.52692 215.04956 216.28914 217.67699
 219.26898 221.18591 222.73717 222.92056 222.77975 222.63766 223.85797 225.38493
 227.52679 230.75592 234.75764 239.31877 243.89133 248.06371 251.79073 255.22766
 258.28079 261.08691 263.76505 266.39474 268.86545 271.03662 272.94427 274.77890
 276.67096 278.42462 279.96365 281.32053 282.50055 283.56256 284.55057 285.43317
 286.11401 286.72031 287.24997 287.92496
 366.78100 356.34714 345.79129 334.66943 323.08458 311.29072 299.17287 286.98801
 274.71216 262.62130 250.64245 239.95559 230.08974 221.20588 213.40003 206.41417
 200.26032 195.21046 191.80461 189.85875 188.90790 188.98404 189.83119 191.15133
 192.88848 194.99562 197.27077 199.64191 202.09906 204.59120 206.69135 208.54549
 210.18364 211.34078 211.58193 211.82207 211.77122 211.48836 211.13351 210.77565
 210.40480 210.12694 209.94709 209.82323 209.76338 210.10652 210.50467 210.90581
 211.71096 212.90110 214.16325 215.95839 217.89854 219.95368 222.06083 224.15597
 226.22812 228.32426 230.43341 232.55155 234.69270 236.87684 239.14499 241.52713
 244.16028 246.42342 248.43757 250.21471 251.64386 252.77900 253.61315 253.94129
 253.99044 253.77658 253.14873 252.10887 250.72702 248.90016 246.82131 244.66645
 242.46960 240.28574 238.11789 235.96903 233.84118 231.72032 229.75847 227.92761
 226.22276 224.70690 223.34905 222.13319 221.02734 219.99948 219.11563 218.26877
 217.52292 216.71506 215.82521 215.20135 214.66350 215.13275 216.24144 217.67589
 219.42126 221.25934 222.64534 222.78876 222.57967 222.57639 223.75116 225.23274
 227.51462 230.85881 234.92403 239.45148 244.02046 248.19275 251.98471 255.36218
 258.39078 261.16446 263.77817 266.37143 268.80600 270.96933 272.90985 274.78650
 276.65427 278.40015 279.94604 281.30710 282.48746 283.54074 284.51736 285.39041
 286.17459 286.90335 287.55643 288.38870
 366.78100 356.34595 345.78890 334.66586 323.07981 311.28476 299.16571 286.97966
 274.70261 262.61057 250.63052 239.94247 230.07542 221.19037 213.38332 206.39628
 200.24123 195.19018 191.78313 189.83608 188.88403 188.95899 189.80494 191.12389
 192.85984 194.96579 197.23975 199.60970 202.06565 204.55660 206.65555 208.50850
 210.14546 211.30141 211.54136 211.78031 211.72826 211.44421 211.08817 210.72912
 210.35707 210.07802 209.89697 209.77192 209.71088 210.05283 210.44978 210.84973
 211.65368 212.84264 214.10359 215.89754 217.83649 219.89044 221.99639 224.09035
 226.16130 228.25625 230.36420 232.48115 234.62110 236.80406 239.07101 241.45196
 244.08391 246.34586 248.35881 250.13477 251.56272 252.69667 253.52962 253.85657
 253.90453 253.68948 253.06043 252.01938 250.63633 248.80828 246.72824 244.57219
 242.37414 240.18909 238.02004 235.86999 233.74095 231.61890 229.65585 227.82380
 226.11775 224.60071 223.24166 222.02461 220.91756 219.88851 219.00346 218.15542
 217.40837 216.59932 215.70827 215.08322 214.54417 215.09891 216.41031 217.48761
 219.34158 221.28535 222.57533 222.66914 222.41765 222.34154 223.53551 225.07684
 227.40048 230.84329 234.96811 239.52243 244.05107 248.29837 252.20027 255.60622
 258.60602 261.34186 263.91238 266.41534 268.77328 270.87152 272.78284 274.67889
 276.51099 278.21634 279.72638 281.04602 282.16629 283.22308 284.21280 284.98434
 285.60977 286.16611 286.65213 287.27151
 366.78100 356.34309 345.78318 334.65728 323.06837 311.27046 299.14855 286.95965
 274.67974 262.58483 250.60192 239.91102 230.04111 221.15320 213.34329 206.35339
 200.19548 195.14157 191.73166 189.78176 188.82685 188.89894 189.74203 191.05813
 192.79122 194.89431 197.16540 199.53249 201.98559 204.47368 206.56977 208.41986
 210.05396 211.20705 211.44414 211.68023 211.62533 211.33842 210.97951 210.61760
 210.24270 209.96079 209.77688 209.64897 209.58507 209.92416 210.31825 210.71534
 211.51644 212.70253 213.96062 215.75171 217.68780 219.73890 221.84199 223.93308
 226.00117 228.09327 230.19836 232.31245 234.44954 236.62964 238.89373 241.27182
 243.90091 246.16001 248.17010 249.94319 251.36828 252.49938 253.32947 253.65356
 253.69865 253.48075 252.84884 251.80493 250.41902 248.58811 246.50521 244.34630
 242.14539 239.95748 237.78558 235.63267 233.50076 231.37585 229.40995 227.57504
 225.86613 224.34622 222.98432 221.76441 220.65450 219.62259 218.73469 217.88378
 217.13387 216.32196 215.42805 214.80015 214.25824 214.97421 216.64510 217.47359
 219.03046 220.96980 222.42247 222.72943 222.55933 222.26230 223.37968 225.18814
 227.40605 230.89752 235.06439 239.57861 244.08563 248.40230 252.34801 255.82085
 258.85251 261.57013 264.11737 266.55209 268.84927 270.89368 272.79245 274.63028
 276.44629 278.07883 279.49683 280.78119 281.96378 283.01813 284.00583 284.90063
 285.70538 286.42203 287.04807 287.84589
 366.78100 356.34338 345.78377 334.65815 323.06953 311.27192 299.15030 286.96168
 274.68207 262.58745 250.60483 239.91422 230.04460 221.15698 213.34737 206.35775
 200.20013 195.14652 191.73690 189.78728 188.83267 188.90505 189.74843 191.06482
 192.79820 194.90158 197.17297 199.54035 201.99373 204.48212 206.57850 208.42888
 210.06327 211.21665 211.45404 211.69042 211.63580 211.34919 210.99057 210.62895
 210.25434 209.97272 209.78910 209.66149 209.59787 209.93725 210.33164 210.72902
 211.53040 212.71679 213.97517 215.76655 217.70294 219.75432 221.85770 223.94909
 226.01747 228.10985 230.21524 232.32962 234.46700 236.64739 238.91177 241.29015
 243.91954 246.17892 248.18930 249.96269 251.38807 252.51945 253.34984 253.67422
 253.71960 253.50199 252.87037 251.82675 250.44114 248.61052 246.52790 244.36929
 242.16867 239.98105 237.80944 235.65682 233.52520 231.40059 229.43497 227.60035
 225.89174 224.37212 223.01050 221.79089 220.68127 219.64965 218.76204 217.91142
 217.16180 216.35019 215.45657 214.82895 214.28734 214.99574 216.65353 217.56947
 218.88641 220.75276 222.34589 222.79988 222.62498 222.26289 223.32213 225.09625
 227.34007 230.88493 235.09337 239.59010 244.12195 248.45157 252.41864 255.94879
 259.01944 261.75128 264.29678 266.71658 268.94302 270.95029 272.82706 274.63046
 276.34613 277.93893 279.29562 280.56287 281.72968 282.79123 283.79477 284.70392
 285.52161 286.24976 286.88583 287.69647
 366.78100 356.34529 345.78757 334.66386 323.07715 311.28143 299.16172 286.97501
 274.69729 262.60458 250.62387 239.93515 230.06744 221.18173 213.37401 206.38630
 200.23059 195.17887 191.77116 189.82345 188.87073 188.94502 189.79031 191.10859
 192.84388 194.94917 197.22245 199.59174 202.04703 204.53731 206.63560 208.48788
 210.12417 211.27946 211.51874 211.75703 211.70432 211.41960 211.06289 210.70318
 210.33046 210.05075 209.86904 209.74332 209.68161 210.02290 210.41918 210.81847
 211.62176 212.81004 214.07033 215.86362 217.80190 219.85519 221.96048 224.05376
 226.12405 228.21834 230.32562 232.44191 234.58120 236.76348 239.02977 241.41006
 244.04134 246.30263 248.31492 250.09020 251.51749 252.65078 253.48306 253.80935
 253.85664 253.64092 253.01121 251.96950 250.58578 248.75707 246.67636 244.51964
 242.32093 240.13522 237.96550 235.81479 233.68508 231.56236 229.59865 227.76594
 226.05922 224.54151 223.18180 221.96408 220.85637 219.82665 218.94094 218.09223
 217.34451 216.53480 215.64309 215.01737 214.47766 215.09840 216.56726 217.68196
 218.84744 220.60362 222.29381 222.84058 222.66241 222.26323 223.22034 224.96439
 227.22874 230.86105 235.13988 239.62323 244.13380 248.46986 252.44443 256.03613
 259.14725 261.88171 264.39767 266.80118 268.99921 270.94528 272.76721 274.56683
 276.26157 277.67645 278.99255 280.17953 281.30649 282.37952 283.37866 284.28384
 285.09796 285.82294 286.45624 287.26334
 366.78100 356.34671 345.79043 334.66814 323.08285 311.28856 299.17028 286.98499
 274.70870 262.61742 250.63813 239.95084 230.08455 221.20027 213.39398 206.40769
 200.25341 195.20312 191.79683 189.85054 188.89926 188.97497 189.82168 191.14140
 192.87811 194.98482 197.25953 199.63025 202.08696 204.57867 206.67839 208.53210
 210.16981 211.32652 211.56724 211.80695 211.75566 211.47238 211.11709 210.75880
 210.38751 210.10923 209.92894 209.80465 209.74437 210.08708 210.48479 210.88550
 211.69022 212.87993 214.14164 215.93636 217.87607 219.93078 222.03749 224.13221
 226.20392 228.29963 230.40835 232.52606 234.66677 236.85048 239.11820 241.49991
 244.13262 246.39534 248.40905 250.18576 251.61447 252.74919 253.58290 253.91061
 253.95933 253.74504 253.11675 252.07646 250.69418 248.86689 246.78760 244.63232
 242.43503 240.25074 238.08245 235.93317 233.80488 231.68359 229.72131 227.89002
 226.18473 224.66844 223.31016 222.09387 220.98758 219.95930 219.07501 218.22772
 217.48143 216.67315 215.78286 215.15857 214.62029 215.18059 216.52522 217.73851
 218.88158 220.53435 222.22382 222.79808 222.62199 222.26833 223.18591 224.97649
 227.25656 230.92616 235.25082 239.71953 244.18486 248.51694 252.51636 256.15463
 259.27457 262.02005 264.54135 266.89566 269.06873 270.99045 272.77972 274.51221
 276.19739 277.54388 278.77701 279.95587 281.19376 282.31100 283.33029 284.25372
 285.08426 285.82382 286.46991 287.29327
 366.78100 356.34716 345.79132 334.66948 323.08464 311.29080 299.17296 286.98812
 274.71228 262.62144 250.64260 239.95576 230.08992 221.20608 213.40023 206.41439
 200.26055 195.21071 191.80487 189.85903 188.90819 188.98435 189.83151 191.15167
 192.88883 194.99599 197.27115 199.64231 202.09947 204.59163 206.69179 208.54595
 210.18411 211.34127 211.58243 211.82259 211.77175 211.48891 211.13407 210.77623
 210.40539 210.12754 209.94770 209.82386 209.76402 210.10718 210.50534 210.90650
 211.71166 212.90182 214.16398 215.95914 217.89930 219.95446 222.06162 224.15678
 226.22894 228.32510 230.43426 232.55242 234.69358 236.87774 239.14590 241.52806
 244.16122 246.42438 248.43854 250.21570 251.64485 252.78001 253.61417 253.94233
 253.99149 253.77765 253.14981 252.10997 250.72813 248.90129 246.82245 244.66761
 242.47077 240.28693 238.11909 235.97025 233.84241 231.72157 229.75973 227.92889
 226.22405 224.70821 223.35037 222.13453 221.02869 220.00085 219.11701 218.27016
 217.52432 216.71648 215.82664 215.20280 214.66496 215.22067 216.55862 217.72696
 218.95462 220.62355 222.19449 222.76219 222.41272 222.08061 223.17465 224.83203
 227.27315 231.01054 235.38106 239.85211 244.30670 248.61752 252.60939 256.19846
 259.30170 262.06705 264.62036 267.03918 269.21707 271.13928 272.87643 274.60141
 276.11923 277.49600 279.13596 280.65814 281.97549 283.14099 284.20432 285.16763
 286.03406 286.80557 287.47955 288.33850
 366.78100 356.34767 345.79233 334.67100 323.08667 311.29333 299.17600 286.99167
 274.71633 262.62600 250.64767 239.96133 230.09600 221.21267 213.40733 206.42200
 200.26867 195.21933 191.81400 189.86867 188.91833 188.99500 189.84267 191.16333
 192.90100 195.00867 197.28433 199.65600 202.11367 204.60633 206.70700 208.56167
 210.20033 211.35800 211.59967 211.84033 211.79000 211.50767 211.15333 210.79600
 210.42567 210.14833 209.96900 209.84567 209.78633 210.13000 210.52867 210.93033
 211.73600 212.92667 214.18933 215.98500 217.92567 219.98133 222.08900 224.18467
 226.25733 228.35400 230.46367 232.58233 234.72400 236.90867 239.17733 241.56000
 244.19367 246.45733 248.47200 250.24967 251.67933 252.81500 253.64967 253.97833
 254.02800 253.81467 253.18733 252.14800 250.76667 248.94033 246.86200 244.70767
 242.51133 240.32800 238.16067 236.01233 233.88500 231.76467 229.80333 227.97300
 226.26867 224.75333 223.39600 222.18067 221.07533 220.04800 219.16467 218.31833
 217.57300 216.76567 215.87633 215.25300 214.71567 215.26054 216.56990 217.71875
 219.00742 220.65381 222.07449 222.69818 222.21426 221.81575 223.17424 224.79941
 227.29181 231.09256 235.50467 240.00418 244.46550 248.74895 252.72847 256.32434
 259.43369 262.22687 264.79565 267.17026 269.30240 271.16397 272.92889 274.59464
 276.41025 278.43011 280.21100 281.77475 283.12805 284.32535 285.41772 286.40732
 287.29736 288.08997 288.78235 289.66473
 366.78100 356.34799 345.79298 334.67196 323.08795 311.29494 299.17793 286.99391
 274.71890 262.62889 250.65088 239.96486 230.09985 221.21684 213.41183 206.42681
 200.27380 195.22479 191.81978 189.87476 188.92475 189.00174 189.84973 191.17071
 192.90870 195.01669 197.29268 199.66466 202.12265 204.61564 206.71663 208.57161
 210.21060 211.36859 211.61058 211.85156 211.80155 211.51954 211.16553 210.80852
 210.43850 210.16149 209.98248 209.85947 209.80045 210.14444 210.54343 210.94542
 211.75140 212.94239 214.20538 216.00137 217.94235 219.99834 222.10633 224.20232
 226.27530 228.37229 230.48228 232.60127 234.74325 236.92824 239.19723 241.58022
 244.21420 246.47819 248.49318 250.27117 251.70115 252.83714 253.67213 254.00112
 254.05111 253.83809 253.21108 252.17207 250.79106 248.96504 246.88703 244.73302
 242.53701 240.35399 238.18698 236.03897 233.91196 231.79194 229.83093 228.00092
 226.29691 224.78189 223.42488 222.20987 221.10486 220.07784 219.19483 218.34882
 217.60381 216.79679 215.90778 215.28477 214.74776 215.27925 216.55728 217.69870
 219.04268 220.65608 221.90865 222.33995 221.98384 221.73944 223.06564 224.79762
 227.33795 231.19981 235.64949 240.14995 244.60600 248.86237 252.80394 256.39954
 259.54147 262.34534 264.89420 267.25977 269.38815 271.26389 272.91550 274.67654
 276.71530 278.70453 280.47321 282.02625 283.37027 284.55939 285.64429 286.62711
 287.51108 288.29822 288.98587 289.86221
 366.78100 356.34772 345.79243 334.67115 323.08686 311.29358 299.17629 286.99201
 274.71672 262.62644 250.64815 239.96187 230.09658 221.21330 213.40801 206.42273
 200.26945 195.22016 191.81488 189.86959 188.91931 188.99602 189.84374 191.16445
 192.90217 195.00988 197.28560 199.65731 202.11503 204.60775 206.70846 208.56318
 210.20189 211.35961 211.60132 211.84204 211.79175 211.50947 211.15518 210.79790
 210.42761 210.15033 209.97104 209.84776 209.78848 210.13219 210.53091 210.93262
 211.73834 212.92905 214.19177 215.98748 217.92820 219.98391 222.09163 224.18734
 226.26006 228.35678 230.46649 232.58521 234.72692 236.91164 239.18035 241.56307
 244.19678 246.46050 248.47521 250.25293 251.68264 252.81836 253.65307 253.98179
 254.03151 253.81822 253.19094 252.15165 250.77037 248.94408 246.86580 244.71151
 242.51523 240.33194 238.16466 236.01637 233.88909 231.76880 229.80752 227.97724
 226.27295 224.75767 223.40038 222.18510 221.07981 220.05253 219.16924 218.32296
 217.57767 216.77039 215.88110 215.25782 214.72054 215.27148 216.57990 217.66667
 219.01341 220.70273 221.93613 222.13245 221.64244 221.45389 222.87112 224.77177
 227.39949 231.29817 235.77213 240.28586 244.74451 249.00902 252.97491 256.55618
 259.69208 262.45740 264.94193 267.25922 269.36707 271.23083 272.88708 274.75775
 276.80649 278.82025 280.59341 282.15039 283.49780 284.68991 285.77756 286.76288
 287.64905 288.43820 289.12759 290.00613
 366.78100 356.34734 345.79168 334.67002 323.08536 311.29170 299.17403 286.98937
 274.71371 262.62305 250.64439 239.95773 230.09207 221.20841 213.40275 206.41709
 200.26343 195.21376 191.80810 189.86244 188.91178 188.98812 189.83546 191.15580
 192.89314 195.00048 197.27582 199.64715 202.10449 204.59683 206.69717 208.55151
 210.18985 211.34719 211.58853 211.82887 211.77821 211.49555 211.14088 210.78322
 210.41256 210.13490 209.95524 209.83158 209.77192 210.11526 210.51360 210.91494
 211.72028 212.91061 214.17295 215.96829 217.90863 219.96397 222.07131 224.16665
 226.23899 228.33533 230.44467 232.56301 234.70434 236.88868 239.15702 241.53936
 244.17270 246.43604 248.45038 250.22772 251.65706 252.79240 253.62673 253.95507
 254.00441 253.79075 253.16309 252.12343 250.74177 248.91511 246.83645 244.68179
 242.48513 240.30146 238.13380 235.98514 233.85748 231.73682 229.77516 227.94450
 226.23984 224.72418 223.36652 222.15086 221.04519 220.01753 219.13387 218.28721
 217.54155 216.73389 215.84423 215.22057 214.68291 215.26122 216.60783 217.64175
 218.98419 220.68254 221.92392 222.06389 221.43420 221.14276 222.74033 224.71042
 227.42644 231.37469 235.87508 240.41356 244.88335 249.16484 253.15305 256.73007
 259.88638 262.66260 265.13080 267.42346 269.50922 271.35068 273.03891 274.96820
 277.21027 279.33997 281.18286 282.80109 284.20148 285.44049 286.57089 287.59497
 288.51599 289.33618 290.05270 290.96579
 366.78100 356.34691 345.79083 334.66874 323.08366 311.28957 299.17149 286.98640
 274.71032 262.61923 250.64015 239.95306 230.08698 221.20289 213.39681 206.41072
 200.25664 195.20655 191.80047 189.85438 188.90330 188.97921 189.82613 191.14604
 192.88296 194.98987 197.26479 199.63570 202.09262 204.58453 206.68445 208.53836
 210.17628 211.33319 211.57411 211.81402 211.76294 211.47985 211.12477 210.76668
 210.39560 210.11751 209.93742 209.81334 209.75325 210.09617 210.49408 210.89500
 211.69991 212.88983 214.15174 215.94666 217.88657 219.94149 222.04840 224.14332
 226.21523 228.31115 230.42006 232.53798 234.67889 236.86281 239.13072 241.51264
 244.14555 246.40847 248.42238 250.19930 251.62821 252.76313 253.59704 253.92496
 253.97387 253.75979 253.13170 252.09162 250.70953 248.88245 246.80336 244.64828
 242.45119 240.26711 238.09902 235.94993 233.82185 231.70076 229.73868 227.90759
 226.20251 224.68642 223.32834 222.11225 221.00617 219.97808 219.09400 218.24691
 217.50083 216.69274 215.80266 215.17857 214.64049 215.23679 216.61682 217.61926
 218.97923 220.66330 221.82475 221.84215 221.24249 221.15306 222.52591 224.64322
 227.42683 231.43863 235.97844 240.51944 244.97058 249.23769 253.20503 256.75412
 259.89249 262.69550 265.23059 267.58005 269.73520 271.65152 273.29324 275.10480
 277.17426 279.33038 281.23468 282.90677 284.35382 285.63409 286.80215 287.86032
 288.81204 289.65955 290.39990 291.34341
 366.78100 356.34685 345.79070 334.66856 323.08341 311.28926 299.17111 286.98596
 274.70982 262.61867 250.63952 239.95237 230.08622 221.20208 213.39593 206.40978
 200.25563 195.20548 191.79934 189.85319 188.90204 188.97789 189.82474 191.14460
 192.88145 194.98830 197.26315 199.63400 202.09086 204.58271 206.68256 208.53641
 210.17426 211.33112 211.57197 211.81182 211.76067 211.47752 211.12238 210.76423
 210.39308 210.11493 209.93478 209.81064 209.75049 210.09334 210.49119 210.89204
 211.69690 212.88675 214.14860 215.94345 217.88330 219.93816 222.04501 224.13986
 226.21171 228.30756 230.41642 232.53427 234.67512 236.85897 239.12682 241.50868
 244.14153 246.40438 248.41823 250.19508 251.62394 252.75879 253.59264 253.92049
 253.96934 253.75520 253.12705 252.08690 250.70475 248.87760 246.79846 244.64331
 242.44616 240.26201 238.09386 235.94472 233.81657 231.69542 229.73327 227.90212
 226.19698 224.68083 223.32268 222.10653 221.00038 219.97224 219.08809 218.24094
 217.49479 216.68665 215.79650 215.17235 214.63420 215.22968 216.61195 217.62274
 218.96391 220.65088 221.82072 221.74232 221.03819 221.00531 222.30299 224.53592
 227.42555 231.50327 236.07428 240.62968 245.09383 249.35207 253.26671 256.77170
 259.86072 262.62674 265.15710 267.53491 269.71759 271.67621 273.46228 275.24155
 277.27545 279.29285 281.06558 282.62219 283.96930 285.16113 286.24850 287.23358
 288.11957 288.90851 289.59775 290.47607
 366.78100 356.34746 345.79191 334.67037 323.08582 311.29228 299.17473 286.99019
 274.71465 262.62410 250.64556 239.95901 230.09347 221.20992 213.40438 206.41883
 200.26529 195.21575 191.81020 189.86466 188.91411 188.99057 189.83802 191.15848
 192.89594 195.00339 197.27885 199.65030 202.10776 204.60021 206.70067 208.55513
 210.19358 211.35104 211.59249 211.83295 211.78240 211.49986 211.14531 210.78777
 210.41723 210.13968 209.96014 209.83659 209.77705 210.12050 210.51896 210.92042
 211.72587 212.91633 214.17878 215.97424 217.91469 219.97015 222.07761 224.17306
 226.24552 228.34197 230.45143 232.56988 234.71134 236.89579 239.16425 241.54671
 244.18016 246.44362 248.45807 250.23553 251.66498 252.80044 253.63490 253.96335
 254.01281 253.79926 253.17172 252.13217 250.75063 248.92408 246.84554 244.69100
 242.49445 240.31091 238.14336 235.99482 233.86727 231.74673 229.78519 227.95464
 226.25010 224.73455 223.37701 222.16146 221.05592 220.02838 219.14483 218.29829
 217.55274 216.74520 215.85565 215.23211 214.69456 215.25874 216.57928 217.63589
 218.98384 220.60197 221.75702 221.65642 220.86037 220.77119 222.13786 224.45694
 227.45331 231.59369 236.18536 240.76315 245.26703 249.54344 253.40768 256.85794
 259.95490 262.73727 265.27054 267.62897 269.78891 271.72522 273.47400 275.41620
 277.55884 279.59030 281.34821 282.89178 284.22760 285.40945 286.48773 287.46457
 288.34311 289.12549 289.80893 290.67990
 366.78100 356.34719 345.79137 334.66956 323.08475 311.29094 299.17312 286.98831
 274.71250 262.62169 250.64287 239.95606 230.09025 221.20644 213.40062 206.41481
 200.26100 195.21119 191.80537 189.85956 188.90875 188.98494 189.83212 191.15231
 192.88950 194.99668 197.27187 199.64306 202.10025 204.59243 206.69262 208.54681
 210.18500 211.34218 211.58337 211.82356 211.77275 211.48993 211.13512 210.77731
 210.40650 210.12868 209.94887 209.82506 209.76525 210.10843 210.50662 210.90781
 211.71300 212.90318 214.16537 215.96056 217.90074 219.95593 222.06312 224.15831
 226.23049 228.32668 230.43587 232.55406 234.69524 236.87943 239.14762 241.52981
 244.16299 246.42618 248.44037 250.21756 251.64674 252.78193 253.61612 253.94431
 253.99349 253.77968 253.15187 252.11205 250.73024 248.90343 246.82462 244.66980
 242.47299 240.28918 238.12137 235.97255 233.84474 231.72393 229.76212 227.93130
 226.22649 224.71068 223.35287 222.13705 221.03124 220.00343 219.11962 218.27280
 217.52699 216.71918 215.82937 215.20555 214.66774 215.24040 216.57307 217.59625
 219.01251 220.62158 221.62666 221.30539 220.58025 220.78389 221.84872 224.35780
 227.46593 231.67999 236.30928 240.90251 245.42082 249.70012 253.54509 256.94366
 260.01273 262.84705 265.44449 267.83276 269.99951 271.93689 273.73477 275.43942
 277.20554 279.07367 280.73981 282.20282 283.46890 284.58908 285.61105 286.53693
 287.36960 288.11115 288.75891 289.58444
 366.78100 356.34619 345.78939 334.66658 323.08078 311.28597 299.16716 286.98136
 274.70455 262.61275 250.63294 239.94513 230.07833 221.19352 213.38672 206.39991
 200.24510 195.19430 191.78749 189.84069 188.88888 188.96408 189.81027 191.12946
 192.86566 194.97185 197.24605 199.61624 202.07243 204.56363 206.66282 208.51602
 210.15321 211.30940 211.54960 211.78879 211.73699 211.45318 211.09737 210.73857
 210.36676 210.08796 209.90715 209.78234 209.72154 210.06373 210.46093 210.86112
 211.66531 212.85451 214.11570 215.90990 217.84909 219.90328 222.00948 224.10367
 226.17487 228.27006 230.37825 232.49545 234.63564 236.81884 239.08603 241.46723
 244.09942 246.36161 248.37481 250.15100 251.57920 252.71339 253.54658 253.87378
 253.92197 253.70717 253.07836 252.03755 250.65475 248.82694 246.74714 244.59133
 242.39352 240.20872 238.03991 235.89011 233.76130 231.63949 229.67669 227.84488
 226.13908 224.62227 223.26346 222.04666 220.93985 219.91105 219.02624 218.17843
 217.43163 216.62282 215.73202 215.10721 214.56841 215.17773 216.59468 217.55020
 218.90924 220.65341 221.58997 221.10791 220.32967 220.52121 221.69885 224.31235
 227.55579 231.79112 236.43031 241.02534 245.56242 249.84338 253.66801 257.01990
 260.01675 262.82498 265.46579 267.89008 270.09763 272.10617 273.97760 275.64703
 276.93338 277.81293 279.17953 280.62570 281.87720 282.98450 283.99469 284.90988
 285.73300 286.46597 287.10629 287.92230
 366.78100 356.34585 345.78870 334.66555 323.07939 311.28424 299.16509 286.97894
 274.70179 262.60964 250.62948 239.94133 230.07418 221.18903 213.38188 206.39473
 200.23958 195.18842 191.78127 189.83412 188.88197 188.95682 189.80267 191.12151
 192.85736 194.96321 197.23706 199.60691 202.06276 204.55360 206.65245 208.50530
 210.14215 211.29800 211.53785 211.77670 211.72454 211.44039 211.08424 210.72509
 210.35294 210.07379 209.89263 209.76748 209.70633 210.04818 210.44503 210.84488
 211.64873 212.83757 214.09842 215.89227 217.83112 219.88497 221.99082 224.08466
 226.15551 228.25036 230.35821 232.47506 234.61491 236.79775 239.06460 241.44545
 244.07730 246.33915 248.35200 250.12785 251.55569 252.68954 253.52239 253.84924
 253.89709 253.68194 253.05278 252.01163 250.62848 248.80033 246.72018 244.56403
 242.36588 240.18072 238.01157 235.86142 233.73227 231.61012 229.64697 227.81481
 226.10866 224.59151 223.23236 222.01521 220.90806 219.87890 218.99375 218.14560
 217.39845 216.58930 215.69815 215.07300 214.53384 215.14246 216.57622 217.58755
 218.71959 220.51154 221.63490 221.08459 220.09177 220.11209 221.56314 224.18164
 227.66718 231.90341 236.53970 241.15976 245.70802 249.99257 253.82359 257.17407
 260.11688 262.85751 265.47263 267.89896 270.11090 272.13138 274.01807 275.70886
 277.01138 277.89862 278.43430 278.99680 280.20190 281.31461 282.32977 283.24942
 284.07657 284.81314 285.45660 286.27661
 366.78100 356.34603 345.78906 334.66609 323.08012 311.28515 299.16618 286.98021
 274.70324 262.61126 250.63129 239.94332 230.07635 221.19138 213.38441 206.39744
 200.24247 195.19150 191.78453 189.83756 188.88559 188.96062 189.80665 191.12568
 192.86171 194.96774 197.24176 199.61179 202.06782 204.55885 206.65788 208.51091
 210.14794 211.30397 211.54400 211.78303 211.73106 211.44709 211.09112 210.73215
 210.36018 210.08121 209.90024 209.77526 209.71429 210.05632 210.45335 210.85338
 211.65741 212.84644 214.10747 215.90150 217.84053 219.89456 222.00059 224.09462
 226.16565 228.26068 230.36871 232.48574 234.62576 236.80879 239.07582 241.45685
 244.08888 246.35091 248.36394 250.13997 251.56800 252.70203 253.53506 253.86209
 253.91012 253.69515 253.06618 252.02521 250.64224 248.81426 246.73429 244.57832
 242.38035 240.19538 238.02641 235.87644 233.74747 231.62550 229.66253 227.83056
 226.12459 224.60762 223.24865 222.03168 220.92471 219.89574 219.01076 218.16279
 217.41582 216.60685 215.71588 215.09091 214.55194 215.13487 216.52127 217.67303
 218.60881 220.21780 221.52901 221.05013 219.94077 219.72052 221.40816 224.04091
 227.74663 232.00856 236.67073 241.30513 245.84821 250.12045 253.93024 257.27917
 260.23486 262.94235 265.53992 267.97162 270.18188 272.21146 274.10995 275.79651
 277.04062 277.84018 278.31549 278.68524 279.28857 280.37912 281.40240 282.32947
 283.16321 283.90570 284.55432 285.38089
 366.78100 356.34586 345.78872 334.66557 323.07943 311.28429 299.16515 286.97900
 274.70186 262.60972 250.62958 239.94144 230.07429 221.18915 213.38201 206.39487
 200.23972 195.18858 191.78144 189.83430 188.88215 188.95701 189.80287 191.12173
 192.85759 194.96344 197.23730 199.60716 202.06302 204.55387 206.65273 208.50559
 210.14245 211.29831 211.53816 211.77702 211.72488 211.44074 211.08459 210.72545
 210.35331 210.07417 209.89303 209.76788 209.70674 210.04860 210.44546 210.84531
 211.64917 212.83803 214.09889 215.89275 217.83160 219.88546 221.99132 224.08518
 226.15603 228.25089 230.35875 232.47561 234.61546 236.79832 239.06518 241.44604
 244.07790 246.33975 248.35261 250.12847 251.55633 252.69018 253.52304 253.84990
 253.89776 253.68262 253.05347 252.01233 250.62919 248.80105 246.72090 244.56476
 242.36662 240.18148 238.01234 235.86219 233.73305 231.61091 229.64777 227.81562
 226.10948 224.59234 223.23320 222.01606 220.90891 219.87977 218.99463 218.14649
 217.39934 216.59020 215.69906 215.07392 214.53477 215.11324 216.48708 217.72226
 218.64742 220.02254 221.32379 220.92737 219.77879 219.34770 221.23387 223.98344
 227.84326 232.13068 236.81238 241.44704 245.98622 250.24205 254.02457 257.36578
 260.33463 263.03671 265.60291 268.02533 270.25067 272.30801 274.23141 275.90945
 277.10504 277.82233 278.22687 278.57278 279.01910 279.83167 280.80923 281.72495
 282.54855 283.28195 283.92264 284.73914
 366.78100 356.34576 345.78853 334.66529 323.07906 311.28382 299.16458 286.97835
 274.70111 262.60888 250.62864 239.94040 230.07317 221.18793 213.38069 206.39346
 200.23822 195.18699 191.77975 189.83251 188.88028 188.95504 189.80081 191.11957
 192.85533 194.96110 197.23486 199.60463 202.06039 204.55115 206.64992 208.50268
 210.13944 211.29521 211.53497 211.77374 211.72150 211.43726 211.08103 210.72179
 210.34956 210.07032 209.88908 209.76385 209.70261 210.04438 210.44114 210.84090
 211.64467 212.83343 214.09420 215.88796 217.82672 219.88049 221.98625 224.08001
 226.15078 228.24554 230.35331 232.47007 234.60983 236.79260 239.05936 241.44013
 244.07189 246.33365 248.34642 250.12218 251.54995 252.68371 253.51647 253.84324
 253.89100 253.67577 253.04653 252.00529 250.62206 248.79382 246.71358 244.55735
 242.35911 240.17388 238.00464 235.85440 233.72517 231.60293 229.63970 227.80746
 226.10122 224.58399 223.22475 222.00752 220.90028 219.87104 218.98581 218.13757
 217.39033 216.58110 215.68986 215.06463 214.52539 215.10173 216.46860 217.74327
 218.73242 220.01036 221.17842 220.80040 219.58946 219.03578 221.02419 223.98230
 227.92235 232.24727 236.93832 241.58450 246.12505 250.36113 254.12263 257.46115
 260.44608 263.14984 265.67480 268.06964 270.29337 272.36438 274.32974 276.01334
 277.12457 277.74802 278.10416 278.42148 278.84357 279.62457 280.59366 281.49286
 282.30130 283.02118 283.65009 284.45154
 366.78100 356.34587 345.78875 334.66562 323.07950 311.28437 299.16524 286.97912
 274.70199 262.60987 250.62974 239.94161 230.07449 221.18936 213.38224 206.39511
 200.23999 195.18886 191.78173 189.83461 188.88248 188.95736 189.80323 191.12210
 192.85798 194.96385 197.23773 199.60760 202.06347 204.55435 206.65322 208.50610
 210.14297 211.29884 211.53872 211.77759 211.72547 211.44134 211.08521 210.72609
 210.35396 210.07484 209.89371 209.76859 209.70746 210.04933 210.44621 210.84608
 211.64996 212.83883 214.09970 215.89358 217.83245 219.88633 221.99220 224.08607
 226.15695 228.25182 230.35970 232.47657 234.61644 236.79932 239.06619 241.44707
 244.07894 246.34081 248.35369 250.12956 251.55744 252.69131 253.52419 253.85106
 253.89893 253.68381 253.05468 252.01356 250.63043 248.80230 246.72218 244.56605
 242.36793 240.18280 238.01367 235.86355 233.73442 231.61230 229.64917 227.81704
 226.11092 224.59379 223.23467 222.01754 220.91041 219.88129 218.99616 218.14804
 217.40091 216.59179 215.70066 215.07553 214.53641 215.10274 216.44443 217.76572
 218.77197 219.99904 221.06863 220.63177 219.37242 218.81854 220.82506 223.94824
 228.00511 232.38148 237.07536 241.72195 246.26176 250.48061 254.22723 257.57053
 260.58453 263.31134 265.80212 268.13550 270.33719 272.41626 274.39343 276.07141
 277.12207 277.68967 278.01654 278.29633 278.76077 279.47641 280.38950 281.27719
 282.07776 282.79065 283.41345 284.20709
 354.97500 345.04800 334.58700 324.11500 313.32600 302.53700 291.65000 280.76700
 269.93100 259.19300 248.62200 238.61700 229.08700 220.35500 212.54000 205.53500
 199.46400 194.49300 191.14300 189.19000 188.08900 188.01400 188.72400 189.90600
 191.46900 193.38200 195.40300 197.55600 199.80700 202.06000 204.28800 206.47900
 208.55200 210.37800 212.02500 213.65900 214.99800 216.11800 217.17200 218.25900
 219.49400 220.64500 221.67900 222.61400 223.54500 224.98200 226.57100 228.19000
 229.79700 231.81100 233.86500 235.97200 238.24200 240.55300 242.89900 245.25300
 247.48800 249.53500 251.36600 252.84800 254.09800 255.16700 256.02700 256.25300
 256.09500 255.54300 253.93500 252.56600 251.38400 250.24500 249.05200 247.70100
 246.01600 243.99600 241.78400 239.39300 236.81300 234.22300 231.65800 229.14400
 226.74000 224.47300 222.33500 220.32500 218.44000 216.67700 214.96200 213.47200
 212.20000 211.10800 210.26000 209.63900 209.24400 209.03100 209.05800 209.33300
 209.78400 210.62600 211.33100 212.39100 213.62500 214.84668 217.72949 219.47640
 220.32566 220.86828 220.88710 220.27371 219.43733 218.84250 219.04934 220.86203
 222.60583 225.72206 229.03064 232.61777 236.12270 239.51333 242.70767 245.68587
 248.41061 250.90679 253.19353 254.91714 256.48655 257.94920 259.39966 260.69384
 261.81714 262.77997 263.71679 264.54570 265.26305 265.89772 266.47676 267.00133
 267.47312 267.89325 268.26027 268.72800
