|-------------------------------------------------------------------------|
|   File Name : in_temp.dat
|   Subject   : temperature profiles used for initial guess atmosphere
|   File Type : input of gmtr
|   Data Type : atmospherical data
|   Author/s  : WRF-Chem
|   Date      : Fri Jul 26 15:39:24 2024
|-------------------------------------------------------------------------|

 WRF-Chem temperature
#
 values of T (K)    (8f10.5)
#
 354.97500 345.04800 334.58700 324.11500 313.32600 302.53700 291.65000 280.76700
 269.93100 259.19300 248.62200 238.61700 229.08700 220.35500 212.54000 205.53500
 199.46400 194.49300 191.14300 189.19000 188.08900 188.01400 188.72400 189.90600
 191.46900 193.38200 195.40300 197.55600 199.80700 202.06000 204.28800 206.47900
 208.55200 210.37800 212.02500 213.65900 214.99800 216.11800 217.17200 218.25900
 219.49400 220.64500 221.67900 222.61400 223.54500 224.98200 226.57100 228.19000
 229.79700 231.81100 233.86500 235.97200 238.24200 240.55300 242.89900 245.25300
 247.48800 249.53500 251.36600 252.84800 254.09800 255.16700 256.02700 256.25300
 256.09500 255.54300 253.93500 252.56600 251.38400 250.24500 249.05200 247.70100
 246.01600 243.99600 241.78400 239.39300 236.81300 234.22300 231.65800 229.14400
 226.74000 224.47300 222.33500 220.32500 218.44000 216.67700 214.96200 213.47200
 212.20000 211.10800 210.26000 209.63900 209.24400 209.03100 209.05800 209.33300
 209.78400 210.62600 211.33100 212.39100 213.62500 214.84668 217.72949 219.47640
 220.32566 220.86828 220.88710 220.27371 219.43733 218.84250 219.04934 220.86203
 222.60583 225.72206 229.03064 232.61777 236.12270 239.51333 242.70767 245.68587
 248.41061 250.90679 253.19353 254.91714 256.48655 257.94920 259.39966 260.69384
 261.81714 262.77997 263.71679 264.54570 265.26305 265.89772 266.47676 267.00133
 267.47312 267.89325 268.26027 268.72800
 366.78100 356.33500 345.76700 334.63300 323.03600 311.23000 299.10000 286.90300
 274.61500 262.51200 250.52100 239.82200 229.94400 221.04800 213.23000 206.23200
 200.06600 195.00400 191.58600 189.62800 188.66500 188.72900 189.56400 190.87200
 192.59700 194.69200 196.95500 199.31400 201.75900 204.23900 206.32700 208.16900
 209.79500 210.94000 211.16900 211.39700 211.33400 211.03900 210.67200 210.30200
 209.91900 209.62900 209.43700 209.30100 209.22900 209.56000 209.94600 210.33500
 211.12800 212.30600 213.55600 215.33900 217.26700 219.31000 221.40500 223.48800
 225.54800 227.63200 229.72900 231.83500 233.96400 236.13600 238.39200 240.76200
 243.38300 245.63400 247.63600 249.40100 250.81800 251.94100 252.76300 253.07900
 253.11600 252.89000 252.25000 251.19800 249.80400 247.96500 245.87400 243.70700
 241.49800 239.30200 237.12200 234.96100 232.82100 230.68800 228.71400 226.87100
 225.15400 223.62600 222.25600 221.02800 219.91000 218.87000 217.97400 217.11500
 216.35700 215.53700 214.63500 213.99900 213.44900 212.85855 212.01316 212.61654
 214.26826 216.08686 218.14273 220.53346 223.40855 226.78828 231.49734 235.90155
 239.42278 243.28576 247.23140 251.11907 254.80144 258.23331 261.38913 264.27520
 266.89312 269.26852 271.44504 273.08845 274.58484 275.98591 277.39845 278.65879
 279.75272 280.69038 281.56708 282.34086 283.01050 283.60295 284.14348 284.63317
 285.07358 285.46577 285.80838 286.24500
 381.81900 372.39900 361.20600 349.77600 337.62200 324.85300 311.81000 298.35300
 284.86000 271.32400 258.56100 246.30400 236.08700 226.79600 218.44800 211.29000
 205.52200 200.89400 197.38100 194.84800 193.01500 192.31500 192.25000 192.43100
 192.91200 193.53700 194.13600 194.71200 195.26200 195.83100 196.39300 196.97600
 197.60400 198.14900 198.58400 199.05700 199.69500 200.37800 201.05400 201.70800
 202.31300 202.85700 203.35500 203.86200 204.56900 205.29700 206.02600 206.98700
 208.19300 209.44100 210.96900 212.57600 214.46200 216.51300 218.63000 220.85300
 223.34100 225.96200 228.73900 231.69700 234.70600 237.70600 240.69200 243.65700
 246.73700 249.69900 252.52100 255.06300 257.29000 259.23300 260.63300 261.68000
 262.46100 262.79800 262.69100 262.22400 261.06900 259.52500 257.70700 255.50700
 253.00100 250.30200 247.39800 244.45200 241.65400 239.05400 236.73300 234.59000
 232.59500 230.72500 228.83400 226.82600 224.66600 222.38700 220.10400 217.71500
 215.45900 213.06600 210.54600 208.09300 205.35400 202.08130 196.05959 200.71215
 209.01611 216.90438 223.84126 229.78593 235.00632 240.20838 245.98943 250.68668
 254.32982 257.93487 261.55666 264.96801 268.15192 271.06452 273.76717 276.25691
 278.57680 280.74479 282.77456 284.60533 286.27232 287.81705 289.31715 290.65561
 291.81734 292.81312 293.70701 294.49387 295.17482 295.77730 296.32696 296.82492
 297.27278 297.67160 298.02000 298.46400
 399.33000 389.90700 379.81300 368.66800 357.52200 345.30100 333.07400 320.22700
 307.21600 293.84800 280.37600 267.29600 254.61000 242.98700 232.15100 221.97700
 212.67200 204.28600 197.66900 192.82100 189.48600 187.45200 186.81400 187.08900
 187.78100 189.05400 190.64800 192.54200 194.63000 196.75200 198.67100 200.15800
 201.53500 202.48700 202.97500 203.34000 203.53900 203.49700 203.38500 203.24700
 203.00500 202.78600 202.60300 202.43700 202.42600 202.88800 203.42000 203.95100
 204.89500 205.99200 207.30100 208.95800 210.73800 213.10000 215.56400 218.18000
 220.96600 223.91800 226.96100 230.09200 233.29300 236.55700 239.95500 243.53700
 246.84500 249.39000 251.54200 253.47400 255.19500 256.48400 257.43100 258.05900
 258.21200 258.04000 257.58200 256.64300 255.23900 253.50700 251.40800 249.05600
 246.57600 243.99400 241.38900 238.83000 236.34400 233.98600 231.96900 230.11800
 228.42300 226.89900 225.54800 224.29700 223.10500 221.96500 220.95800 220.11300
 219.49000 218.92000 218.32500 217.88100 217.42300 216.96366 216.35568 216.80261
 217.73415 218.28582 218.64258 219.10077 220.44626 222.53987 226.38451 230.35736
 233.59734 237.39164 241.29814 245.22796 248.98002 252.51130 255.78595 258.80109
 261.54781 264.05210 266.34239 268.04198 269.58951 271.01303 272.35754 273.55718
 274.59842 275.49092 276.28989 276.99307 277.60161 278.14001 278.63122 279.07623
 279.47646 279.83287 280.14422 280.54100
 399.73800 389.78500 379.66200 368.15100 356.64100 344.35000 331.79200 318.88800
 305.72600 292.49300 279.20900 266.73800 254.69600 244.21100 234.45700 225.43300
 217.56900 210.45100 204.30000 199.30600 195.45800 192.57600 191.02700 190.38600
 190.23900 190.53400 191.16600 191.92500 192.79500 193.76600 194.73200 195.31200
 195.80000 196.05200 196.11500 196.11500 196.03900 195.72300 195.34000 194.98900
 194.75100 194.79200 195.13300 195.59800 196.50600 198.13600 199.85800 201.56600
 204.17900 206.82300 209.89300 213.28400 216.82800 220.60500 224.38700 228.20900
 232.03200 235.82500 239.56000 243.25800 246.84500 250.20100 253.70900 257.46800
 261.53000 264.22100 266.60100 268.68100 270.32900 271.74100 272.83600 273.47400
 273.89800 274.00200 273.75700 273.28800 272.37100 271.10000 269.58900 267.77900
 265.81600 263.72100 261.39300 258.91600 256.29800 253.42300 250.33100 247.11400
 243.83700 240.52900 237.24900 233.99900 230.72800 227.51500 224.25400 220.95200
 217.62700 213.65600 210.12100 206.78900 204.01000 201.99491 199.07309 198.76551
 199.40006 200.48994 201.46112 202.31912 203.45100 204.96110 207.47502 210.85391
 213.70530 217.29629 220.99574 224.72316 228.28753 231.64854 234.68024 237.40893
 239.70644 241.60899 243.46854 245.67368 247.68154 249.52395 251.24767 252.78566
 254.12057 255.26479 256.23740 257.09036 257.82852 258.48160 259.07744 259.61723
 260.10271 260.53504 260.91270 261.39400
 399.73800 389.78500 379.66200 368.15100 356.64100 344.35000 331.79200 318.88800
 305.72600 292.49300 279.20900 266.73800 254.69600 244.21100 234.45700 225.43300
 217.56900 210.45100 204.30000 199.30600 195.45800 192.57600 191.02700 190.38600
 190.23900 190.53400 191.16600 191.92500 192.79500 193.76600 194.73200 195.31200
 195.80000 196.05200 196.11500 196.11500 196.03900 195.72300 195.34000 194.98900
 194.75100 194.79200 195.13300 195.59800 196.50600 198.13600 199.85800 201.56600
 204.17900 206.82300 209.89300 213.28400 216.82800 220.60500 224.38700 228.20900
 232.03200 235.82500 239.56000 243.25800 246.84500 250.20100 253.70900 257.46800
 261.53000 264.22100 266.60100 268.68100 270.32900 271.74100 272.83600 273.47400
 273.89800 274.00200 273.75700 273.28800 272.37100 271.10000 269.58900 267.77900
 265.81600 263.72100 261.39300 258.91600 256.29800 253.42300 250.33100 247.11400
 243.83700 240.52900 237.24900 233.99900 230.72800 227.51500 224.25400 220.95200
 217.62700 213.65600 210.12100 206.78900 204.01000 201.99491 199.07309 198.76551
 199.40006 200.48994 201.46112 202.31912 203.45100 204.96110 207.47502 210.85391
 213.70530 217.29629 220.99574 224.72316 228.28753 231.64854 234.68024 237.40893
 239.70644 241.60899 243.46854 245.67368 247.68154 249.52395 251.24767 252.78566
 254.12057 255.26479 256.23740 257.09036 257.82852 258.48160 259.07744 259.61723
 260.10271 260.53504 260.91270 261.39400
 399.33000 389.90700 379.81300 368.66800 357.52200 345.30100 333.07400 320.22700
 307.21600 293.84800 280.37600 267.29600 254.61000 242.98700 232.15100 221.97700
 212.67200 204.28600 197.66900 192.82100 189.48600 187.45200 186.81400 187.08900
 187.78100 189.05400 190.64800 192.54200 194.63000 196.75200 198.67100 200.15800
 201.53500 202.48700 202.97500 203.34000 203.53900 203.49700 203.38500 203.24700
 203.00500 202.78600 202.60300 202.43700 202.42600 202.88800 203.42000 203.95100
 204.89500 205.99200 207.30100 208.95800 210.73800 213.10000 215.56400 218.18000
 220.96600 223.91800 226.96100 230.09200 233.29300 236.55700 239.95500 243.53700
 246.84500 249.39000 251.54200 253.47400 255.19500 256.48400 257.43100 258.05900
 258.21200 258.04000 257.58200 256.64300 255.23900 253.50700 251.40800 249.05600
 246.57600 243.99400 241.38900 238.83000 236.34400 233.98600 231.96900 230.11800
 228.42300 226.89900 225.54800 224.29700 223.10500 221.96500 220.95800 220.11300
 219.49000 218.92000 218.32500 217.88100 217.42300 216.96366 216.35568 216.80261
 217.73415 218.28582 218.64258 219.10077 220.44626 222.53987 226.38451 230.35736
 233.59734 237.39164 241.29814 245.22796 248.98002 252.51130 255.78595 258.80109
 261.54781 264.05210 266.34239 268.04198 269.58951 271.01303 272.35754 273.55718
 274.59842 275.49092 276.28989 276.99307 277.60161 278.14001 278.63122 279.07623
 279.47646 279.83287 280.14422 280.54100
 381.81900 372.39900 361.20600 349.77600 337.62200 324.85300 311.81000 298.35300
 284.86000 271.32400 258.56100 246.30400 236.08700 226.79600 218.44800 211.29000
 205.52200 200.89400 197.38100 194.84800 193.01500 192.31500 192.25000 192.43100
 192.91200 193.53700 194.13600 194.71200 195.26200 195.83100 196.39300 196.97600
 197.60400 198.14900 198.58400 199.05700 199.69500 200.37800 201.05400 201.70800
 202.31300 202.85700 203.35500 203.86200 204.56900 205.29700 206.02600 206.98700
 208.19300 209.44100 210.96900 212.57600 214.46200 216.51300 218.63000 220.85300
 223.34100 225.96200 228.73900 231.69700 234.70600 237.70600 240.69200 243.65700
 246.73700 249.69900 252.52100 255.06300 257.29000 259.23300 260.63300 261.68000
 262.46100 262.79800 262.69100 262.22400 261.06900 259.52500 257.70700 255.50700
 253.00100 250.30200 247.39800 244.45200 241.65400 239.05400 236.73300 234.59000
 232.59500 230.72500 228.83400 226.82600 224.66600 222.38700 220.10400 217.71500
 215.45900 213.06600 210.54600 208.09300 205.35400 202.08130 196.05959 200.71215
 209.01611 216.90438 223.84126 229.78593 235.00632 240.20838 245.98943 250.68668
 254.32982 257.93487 261.55666 264.96801 268.15192 271.06452 273.76717 276.25691
 278.57680 280.74479 282.77456 284.60533 286.27232 287.81705 289.31715 290.65561
 291.81734 292.81312 293.70701 294.49387 295.17482 295.77730 296.32696 296.82492
 297.27278 297.67160 298.02000 298.46400
 366.78100 356.33998 345.77696 334.64793 323.05591 311.25489 299.12987 286.93785
 274.65483 262.55680 250.57078 239.87676 230.00374 221.11272 213.29970 206.30667
 200.14565 195.08863 191.67561 189.72259 188.76456 188.83354 189.67352 190.98650
 192.71648 194.81646 197.08443 199.44841 201.89839 204.38337 206.47635 208.32333
 209.95430 211.10428 211.33826 211.57124 211.51322 211.22319 210.86117 210.49615
 210.11813 209.83311 209.64609 209.51506 209.44804 209.78402 210.17500 210.56898
 211.36696 212.54993 213.80491 215.59289 217.52587 219.57385 221.67382 223.76180
 225.82678 227.91576 230.01774 232.12872 234.26269 236.43967 238.70065 241.07563
 243.70161 245.95759 247.96456 249.73454 251.15652 252.28450 253.11148 253.43245
 253.47443 253.25341 252.61839 251.57137 250.18235 248.34832 246.26230 244.10028
 241.89626 239.70524 237.53021 235.37419 233.23917 231.11115 229.14213 227.30411
 225.59208 224.06906 222.70404 221.48102 220.36800 219.33298 218.44195 217.58793
 216.83491 216.01989 215.12287 214.49184 213.94682 212.99542 210.75584 210.11456
 210.53297 211.26828 212.70886 215.28568 219.22592 223.98694 229.70421 234.81831
 238.71628 242.68080 246.87164 251.05852 254.85629 258.62665 261.48553 263.28336
 265.90417 268.70538 271.18713 273.19223 275.18530 277.09009 278.58868 280.09317
 281.75394 283.31512 284.80634 286.16531 287.34549 288.38837 289.34354 290.20959
 290.99487 291.69421 292.30981 293.12546
 366.78100 356.34010 345.77720 334.64830 323.05640 311.25551 299.13061 286.93871
 274.65581 262.55791 250.57201 239.87811 230.00521 221.11431 213.30141 206.30852
 200.14762 195.09072 191.67782 189.72492 188.76702 188.83612 189.67622 190.98932
 192.71943 194.81953 197.08763 199.45173 201.90183 204.38693 206.48003 208.32713
 209.95823 211.10834 211.34244 211.57554 211.51764 211.22774 210.86584 210.50094
 210.12304 209.83814 209.65124 209.52035 209.45345 209.78955 210.18065 210.57475
 211.37285 212.55595 213.81105 215.59915 217.53226 219.58036 221.68046 223.76856
 225.83366 227.92276 230.02486 232.13596 234.27006 236.44716 238.70827 241.08337
 243.70947 245.96557 247.97267 249.74277 251.16487 252.29297 253.12007 253.44118
 253.48328 253.26238 252.62748 251.58058 250.19168 248.35778 246.27188 244.10998
 241.90609 239.71519 237.54029 235.38439 233.24949 231.12159 229.15269 227.31479
 225.60289 224.07999 222.71510 221.49220 220.37930 219.34440 218.45350 217.59960
 216.84670 216.03180 215.13490 214.50401 213.95911 213.03275 210.85153 210.22893
 210.54501 211.31441 212.76248 215.26057 219.11603 223.90862 229.63591 234.74890
 238.63895 242.59177 246.78622 250.98923 254.80022 258.57581 261.44293 263.25516
 265.88657 268.69510 271.16718 273.12302 275.11716 277.05817 278.53030 280.00305
 281.66525 283.22882 284.71939 286.07803 287.25830 288.30161 289.25647 290.12192
 290.90683 291.60831 292.22513 293.04211
 366.78100 356.34005 345.77711 334.64816 323.05622 311.25527 299.13033 286.93838
 274.65544 262.55749 250.57155 239.87760 230.00466 221.11371 213.30077 206.30782
 200.14688 195.08993 191.67699 189.72404 188.76610 188.83515 189.67521 190.98826
 192.71832 194.81837 197.08643 199.45048 201.90054 204.38559 206.47865 208.32570
 209.95676 211.10681 211.34087 211.57392 211.51598 211.22603 210.86409 210.49914
 210.12120 209.83625 209.64931 209.51836 209.45142 209.78747 210.17853 210.57258
 211.37064 212.55369 213.80875 215.59680 217.52986 219.57791 221.67797 223.76602
 225.83108 227.92013 230.02219 232.13324 234.26730 236.44435 238.70541 241.08046
 243.70652 245.96257 247.96963 249.73968 251.16174 252.28979 253.11685 253.43790
 253.47996 253.25901 252.62407 251.57712 250.18818 248.35423 246.26829 244.10634
 241.90240 239.71145 237.53651 235.38056 233.24562 231.11767 229.14873 227.31078
 225.59884 224.07589 222.71095 221.48800 220.37506 219.34011 218.44917 217.59522
 216.84228 216.02733 215.13039 214.49944 213.95450 213.06071 210.95552 210.34172
 210.55644 211.35692 212.81166 215.24335 219.00539 223.82100 229.57759 234.68340
 238.56276 242.50475 246.70198 250.92033 254.74597 258.52570 261.39874 263.22452
 265.86380 268.67819 271.14294 273.05295 275.04926 277.02518 278.47528 279.91791
 281.57779 283.14471 284.63309 285.99133 287.17188 288.21680 289.17102 290.03760
 290.82220 291.52438 292.14227 292.96024
 366.78100 356.33988 345.77676 334.64765 323.05553 311.25441 299.12929 286.93717
 274.65406 262.55594 250.56982 239.87570 230.00259 221.11147 213.29835 206.30523
 200.14411 195.08700 191.67388 189.72076 188.76264 188.83152 189.67141 190.98429
 192.71417 194.81405 197.08193 199.44582 201.89570 204.38058 206.47346 208.32035
 209.95123 211.10111 211.33499 211.56787 211.50976 211.21964 210.85752 210.49240
 210.11428 209.82917 209.64205 209.51093 209.44381 209.77969 210.17058 210.56446
 211.36234 212.54522 213.80011 215.58799 217.52087 219.56875 221.66863 223.75652
 225.82140 227.91028 230.01216 232.12304 234.25693 236.43381 238.69469 241.06957
 243.69545 245.95134 247.95822 249.72810 251.14998 252.27786 253.10475 253.42563
 253.46751 253.24639 252.61128 251.56416 250.17504 248.34092 246.25480 244.09269
 241.88857 239.69745 237.52233 235.36621 233.23110 231.10298 229.13386 227.29574
 225.58362 224.06051 222.69539 221.47227 220.35915 219.32404 218.43292 217.57880
 216.82568 216.01056 215.11345 214.48233 213.93721 213.08124 211.06439 210.45258
 210.57317 211.40086 212.84370 215.22266 218.91307 223.73045 229.52431 234.61871
 238.48648 242.41739 246.61757 250.85168 254.69400 258.47592 261.35284 263.19144
 265.83453 268.65408 271.11340 272.98312 274.98083 276.98944 278.42557 279.83850
 281.49432 283.06253 284.54956 285.90750 287.08771 288.13284 289.08728 289.95441
 290.73999 291.44098 292.05963 292.88016
 366.78100 356.33959 345.77618 334.64676 323.05435 311.25294 299.12753 286.93511
 274.65170 262.55329 250.56688 239.87246 229.99905 221.10764 213.29423 206.30081
 200.13940 195.08199 191.66858 189.71516 188.75675 188.82534 189.66493 190.97751
 192.70710 194.80669 197.07428 199.43787 201.88745 204.37204 206.46463 208.31122
 209.94180 211.09139 211.32498 211.55757 211.49915 211.20874 210.84633 210.48092
 210.10250 209.81709 209.62968 209.49827 209.43085 209.76644 210.15703 210.55062
 211.34821 212.53079 213.78538 215.57297 217.50556 219.55314 221.65273 223.74032
 225.80491 227.89349 229.99508 232.10567 234.23926 236.41584 238.67643 241.05102
 243.67661 245.93219 247.93878 249.70837 251.12996 252.25754 253.08413 253.40472
 253.44631 253.22490 252.58948 251.54207 250.15266 248.31825 246.23183 244.06942
 241.86501 239.67360 237.49818 235.34177 233.20636 231.07795 229.10853 227.27012
 225.55771 224.03430 222.66888 221.44547 220.33206 219.29665 218.40523 217.55082
 216.79741 215.98200 215.08459 214.45317 213.90776 213.09485 211.17879 210.55980
 210.60568 211.44072 212.86148 215.20370 218.83511 223.63884 229.46947 234.55151
 238.40935 242.33145 246.53369 250.78333 254.64462 258.42828 261.30731 263.15616
 265.79993 268.62192 271.07727 272.91208 274.91214 276.95071 278.37808 279.76712
 281.41446 282.98325 284.46619 285.82419 287.00458 288.04913 289.00479 289.87167
 290.65509 291.35950 291.97870 292.80057
 366.78100 356.33924 345.77549 334.64573 323.05298 311.25122 299.12547 286.93271
 274.64896 262.55020 250.56344 239.86869 229.99493 221.10318 213.28942 206.29567
 200.13391 195.07616 191.66240 189.70864 188.74989 188.81813 189.65738 190.96962
 192.69887 194.79811 197.06536 199.42860 201.87784 204.36209 206.45433 208.30058
 209.93082 211.08007 211.31331 211.54556 211.48680 211.19604 210.83329 210.46753
 210.08878 209.80302 209.61527 209.48351 209.41576 209.75100 210.14124 210.53449
 211.33173 212.51398 213.76822 215.55547 217.48771 219.53496 221.63420 223.72144
 225.78569 227.87393 229.97518 232.08542 234.21867 236.39491 238.65516 241.02940
 243.65464 245.90989 247.91613 249.68538 251.10662 252.23387 253.06011 253.38035
 253.42160 253.19984 252.56409 251.51633 250.12658 248.29182 246.20507 244.04231
 241.83755 239.64580 237.47004 235.31329 233.17753 231.04878 229.07902 227.24027
 225.52751 224.00375 222.63800 221.41424 220.30049 219.26473 218.37298 217.51822
 216.76447 215.94871 215.05095 214.41920 213.87344 213.10507 211.29333 210.67104
 210.65022 211.47049 212.87280 215.19005 218.75999 223.54584 229.41074 234.48257
 238.33310 242.24834 246.45175 250.71561 254.59805 258.38275 261.26285 263.12021
 265.75909 268.58008 271.03305 272.83862 274.83987 276.90533 278.33282 279.70233
 281.34109 282.90662 284.38559 285.74396 286.92435 287.96991 288.92511 289.79318
 290.57727 291.28094 291.90039 292.72461
 366.78100 356.33882 345.77464 334.64447 323.05129 311.24911 299.12293 286.92976
 274.64558 262.54640 250.55922 239.86405 229.98987 221.09769 213.28351 206.28934
 200.12716 195.06898 191.65480 189.70063 188.74145 188.80927 189.64809 190.95991
 192.68874 194.78756 197.05438 199.41720 201.86603 204.34985 206.44167 208.28749
 209.91732 211.06614 211.29896 211.53078 211.47161 211.18043 210.81725 210.45107
 210.07190 209.78572 209.59754 209.46536 209.39718 209.73201 210.12183 210.51465
 211.31147 212.49330 213.74712 215.53394 217.46576 219.51259 221.61141 223.69823
 225.76205 227.84988 229.95070 232.06052 234.19334 236.36917 238.62899 241.00281
 243.62763 245.88245 247.88828 249.65710 251.07792 252.20474 253.03057 253.35039
 253.39121 253.16903 252.53286 251.48468 250.09450 248.25932 246.17215 244.00897
 241.80379 239.61161 237.43543 235.27826 233.14208 231.01290 229.04272 227.20355
 225.49037 223.96619 222.60001 221.37584 220.26166 219.22548 218.33330 217.47813
 216.72395 215.90777 215.00959 214.37742 213.83124 213.10973 211.40794 210.78488
 210.70624 211.49042 212.87959 215.18066 218.68803 223.45329 229.34904 234.41016
 238.25424 242.16406 246.36850 250.64679 254.55511 258.34192 261.22385 263.08929
 265.71442 268.52930 270.98013 272.76178 274.76416 276.85117 278.28510 279.64429
 281.27142 282.83133 284.30643 285.66440 286.84561 287.89124 288.84610 289.71466
 290.50006 291.20200 291.82529 292.64920
 366.78100 356.33838 345.77376 334.64314 323.04952 311.24690 299.12027 286.92665
 274.64203 262.54241 250.55479 239.85917 229.98455 221.09193 213.27731 206.28269
 200.12007 195.06144 191.64682 189.69220 188.73258 188.79996 189.63834 190.94972
 192.67810 194.77648 197.04286 199.40524 201.85362 204.33699 206.42837 208.27375
 209.90313 211.05151 211.28389 211.51527 211.45565 211.16403 210.80041 210.43379
 210.05416 209.76754 209.57892 209.44630 209.37768 209.71206 210.10144 210.49382
 211.29020 212.47158 213.72496 215.51133 217.44271 219.48909 221.58747 223.67385
 225.73723 227.82461 229.92499 232.03437 234.16675 236.34213 238.60150 240.97488
 243.59926 245.85364 247.85902 249.62740 251.04778 252.17416 252.99954 253.31892
 253.35930 253.13668 252.50005 251.45143 250.06081 248.22519 246.13757 243.97395
 241.76833 239.57571 237.39909 235.24147 233.10485 230.97522 229.00460 227.16498
 225.45136 223.92674 222.56012 221.33550 220.22088 219.18426 218.29164 217.43602
 216.68139 215.86477 214.96615 214.33353 213.78691 213.11295 211.52280 210.90163
 210.77104 211.51080 212.88332 215.17180 218.61769 223.35902 229.28601 234.33429
 238.17288 242.07898 246.28461 250.57794 254.51624 258.30624 261.18781 263.06091
 265.66476 268.46875 270.91812 272.68130 274.68399 276.79004 278.23969 279.59479
 281.20862 282.75616 284.22980 285.58658 286.76682 287.81265 288.76761 289.63580
 290.42160 291.12698 291.74722 292.57217
 366.78100 356.33817 345.77333 334.64250 323.04866 311.24583 299.11900 286.92516
 274.64033 262.54049 250.55266 239.85683 229.98199 221.08916 213.27432 206.27949
 200.11666 195.05782 191.64299 189.68815 188.72832 188.79548 189.63365 190.94482
 192.67298 194.77115 197.03731 199.39948 201.84765 204.33081 206.42198 208.26714
 209.89631 211.04448 211.27664 211.50781 211.44797 211.15614 210.79231 210.42547
 210.04564 209.75880 209.56997 209.43714 209.36830 209.70247 210.09163 210.48380
 211.27997 212.46113 213.71430 215.50046 217.43163 219.47780 221.57596 223.66213
 225.72529 227.81246 229.91262 232.02179 234.15396 236.32912 238.58829 240.96145
 243.58562 245.83979 247.84495 249.61312 251.03328 252.15945 252.98462 253.30378
 253.34395 253.12111 252.48428 251.43545 250.04461 248.20878 246.12094 243.95711
 241.75128 239.55844 237.38161 235.22377 233.08694 230.95711 228.98627 227.14644
 225.43260 223.90777 222.54094 221.31610 220.20127 219.16443 218.27160 217.41576
 216.66093 215.84410 214.94526 214.31243 213.76559 213.12682 211.61943 211.03712
 210.83797 211.52765 212.87949 215.15422 218.56033 223.27095 229.22198 234.25931
 238.09180 241.99429 246.19931 250.50630 254.47977 258.27216 261.15048 263.03036
 265.60904 268.39978 270.84897 272.60077 274.60309 276.72549 278.19876 279.55872
 281.15411 282.68668 284.14981 285.50720 286.68741 287.73242 288.68835 289.55682
 290.34393 291.04803 291.66843 292.49667
 366.78100 356.33785 345.77270 334.64155 323.04740 311.24425 299.11710 286.92295
 274.63780 262.53765 250.54949 239.85334 229.97819 221.08504 213.26989 206.27474
 200.11159 195.05244 191.63729 189.68214 188.72199 188.78884 189.62669 190.93754
 192.66539 194.76324 197.02909 199.39094 201.83879 204.32163 206.41248 208.25733
 209.88618 211.03403 211.26588 211.49673 211.43658 211.14443 210.78028 210.41313
 210.03298 209.74583 209.55668 209.42353 209.35438 209.68823 210.07708 210.46893
 211.26477 212.44562 213.69847 215.48432 217.41517 219.46102 221.55887 223.64472
 225.70757 227.79442 229.89427 232.00312 234.13497 236.30982 238.56867 240.94152
 243.56537 245.81922 247.82407 249.59191 251.01176 252.13761 252.96246 253.28131
 253.32116 253.09801 252.46086 251.41171 250.02056 248.18441 246.09626 243.93211
 241.72596 239.53281 237.35566 235.19751 233.06036 230.93021 228.95906 227.11890
 225.40475 223.87960 222.51245 221.28730 220.17215 219.13500 218.24185 217.38570
 216.63055 215.81340 214.91425 214.28110 213.73395 213.13553 211.72304 211.15414
 210.94261 211.52487 212.88316 215.16982 218.48129 223.18111 229.15953 234.18047
 238.00311 241.90076 246.10626 250.42897 254.44412 258.24115 261.11877 263.00800
 265.55438 268.32700 270.77588 272.51938 274.51978 276.65387 278.15665 279.52728
 281.10504 282.61951 284.07147 285.42703 286.60840 287.65350 288.61032 289.47653
 290.26428 290.96927 291.59094 292.41998
 366.78100 356.33830 345.77361 334.64291 323.04921 311.24651 299.11982 286.92612
 274.64142 262.54172 250.55403 239.85833 229.98363 221.09093 213.27624 206.28154
 200.11884 195.06015 191.64545 189.69075 188.73105 188.79836 189.63666 190.94796
 192.67626 194.77457 197.04087 199.40317 201.85147 204.33478 206.42608 208.27138
 209.90069 211.04899 211.28129 211.51259 211.45290 211.16120 210.79750 210.43080
 210.05111 209.76441 209.57571 209.44301 209.37432 209.70862 210.09792 210.49023
 211.28653 212.46783 213.72113 215.50744 217.43874 219.48504 221.58334 223.66965
 225.73295 227.82025 229.92055 232.02986 234.16216 236.33746 238.59677 240.97007
 243.59437 245.84867 247.85398 249.62228 251.04258 252.16888 252.99419 253.31349
 253.35379 253.13109 252.49440 251.44570 250.05500 248.21931 246.13161 243.96791
 241.76221 239.56952 237.39282 235.23512 233.09842 230.96873 228.99803 227.15833
 225.44463 223.91994 222.55324 221.32854 220.21385 219.17715 218.28445 217.42875
 216.67406 215.85736 214.95866 214.32596 213.77927 213.18227 211.77315 211.30617
 211.04608 211.55812 212.87634 215.13956 218.42441 223.09119 229.08606 234.08647
 237.90242 241.80183 246.01317 250.35667 254.41972 258.22498 261.10416 263.00357
 265.50266 268.24734 270.69278 272.42813 274.42661 276.56921 278.10193 279.49329
 281.05722 282.55414 283.99240 285.34875 286.52945 287.57498 288.53067 289.39960
 290.18558 290.89194 291.51453 292.34409
 366.78100 356.33893 345.77486 334.64479 323.05172 311.24965 299.12358 286.93050
 274.64643 262.54736 250.56029 239.86522 229.99115 221.09908 213.28501 206.29094
 200.12887 195.07080 191.65673 189.70265 188.74358 188.81151 189.65044 190.96237
 192.69130 194.79023 197.05716 199.42009 201.86902 204.35295 206.44488 208.29080
 209.92073 211.06966 211.30259 211.53452 211.47545 211.18438 210.82131 210.45524
 210.07617 209.79010 209.60203 209.46996 209.40188 209.73681 210.12674 210.51967
 211.31660 212.49853 213.75246 215.53939 217.47132 219.51825 221.61718 223.70411
 225.76803 227.85596 229.95689 232.06682 234.19975 236.37568 238.63561 241.00954
 243.63447 245.88940 247.89533 249.66426 251.08518 252.21211 253.03804 253.35797
 253.39890 253.17683 252.54076 251.49269 250.10262 248.26755 246.18048 244.01741
 241.81234 239.62026 237.44419 235.28712 233.15105 231.02198 229.05191 227.21284
 225.49977 223.97570 222.60963 221.38556 220.27149 219.23541 218.34334 217.48827
 216.73420 215.91813 215.02006 214.38799 213.84192 213.24063 211.82121 211.41039
 211.23703 211.62798 212.83517 215.05066 218.30246 222.98831 229.01385 234.00070
 237.82085 241.72534 245.93767 250.29851 254.40837 258.21838 261.09299 262.99484
 265.44238 268.15637 270.59583 272.32458 274.32660 276.47525 278.04172 279.45963
 281.01074 282.48773 283.91589 285.27075 286.45151 287.49762 288.45438 289.32355
 290.11066 290.81656 291.44083 292.26968
 366.78100 356.33838 345.77377 334.64315 323.04954 311.24692 299.12031 286.92669
 274.64208 262.54246 250.55485 239.85923 229.98462 221.09200 213.27739 206.28277
 200.12016 195.06154 191.64693 189.69231 188.73270 188.80008 189.63847 190.94985
 192.67824 194.77662 197.04301 199.40539 201.85378 204.33716 206.42855 208.27393
 209.90332 211.05170 211.28409 211.51547 211.45586 211.16424 210.80063 210.43401
 210.05440 209.76778 209.57917 209.44655 209.37794 209.71232 210.10171 210.49409
 211.29048 212.47186 213.72525 215.51163 217.44302 219.48940 221.58779 223.67417
 225.73755 227.82494 229.92532 232.03471 234.16709 236.34248 238.60186 240.97525
 243.59963 245.85402 247.85940 249.62779 251.04817 252.17456 252.99994 253.31933
 253.35971 253.13710 252.50048 251.45187 250.06125 248.22564 246.13802 243.97441
 241.76879 239.57618 237.39956 235.24195 233.10533 230.97572 229.00510 227.16549
 225.45187 223.92726 222.56064 221.33603 220.22141 219.18480 218.29218 217.43657
 216.68195 215.86534 214.96672 214.33411 213.78749 213.24110 211.95076 211.45955
 211.37605 211.70987 212.81232 214.95508 218.16380 222.90013 228.97844 233.95836
 237.77205 241.67091 245.87086 250.24083 254.39461 258.20206 261.06021 262.96524
 265.36972 268.05649 270.49448 272.22256 274.23059 276.38452 277.99045 279.43835
 280.97073 282.42984 283.84009 285.19687 286.37561 287.42245 288.37900 289.24921
 290.03549 290.74280 291.36652 292.19647
 366.78100 356.33764 345.77227 334.64091 323.04654 311.24318 299.11582 286.92145
 274.63609 262.53572 250.54736 239.85100 229.97563 221.08227 213.26690 206.27154
 200.10818 195.04881 191.63345 189.67808 188.71772 188.78436 189.62199 190.93263
 192.66026 194.75790 197.02354 199.38517 201.83281 204.31544 206.40608 208.25072
 209.87935 211.02699 211.25862 211.48926 211.42890 211.13653 210.77217 210.40480
 210.02444 209.73708 209.54771 209.41435 209.34498 209.67862 210.06726 210.45889
 211.25453 212.43516 213.68780 215.47344 217.40407 219.44971 221.54734 223.63298
 225.69562 227.78225 229.88189 231.99052 234.12216 236.29680 238.55543 240.92807
 243.55170 245.80534 247.80998 249.57761 250.99725 252.12288 252.94752 253.26616
 253.30579 253.08243 252.44506 251.39570 250.00434 248.16797 246.07961 243.91524
 241.70888 239.51552 237.33815 235.17979 233.04242 230.91206 228.94070 227.10033
 225.38597 223.86060 222.49324 221.26788 220.15251 219.11515 218.22178 217.36542
 216.61006 215.79269 214.89333 214.25996 213.71260 213.22981 212.08937 211.53067
 211.43910 211.75850 212.80034 214.92610 218.10051 222.85707 228.94937 233.91229
 237.70773 241.59605 245.78766 250.16920 254.37071 258.17230 261.01108 262.92737
 265.29477 267.95703 270.39636 272.12988 274.14078 276.29843 277.94775 279.42520
 280.93774 282.37723 283.76807 285.12326 286.30289 287.34872 288.30655 289.17737
 289.96494 290.67267 291.29501 292.12994
 366.78100 356.33738 345.77176 334.64014 323.04552 311.24190 299.11428 286.91965
 274.63403 262.53341 250.54479 239.84817 229.97255 221.07893 213.26331 206.26769
 200.10407 195.04445 191.62883 189.67320 188.71258 188.77896 189.61634 190.92672
 192.65410 194.75148 197.01686 199.37824 201.82562 204.30800 206.39838 208.24276
 209.87113 211.01851 211.24989 211.48027 211.41965 211.12703 210.76241 210.39479
 210.01417 209.72655 209.53693 209.40331 209.33368 209.66706 210.05544 210.44682
 211.24220 212.42258 213.67496 215.46034 217.39072 219.43610 221.53348 223.61886
 225.68124 227.76761 229.86699 231.97537 234.10675 236.28113 238.53951 240.91189
 243.53527 245.78865 247.79303 249.56041 250.97979 252.10516 252.92954 253.24792
 253.28730 253.06368 252.42606 251.37644 249.98482 248.14820 246.05958 243.89496
 241.68834 239.49472 237.31709 235.15847 233.02085 230.89023 228.91861 227.07799
 225.36337 223.83775 222.47013 221.24451 220.12889 219.09127 218.19764 217.34102
 216.58540 215.76778 214.86816 214.23454 213.68692 213.24342 212.19562 211.63319
 211.46901 211.79971 212.79094 214.93469 218.10101 222.82437 228.90694 233.84062
 237.61801 241.50252 245.69466 250.09349 254.34636 258.14279 260.96552 262.89380
 265.22339 267.85971 270.30057 272.04260 274.05356 276.21313 277.90494 279.41284
 280.90634 282.32751 283.69949 285.05426 286.23273 287.28131 288.23651 289.10999
 289.89581 290.60324 291.22949 292.06100
 366.78100 356.33755 345.77210 334.64065 323.04620 311.24275 299.11530 286.92085
 274.63540 262.53496 250.54651 239.85006 229.97461 221.08116 213.26571 206.27026
 200.10681 195.04736 191.63191 189.67646 188.71601 188.78256 189.62011 190.93066
 192.65821 194.75576 197.02131 199.38287 201.83042 204.31297 206.40352 208.24807
 209.87662 211.02417 211.25572 211.48627 211.42582 211.13337 210.76892 210.40147
 210.02102 209.73357 209.54412 209.41067 209.34122 209.67478 210.06333 210.45488
 211.25043 212.43098 213.68353 215.46908 217.39963 219.44518 221.54273 223.62828
 225.69083 227.77738 229.87693 231.98548 234.11703 236.29158 238.55013 240.92269
 243.54624 245.79979 247.80434 249.57189 250.99144 252.11699 252.94154 253.26009
 253.29964 253.07619 252.43874 251.38929 249.99784 248.16139 246.07294 243.90849
 241.70204 239.50860 237.33115 235.17270 233.03525 230.90480 228.93335 227.09290
 225.37845 223.85300 222.48555 221.26010 220.14465 219.10720 218.21375 217.35730
 216.60185 215.78440 214.88495 214.25151 213.70406 213.27937 212.27602 211.74782
 211.48769 211.84406 212.80092 214.94901 218.12074 222.78323 228.85414 233.75673
 237.52354 241.41043 245.60550 250.02284 254.32571 258.11536 260.91956 262.85757
 265.14938 267.76059 270.20132 271.95413 273.96686 276.12622 277.85764 279.39606
 280.87589 282.27899 283.63486 284.98825 286.16840 287.21652 288.17267 289.04437
 289.83270 290.53995 291.16220 292.00040
 366.78100 356.33793 345.77285 334.64178 323.04771 311.24463 299.11756 286.92349
 274.63841 262.53834 250.55027 239.85419 229.97912 221.08604 213.27097 206.27590
 200.11282 195.05375 191.63868 189.68360 188.72353 188.79046 189.62838 190.93931
 192.66724 194.76516 197.03109 199.39302 201.84094 204.32387 206.41480 208.25972
 209.88865 211.03658 211.26850 211.49943 211.43936 211.14728 210.78321 210.41613
 210.03606 209.74899 209.55991 209.42684 209.35777 209.69169 210.08062 210.47255
 211.26847 212.44940 213.70233 215.48825 217.41918 219.46511 221.56303 223.64896
 225.71189 227.79881 229.89874 232.00767 234.13959 236.31452 238.57345 240.94637
 243.57030 245.82422 247.82915 249.59708 251.01700 252.14293 252.96786 253.28678
 253.32671 253.10364 252.46656 251.41749 250.02642 248.19034 246.10227 243.93820
 241.73212 239.53905 237.36198 235.20390 233.06683 230.93676 228.96568 227.12561
 225.41154 223.88646 222.51939 221.29431 220.17924 219.14217 218.24909 217.39302
 216.63795 215.82087 214.92180 214.28873 213.74165 213.32693 212.34711 211.84927
 211.50848 211.88794 212.84074 214.97075 218.13316 222.73653 228.79980 233.67787
 237.43686 241.32524 245.52174 249.95593 254.30519 258.08237 260.86105 262.80917
 265.06967 267.65839 270.10019 271.86545 273.88138 276.04160 277.80908 279.37680
 280.84415 282.23166 283.57309 284.92838 286.10797 287.15494 288.11276 288.98456
 289.77383 290.48080 291.10550 291.94104
 366.78100 356.33838 345.77376 334.64314 323.04952 311.24689 299.12027 286.92665
 274.64203 262.54241 250.55479 239.85917 229.98455 221.09193 213.27731 206.28268
 200.12006 195.06144 191.64682 189.69220 188.73258 188.79996 189.63834 190.94972
 192.67809 194.77647 197.04285 199.40523 201.85361 204.33699 206.42837 208.27375
 209.90313 211.05151 211.28388 211.51526 211.45564 211.16402 210.80040 210.43378
 210.05416 209.76754 209.57892 209.44630 209.37767 209.71205 210.10143 210.49381
 211.29019 212.47157 213.72495 215.51133 217.44271 219.48908 221.58746 223.67384
 225.73722 227.82460 229.92498 232.03436 234.16674 236.34212 238.60150 240.97487
 243.59925 245.85363 247.85901 249.62739 251.04777 252.17415 252.99953 253.31891
 253.35928 253.13666 252.50004 251.45142 250.06080 248.22518 246.13756 243.97394
 241.76832 239.57570 237.39907 235.24145 233.10483 230.97521 229.00459 227.16497
 225.45135 223.92673 222.56011 221.33549 220.22086 219.18424 218.29162 217.43600
 216.68138 215.86476 214.96614 214.33352 213.78690 213.37907 212.41557 211.93309
 211.54761 211.92918 212.89171 215.00179 218.13139 222.68968 228.74713 233.60847
 237.35654 241.24278 245.43924 249.89056 254.28104 258.04053 260.78992 262.74911
 264.98563 267.55597 269.99869 271.77927 273.80057 275.96042 277.76010 279.35477
 280.81317 282.18655 283.51871 284.87244 286.05270 287.09903 288.05807 288.92984
 289.72003 290.42493 291.05222 291.88763
 366.78100 356.33889 345.77477 334.64466 323.05154 311.24943 299.12331 286.93020
 274.64608 262.54697 250.55985 239.86474 229.99062 221.09851 213.28439 206.29028
 200.12816 195.07005 191.65593 189.70182 188.74270 188.81059 189.64947 190.96136
 192.69024 194.78913 197.05601 199.41890 201.86778 204.35167 206.44355 208.28944
 209.91932 211.06821 211.30109 211.53298 211.47386 211.18275 210.81963 210.45352
 210.07440 209.78829 209.60017 209.46806 209.39994 209.73483 210.12471 210.51760
 211.31448 212.49637 213.75025 215.53714 217.46902 219.51591 221.61479 223.70168
 225.76557 227.85345 229.95434 232.06422 234.19711 236.37299 238.63288 241.00676
 243.63165 245.88653 247.89242 249.66130 251.08219 252.20907 253.03496 253.35484
 253.39573 253.17361 252.53750 251.48938 250.09927 248.26415 246.17704 244.01392
 241.80881 239.61669 237.44058 235.28346 233.14735 231.01823 229.04812 227.20900
 225.49589 223.97177 222.60566 221.38154 220.26743 219.23131 218.33920 217.48408
 216.72997 215.91385 215.01574 214.38362 213.83751 213.43404 212.48079 212.00797
 211.59807 211.96530 212.94881 215.04533 218.12624 222.64711 228.69461 233.54051
 237.27461 241.15759 245.35744 249.82660 254.25343 257.99063 260.70880 262.67941
 264.89944 267.45581 269.89905 271.69632 273.72385 275.88489 277.71118 279.32935
 280.78210 282.14435 283.46942 284.82297 286.00363 287.05054 288.00937 288.88104
 289.66937 290.37979 291.00223 291.83777
 366.78100 356.33945 345.77591 334.64636 323.05382 311.25227 299.12672 286.93418
 274.65063 262.55208 250.56554 239.87099 229.99745 221.10590 213.29235 206.29881
 200.13726 195.07971 191.66617 189.71262 188.75408 188.82253 189.66198 190.97444
 192.70389 194.80334 197.07080 199.43425 201.88371 204.36816 206.46061 208.30707
 209.93752 211.08697 211.32043 211.55288 211.49434 211.20379 210.84124 210.47570
 210.09715 209.81161 209.62406 209.49251 209.42497 209.76042 210.15087 210.54433
 211.34178 212.52424 213.77869 215.56614 217.49860 219.54605 221.64550 223.73296
 225.79741 227.88587 229.98732 232.09777 234.23123 236.40768 238.66813 241.04259
 243.66804 245.92350 247.92995 249.69940 251.12086 252.24831 253.07477 253.39522
 253.43667 253.21513 252.57958 251.53203 250.14249 248.30794 246.22140 244.05885
 241.85430 239.66276 237.48721 235.33066 233.19512 231.06657 229.09703 227.25848
 225.54593 224.02239 222.65684 221.43329 220.31975 219.28420 218.39266 217.53811
 216.78456 215.96902 215.07147 214.43992 213.89438 213.49216 212.54187 212.07811
 211.65309 211.99724 213.01048 215.10072 218.12733 222.60924 228.64304 233.46906
 237.18941 241.07103 245.27739 249.76544 254.22276 257.93188 260.61725 262.59747
 264.80975 267.35696 269.79874 271.61588 273.65262 275.81491 277.66153 279.29965
 280.74979 282.10703 283.42679 284.78040 285.96167 287.00925 287.96689 288.83932
 289.62921 290.33875 290.96243 291.80081
 366.78100 356.34014 345.77728 334.64842 323.05657 311.25571 299.13085 286.93899
 274.65613 262.55827 250.57241 239.87855 230.00570 221.11484 213.30198 206.30912
 200.14826 195.09140 191.67854 189.72569 188.76783 188.83697 189.67711 190.99025
 192.72039 194.82053 197.08868 199.45282 201.90296 204.38810 206.48124 208.32838
 209.95952 211.10966 211.34381 211.57695 211.51909 211.22923 210.86737 210.50251
 210.12465 209.83980 209.65294 209.52208 209.45522 209.79136 210.18250 210.57664
 211.37478 212.55793 213.81307 215.60121 217.53435 219.58249 221.68263 223.77077
 225.83592 227.92506 230.02720 232.13834 234.27248 236.44962 238.71076 241.08590
 243.71205 245.96819 247.97533 249.74547 251.16761 252.29575 253.12289 253.44404
 253.48618 253.26532 252.63046 251.58360 250.19474 248.36088 246.27503 244.11317
 241.90931 239.71845 237.54359 235.38773 233.25287 231.12501 229.15616 227.31830
 225.60644 224.08358 222.71872 221.49586 220.38300 219.34815 218.45729 217.60343
 216.85057 216.03571 215.13885 214.50799 213.96313 213.55606 212.59433 212.14645
 211.71252 212.02570 213.07578 215.16191 218.13846 222.57726 228.59396 233.39261
 237.09918 240.98282 245.20015 249.70859 254.19003 257.86459 260.51334 262.50189
 264.71713 267.25931 269.69781 271.53650 273.58670 275.75119 277.61163 279.26392
 280.71857 282.07483 283.39206 284.74597 285.92685 286.97385 287.93274 288.80389
 289.59573 290.30298 290.92859 291.76550
 366.78100 356.34100 345.77899 334.65099 323.05999 311.25998 299.13598 286.94498
 274.66297 262.56597 250.58097 239.88796 230.01596 221.12596 213.31395 206.32195
 200.16195 195.10594 191.69394 189.74194 188.78494 188.85493 189.69593 191.00993
 192.74092 194.84192 197.11092 199.47591 201.92691 204.41291 206.50690 208.35490
 209.98690 211.13789 211.37289 211.60689 211.54988 211.26088 210.89988 210.53587
 210.15887 209.87487 209.68886 209.55886 209.49286 209.82985 210.22185 210.61685
 211.41584 212.59984 213.85584 215.64483 217.57883 219.62783 221.72882 223.81782
 225.88382 227.97382 230.07681 232.18881 234.32381 236.50180 238.76380 241.13980
 243.76679 246.02379 248.03179 249.80278 251.22578 252.35478 253.18277 253.50477
 253.54777 253.32776 252.69376 251.64776 250.25975 248.42675 246.34175 244.18074
 241.97774 239.78774 237.61373 235.45873 233.32473 231.19772 229.22972 227.39272
 225.68171 224.15971 222.79571 221.57370 220.46170 219.42770 218.53770 217.68469
 216.93269 216.11869 215.22268 214.59268 214.04868 213.62836 212.63531 212.20915
 211.78404 212.05782 213.13298 215.23213 218.16560 222.54225 228.54295 233.31329
 237.00677 240.89432 245.12665 249.65709 254.15561 257.78836 260.39819 262.39307
 264.62274 267.16443 269.59607 271.45966 273.52527 275.69135 277.56046 279.22363
 280.68552 282.04626 283.36545 284.72006 285.90100 286.94861 287.90753 288.77893
 289.56760 290.27820 290.90295 291.74081
 366.78100 356.34180 345.78061 334.65341 323.06321 311.26402 299.14082 286.95063
 274.66943 262.57323 250.58904 239.89684 230.02564 221.13645 213.32525 206.33405
 200.17486 195.11966 191.70847 189.75727 188.80107 188.87188 189.71368 191.02848
 192.76029 194.86209 197.13189 199.49770 201.94950 204.43631 206.53111 208.37991
 210.01272 211.16452 211.40032 211.63513 211.57893 211.29073 210.93054 210.56734
 210.19115 209.90795 209.72275 209.59356 209.52836 209.86616 210.25897 210.65477
 211.45457 212.63938 213.89618 215.68599 217.62079 219.67059 221.77240 223.86220
 225.92900 228.01981 230.12361 232.23641 234.37222 236.55102 238.81383 241.19063
 243.81843 246.07624 248.08504 249.85684 251.28065 252.41045 253.23925 253.56206
 253.60586 253.38667 252.75347 251.70827 250.32108 248.48888 246.40468 244.24449
 242.04229 239.85309 237.67990 235.52570 233.39251 231.26631 229.29911 227.46292
 225.75272 224.23152 222.86833 221.64713 220.53593 219.50274 218.61354 217.76135
 217.01015 216.19695 215.30176 214.67256 214.12936 213.69775 212.67801 212.26559
 211.85223 212.10062 213.20644 215.29916 218.18533 222.51239 228.48985 233.23358
 236.91295 240.80513 245.05626 249.61050 254.11676 257.70370 260.27106 262.27151
 264.52692 267.07175 269.49490 271.38586 273.46860 275.63705 277.50873 279.17841
 280.65323 282.02100 283.34775 284.70203 285.88409 286.93057 287.88913 288.76138
 289.55087 290.26062 290.88449 291.72336
 366.78100 356.34308 345.78317 334.65725 323.06833 311.27041 299.14850 286.95958
 274.67966 262.58474 250.60183 239.91091 230.04099 221.15307 213.34316 206.35324
 200.19532 195.14140 191.73149 189.78157 188.82665 188.89874 189.74182 191.05790
 192.79098 194.89407 197.16515 199.53223 201.98531 204.47340 206.56948 208.41956
 210.05364 211.20673 211.44381 211.67989 211.62497 211.33806 210.97914 210.61722
 210.24231 209.96039 209.77647 209.64855 209.58464 209.92372 210.31780 210.71488
 211.51597 212.70205 213.96013 215.75121 217.68730 219.73838 221.84146 223.93254
 226.00063 228.09271 230.19779 232.31188 234.44896 236.62904 238.89312 241.27121
 243.90029 246.15937 248.16945 249.94254 251.36762 252.49870 253.32878 253.65287
 253.69795 253.48003 252.84811 251.80420 250.41828 248.58736 246.50445 244.34553
 242.14461 239.95669 237.78478 235.63186 233.49994 231.37502 229.40911 227.57419
 225.86527 224.34535 222.98344 221.76352 220.65360 219.62168 218.73377 217.88285
 217.13293 216.32102 215.42710 214.79918 214.25726 213.79077 212.68866 212.32726
 211.97275 212.13295 213.23546 215.37622 218.22520 222.46869 228.43256 233.15038
 236.81656 240.71347 244.98734 249.56746 254.07449 257.61087 260.13272 262.14005
 264.43301 266.98376 269.39911 271.31845 273.41931 275.59036 277.46133 279.13449
 280.62476 282.00345 283.33777 284.69193 285.87296 286.91867 287.87692 288.74966
 289.53928 290.24753 290.87311 291.70798
 366.78100 356.34453 345.78606 334.66159 323.07412 311.27765 299.15719 286.96972
 274.69125 262.59778 250.61631 239.92684 230.05837 221.17190 213.36343 206.37496
 200.21849 195.16602 191.75756 189.80909 188.85562 188.92915 189.77368 191.09121
 192.82574 194.93027 197.20280 199.57133 202.02586 204.51539 206.61293 208.46446
 210.09999 211.25452 211.49305 211.73058 211.67711 211.39164 211.03417 210.67370
 210.30023 210.01976 209.83730 209.71083 209.64836 209.98889 210.38442 210.78295
 211.58548 212.77301 214.03254 215.82507 217.76260 219.81513 221.91967 224.01220
 226.08173 228.17526 230.28179 232.39732 234.53585 236.71738 238.98291 241.36244
 243.99297 246.25350 248.26504 250.03957 251.46610 252.59863 253.43016 253.75569
 253.80222 253.58575 252.95528 251.91281 250.52834 248.69887 246.61741 244.45994
 242.26047 240.07400 237.90353 235.75206 233.62159 231.49812 229.53365 227.70018
 225.99271 224.47425 223.11378 221.89531 220.78684 219.75637 218.86990 218.02043
 217.27196 216.46149 215.56902 214.94255 214.40208 213.89197 212.68678 212.38989
 212.08575 212.18294 213.30969 215.44435 218.22075 222.41032 228.37282 233.06442
 236.71875 240.62276 244.92323 249.52965 254.03160 257.51498 259.99039 262.00488
 264.34393 266.90182 269.30621 271.25592 273.37573 275.54819 277.41354 279.08820
 280.59741 281.99231 283.33264 284.68762 285.86786 286.91464 287.87265 288.74402
 289.53317 290.24173 290.86823 291.70523
 366.78100 356.34535 345.78769 334.66404 323.07738 311.28173 299.16207 286.97542
 274.69777 262.60511 250.62446 239.93580 230.06815 221.18249 213.37484 206.38718
 200.23153 195.17988 191.77222 189.82457 188.87191 188.94626 189.79160 191.10995
 192.84530 194.95064 197.22399 199.59333 202.04868 204.53902 206.63737 208.48972
 210.12606 211.28141 211.52075 211.75910 211.70644 211.42179 211.06514 210.70548
 210.33283 210.05317 209.87152 209.74586 209.68421 210.02555 210.42190 210.82125
 211.62459 212.81294 214.07328 215.86663 217.80497 219.85832 221.96367 224.05701
 226.12736 228.22170 230.32905 232.44539 234.58474 236.76709 239.03343 241.41378
 244.04512 246.30647 248.31881 250.09416 251.52151 252.65485 253.48720 253.81354
 253.86089 253.64523 253.01558 251.97392 250.59027 248.76162 246.68096 244.52431
 242.32565 240.14000 237.97034 235.81969 233.69004 231.56738 229.60373 227.77107
 226.06442 224.54676 223.18711 221.96946 220.86180 219.83215 218.94649 218.09784
 217.35018 216.54053 215.64887 215.02322 214.48357 213.96132 212.72746 212.40614
 212.21135 212.24608 213.33353 215.51480 218.27180 222.37561 228.30797 232.97372
 236.62012 240.53423 244.86334 249.49608 253.98802 257.41678 259.84494 261.86572
 264.25458 266.82062 269.20914 271.19006 273.33075 275.50281 277.35941 279.03433
 280.56854 281.98322 283.33127 284.68625 285.86755 286.91278 287.87128 288.74155
 289.53146 290.24139 290.86523 291.70258
 366.78100 356.34560 345.78820 334.66480 323.07839 311.28299 299.16359 286.97719
 274.69979 262.60739 250.62699 239.93859 230.07118 221.18578 213.37838 206.39098
 200.23558 195.18418 191.77678 189.82937 188.87697 188.95157 189.79717 191.11577
 192.85137 194.95697 197.23056 199.60016 202.05576 204.54636 206.64496 208.49756
 210.13416 211.28976 211.52935 211.76795 211.71555 211.43115 211.07475 210.71535
 210.34295 210.06354 209.88214 209.75674 209.69534 210.03694 210.43354 210.83314
 211.63674 212.82533 214.08593 215.87953 217.81813 219.87173 221.97733 224.07093
 226.14152 228.23612 230.34372 232.46032 234.59992 236.78252 239.04912 241.42972
 244.06131 246.32291 248.33551 250.11111 251.53871 252.67231 253.50491 253.83150
 253.87910 253.66370 253.03430 251.99290 250.60950 248.78110 246.70069 244.54429
 242.34589 240.16049 237.99109 235.84069 233.71129 231.58889 229.62548 227.79308
 226.08668 224.56928 223.20988 221.99248 220.88508 219.85567 218.97027 218.12187
 217.37447 216.56507 215.67367 215.04827 214.50887 214.00081 212.80051 212.39992
 212.33444 212.33896 213.32956 215.53633 218.32367 222.35341 228.26321 232.90671
 236.53293 240.45418 244.81107 249.46736 253.94315 257.31467 259.69360 261.72015
 264.16364 266.73721 269.10776 271.12204 273.28436 275.45554 277.30130 278.97736
 280.53806 281.97559 283.33447 284.68970 285.87100 286.91733 287.87421 288.74451
 289.53351 290.24155 290.86728 291.70438
 366.78100 356.34601 345.78903 334.66604 323.08006 311.28507 299.16609 286.98010
 274.70312 262.61113 250.63115 239.94316 230.07618 221.19119 213.38421 206.39722
 200.24224 195.19125 191.78427 189.83728 188.88530 188.96031 189.80633 191.12534
 192.86136 194.96737 197.24139 199.61140 202.06742 204.55843 206.65745 208.51046
 210.14748 211.30349 211.54351 211.78252 211.73054 211.44655 211.09057 210.73158
 210.35960 210.08061 209.89963 209.77464 209.71366 210.05567 210.45269 210.85270
 211.65672 212.84573 214.10675 215.90076 217.83978 219.89379 221.99981 224.09382
 226.16484 228.25985 230.36786 232.48488 234.62489 236.80791 239.07492 241.45594
 244.08795 246.34997 248.36298 250.13900 251.56701 252.70103 253.53404 253.86106
 253.90907 253.69409 253.06510 252.02412 250.64113 248.81315 246.73316 244.57718
 242.37919 240.19421 238.02522 235.87524 233.74625 231.62427 229.66128 227.82930
 226.12331 224.60633 223.24734 222.03036 220.92337 219.89439 219.00940 218.16142
 217.41443 216.60545 215.71446 215.08948 214.55049 214.04607 212.85428 212.43176
 212.41331 212.41469 213.34407 215.59108 218.39767 222.32164 228.21523 232.83492
 236.44266 240.37335 244.76080 249.43901 253.89217 257.20282 259.53287 261.57007
 264.07297 266.65588 269.00900 271.05753 273.24280 275.41379 277.24667 278.92294
 280.51041 281.97275 283.34109 284.69775 285.87674 286.92432 287.87949 288.75064
 289.53912 290.24570 290.87418 291.70419
 366.78100 356.34672 345.79043 334.66815 323.08287 311.28858 299.17030 286.98502
 274.70873 262.61745 250.63817 239.95088 230.08460 221.20032 213.39403 206.40775
 200.25347 195.20318 191.79690 189.85062 188.89933 188.97505 189.82177 191.14148
 192.87820 194.98492 197.25963 199.63035 202.08707 204.57878 206.67850 208.53222
 210.16993 211.32665 211.56737 211.80708 211.75580 211.47252 211.11723 210.75895
 210.38767 210.10938 209.92910 209.80482 209.74453 210.08725 210.48497 210.88568
 211.69040 212.88012 214.14183 215.93655 217.87627 219.93098 222.03770 224.13242
 226.20413 228.29985 230.40857 232.52628 234.66700 236.85072 239.11843 241.50015
 244.13287 246.39558 248.40930 250.18602 251.61473 252.74945 253.58317 253.91088
 253.95960 253.74532 253.11703 252.07675 250.69447 248.86718 246.78790 244.63262
 242.43533 240.25105 238.08277 235.93348 233.80520 231.68392 229.72163 227.89035
 226.18507 224.66878 223.31050 222.09422 220.98793 219.95965 219.07537 218.22808
 217.48180 216.67352 215.78323 215.15895 214.62067 214.10329 212.88091 212.50557
 212.45451 212.48195 213.38690 215.67023 218.46983 222.28209 228.15306 232.74982
 236.34717 240.29190 244.71307 249.41133 253.83650 257.08551 259.37033 261.42270
 263.98752 266.57983 268.91675 270.99936 273.20786 275.37857 277.19778 278.87228
 280.48660 281.97079 283.34946 284.70560 285.88672 286.93112 287.88956 288.75830
 289.54745 290.25275 290.88040 291.71268
 366.78100 356.34741 345.79181 334.67022 323.08562 311.29203 299.17444 286.98984
 274.71425 262.62365 250.64506 239.95847 230.09287 221.20928 213.40368 206.41809
 200.26450 195.21490 191.80931 189.86372 188.91312 188.98953 189.83693 191.15734
 192.89475 195.00215 197.27756 199.64896 202.10637 204.59878 206.69918 208.55359
 210.19199 211.34940 211.59081 211.83121 211.78062 211.49802 211.14343 210.78584
 210.41524 210.13765 209.95805 209.83446 209.77487 210.11827 210.51668 210.91808
 211.72349 212.91390 214.17630 215.97171 217.91211 219.96752 222.07493 224.17033
 226.24274 228.33915 230.44855 232.56696 234.70836 236.89277 239.16118 241.54358
 244.17699 246.44039 248.45480 250.23221 251.66161 252.79702 253.63142 253.95983
 254.00924 253.79564 253.16805 252.12845 250.74686 248.92027 246.84167 244.68708
 242.49048 240.30689 238.13930 235.99070 233.86311 231.74251 229.78092 227.95033
 226.24573 224.73014 223.37255 222.15695 221.05136 220.02376 219.14017 218.29358
 217.54798 216.74039 215.85079 215.22720 214.68961 214.15787 212.90158 212.59058
 212.48744 212.54588 213.45320 215.75194 218.51752 222.24298 228.08533 232.65944
 236.25227 240.21419 244.66957 249.38469 253.77814 256.96646 259.20850 261.27896
 263.90506 266.50610 268.82895 270.94562 273.17706 275.34775 277.15372 278.82578
 280.46552 281.97012 283.35709 284.71460 285.89413 286.93954 287.89615 288.76401
 289.55469 290.26062 290.88644 291.72415
 366.78100 356.34790 345.79280 334.67170 323.08760 311.29450 299.17740 286.99330
 274.71820 262.62810 250.65000 239.96390 230.09880 221.21570 213.41060 206.42550
 200.27240 195.22330 191.81820 189.87310 188.92300 188.99990 189.84780 191.16870
 192.90660 195.01450 197.29040 199.66230 202.12020 204.61310 206.71400 208.56890
 210.20780 211.36570 211.60760 211.84850 211.79840 211.51631 211.16221 210.80511
 210.43501 210.15791 209.97881 209.85571 209.79661 210.14051 210.53941 210.94131
 211.74721 212.93811 214.20101 215.99691 217.93781 219.99371 222.10161 224.19751
 226.27041 228.36731 230.47721 232.59611 234.73801 236.92291 239.19181 241.57471
 244.20861 246.47251 248.48741 250.26531 251.69521 252.83111 253.66601 253.99491
 254.04481 253.83171 253.20461 252.16551 250.78441 248.95831 246.88021 244.72611
 242.53001 240.34691 238.17981 236.03171 233.90461 231.78451 229.82341 227.99331
 226.28921 224.77411 223.41701 222.20191 221.09681 220.06971 219.18661 218.34051
 217.59541 216.78831 215.89921 215.27611 214.73901 214.20090 212.92953 212.66750
 212.53432 212.59921 213.53316 215.82613 218.54840 222.20583 228.01747 232.56911
 236.16133 240.14168 244.62962 249.35696 253.71518 256.84387 259.04651 261.14008
 263.82465 266.43427 268.74359 270.89478 273.14838 275.31815 277.11050 278.78085
 280.44345 281.96667 283.36612 284.72363 285.90253 286.94904 287.90475 288.77368
 289.56201 290.26947 290.89304 291.73032
 366.78100 356.34824 345.79347 334.67271 323.08894 311.29618 299.17941 286.99565
 274.72088 262.63112 250.65336 239.96759 230.10283 221.22006 213.41530 206.43053
 200.27777 195.22900 191.82424 189.87947 188.92971 189.00695 189.85518 191.17642
 192.91465 195.02289 197.29912 199.67136 202.12959 204.62283 206.72407 208.57930
 210.21854 211.37677 211.61901 211.86024 211.81048 211.52871 211.17495 210.81819
 210.44842 210.17166 209.99289 209.87013 209.81136 210.15560 210.55483 210.95707
 211.76331 212.95454 214.21778 216.01401 217.95525 220.01148 222.11972 224.21595
 226.28919 228.38642 230.49666 232.61590 234.75813 236.94337 239.21260 241.59584
 244.23007 246.49431 248.50954 250.28778 251.71802 252.85425 253.68949 254.01872
 254.06896 253.85619 253.22943 252.19066 250.80990 248.98414 246.90637 244.75261
 242.55684 240.37408 238.20731 236.05955 233.93278 231.81302 229.85226 228.02249
 226.31873 224.80396 223.44720 222.23243 221.12767 220.10090 219.21814 218.37237
 217.62761 216.82085 215.93208 215.30932 214.77255 214.23413 212.96205 212.73662
 212.60226 212.64183 213.61469 215.89296 218.57817 222.16966 227.94711 232.47835
 236.07327 240.07480 244.59229 249.32764 253.64592 256.71628 258.88461 261.00677
 263.74680 266.36505 268.66318 270.84906 273.12378 275.29456 277.07498 278.74258
 280.42526 281.96393 283.37079 284.72668 285.90533 286.95190 287.90726 288.77481
 289.56216 290.26697 290.89279 291.72913
 366.78100 356.34845 345.79390 334.67335 323.08979 311.29724 299.18069 286.99714
 274.72259 262.63304 250.65548 239.96993 230.10538 221.22283 213.41828 206.43373
 200.28117 195.23262 191.82807 189.88352 188.93397 189.01142 189.85986 191.18131
 192.91976 195.02821 197.30466 199.67711 202.13555 204.62900 206.73045 208.58590
 210.22535 211.38380 211.62625 211.86769 211.81814 211.53659 211.18304 210.82649
 210.45694 210.18038 210.00183 209.87928 209.82073 210.16518 210.56463 210.96707
 211.77352 212.96497 214.22842 216.02487 217.96632 220.02276 222.13121 224.22766
 226.30111 228.39856 230.50901 232.62845 234.77090 236.95635 239.22580 241.60925
 244.24370 246.50815 248.52359 250.30204 251.73249 252.86894 253.70439 254.03384
 254.08428 253.87173 253.24518 252.20663 250.82608 249.00053 246.92297 244.76942
 242.57387 240.39132 238.22477 236.07722 233.95066 231.83111 229.87056 228.04101
 226.33746 224.82291 223.46635 222.25180 221.14725 220.12070 219.23815 218.39260
 217.64804 216.84149 215.95294 215.33039 214.79384 214.25940 212.99677 212.80464
 212.67992 212.68454 213.69632 215.95042 218.59702 222.13202 227.87657 232.39163
 235.99139 240.01326 244.55730 249.29504 253.56874 256.58170 258.72321 260.88095
 263.67188 266.29703 268.58984 270.80807 273.10248 275.27426 277.04373 278.70853
 280.40668 281.95648 283.37463 284.73358 285.91415 286.96124 287.91693 288.78714
 289.58026 290.29208 290.91998 291.75034
 366.78100 356.34859 345.79417 334.67376 323.09035 311.29794 299.18152 286.99811
 274.72370 262.63428 250.65687 239.97146 230.10705 221.22463 213.42022 206.43581
 200.28339 195.23498 191.83057 189.88615 188.93674 189.01433 189.86292 191.18450
 192.92309 195.03168 197.30826 199.68085 202.13944 204.63303 206.73461 208.59020
 210.22979 211.38837 211.63096 211.87255 211.82314 211.54172 211.18831 210.83190
 210.46248 210.18607 210.00766 209.88524 209.82683 210.17142 210.57101 210.97359
 211.78018 212.97177 214.23535 216.03194 217.97353 220.03012 222.13870 224.23529
 226.30888 228.40646 230.51705 232.63664 234.77923 236.96481 239.23440 241.61799
 244.25257 246.51716 248.53275 250.31133 251.74192 252.87851 253.71410 254.04368
 254.09427 253.88186 253.25544 252.21703 250.83662 249.01121 246.93379 244.78038
 242.58497 240.40255 238.23614 236.08873 233.96232 231.84290 229.88249 228.05308
 226.34966 224.83525 223.47884 222.26442 221.16001 220.13360 219.25119 218.40577
 217.66136 216.85495 215.96653 215.34412 214.80771 214.27901 213.02991 212.87708
 212.75966 212.73270 213.77910 215.99959 218.59392 222.09288 227.81062 232.30768
 235.91165 239.95599 244.52316 249.25656 253.48074 256.44022 258.56393 260.76419
 263.60013 266.23273 268.52490 270.77496 273.08768 275.26123 277.02094 278.68109
 280.38806 281.94611 283.37671 284.73590 285.91638 286.96301 287.92032 288.78928
 289.57880 290.28412 290.90970 291.74368
 366.78100 356.34854 345.79407 334.67361 323.09015 311.29768 299.18122 286.99775
 274.72329 262.63383 250.65636 239.97090 230.10644 221.22397 213.41951 206.43504
 200.28258 195.23412 191.82965 189.88519 188.93573 189.01326 189.86180 191.18333
 192.92187 195.03041 197.30694 199.67948 202.13802 204.63155 206.73309 208.58862
 210.22816 211.38670 211.62923 211.87077 211.82131 211.53984 211.18638 210.82991
 210.46045 210.18399 210.00552 209.88306 209.82460 210.16913 210.56867 210.97120
 211.77774 212.96928 214.23281 216.02935 217.97089 220.02742 222.13596 224.23250
 226.30603 228.40357 230.51410 232.63364 234.77618 236.96171 239.23125 241.61479
 244.24932 246.51386 248.52939 250.30793 251.73847 252.87500 253.71054 254.04008
 254.09061 253.87815 253.25168 252.21322 250.83276 249.00729 246.92983 244.77637
 242.58090 240.39844 238.23197 236.08451 233.95805 231.83858 229.87812 228.04866
 226.34519 224.83073 223.47426 222.25980 221.15534 220.12887 219.24641 218.40095
 217.65648 216.85002 215.96156 215.33909 214.80263 214.28729 213.06976 212.94781
 212.84338 212.79079 213.85454 216.04390 218.58263 222.05135 227.74049 232.22226
 235.83543 239.90370 244.49156 249.21306 253.38258 256.29016 258.40512 260.65469
 263.52835 266.16901 268.46771 270.74866 273.08029 275.25952 277.01047 278.66281
 280.37210 281.93192 283.37497 284.73486 285.91483 286.96182 287.91647 288.78482
 289.57321 290.27893 290.90384 291.73749
 366.78100 356.34859 345.79418 334.67377 323.09037 311.29796 299.18155 286.99814
 274.72373 262.63432 250.65692 239.97151 230.10710 221.22469 213.42028 206.43587
 200.28346 195.23506 191.83065 189.88624 188.93683 189.01442 189.86301 191.18460
 192.92320 195.03179 197.30838 199.68097 202.13956 204.63315 206.73475 208.59034
 210.22993 211.38852 211.63111 211.87270 211.82329 211.54189 211.18848 210.83207
 210.46266 210.18625 210.00784 209.88544 209.82703 210.17162 210.57121 210.97380
 211.78039 212.97198 214.23558 216.03217 217.97376 220.03035 222.13894 224.23553
 226.30912 228.40672 230.51731 232.63690 234.77949 236.96508 239.23467 241.61827
 244.25286 246.51745 248.53304 250.31163 251.74222 252.87881 253.71441 254.04400
 254.09459 253.88218 253.25577 252.21736 250.83695 249.01155 246.93414 244.78073
 242.58532 240.40291 238.23650 236.08910 233.96269 231.84328 229.88287 228.05346
 226.35005 224.83564 223.47924 222.26483 221.16042 220.13401 219.25160 218.40619
 217.66179 216.85538 215.96697 215.34456 214.80815 214.29890 213.09575 213.03589
 212.92946 212.84637 213.92978 216.08206 218.56082 222.01031 227.66916 232.13510
 235.76114 239.85672 244.46162 249.16364 253.27257 256.12961 258.24478 260.55237
 263.45639 266.10599 268.41748 270.73056 273.08151 275.27094 277.01410 278.65442
 280.35950 281.91867 283.36996 284.72983 285.91241 286.95734 287.91498 288.78397
 289.57193 290.27945 290.90158 291.73813
 366.78100 356.34819 345.79338 334.67257 323.08876 311.29595 299.17914 286.99533
 274.72052 262.63071 250.65290 239.96709 230.10228 221.21947 213.41466 206.42985
 200.27704 195.22823 191.82342 189.87861 188.92880 189.00599 189.85418 191.17537
 192.91356 195.02176 197.29795 199.67014 202.12833 204.62152 206.72271 208.57790
 210.21709 211.37528 211.61747 211.85866 211.80885 211.52704 211.17323 210.81642
 210.44661 210.16980 209.99099 209.86818 209.80937 210.15356 210.55275 210.95494
 211.76113 212.95232 214.21551 216.01170 217.95289 220.00908 222.11727 224.21346
 226.28665 228.38384 230.49403 232.61322 234.75541 236.94060 239.20979 241.59298
 244.22717 246.49136 248.50655 250.28474 251.71493 252.85112 253.68631 254.01550
 254.06569 253.85289 253.22608 252.18727 250.80646 248.98065 246.90284 244.74903
 242.55322 240.37041 238.20360 236.05579 233.92898 231.80917 229.84836 228.01855
 226.31474 224.79993 223.44312 222.22831 221.12350 220.09669 219.21388 218.36807
 217.62326 216.81645 215.92764 215.30483 214.76802 214.28615 213.14766 213.10017
 213.03868 212.91008 213.97986 216.11455 218.54227 221.97656 227.59000 232.04248
 235.69087 239.81680 244.43462 249.10991 253.15416 255.96326 258.08740 260.45602
 263.38339 266.04108 268.37305 270.71655 273.08871 275.28940 277.02661 278.65298
 280.34750 281.89941 283.36780 284.72885 285.91034 286.95700 287.91415 288.78540
 289.57297 290.28168 290.90506 291.74121
 366.78100 356.34820 345.79340 334.67260 323.08880 311.29601 299.17921 286.99541
 274.72061 262.63081 250.65301 239.96721 230.10241 221.21962 213.41482 206.43002
 200.27722 195.22842 191.82362 189.87882 188.92902 189.00623 189.85443 191.17563
 192.91383 195.02203 197.29823 199.67043 202.12863 204.62183 206.72304 208.57824
 210.21744 211.37564 211.61784 211.85904 211.80924 211.52744 211.17365 210.81685
 210.44705 210.17025 209.99145 209.86865 209.80985 210.15405 210.55325 210.95546
 211.76166 212.95286 214.21606 216.01226 217.95346 220.00966 222.11786 224.21407
 226.28727 228.38447 230.49467 232.61387 234.75607 236.94127 239.21047 241.59368
 244.22788 246.49208 248.50728 250.28548 251.71568 252.85188 253.68708 254.01628
 254.06649 253.85369 253.22689 252.18809 250.80729 248.98149 246.90369 244.74989
 242.55410 240.37130 238.20450 236.05670 233.92990 231.81010 229.84930 228.01950
 226.31570 224.80091 223.44411 222.22931 221.12451 220.09771 219.21491 218.36911
 217.62431 216.81752 215.92872 215.30592 214.76912 214.29121 213.16212 213.22282
 213.11330 212.96083 214.05966 216.14415 218.51888 221.92665 227.50890 231.95163
 235.62520 239.78349 244.40930 249.05031 253.02527 255.78738 257.92844 260.36453
 263.30792 265.97504 268.33395 270.70825 273.10239 275.31766 277.04950 278.65823
 280.33646 281.86914 283.36935 284.72983 285.91229 286.95798 287.91568 288.78760
 289.57635 290.28497 290.90900 291.74429
 366.78100 356.34881 345.79463 334.67444 323.09125 311.29906 299.18288 286.99969
 274.72550 262.63632 250.65913 239.97394 230.10976 221.22757 213.42338 206.43919
 200.28701 195.23882 191.83463 189.89045 188.94126 189.01907 189.86788 191.18970
 192.92851 195.03732 197.31414 199.68695 202.14576 204.63957 206.74139 208.59720
 210.23701 211.39583 211.63864 211.88045 211.83127 211.55008 211.19689 210.84070
 210.47152 210.19533 210.01714 209.89496 209.83677 210.18158 210.58139 210.98421
 211.79102 212.98283 214.24665 216.04346 217.98527 220.04208 222.15090 224.24771
 226.32152 228.41934 230.53015 232.64996 234.79278 236.97859 239.24840 241.63221
 244.26703 246.53184 248.54765 250.32647 251.75728 252.89409 253.72990 254.05972
 254.11053 253.89834 253.27216 252.23397 250.85378 249.02859 246.95141 244.79822
 242.60303 240.42085 238.25466 236.10747 233.98129 231.86210 229.90191 228.07272
 226.36954 224.85535 223.49916 222.28498 221.18079 220.15460 219.27241 218.42723
 217.68304 216.87685 215.98867 215.36648 214.83029 214.32745 213.13947 213.32002
 213.34692 213.00581 214.03319 216.12317 218.45787 221.89934 227.42592 231.85501
 235.56137 239.75333 244.38368 248.98308 252.88461 255.60355 257.77271 260.28156
 263.23624 265.91507 268.30841 270.71164 273.12958 275.36459 277.09116 278.67645
 280.33051 281.83575 283.36929 284.73294 285.91473 286.96228 287.92099 288.79083
 289.58206 290.28986 290.91159 291.75073
 366.78100 356.34845 345.79390 334.67334 323.08979 311.29724 299.18069 286.99714
 274.72258 262.63303 250.65548 239.96993 230.10538 221.22283 213.41827 206.43372
 200.28117 195.23262 191.82807 189.88351 188.93396 189.01141 189.85986 191.18131
 192.91975 195.02820 197.30465 199.67710 202.13555 204.62899 206.73044 208.58589
 210.22534 211.38379 211.62623 211.86768 211.81813 211.53658 211.18303 210.82648
 210.45692 210.18037 210.00182 209.87927 209.82072 210.16516 210.56461 210.96706
 211.77351 212.96496 214.22840 216.02485 217.96630 220.02275 222.13120 224.22764
 226.30109 228.39854 230.50899 232.62844 234.77088 236.95633 239.22578 241.60923
 244.24368 246.50813 248.52357 250.30202 251.73247 252.86892 253.70437 254.03381
 254.08426 253.87171 253.24516 252.20661 250.82605 249.00050 246.92295 244.76940
 242.57385 240.39129 238.22474 236.07719 233.95064 231.83109 229.87053 228.04098
 226.33743 224.82288 223.46633 222.25178 221.14722 220.12067 219.23812 218.39257
 217.64802 216.84146 215.95291 215.33036 214.79381 214.31673 213.18958 213.33607
 213.48396 213.17278 214.08057 216.09962 218.43309 221.79578 227.33090 231.76015
 235.49939 239.72743 244.35779 248.91054 252.73926 255.42220 257.62784 260.21002
 263.16858 265.86124 268.29373 270.72342 273.16330 275.42041 277.14401 278.70300
 280.32645 281.82178 283.36050 284.72699 285.91208 286.96024 287.91922 288.79297
 289.58340 290.29071 290.91763 291.75211
 366.78100 356.34789 345.79278 334.67168 323.08757 311.29446 299.17735 286.99324
 274.71814 262.62803 250.64992 239.96381 230.09870 221.21560 213.41049 206.42538
 200.27227 195.22316 191.81806 189.87295 188.92284 188.99973 189.84763 191.16852
 192.90641 195.01430 197.29019 199.66209 202.11998 204.61287 206.71376 208.56865
 210.20755 211.36544 211.60733 211.84822 211.79811 211.51601 211.16190 210.80479
 210.43468 210.15757 209.97847 209.85536 209.79625 210.14014 210.53903 210.94093
 211.74682 212.93771 214.20060 215.99649 217.93739 219.99328 222.10117 224.19706
 226.26995 228.36685 230.47674 232.59563 234.73752 236.92242 239.19131 241.57420
 244.20809 246.47198 248.48688 250.26477 251.69466 252.83055 253.66544 253.99434
 254.04423 253.83112 253.20401 252.16490 250.78380 248.95769 246.87958 244.72547
 242.52936 240.34626 238.17915 236.03104 233.90393 231.78382 229.82272 227.99261
 226.28850 224.77339 223.41628 222.20118 221.09607 220.06896 219.18585 218.33974
 217.59464 216.78753 215.89842 215.27531 214.73820 214.29457 213.24644 213.37697
 213.56012 213.30321 214.14754 216.10455 218.44843 221.69795 227.23526 231.67621
 235.44894 239.70944 244.33466 248.83591 252.59375 255.24486 257.49069 260.14203
 263.09775 265.80179 268.27609 270.73096 273.19302 275.47073 277.18982 278.72672
 280.32022 281.81073 283.35110 284.72049 285.90601 286.95563 287.91638 288.79120
 289.58008 290.29050 290.91412 291.74948
 366.78100 356.34758 345.79217 334.67075 323.08633 311.29292 299.17550 286.99108
 274.71567 262.62525 250.64683 239.96042 230.09500 221.21158 213.40616 206.42075
 200.26733 195.21791 191.81250 189.86708 188.91666 188.99325 189.84083 191.16141
 192.89900 195.00658 197.28216 199.65375 202.11133 204.60391 206.70450 208.55908
 210.19766 211.35525 211.59683 211.83741 211.78700 211.50458 211.15016 210.79275
 210.42233 210.14491 209.96549 209.84208 209.78266 210.12624 210.52483 210.92641
 211.73199 212.92258 214.18516 215.98074 217.92133 219.97691 222.08449 224.18008
 226.25266 228.34924 230.45883 232.57741 234.71899 236.90358 239.17216 241.55474
 244.18833 246.45191 248.46649 250.24408 251.67366 252.80924 253.64382 253.97241
 254.02199 253.80857 253.18116 252.14174 250.76032 248.93391 246.85549 244.70107
 242.50466 240.32124 238.15382 236.00541 233.87799 231.75757 229.79616 227.96574
 226.26132 224.74591 223.38849 222.17307 221.06766 220.04024 219.15682 218.31041
 217.56499 216.75757 215.86815 215.24474 214.70732 214.28355 213.28235 213.43536
 213.65302 213.38499 214.19672 216.13255 218.46228 221.62378 227.14885 231.60512
 235.40950 239.69760 244.31059 248.75710 252.44385 255.06519 257.35300 260.07092
 263.01797 265.73337 268.24988 270.72992 273.21613 275.51093 277.22754 278.74606
 280.31250 281.79950 283.34143 284.71112 285.89725 286.94833 287.91135 288.78531
 289.57693 290.28442 290.91055 291.74646
 366.78100 356.34743 345.79187 334.67030 323.08573 311.29217 299.17460 286.99004
 274.71447 262.62390 250.64534 239.95877 230.09320 221.20964 213.40407 206.41851
 200.26494 195.21537 191.80981 189.86424 188.91367 188.99011 189.83754 191.15797
 192.89541 195.00284 197.27828 199.64971 202.10714 204.59958 206.70001 208.55444
 210.19288 211.35031 211.59174 211.83218 211.78161 211.49905 211.14448 210.78691
 210.41635 210.13878 209.95921 209.83565 209.77608 210.11952 210.51795 210.91938
 211.72482 212.91525 214.17768 215.97312 217.91355 219.96898 222.07642 224.17185
 226.24429 228.34072 230.45015 232.56859 234.71002 236.89445 239.16289 241.54532
 244.17876 246.44219 248.45662 250.23406 251.66349 252.79892 253.63336 253.96179
 254.01122 253.79766 253.17009 252.13053 250.74896 248.92239 246.84383 244.68926
 242.49269 240.30913 238.14156 235.99300 233.86543 231.74486 229.78330 227.95273
 226.24816 224.73260 223.37503 222.15946 221.05390 220.02633 219.14277 218.29620
 217.55063 216.74307 215.85350 215.22993 214.69237 214.27982 213.30510 213.49716
 213.76184 213.45680 214.23332 216.17560 218.45760 221.56418 227.07089 231.54131
 235.37529 239.68837 244.28357 248.67142 252.28697 254.88045 257.21390 259.99609
 262.93063 265.65799 268.21841 270.72461 273.23517 275.54623 277.26019 278.76385
 280.30539 281.78662 283.32910 284.70004 285.88766 286.93796 287.90213 288.77704
 289.56830 290.27734 290.90204 291.73679
 366.78100 356.34745 345.79191 334.67036 323.08582 311.29227 299.17472 286.99018
 274.71463 262.62408 250.64554 239.95899 230.09345 221.20990 213.40435 206.41881
 200.26526 195.21571 191.81017 189.86462 188.91408 188.99053 189.83798 191.15844
 192.89589 195.00335 197.27880 199.65025 202.10771 204.60016 206.70061 208.55507
 210.19352 211.35098 211.59243 211.83288 211.78234 211.49979 211.14525 210.78770
 210.41715 210.13961 209.96006 209.83651 209.77697 210.12042 210.51888 210.92033
 211.72578 212.91624 214.17869 215.97414 217.91460 219.97005 222.07751 224.17296
 226.24541 228.34187 230.45132 232.56978 234.71123 236.89568 239.16414 241.54659
 244.18004 246.44350 248.45795 250.23541 251.66486 252.80031 253.63477 253.96322
 254.01267 253.79913 253.17158 252.13204 250.75049 248.92394 246.84540 244.69085
 242.49431 240.31076 238.14321 235.99467 233.86712 231.74657 229.78503 227.95448
 226.24994 224.73439 223.37684 222.16130 221.05575 220.02820 219.14466 218.29811
 217.55257 216.74502 215.85547 215.23193 214.69438 214.28474 213.31697 213.56439
 213.86613 213.54204 214.26718 216.22250 218.44319 221.50926 226.99597 231.48260
 235.34598 239.67921 244.25148 248.57852 252.12289 254.69136 257.07465 259.91754
 262.83917 265.57901 268.18466 270.71652 273.25049 275.57675 277.28986 278.78156
 280.29810 281.77292 283.31558 284.68652 285.87457 286.92566 287.88791 288.76340
 289.55560 290.26401 290.88647 291.71887
 366.78100 356.34763 345.79226 334.67089 323.08652 311.29315 299.17579 286.99142
 274.71605 262.62568 250.64731 239.96094 230.09557 221.21220 213.40683 206.42146
 200.26810 195.21873 191.81336 189.86799 188.91762 188.99425 189.84188 191.16251
 192.90014 195.00777 197.28341 199.65504 202.11267 204.60530 206.70593 208.56056
 210.19919 211.35682 211.59845 211.83908 211.78871 211.50635 211.15198 210.79461
 210.42424 210.14687 209.96750 209.84413 209.78476 210.12839 210.52702 210.92866
 211.73429 212.92492 214.18755 215.98318 217.92381 219.97944 222.08707 224.18270
 226.25533 228.35197 230.46160 232.58023 234.72186 236.90649 239.17512 241.55775
 244.19138 246.45501 248.46964 250.24728 251.67691 252.81254 253.64717 253.97580
 254.02543 253.81206 253.18469 252.14532 250.76395 248.93758 246.85922 244.70485
 242.50848 240.32511 238.15774 236.00937 233.88200 231.76163 229.80026 227.96989
 226.26553 224.75016 223.39279 222.17742 221.07205 220.04468 219.16131 218.31494
 217.56957 216.76220 215.87284 215.24947 214.71210 214.29863 213.32178 213.63425
 213.96336 213.63919 214.30887 216.26796 218.42902 221.45586 226.92239 231.42993
 235.32027 239.66946 244.21443 248.47734 251.95271 254.50125 256.93750 259.83627
 262.74368 265.49847 268.14804 270.70435 273.26077 275.59781 277.31119 278.79440
 280.29031 281.75708 283.29825 284.66980 285.85629 286.90689 287.86935 288.74472
 289.53519 290.24268 290.86612 291.70328
 366.78100 356.34788 345.79275 334.67163 323.08750 311.29438 299.17725 286.99313
 274.71800 262.62788 250.64975 239.96363 230.09850 221.21538 213.41025 206.42513
 200.27200 195.22288 191.81775 189.87263 188.92251 188.99938 189.84726 191.16813
 192.90601 195.01388 197.28976 199.66163 202.11951 204.61238 206.71326 208.56813
 210.20701 211.36488 211.60676 211.84763 211.79751 211.51538 211.16126 210.80414
 210.43401 210.15689 209.97776 209.85464 209.79551 210.13939 210.53826 210.94014
 211.74601 212.93689 214.19976 215.99564 217.93651 219.99239 222.10026 224.19614
 226.26901 228.36589 230.47577 232.59464 234.73652 236.92139 239.19027 241.57314
 244.20702 246.47089 248.48577 250.26364 251.69352 252.82939 253.66427 253.99314
 254.04302 253.82989 253.20277 252.16364 250.78252 248.95640 246.87827 244.72415
 242.52802 240.34490 238.17777 236.02965 233.90252 231.78240 229.82127 227.99115
 226.28702 224.77190 223.41477 222.19965 221.09452 220.06740 219.18427 218.33815
 217.59303 216.78590 215.89678 215.27365 214.73653 214.31715 213.32632 213.69536
 214.05972 213.73999 214.35667 216.31235 218.41768 221.40886 226.85374 231.38359
 235.29761 239.65703 244.17001 248.36856 251.77803 254.31310 256.80487 259.75320
 262.64755 265.41800 268.10693 270.68542 273.26233 275.60532 277.31766 278.79807
 280.27777 281.73776 283.27789 284.64896 285.83423 286.88480 287.84607 288.72021
 289.51105 290.21872 290.84097 291.67120
 366.78100 356.34816 345.79332 334.67248 323.08864 311.29580 299.17896 286.99512
 274.72028 262.63045 250.65261 239.96677 230.10193 221.21909 213.41425 206.42941
 200.27657 195.22773 191.82289 189.87805 188.92821 189.00537 189.85353 191.17469
 192.91285 195.02102 197.29718 199.66934 202.12750 204.62066 206.72182 208.57698
 210.21614 211.37430 211.61646 211.85762 211.80778 211.52594 211.17210 210.81526
 210.44542 210.16858 209.98975 209.86691 209.80807 210.15223 210.55139 210.95355
 211.75971 212.95087 214.21403 216.01019 217.95135 220.00751 222.11567 224.21183
 226.28499 228.38215 230.49232 232.61148 234.75364 236.93880 239.20796 241.59112
 244.22528 246.48944 248.50460 250.28276 251.71292 252.84908 253.68424 254.01340
 254.06356 253.85072 253.22388 252.18505 250.80421 248.97837 246.90053 244.74669
 242.55085 240.36801 238.20117 236.05333 233.92649 231.80665 229.84581 228.01597
 226.31213 224.79729 223.44045 222.22561 221.12078 220.09394 219.21110 218.36526
 217.62042 216.81358 215.92474 215.30190 214.76506 214.33830 213.33002 213.74527
 214.15771 213.83900 214.41724 216.35802 218.40558 221.37183 226.79245 231.34187
 235.27513 239.63974 244.11679 248.25156 251.60188 254.13121 256.67984 259.67065
 262.55344 265.34039 268.06482 270.66266 273.25531 275.59927 277.31174 278.79269
 280.25983 281.71124 283.24988 284.61862 285.80194 286.85074 287.80975 288.68335
 289.47195 290.17749 290.79831 291.62918
 366.78100 356.34846 345.79391 334.67337 323.08982 311.29728 299.18073 286.99719
 274.72264 262.63310 250.65555 239.97001 230.10546 221.22292 213.41838 206.43383
 200.28129 195.23274 191.82820 189.88365 188.93411 189.01156 189.86002 191.18147
 192.91993 195.02839 197.30484 199.67730 202.13575 204.62921 206.73066 208.58612
 210.22557 211.38403 211.62648 211.86794 211.81839 211.53685 211.18331 210.82676
 210.45722 210.18067 210.00213 209.87958 209.82104 210.16549 210.56495 210.96740
 211.77386 212.96531 214.22877 216.02523 217.96668 220.02314 222.13159 224.22805
 226.30150 228.39896 230.50941 232.62887 234.77132 236.95678 239.22624 241.60969
 244.24415 246.50860 248.52406 250.30251 251.73297 252.86942 253.70488 254.03433
 254.08479 253.87224 253.24570 252.20716 250.82661 249.00107 246.92352 244.76998
 242.57443 240.39189 238.22534 236.07780 233.95125 231.83171 229.87116 228.04162
 226.33808 224.82353 223.46699 222.25244 221.14790 220.12135 219.23881 218.39326
 217.64872 216.84217 215.95363 215.33109 214.79454 214.36069 213.33566 213.77809
 214.25450 213.94090 214.49442 216.40652 218.39397 221.34344 226.73488 231.29916
 235.24950 239.61497 244.05367 248.12830 251.42740 253.96022 256.56479 259.59039
 262.46475 265.26715 268.02048 270.63358 273.23901 275.57950 277.29263 278.77917
 280.23962 281.68317 283.21878 284.58560 285.76813 286.81686 287.77356 288.64920
 289.44476 290.15967 290.78741 291.61926
 366.78100 356.34882 345.79463 334.67445 323.09126 311.29908 299.18289 286.99971
 274.72552 262.63634 250.65916 239.97397 230.10979 221.22760 213.42342 206.43923
 200.28705 195.23886 191.83468 189.89049 188.94131 189.01913 189.86794 191.18976
 192.92857 195.03739 197.31420 199.68702 202.14583 204.63965 206.74147 208.59728
 210.23710 211.39591 211.63873 211.88054 211.83136 211.55017 211.19699 210.84080
 210.47162 210.19544 210.01725 209.89507 209.83688 210.18170 210.58151 210.98433
 211.79114 212.98296 214.24678 216.04359 217.98541 220.04222 222.15104 224.24785
 226.32167 228.41948 230.53030 232.65012 234.79293 236.97875 239.24856 241.63238
 244.26719 246.53201 248.54782 250.32664 251.75745 252.89427 253.73009 254.05990
 254.11072 253.89853 253.27235 252.23416 250.85398 249.02879 246.95161 244.79843
 242.60324 240.42106 238.25487 236.10769 233.98150 231.86232 229.90213 228.07295
 226.36977 224.85558 223.49940 222.28521 221.18103 220.15484 219.27266 218.42747
 217.68329 216.87710 215.98892 215.36674 214.83055 214.38654 213.33754 213.80037
 214.34946 214.04164 214.58508 216.45552 218.39134 221.32625 226.68138 231.25961
 235.22614 239.58693 243.98402 248.00063 251.25594 253.80191 256.45853 259.51099
 262.37949 265.19748 267.97272 270.59924 273.21136 275.54044 277.25778 278.75693
 280.21692 281.65512 283.18845 284.55307 285.73425 286.78113 287.73874 288.61493
 289.41455 290.13339 290.76450 291.59644
 366.78100 356.34898 345.79497 334.67495 323.09193 311.29992 299.18390 287.00088
 274.72687 262.63785 250.66083 239.97582 230.11180 221.22978 213.42577 206.44175
 200.28973 195.24172 191.83770 189.89368 188.94467 189.02265 189.87163 191.19362
 192.93260 195.04158 197.31857 199.69155 202.15053 204.64452 206.74650 208.60248
 210.24247 211.40145 211.64443 211.88642 211.83740 211.55638 211.20337 210.84735
 210.47833 210.20232 210.02430 209.90228 209.84427 210.18925 210.58923 210.99222
 211.79920 212.99118 214.25517 216.05215 217.99413 220.05112 222.16010 224.25708
 226.33107 228.42905 230.54003 232.66002 234.80300 236.98898 239.25897 241.64295
 244.27793 246.54292 248.55890 250.33788 251.76887 252.90585 253.74184 254.07182
 254.12280 253.91079 253.28477 252.24675 250.86674 249.04172 246.96470 244.81169
 242.61667 240.43465 238.26864 236.12162 233.99560 231.87659 229.91657 228.08755
 226.38454 224.87052 223.51450 222.30049 221.19647 220.17045 219.28844 218.44342
 217.69940 216.89339 216.00537 215.38335 214.84734 214.40271 213.35220 213.80066
 214.44765 214.15515 214.67044 216.50258 218.39215 221.31903 226.63597 231.22433
 235.20270 239.55246 243.90486 247.86531 251.08705 253.64763 256.35983 259.43387
 262.30069 265.13336 267.92554 270.56061 273.17545 275.48965 277.20737 278.71848
 280.17960 281.62408 283.15271 284.51514 285.69470 286.73746 287.69394 288.56741
 289.36490 290.08405 290.70770 291.51877
 366.78100 356.34923 345.79545 334.67568 323.09291 311.30114 299.18536 287.00259
 274.72882 262.64004 250.66327 239.97850 230.11473 221.23295 213.42918 206.44541
 200.29364 195.24586 191.84209 189.89832 188.94954 189.02777 189.87700 191.19923
 192.93845 195.04768 197.32491 199.69813 202.15736 204.65159 206.75382 208.61004
 210.25027 211.40950 211.65272 211.89495 211.84618 211.56541 211.21263 210.85686
 210.48809 210.21231 210.03454 209.91277 209.85500 210.20022 210.60045 211.00368
 211.81091 213.00313 214.26736 216.06459 218.00681 220.06404 222.17327 224.27050
 226.34472 228.44295 230.55418 232.67440 234.81763 237.00386 239.27409 241.65831
 244.29354 246.55877 248.57499 250.35422 251.78545 252.92268 253.75890 254.08913
 254.14036 253.92859 253.30281 252.26504 250.88527 249.06049 246.98372 244.83095
 242.63618 240.45440 238.28863 236.14186 234.01608 231.89731 229.93754 228.10877
 226.40599 224.89222 223.53645 222.32267 221.21890 220.19313 219.31136 218.46658
 217.72281 216.91704 216.02926 215.40749 214.87172 214.42313 213.36330 213.80592
 214.53009 214.27174 214.75462 216.55612 218.41643 221.31819 226.58939 231.18941
 235.18040 239.51546 243.82166 247.72894 250.91873 253.52185 256.27411 259.35672
 262.22040 265.06506 267.86121 270.50763 273.11826 275.40787 277.14166 278.68619
 280.16464 281.60468 283.10220 284.45401 285.61719 286.65442 287.60605 288.47598
 289.27481 289.99142 290.60580 291.41107
 366.78100 356.34930 345.79560 334.67589 323.09319 311.30149 299.18579 287.00308
 274.72938 262.64068 250.66398 239.97927 230.11557 221.23387 213.43017 206.44647
 200.29476 195.24706 191.84336 189.89966 188.95095 189.02925 189.87855 191.20085
 192.94014 195.04944 197.32674 199.70004 202.15934 204.65363 206.75593 208.61223
 210.25253 211.41182 211.65512 211.89742 211.84872 211.56801 211.21531 210.85961
 210.49091 210.21521 210.03750 209.91580 209.85810 210.20340 210.60369 211.00699
 211.81429 213.00659 214.27088 216.06818 218.01048 220.06778 222.17708 224.27437
 226.34867 228.44697 230.55827 232.67856 234.82186 237.00816 239.27846 241.66275
 244.29805 246.56335 248.57965 250.35895 251.79024 252.92754 253.76384 254.09414
 254.14543 253.93373 253.30803 252.27033 250.89062 249.06592 246.98922 244.83652
 242.64182 240.46011 238.29441 236.14771 234.02201 231.90330 229.94360 228.11490
 226.41220 224.89849 223.54279 222.32909 221.22539 220.19969 219.31798 218.47328
 217.72958 216.92388 216.03617 215.41447 214.87877 214.43613 213.39034 213.81497
 214.60980 214.37073 214.82791 216.58385 218.40459 221.30728 226.55055 231.16711
 235.16148 239.47760 243.73749 247.60391 250.79510 253.39282 256.19803 259.29868
 262.16272 265.01456 267.81827 270.45105 273.04929 275.30511 277.01791 278.56274
 280.06049 281.56235 283.05847 284.40530 285.56625 286.60403 287.55582 288.42673
 289.22571 289.93759 290.55066 291.35822
 366.78100 356.34824 345.79349 334.67273 323.08897 311.29622 299.17946 286.99570
 274.72095 262.63119 250.65343 239.96768 230.10292 221.22016 213.41541 206.43065
 200.27789 195.22914 191.82438 189.87962 188.92987 189.00711 189.85535 191.17660
 192.91484 195.02308 197.29933 199.67157 202.12981 204.62306 206.72430 208.57954
 210.21879 211.37703 211.61927 211.86052 211.81076 211.52900 211.17525 210.81849
 210.44873 210.17198 209.99322 209.87046 209.81171 210.15595 210.55519 210.95744
 211.76368 212.95492 214.21817 216.01441 217.95565 220.01190 222.12014 224.21638
 226.28963 228.38687 230.49711 232.61636 234.75860 236.94384 239.21309 241.59633
 244.23057 246.49481 248.51006 250.28830 251.71854 252.85479 253.69003 254.01927
 254.06952 253.85676 253.23000 252.19125 250.81049 248.98473 246.90698 244.75322
 242.55746 240.37471 238.20795 236.06019 233.93344 231.81368 229.85292 228.02317
 226.31941 224.80465 223.44790 222.23314 221.12838 220.10163 219.21887 218.37311
 217.62836 216.82160 215.93284 215.31009 214.77333 214.39059 213.48636 213.79663
 214.64146 214.41577 214.84047 216.60219 218.41656 221.30347 226.49763 231.14307
 235.13774 239.43312 243.63997 247.45152 250.60063 253.35873 256.18088 259.28696
 262.15656 265.01990 267.80597 270.43866 273.00043 275.22897 276.97797 278.56525
 280.05716 281.49503 282.92978 284.22937 285.34454 286.32529 287.22955 288.08954
 288.87326 289.52377 290.01547 290.61801
 366.78100 356.34692 345.79084 334.66875 323.08367 311.28959 299.17151 286.98642
 274.71034 262.61926 250.64018 239.95309 230.08701 221.20293 213.39685 206.41076
 200.25668 195.20660 191.80052 189.85443 188.90335 188.97927 189.82619 191.14611
 192.88302 194.98994 197.26486 199.63578 202.09269 204.58461 206.68453 208.53845
 210.17636 211.33328 211.57420 211.81412 211.76303 211.47995 211.12487 210.76679
 210.39570 210.11762 209.93754 209.81346 209.75338 210.09629 210.49421 210.89513
 211.70005 212.88996 214.15188 215.94680 217.88672 219.94163 222.04855 224.14347
 226.21539 228.31130 230.42022 232.53814 234.67906 236.86298 239.13089 241.51281
 244.14573 246.40865 248.42256 250.19948 251.62840 252.76332 253.59723 253.92515
 253.97407 253.75999 253.13190 252.09182 250.70974 248.88266 246.80357 244.64849
 242.45141 240.26733 238.09925 235.95016 233.82208 231.70100 229.73892 227.90783
 226.20275 224.68667 223.32859 222.11250 221.00642 219.97834 219.09426 218.24717
 217.50109 216.69301 215.80293 215.17884 214.64076 214.32211 213.56926 213.83395
 214.66512 214.45616 214.83455 216.61830 218.42609 221.23779 226.44223 231.12222
 235.12375 239.39983 243.57153 247.35907 250.51299 253.37869 256.22961 259.31894
 262.18250 265.04041 267.82428 270.43564 272.96011 275.16586 276.92807 278.51471
 280.04022 281.48895 282.89853 284.17056 285.25854 286.22803 287.14987 287.99380
 288.71832 289.28748 289.74887 290.33688
 366.78100 356.34654 345.79007 334.66761 323.08215 311.28769 299.16922 286.98376
 274.70730 262.61584 250.63637 239.94891 230.08245 221.19799 213.39152 206.40506
 200.25060 195.20014 191.79367 189.84721 188.89575 188.97128 189.81782 191.13736
 192.87390 194.98043 197.25497 199.62551 202.08205 204.57358 206.67312 208.52666
 210.16420 211.32073 211.56127 211.80081 211.74935 211.46588 211.11042 210.75196
 210.38049 210.10203 209.92157 209.79711 209.73664 210.07918 210.47672 210.87726
 211.68179 212.87133 214.13287 215.92741 217.86694 219.92148 222.02802 224.12256
 226.19409 228.28963 230.39817 232.51571 234.65624 236.83978 239.10732 241.48885
 244.12139 246.38393 248.39747 250.17400 251.60254 252.73708 253.57062 253.89815
 253.94669 253.73223 253.10377 252.06330 250.68084 248.85338 246.77392 244.61845
 242.42099 240.23653 238.06806 235.91860 233.79014 231.66868 229.70621 227.87475
 226.16929 224.65283 223.29436 222.07790 220.97144 219.94298 219.05851 218.21105
 217.46459 216.65613 215.76566 215.14120 214.60274 214.29253 213.55962 213.93625
 214.79736 214.58949 214.88159 216.58487 218.33003 221.11118 226.35443 231.05524
 235.06966 239.31210 243.42560 247.15361 250.53386 253.42932 256.29150 259.38071
 262.26852 265.12518 267.85846 270.44092 272.93100 275.10596 276.87753 278.51895
 279.97455 281.33630 282.69662 283.90915 284.93478 285.86362 286.76523 287.59579
 288.30267 288.94125 289.54791 290.33051
 366.78100 356.34666 345.79032 334.66798 323.08265 311.28831 299.16997 286.98463
 274.70829 262.61695 250.63761 239.95027 230.08394 221.19960 213.39326 206.40692
 200.25258 195.20224 191.79590 189.84956 188.89823 188.97389 189.82055 191.14021
 192.87687 194.98353 197.25819 199.62885 202.08552 204.57718 206.67684 208.53050
 210.16816 211.32482 211.56548 211.80514 211.75381 211.47047 211.11513 210.75679
 210.38545 210.10711 209.92677 209.80243 209.74210 210.08476 210.48242 210.88308
 211.68774 212.87740 214.13906 215.93373 217.87339 219.92805 222.03471 224.12937
 226.20103 228.29669 230.40535 232.52302 234.66368 236.84734 239.11500 241.49666
 244.12932 246.39198 248.40564 250.18231 251.61097 252.74563 253.57929 253.90695
 253.95561 253.74127 253.11293 252.07260 250.69026 248.86292 246.78358 244.62824
 242.43090 240.24656 238.07822 235.92889 233.80055 231.67921 229.71687 227.88553
 226.18019 224.66385 223.30551 222.08918 220.98284 219.95450 219.07016 218.22282
 217.47648 216.66814 215.77781 215.15347 214.61513 214.29099 213.52950 214.05663
 214.89931 214.71925 215.00356 216.57687 218.24242 221.02167 226.24727 230.99481
 234.98854 239.17882 243.20670 246.90413 250.41138 253.46271 256.36176 259.43130
 262.36270 265.22238 267.90366 270.44452 272.87329 275.01501 276.76257 278.36050
 279.87369 281.19839 282.49442 283.62952 284.58112 285.47559 286.40118 287.25476
 288.03790 288.76196 289.40155 290.21664
 366.78100 356.34700 345.79101 334.66901 323.08402 311.29002 299.17202 286.98703
 274.71103 262.62004 250.64104 239.95404 230.08805 221.20405 213.39806 206.41206
 200.25806 195.20807 191.80207 189.85608 188.90508 188.98108 189.82809 191.14809
 192.88510 194.99210 197.26710 199.63811 202.09511 204.58712 206.68712 208.54112
 210.17913 211.33613 211.57714 211.81714 211.76614 211.48315 211.12815 210.77016
 210.39916 210.12116 209.94117 209.81717 209.75718 210.10018 210.49818 210.89919
 211.70419 212.89420 214.15620 215.95120 217.89121 219.94621 222.05322 224.14822
 226.22022 228.31623 230.42523 232.54324 234.68424 236.86824 239.13625 241.51825
 244.15126 246.41426 248.42826 250.20527 251.63427 252.76928 253.60328 253.93128
 253.98029 253.76629 253.13830 252.09830 250.71630 248.88931 246.81031 244.65532
 242.45832 240.27432 238.10633 235.95733 233.82933 231.70834 229.74634 227.91535
 226.21035 224.69435 223.33636 222.12036 221.01437 219.98637 219.10237 218.25538
 217.50938 216.70139 215.81139 215.18739 214.64940 214.30106 213.48503 214.17912
 214.99110 214.89621 215.24896 216.59583 218.15985 220.91849 226.16000 230.92697
 234.91437 239.05156 243.01242 246.69048 250.23419 253.42569 256.39542 259.44586
 262.39713 265.23755 267.87018 270.39041 272.77319 274.81528 276.59332 278.33200
 279.75613 281.07135 282.33670 283.40756 284.30710 285.17398 286.05569 286.83737
 287.48407 287.86456 288.12146 288.44885
 366.78100 356.34464 345.78629 334.66193 323.07457 311.27821 299.15786 286.97050
 274.69214 262.59878 250.61743 239.92807 230.05971 221.17335 213.36500 206.37664
 200.22028 195.16793 191.75957 189.81121 188.85785 188.93150 189.77614 191.09378
 192.82842 194.93307 197.20571 199.57435 202.02900 204.51864 206.61628 208.46792
 210.10357 211.25821 211.49685 211.73449 211.68114 211.39578 211.03842 210.67806
 210.30471 210.02435 209.84199 209.71564 209.65328 209.99392 210.38956 210.78821
 211.59085 212.77849 214.03813 215.83078 217.76842 219.82106 221.92571 224.01835
 226.08799 228.18163 230.28828 232.40392 234.54256 236.72420 238.98985 241.36949
 244.00013 246.26077 248.27242 250.04706 251.47370 252.60635 253.43799 253.76363
 253.81027 253.59392 252.96356 251.92120 250.53684 248.70749 246.62613 244.46877
 242.26942 240.08306 237.91270 235.76134 233.63099 231.50763 229.54327 227.70991
 226.00256 224.48420 223.12384 221.90548 220.79713 219.76677 218.88041 218.03106
 217.28270 216.47234 215.57998 214.95363 214.41327 214.16673 213.58426 214.24701
 215.03862 215.10880 215.52571 216.69614 218.18727 220.89270 226.13330 230.87082
 234.83974 238.90546 242.79782 246.46814 250.06635 253.33469 256.36716 259.39868
 262.31577 265.12509 267.73563 270.26007 272.61255 274.66650 276.48965 278.37393
 279.67700 280.97275 282.18829 283.17645 284.02420 284.82162 285.60245 286.32172
 286.95782 287.57770 288.18204 288.96350
 366.78100 356.34288 345.78276 334.65664 323.06752 311.26940 299.14728 286.95816
 274.67804 262.58292 250.59980 239.90868 230.03856 221.15044 213.34032 206.35020
 200.19208 195.13796 191.72784 189.77772 188.82260 188.89448 189.73736 191.05324
 192.78612 194.88900 197.15988 199.52676 201.97964 204.46752 206.56340 208.41328
 210.04716 211.20004 211.43693 211.67281 211.61769 211.33057 210.97145 210.60933
 210.23421 209.95209 209.76797 209.63985 209.57573 209.91461 210.30849 210.70537
 211.50625 212.69213 213.95001 215.74089 217.67677 219.72765 221.83053 223.92141
 225.98929 228.08117 230.18605 232.29993 234.43681 236.61669 238.88057 241.25845
 243.88733 246.14621 248.15609 249.92897 251.35385 252.48473 253.31461 253.63849
 253.68337 253.46525 252.83313 251.78901 250.40289 248.57177 246.48865 244.32953
 242.12841 239.94029 237.76817 235.61505 233.48293 231.35781 229.39169 227.55657
 225.84745 224.32733 222.96521 221.74509 220.63497 219.60285 218.71473 217.86361
 217.11349 216.30137 215.40725 214.77913 214.23701 214.05940 213.63980 214.39943
 215.17973 215.19757 215.57162 216.71074 218.17621 220.88544 226.12210 230.87616
 234.80739 238.82671 242.65103 246.28709 249.97621 253.32864 256.33585 259.29071
 262.20584 265.02707 267.58817 270.10703 272.47839 274.45462 276.69653 278.38837
 279.71585 280.72339 281.87167 282.90857 283.74399 284.43423 285.05469 285.60681
 286.22763 286.89981 287.52286 288.31870
 366.78100 356.34829 345.79358 334.67287 323.08916 311.29645 299.17974 286.99603
 274.72132 262.63161 250.65390 239.96820 230.10349 221.22078 213.41607 206.43136
 200.27865 195.22994 191.82523 189.88052 188.93081 189.00810 189.85639 191.17768
 192.91597 195.02426 197.30055 199.67284 202.13113 204.62442 206.72571 208.58100
 210.22029 211.37859 211.62088 211.86217 211.81246 211.53075 211.17704 210.82033
 210.45062 210.17391 209.99520 209.87249 209.81378 210.15807 210.55736 210.95965
 211.76594 212.95723 214.22052 216.01681 217.95810 220.01439 222.12268 224.21898
 226.29227 228.38956 230.49985 232.61914 234.76143 236.94672 239.21601 241.59930
 244.23359 246.49788 248.51317 250.29146 251.72175 252.85804 253.69333 254.02262
 254.07291 253.86020 253.23349 252.19478 250.81407 248.98837 246.91066 244.75695
 242.56124 240.37853 238.21182 236.06411 233.93740 231.81769 229.85698 228.02727
 226.32356 224.80885 223.45214 222.23743 221.13272 220.10601 219.22330 218.37759
 217.63288 216.82617 215.93746 215.31476 214.77805 214.35078 213.43808 214.42924
 215.49330 215.33609 215.52408 216.50703 218.03836 220.91187 225.97093 230.82979
 234.67186 238.65756 242.46645 246.15398 249.79175 253.22241 256.35907 259.29620
 262.17062 264.95657 267.57056 270.08728 272.29883 274.42477 276.57315 278.27667
 279.55307 280.64291 281.64609 282.51663 283.23499 283.82465 284.55447 285.29004
 285.95157 286.54071 287.05533 287.71118
 366.78100 356.35551 345.80801 334.69452 323.11803 311.33254 299.22304 287.04655
 274.77906 262.69657 250.72607 240.04758 230.19009 221.31459 213.51710 206.53961
 200.39412 195.35262 191.95513 190.01764 189.07515 189.15965 190.01516 191.34367
 193.08917 195.20468 197.48819 199.86770 202.33320 204.83371 206.94222 208.80472
 210.45123 211.61674 211.86625 212.11475 212.07226 211.79777 211.45128 211.10178
 210.73929 210.46980 210.29830 210.18281 210.13132 210.48283 210.88933 211.29884
 212.11235 213.31086 214.58136 216.38487 218.33338 220.39688 222.51239 224.61590
 226.69641 228.80091 230.91842 233.04493 235.19444 237.38694 239.66345 242.05396
 244.69546 246.96697 248.98948 250.77499 252.21249 253.35600 254.19851 254.53501
 254.59252 254.38703 253.76754 252.73604 251.36255 249.54406 247.47357 245.32707
 243.13858 240.96309 238.80359 236.66310 234.54361 232.43112 230.47762 228.65513
 226.95864 225.45115 224.10165 222.89416 221.79667 220.77717 219.90168 219.06319
 218.32570 217.52620 216.64471 216.02922 215.49973 214.76984 213.30629 214.24907
 215.81110 215.85632 215.98483 216.69313 218.03358 220.99860 225.93797 230.72163
 234.56493 238.50194 242.28970 246.00203 249.66273 253.17691 256.41202 259.41562
 262.32614 265.07654 267.66220 270.03677 272.24631 274.64288 276.64722 278.20093
 279.41513 280.43082 281.49640 282.38889 283.16125 283.84457 284.46805 285.03284
 285.54080 285.99316 286.38834 286.89191
 366.78100 356.35221 345.80142 334.68463 323.10483 311.31604 299.20325 287.02346
 274.75267 262.66688 250.69308 240.01129 230.15050 221.27171 213.47092 206.49013
 200.34134 195.29654 191.89575 189.95496 189.00917 189.09038 189.94259 191.26779
 193.01000 195.12221 197.40242 199.77863 202.24084 204.73805 206.84325 208.70246
 210.34567 211.50788 211.75409 211.99930 211.95350 211.67571 211.32592 210.97313
 210.60734 210.33455 210.15976 210.04096 209.98617 210.33438 210.73759 211.14380
 211.95401 213.14921 214.41642 216.21663 218.16184 220.22205 222.33426 224.43447
 226.51167 228.61288 230.72709 232.85030 234.99651 237.18572 239.45892 241.84613
 244.48434 246.75255 248.77176 250.55397 251.98817 253.12838 253.96759 254.30080
 254.35501 254.14622 253.52343 252.48863 251.11184 249.29005 247.21626 245.06647
 242.87468 240.69588 238.53309 236.38930 234.26651 232.15072 230.19393 228.36814
 226.66834 225.15755 223.80476 222.59397 221.49318 220.47039 219.59159 218.74980
 218.00901 217.20622 216.32143 215.70264 215.16985 214.65050 213.53738 213.93497
 215.56340 216.09445 216.43144 217.13612 218.26244 221.03723 225.95845 230.74530
 234.55559 238.45772 242.24153 245.96562 249.64012 253.15639 256.47357 259.54681
 262.47726 265.24091 267.85962 270.09171 272.25613 274.56903 276.60068 278.18042
 279.38672 280.53763 281.38364 282.12646 282.76935 283.33810 283.85703 284.32715
 284.74997 285.12646 285.45538 285.87454
 366.78100 356.34628 345.78956 334.66684 323.08112 311.28639 299.16767 286.98195
 274.70523 262.61351 250.63379 239.94607 230.07935 221.19463 213.38790 206.40118
 200.24646 195.19574 191.78902 189.84230 188.89058 188.96586 189.81214 191.13141
 192.86769 194.97397 197.24825 199.61853 202.07481 204.56609 206.66537 208.51865
 210.15592 211.31220 211.55248 211.79176 211.74004 211.45632 211.10060 210.74188
 210.37016 210.09143 209.91071 209.78599 209.72527 210.06755 210.46483 210.86511
 211.66939 212.85867 214.11994 215.91422 217.85350 219.90778 222.01406 224.10834
 226.17962 228.27490 230.38318 232.50045 234.64073 236.82401 239.09129 241.47257
 244.10485 246.36713 248.38041 250.15669 251.58496 252.71924 253.55252 253.87980
 253.92808 253.71336 253.08464 252.04392 250.66120 248.83347 246.75375 244.59803
 242.40031 240.21559 238.04687 235.89715 233.76843 231.64671 229.68398 227.85226
 226.14654 224.62982 223.27110 222.05438 220.94766 219.91894 219.03422 218.18649
 217.43977 216.63105 215.74033 215.11561 214.57689 214.35834 213.82924 213.87428
 215.23898 216.08556 216.63269 217.36688 218.52039 221.21478 225.96486 230.72792
 234.51245 238.37195 242.12593 245.84750 249.50844 253.01038 256.40781 259.56012
 262.52118 265.35297 268.00620 270.20779 272.24149 274.57312 276.56879 278.12317
 279.38092 280.49615 281.83099 283.02789 284.06369 284.98010 285.81619 286.57364
 287.25488 287.86154 288.39148 289.06686
 366.78100 356.34406 345.78511 334.66017 323.07223 311.27528 299.15434 286.96640
 274.68745 262.59351 250.61156 239.92162 230.05268 221.16573 213.35679 206.36785
 200.21090 195.15796 191.74902 189.80007 188.84613 188.91919 189.76324 191.08030
 192.81435 194.91841 197.19047 199.55852 202.01258 204.50164 206.59869 208.44975
 210.08481 211.23886 211.47692 211.71398 211.66003 211.37409 211.01615 210.65520
 210.28126 210.00031 209.81737 209.69043 209.62748 209.96754 210.36260 210.76065
 211.56271 212.74977 214.00882 215.80088 217.73794 219.78999 221.89405 223.98610
 226.05516 228.14822 230.25427 232.36933 234.50739 236.68844 238.95350 241.33256
 243.96261 246.22267 248.23373 250.00778 251.43384 252.56589 253.39695 253.72201
 253.76806 253.55112 252.92018 251.87723 250.49229 248.66235 246.58040 244.42246
 242.22252 240.03557 237.86463 235.71269 233.58174 231.45780 229.49285 227.65891
 225.95097 224.43202 223.07108 221.85214 220.74319 219.71225 218.82531 217.97536
 217.22642 216.41548 215.52253 214.89559 214.35464 214.22127 213.91646 214.01924
 215.12439 216.10666 216.69130 217.35880 218.58145 221.31091 225.95058 230.72427
 234.46669 238.25604 241.95512 245.64432 249.27353 252.81465 256.30341 259.54739
 262.53494 265.40359 268.00348 270.16168 272.28036 274.53336 276.48334 278.06091
 279.40857 280.56241 281.64230 282.80087 283.82184 284.72516 285.54929 286.29590
 286.96738 287.56534 288.08771 288.75342
 366.78100 356.34649 345.78999 334.66748 323.08197 311.28746 299.16896 286.98345
 274.70694 262.61544 250.63593 239.94842 230.08191 221.19741 213.39090 206.40439
 200.24989 195.19938 191.79287 189.84636 188.89486 188.97035 189.81684 191.13633
 192.87283 194.97932 197.25381 199.62431 202.08080 204.57229 206.67178 208.52528
 210.16277 211.31926 211.55976 211.79925 211.74774 211.46423 211.10873 210.75022
 210.37871 210.10021 209.91970 209.79519 209.73468 210.07718 210.47467 210.87516
 211.67966 212.86915 214.13064 215.92513 217.86463 219.91912 222.02561 224.12011
 226.19160 228.28709 230.39558 232.51308 234.65357 236.83706 239.10455 241.48605
 244.11854 246.38103 248.39453 250.17102 251.59951 252.73400 253.56750 253.89499
 253.94348 253.72898 253.10047 252.05996 250.67745 248.84995 246.77044 244.61493
 242.41743 240.23292 238.06441 235.91490 233.78640 231.66489 229.70238 227.87088
 226.16537 224.64886 223.29035 222.07385 220.96734 219.93883 219.05432 218.20682
 217.46031 216.65180 215.76130 215.13679 214.59828 214.30493 213.69839 214.30380
 215.35490 216.16359 216.56818 217.09598 218.37238 221.15923 225.85709 230.56470
 234.26845 238.02173 241.72234 245.41644 249.06828 252.65804 256.24625 259.52954
 262.44968 265.28043 267.82687 270.03491 272.25220 274.50601 276.35437 278.05716
 279.54947 280.77518 281.81592 282.66403 283.43011 284.29431 285.08276 285.79706
 286.43948 287.01157 287.51132 288.14819
 366.78100 356.35181 345.80062 334.68343 323.10325 311.31406 299.20087 287.02068
 274.74949 262.66330 250.68912 240.00693 230.14574 221.26655 213.46536 206.48417
 200.33499 195.28980 191.88861 189.94742 189.00123 189.08204 189.93385 191.25867
 193.00048 195.11229 197.39210 199.76791 202.22972 204.72654 206.83135 208.69016
 210.33297 211.49478 211.74059 211.98541 211.93922 211.66103 211.31084 210.95765
 210.59146 210.31827 210.14309 210.02390 209.96871 210.31652 210.71933 211.12514
 211.93496 213.12977 214.39658 216.19639 218.14120 220.20101 222.31283 224.41264
 226.48945 228.59026 230.70407 232.82688 234.97269 237.16151 239.43432 241.82113
 244.45894 246.72675 248.74556 250.52738 251.96119 253.10100 253.93981 254.27262
 254.32643 254.11724 253.49406 252.45887 251.08168 249.25949 247.18530 245.03511
 242.84293 240.66374 238.50055 236.35636 234.23317 232.11698 230.15980 228.33361
 226.63342 225.12223 223.76904 222.55785 221.45666 220.43348 219.55429 218.71210
 217.97091 217.16772 216.28253 215.66335 215.13016 214.57932 213.41704 214.26404
 215.81400 216.49968 216.77045 217.10916 218.26326 221.01810 225.75475 230.43173
 234.06549 237.74384 241.40222 245.10968 248.82773 252.66756 256.37759 259.54321
 262.35220 265.09973 267.52841 269.89026 272.44199 274.60730 276.35645 277.83380
 279.26697 280.54709 281.59656 282.40717 283.07346 283.77530 284.41559 284.99570
 285.51740 285.98199 286.38788 286.90509
 366.78100 356.34966 345.79631 334.67697 323.09463 311.30328 299.18794 287.00559
 274.73225 262.64391 250.66756 239.98322 230.11988 221.23853 213.43519 206.45184
 200.30050 195.25316 191.84981 189.90647 188.95813 189.03678 189.88644 191.20909
 192.94875 195.05841 197.33606 199.70972 202.16938 204.66403 206.76669 208.62334
 210.26400 211.42366 211.66731 211.90997 211.86163 211.58128 211.22894 210.87359
 210.50525 210.22991 210.05256 209.93122 209.87388 210.21953 210.62019 211.02384
 211.83150 213.02416 214.28881 216.08647 218.02913 220.08678 222.19644 224.29409
 226.36875 228.46741 230.57906 232.69972 234.84338 237.03003 239.30069 241.68535
 244.32100 246.58666 248.60331 250.38297 251.81463 252.95228 253.78894 254.11960
 254.17125 253.95991 253.33456 252.29722 250.91788 249.09353 247.01719 244.86485
 242.67050 240.48916 238.32381 236.17747 234.05213 231.93378 229.97444 228.14610
 226.44375 224.93041 223.57506 222.36172 221.25838 220.23303 219.35169 218.50735
 217.76400 216.95866 216.07131 215.44997 214.91463 214.50208 213.60431 213.97284
 215.67229 216.68964 217.17401 217.56625 218.60555 221.18776 225.81465 230.44908
 234.02229 237.64069 241.26398 244.97240 248.76428 252.75635 256.50906 259.59424
 262.27982 264.92868 267.41977 269.97580 272.46002 274.54691 276.31003 277.73346
 279.06964 280.28040 281.21463 281.90662 282.69919 283.44247 284.12061 284.73495
 285.28751 285.77954 286.20938 286.75714
 366.78100 356.34197 345.78094 334.65390 323.06387 311.26484 299.14181 286.95177
 274.67074 262.57471 250.59068 239.89864 230.02761 221.13858 213.32755 206.33652
 200.17748 195.12245 191.71142 189.76039 188.80435 188.87532 189.71729 191.03226
 192.76422 194.86619 197.13616 199.50213 201.95409 204.44106 206.53603 208.38500
 210.01797 211.16993 211.40590 211.64087 211.58484 211.29680 210.93677 210.57374
 210.19771 209.91467 209.72964 209.60061 209.53558 209.87355 210.26651 210.66248
 211.46245 212.64742 213.90438 215.69435 217.62932 219.67929 221.78125 223.87122
 225.93819 228.02916 230.13312 232.24609 234.38206 236.56103 238.82400 241.20096
 243.82893 246.08690 248.09587 249.86783 251.29180 252.42177 253.25074 253.57370
 253.61767 253.39864 252.76561 251.72058 250.33354 248.50151 246.41748 244.25745
 242.05541 239.86638 237.69335 235.53932 233.40628 231.28025 229.31322 227.47719
 225.76716 224.24612 222.88309 221.66206 220.55103 219.51799 218.62896 217.77693
 217.02590 216.21286 215.31783 214.68880 214.14577 214.11035 214.01343 213.93030
 215.19077 216.47162 217.21475 217.76352 218.82710 221.31044 225.90184 230.46786
 234.03041 237.63960 241.24117 244.94595 248.81932 252.78770 256.48447 259.59271
 262.29651 264.95181 267.45587 269.89856 272.29590 274.38705 276.19086 277.68860
 279.08295 280.26196 281.22638 281.99515 282.62106 283.30954 283.98703 284.60080
 285.15283 285.64441 286.07382 286.62109
 366.78100 356.34159 345.78018 334.65277 323.06236 311.26295 299.13954 286.94913
 274.66772 262.57131 250.58690 239.89449 230.02308 221.13367 213.32226 206.33085
 200.17145 195.11604 191.70463 189.75322 188.79681 188.86740 189.70899 191.02358
 192.75517 194.85676 197.12635 199.49194 201.94353 204.43012 206.52471 208.37330
 210.00589 211.15748 211.39307 211.62766 211.57125 211.28284 210.92243 210.55902
 210.18261 209.89920 209.71379 209.58438 209.51897 209.85656 210.24915 210.64475
 211.44434 212.62893 213.88552 215.67511 217.60970 219.65929 221.76088 223.85047
 225.91706 228.00765 230.11124 232.22383 234.35942 236.53801 238.80060 241.17719
 243.80478 246.06237 248.07096 249.84255 251.26614 252.39573 253.22432 253.54691
 253.59050 253.37109 252.73768 251.69227 250.30486 248.47245 246.38805 244.22764
 242.02523 239.83582 237.66241 235.50800 233.37459 231.24818 229.28077 227.44436
 225.73395 224.21254 222.84913 221.62772 220.51631 219.48290 218.59349 217.74108
 216.98967 216.17626 215.28085 214.65144 214.10803 214.07066 213.99216 214.19933
 215.19449 216.28549 217.10637 217.71948 218.76938 221.21950 225.88147 230.40826
 233.94403 237.49129 241.06194 244.79530 248.74814 252.75140 256.40512 259.53500
 262.29269 264.93283 267.37915 269.90878 272.23730 274.28787 276.09921 277.64423
 279.04996 280.26974 281.28860 282.15427 282.88275 283.46561 284.04926 284.62305
 285.13913 285.59866 286.00012 286.51172
 366.78100 356.34578 345.78856 334.66534 323.07912 311.28390 299.16467 286.97845
 274.70123 262.60901 250.62879 239.94057 230.07335 221.18813 213.38091 206.39369
 200.23846 195.18724 191.78002 189.83280 188.88058 188.95536 189.80114 191.11992
 192.85570 194.96148 197.23525 199.60503 202.06081 204.55159 206.65037 208.50315
 210.13993 211.29571 211.53549 211.77427 211.72204 211.43782 211.08160 210.72238
 210.35016 210.07094 209.88972 209.76450 209.70328 210.04506 210.44183 210.84161
 211.64539 212.83417 214.09495 215.88873 217.82751 219.88129 221.98707 224.08085
 226.15162 228.24640 230.35418 232.47096 234.61074 236.79352 239.06030 241.44108
 244.07286 246.33464 248.34741 250.12319 251.55097 252.68475 253.51753 253.84431
 253.89209 253.67687 253.04765 252.00643 250.62320 248.79498 246.71476 244.55854
 242.36032 240.17510 238.00588 235.85566 233.72644 231.60422 229.64100 227.80877
 226.10255 224.58533 223.22611 222.00889 220.90167 219.87245 218.98723 218.13901
 217.39179 216.58256 215.69134 215.06612 214.52690 214.29521 213.78621 214.22905
 215.51202 216.40111 217.10793 217.68872 218.69684 221.14705 225.81512 230.32405
 233.80070 237.30299 240.86075 244.65045 248.71066 252.75365 256.42236 259.51334
 262.22800 264.82477 267.36102 270.00082 272.29779 274.26505 276.00580 277.52087
 278.98413 280.25964 281.34146 282.27484 283.00732 283.55234 284.18134 284.77692
 285.31259 285.78961 286.20630 286.73737
 366.78100 356.34583 345.78866 334.66548 323.07931 311.28414 299.16497 286.97879
 274.70162 262.60945 250.62928 239.94110 230.07393 221.18876 213.38159 206.39442
 200.23924 195.18807 191.78090 189.83373 188.88155 188.95638 189.80221 191.12104
 192.85686 194.96269 197.23652 199.60635 202.06218 204.55300 206.65183 208.50466
 210.14149 211.29731 211.53714 211.77597 211.72380 211.43962 211.08345 210.72428
 210.35211 210.07294 209.89176 209.76659 209.70542 210.04725 210.44407 210.84390
 211.64773 212.83656 214.09738 215.89121 217.83004 219.88387 221.98970 224.08352
 226.15435 228.24918 230.35701 232.47383 234.61366 236.79649 239.06332 241.44414
 244.07597 246.33780 248.35063 250.12646 251.55428 252.68811 253.52094 253.84777
 253.89559 253.68042 253.05125 252.01008 250.62690 248.79873 246.71856 244.56239
 242.36422 240.17904 238.00987 235.85970 233.73053 231.60835 229.64518 227.81301
 226.10684 224.58966 223.23049 222.01332 220.90615 219.87697 218.99180 218.14363
 217.39646 216.58729 215.69611 215.07094 214.53177 214.32179 213.84689 214.04042
 215.62764 216.60127 217.22481 217.74385 218.71323 221.15262 225.79314 230.27640
 233.71536 237.20158 240.77632 244.62830 248.74641 252.78983 256.39923 259.40674
 262.08774 264.68723 267.39734 270.06442 272.30545 274.22089 275.93820 277.36218
 278.83295 280.13214 281.19946 282.06998 282.75760 283.41299 284.12869 284.79248
 285.38950 285.92114 286.38559 286.97745
 366.78100 356.34231 345.78161 334.65492 323.06522 311.26653 299.14384 286.95414
 274.67345 262.57775 250.59406 239.90237 230.03167 221.14298 213.33228 206.34159
 200.18290 195.12820 191.71751 189.76681 188.81112 188.88243 189.72473 191.04004
 192.77234 194.87465 197.14495 199.51126 201.96357 204.45087 206.54618 208.39548
 210.02879 211.18110 211.41740 211.65271 211.59701 211.30932 210.94963 210.58693
 210.21124 209.92854 209.74385 209.61516 209.55046 209.88877 210.28207 210.67838
 211.47869 212.66399 213.92130 215.71160 217.64691 219.69722 221.79952 223.88983
 225.95713 228.04844 230.15275 232.26605 234.40236 236.58166 238.84497 241.22228
 243.85058 246.10889 248.11819 249.89050 251.31481 252.44511 253.27442 253.59772
 253.64203 253.42334 252.79064 251.74595 250.35925 248.52756 246.44386 244.28417
 242.08248 239.89378 237.72109 235.56739 233.43470 231.30901 229.34231 227.50662
 225.79692 224.27623 222.91354 221.69284 220.58215 219.54945 218.66076 217.80907
 217.05837 216.24568 215.35098 214.72229 214.17960 214.15036 214.07425 213.96867
 215.48886 216.70146 217.36218 217.87109 218.78824 221.18523 225.81180 230.26880
 233.68599 237.14548 240.72710 244.62492 248.76668 252.80368 256.35355 259.35535
 262.04877 264.69260 267.37381 269.99982 272.27127 274.18939 275.86224 277.18744
 278.57544 279.84586 280.86429 281.69257 282.36441 282.96307 283.61130 284.37460
 285.06155 285.67328 286.20764 286.88867
 366.78100 356.34072 345.77844 334.65016 323.05887 311.25859 299.13431 286.94303
 274.66075 262.56347 250.57818 239.88490 230.01262 221.12234 213.31006 206.31778
 200.15749 195.10121 191.68893 189.73665 188.77937 188.84909 189.68981 191.00352
 192.73424 194.83496 197.10368 199.46840 201.91912 204.40483 206.49855 208.34627
 209.97799 211.12871 211.36343 211.59715 211.53986 211.25058 210.88930 210.52502
 210.14774 209.86346 209.67717 209.54689 209.48061 209.81733 210.20905 210.60377
 211.40248 212.58620 213.84192 215.63064 217.56436 219.61308 221.71380 223.80251
 225.86823 227.95795 230.06067 232.17239 234.30711 236.48482 238.74654 241.12226
 243.74898 246.00570 248.01342 249.78414 251.20685 252.33557 253.16329 253.48501
 253.52773 253.30745 252.67316 251.62688 250.23860 248.40532 246.32004 244.15876
 241.95547 239.76519 237.59091 235.43563 233.30135 231.17407 229.20579 227.36850
 225.65722 224.13494 222.77066 221.54838 220.43610 219.40181 218.51153 217.65825
 216.90597 216.09169 215.19541 214.56513 214.02084 214.06213 214.15605 214.10957
 215.40590 216.71155 217.42082 217.91574 218.79054 221.18652 225.84331 230.26660
 233.67068 237.08351 240.64987 244.58066 248.76376 252.79485 256.30508 259.32263
 262.02820 264.70621 267.36072 269.95898 272.24860 274.09540 275.68893 276.99438
 278.39590 279.67529 280.70911 281.56049 282.24490 282.80008 283.31564 283.90787
 284.57498 285.17386 285.69702 286.36374
 366.78100 356.34077 345.77854 334.65030 323.05907 311.25884 299.13461 286.94338
 274.66114 262.56391 250.57868 239.88545 230.01322 221.12298 213.31075 206.31852
 200.15829 195.10206 191.68982 189.73759 188.78036 188.85013 189.69090 191.00466
 192.73543 194.83620 197.10497 199.46974 201.92050 204.40627 206.50004 208.34781
 209.97958 211.13034 211.36511 211.59888 211.54165 211.25242 210.89118 210.52695
 210.14972 209.86549 209.67926 209.54903 209.48279 209.81956 210.21133 210.60610
 211.40487 212.58863 213.84440 215.63317 217.56694 219.61571 221.71647 223.80524
 225.87101 227.96078 230.06355 232.17531 234.31008 236.48785 238.74962 241.12539
 243.75215 246.00892 248.01669 249.78746 251.21023 252.33899 253.16676 253.48853
 253.53130 253.31107 252.67683 251.63060 250.24237 248.40914 246.32391 244.16267
 241.95944 239.76921 237.59498 235.43975 233.30551 231.17828 229.21005 227.37282
 225.66159 224.13935 222.77512 221.55289 220.44066 219.40643 218.51619 217.66296
 216.91073 216.09650 215.20027 214.57003 214.02580 214.06201 214.14752 214.22678
 215.50146 216.79170 217.42264 217.83298 218.67299 221.15021 225.85870 230.23152
 233.61203 236.95804 240.52731 244.50798 248.76152 252.77261 256.25046 259.28226
 262.02164 264.75323 267.40933 269.94788 272.16214 273.92993 275.50839 276.86511
 278.23196 279.50394 280.55084 281.40955 282.09485 282.65173 283.15875 283.65549
 284.23495 284.85083 285.38882 286.07446
 366.78100 356.34008 345.77715 334.64823 323.05631 311.25538 299.13046 286.93853
 274.65561 262.55769 250.57176 239.87784 230.00492 221.11399 213.30107 206.30815
 200.14722 195.09030 191.67737 189.72445 188.76653 188.83560 189.67568 190.98876
 192.71883 194.81891 197.08698 199.45106 201.90114 204.38621 206.47929 208.32637
 209.95744 211.10752 211.34160 211.57467 211.51675 211.22682 210.86490 210.49998
 210.12205 209.83713 209.65021 209.51928 209.45236 209.78844 210.17951 210.57359
 211.37166 212.55474 213.80982 215.59789 217.53097 219.57905 221.67912 223.76720
 225.83228 227.92135 230.02343 232.13450 234.26858 236.44566 238.70673 241.08181
 243.70789 245.96396 247.97104 249.74112 251.16319 252.29127 253.11834 253.43942
 253.48150 253.26057 252.62565 251.57873 250.18980 248.35588 246.26995 244.10803
 241.90411 239.71318 237.53826 235.38234 233.24741 231.11949 229.15057 227.31264
 225.60072 224.07779 222.71287 221.48995 220.37702 219.34210 218.45118 217.59725
 216.84433 216.02941 215.13248 214.50156 213.95663 214.04166 214.23770 214.28909
 215.46107 216.69107 217.37639 217.83789 218.73918 221.23480 225.85124 230.22324
 233.49876 236.84335 240.42613 244.46194 248.73703 252.71712 256.18472 259.21420
 262.00931 264.77493 267.46976 269.99225 272.14694 273.73688 275.27304 276.68625
 278.13361 279.38278 280.38641 281.16177 281.76590 282.29605 282.88275 283.63898
 284.39246 285.06345 285.64963 286.39664
 366.78100 356.34091 345.77883 334.65074 323.05966 311.25957 299.13549 286.94440
 274.66231 262.56523 250.58014 239.88706 230.01497 221.12489 213.31280 206.32072
 200.16063 195.10454 191.69246 189.74037 188.78329 188.85320 189.69412 191.00803
 192.73894 194.83986 197.10877 199.47369 201.92460 204.41052 206.50443 208.35235
 209.98426 211.13517 211.37009 211.60400 211.54692 211.25783 210.89675 210.53266
 210.15557 209.87149 209.68540 209.55532 209.48923 209.82615 210.21806 210.61297
 211.41189 212.59580 213.85172 215.64063 217.57455 219.62346 221.72438 223.81329
 225.87920 227.96912 230.07203 232.18395 234.31886 236.49678 238.75869 241.13460
 243.76152 246.01843 248.02635 249.79726 251.22018 252.34909 253.17701 253.49892
 253.54183 253.32175 252.68766 251.64158 250.25349 248.42041 246.33532 244.17423
 241.97115 239.78106 237.60698 235.45189 233.31781 231.19072 229.22263 227.38555
 225.67446 224.15238 222.78829 221.56621 220.45412 219.42004 218.52995 217.67686
 216.92478 216.11069 215.21461 214.58452 214.04044 214.11288 214.27451 214.43765
 215.46475 216.62601 217.43474 217.92339 218.92139 221.43408 225.91129 230.19856
 233.39114 236.73715 240.36476 244.48062 248.75290 252.68445 256.14282 259.13611
 261.98553 264.77908 267.47751 269.94824 271.98663 273.57568 275.07761 276.58920
 278.01736 279.19418 280.08539 280.85791 281.77271 282.74857 283.63892 284.44553
 285.17096 285.81696 286.38129 287.10049
 366.78100 356.34289 345.78278 334.65666 323.06755 311.26944 299.14733 286.95821
 274.67810 262.58299 250.59988 239.90876 230.03865 221.15054 213.34043 206.35031
 200.19220 195.13809 191.72798 189.77786 188.82275 188.89464 189.73753 191.05342
 192.78630 194.88919 197.16008 199.52697 201.97985 204.46774 206.56363 208.41352
 210.04740 211.20029 211.43718 211.67307 211.61795 211.33084 210.97173 210.60962
 210.23450 209.95239 209.76828 209.64017 209.57606 209.91494 210.30883 210.70572
 211.50661 212.69249 213.95038 215.74127 217.67716 219.72804 221.83093 223.92182
 225.98971 228.08159 230.18648 232.30037 234.43726 236.61715 238.88103 241.25892
 243.88781 246.14670 248.15658 249.92947 251.35436 252.48525 253.31513 253.63902
 253.68391 253.46580 252.83368 251.78957 250.40346 248.57235 246.48923 244.33012
 242.12901 239.94090 237.76879 235.61567 233.48356 231.35845 229.39234 227.55722
 225.84811 224.32800 222.96589 221.74577 220.63566 219.60355 218.71544 217.86432
 217.11421 216.30210 215.40799 214.77987 214.23776 214.24586 214.26656 214.53435
 215.60612 216.77138 217.59534 217.99791 218.92340 221.45918 225.97804 230.15782
 233.35570 236.66437 240.29044 244.44028 248.71698 252.62856 256.03180 259.04770
 261.91373 264.70938 267.41422 269.90747 271.91449 273.51712 274.96600 276.42200
 277.77960 278.91754 280.44873 281.90768 283.17029 284.28735 285.30652 286.22983
 287.06021 287.79968 288.44568 289.26892
 366.78100 356.34310 345.78319 334.65729 323.06838 311.27048 299.14858 286.95967
 274.67977 262.58486 250.60196 239.91105 230.04115 221.15325 213.34334 206.35344
 200.19553 195.14163 191.73173 189.78182 188.82692 188.89901 189.74211 191.05821
 192.79130 194.89440 197.16549 199.53259 201.98569 204.47378 206.56988 208.41997
 210.05407 211.20716 211.44426 211.68036 211.62545 211.33855 210.97964 210.61774
 210.24284 209.96093 209.77703 209.64912 209.58522 209.92432 210.31841 210.71551
 211.51660 212.70270 213.96080 215.75189 217.68799 219.73908 221.84218 223.93327
 226.00137 228.09347 230.19856 232.31266 234.44975 236.62985 238.89395 241.27204
 243.90114 246.16023 248.17033 249.94343 251.36852 252.49962 253.32971 253.65381
 253.69891 253.48100 252.84910 251.80519 250.41929 248.58838 246.50548 244.34658
 242.14567 239.95777 237.78586 235.63296 233.50106 231.37615 229.41025 227.57534
 225.86644 224.34654 222.98463 221.76473 220.65482 219.62292 218.73502 217.88411
 217.13421 216.32230 215.42840 214.80049 214.25859 214.29848 214.33542 214.52220
 215.63269 216.86600 217.71651 218.03691 218.79416 221.32372 225.97360 230.08612
 233.25470 236.61574 240.31038 244.45995 248.68993 252.58495 255.96428 258.99332
 261.87305 264.66928 267.38272 269.83728 271.77817 273.40948 274.92038 276.34689
 277.93451 279.92038 281.63882 283.14774 284.45355 285.60889 286.66296 287.61786
 288.47668 289.24149 289.90961 290.76105
 366.78100 356.34103 345.77906 334.65109 323.06012 311.26015 299.13618 286.94521
 274.66324 262.56626 250.58129 239.88832 230.01635 221.12638 213.31441 206.32244
 200.16247 195.10650 191.69453 189.74256 188.78559 188.85562 189.69665 191.01068
 192.74171 194.84274 197.11176 199.47679 201.92782 204.41385 206.50788 208.35591
 209.98794 211.13897 211.37400 211.60803 211.55106 211.26209 210.90112 210.53715
 210.16018 209.87621 209.69024 209.56026 209.49429 209.83132 210.22335 210.61838
 211.41741 212.60144 213.85747 215.64650 217.58053 219.62956 221.73059 223.81962
 225.88565 227.97568 230.07871 232.19074 234.32576 236.50379 238.76582 241.14185
 243.76888 246.02591 248.03394 249.80497 251.22800 252.35703 253.18506 253.50709
 253.55012 253.33015 252.69618 251.65021 250.26224 248.42926 246.34429 244.18332
 241.98035 239.79038 237.61641 235.46144 233.32747 231.20050 229.23253 227.39556
 225.68459 224.16262 222.79865 221.57668 220.46471 219.43074 218.54076 217.68779
 216.93582 216.12185 215.22588 214.59591 214.05194 214.22401 214.48997 214.46799
 215.45445 216.78282 217.77371 218.12442 218.83073 221.36887 226.00386 230.09430
 233.22232 236.55165 240.26894 244.48064 248.75108 252.63307 256.00955 259.06424
 261.96423 264.77631 267.50339 269.96750 271.99719 273.34628 274.83521 276.61780
 278.44943 280.48065 282.23831 283.78168 285.11734 286.29904 287.37717 288.35388
 289.23233 290.01459 290.69794 291.56882
 366.78100 356.33794 345.77287 334.64181 323.04774 311.24468 299.11761 286.92355
 274.63848 262.53842 250.55035 239.85429 229.97922 221.08616 213.27109 206.27603
 200.11296 195.05390 191.63883 189.68377 188.72370 188.79064 189.62858 190.93951
 192.66745 194.76538 197.03132 199.39325 201.84119 204.32412 206.41506 208.25999
 209.88893 211.03686 211.26880 211.49973 211.43967 211.14760 210.78354 210.41647
 210.03641 209.74934 209.56028 209.42721 209.35815 209.69209 210.08102 210.47296
 211.26889 212.44983 213.70276 215.48870 217.41963 219.46557 221.56350 223.64944
 225.71237 227.79931 229.89924 232.00818 234.14011 236.31505 238.57398 240.94692
 243.57085 245.82479 247.82973 249.59766 251.01760 252.14353 252.96847 253.28740
 253.32734 253.10427 252.46721 251.41814 250.02708 248.19101 246.10295 243.93888
 241.73282 239.53975 237.36269 235.20462 233.06756 230.93749 228.96643 227.12637
 225.41230 223.88724 222.52017 221.29511 220.18004 219.14298 218.24991 217.39385
 216.63878 215.82172 214.92265 214.28959 213.74252 214.05885 214.69849 214.55820
 215.18362 216.51828 217.58376 218.11578 219.10562 221.68805 226.00871 230.12253
 233.21501 236.49730 240.19139 244.44438 248.69801 252.53725 255.91966 259.00067
 261.91031 264.69849 267.36176 269.79330 271.85843 273.54956 275.22183 276.82224
 278.43192 279.78754 281.13388 282.42804 283.54800 284.53888 285.44290 286.26190
 286.99850 287.65442 288.22745 288.95767
 366.78100 356.33728 345.77155 334.63983 323.04510 311.24138 299.11365 286.91893
 274.63321 262.53248 250.54376 239.84703 229.97131 221.07758 213.26186 206.26614
 200.10241 195.04269 191.62696 189.67124 188.71051 188.77679 189.61407 190.92434
 192.65162 194.74889 197.01417 199.37545 201.82272 204.30500 206.39527 208.23955
 209.86782 211.01510 211.24638 211.47665 211.41593 211.12320 210.75848 210.39075
 210.01003 209.72231 209.53258 209.39886 209.32913 209.66241 210.05068 210.44196
 211.23724 212.41751 213.66979 215.45506 217.38534 219.43061 221.52789 223.61317
 225.67544 227.76172 229.86099 231.96927 234.10054 236.27482 238.53310 240.90537
 243.52865 245.78192 247.78620 249.55348 250.97275 252.09803 252.92230 253.24058
 253.27985 253.05613 252.41841 251.36868 249.97696 248.14023 246.05151 243.88678
 241.68006 239.48634 237.30861 235.14989 233.01216 230.88144 228.90971 227.06899
 225.35427 223.82854 222.46082 221.23509 220.11937 219.08164 218.18792 217.33120
 216.57547 215.75775 214.85802 214.22430 213.67657 214.00571 214.74260 214.82668
 215.17856 216.30914 217.37755 217.89841 218.90915 221.55319 225.94035 229.98247
 233.06316 236.37807 240.16974 244.41139 248.61314 252.42000 255.79617 258.88412
 261.79523 264.56204 267.17468 269.55331 271.57904 273.21677 275.10715 276.87286
 278.37332 279.73062 280.85907 281.82379 282.72937 283.65259 284.49490 285.25797
 285.94424 286.55539 287.08929 287.76965
 366.78100 356.34114 345.77928 334.65142 323.06057 311.26071 299.13685 286.94599
 274.66413 262.56727 250.58242 239.88956 230.01770 221.12784 213.31598 206.32412
 200.16426 195.10841 191.69655 189.74469 188.78783 188.85797 189.69911 191.01326
 192.74440 194.84554 197.11468 199.47982 201.93096 204.41711 206.51125 208.35939
 209.99153 211.14267 211.37781 211.61195 211.55510 211.26624 210.90538 210.54152
 210.16466 209.88080 209.69495 209.56509 209.49923 209.83637 210.22851 210.62365
 211.42279 212.60694 213.86308 215.65222 217.58636 219.63550 221.73664 223.82579
 225.89193 227.98207 230.08521 232.19735 234.33249 236.51064 238.77278 241.14892
 243.77606 246.03320 248.04134 249.81248 251.23563 252.36477 253.19291 253.51505
 253.55819 253.33833 252.70448 251.65862 250.27076 248.43790 246.35304 244.19218
 241.98932 239.79947 237.62561 235.47075 233.33689 231.21003 229.24217 227.40532
 225.69446 224.17260 222.80874 221.58688 220.47502 219.44117 218.55131 217.69845
 216.94659 216.13273 215.23687 214.60701 214.06316 214.21529 214.57597 214.89958
 215.53165 216.52257 217.37672 217.81541 218.82825 221.46747 225.85440 229.88251
 232.92393 236.23578 240.07700 244.40294 248.62154 252.39955 255.74945 258.84232
 261.76025 264.52255 267.11844 269.47949 271.52295 273.19159 274.76050 276.64471
 278.23535 279.51593 280.54584 281.53323 282.68912 283.71179 284.64481 285.49005
 286.25024 286.92722 287.51862 288.27228
 366.78100 356.34374 345.78448 334.65922 323.07096 311.27370 299.15244 286.96418
 274.68492 262.59066 250.60840 239.91813 230.04887 221.16161 213.35235 206.36309
 200.20583 195.15257 191.74331 189.79405 188.83979 188.91253 189.75627 191.07301
 192.80675 194.91049 197.18223 199.54997 202.00371 204.49245 206.58919 208.43993
 210.07466 211.22840 211.46614 211.70288 211.64862 211.36236 211.00410 210.64284
 210.26858 209.98732 209.80406 209.67680 209.61354 209.95328 210.34802 210.74576
 211.54750 212.73424 213.99298 215.78472 217.72146 219.77319 221.87693 223.96867
 226.03741 228.13015 230.23589 232.35063 234.48837 236.66911 238.93385 241.31259
 243.94233 246.20207 248.21281 249.98655 251.41229 252.54403 253.37477 253.69951
 253.74525 253.52799 252.89672 251.85346 250.46820 248.63794 246.55568 244.39742
 242.19716 240.00990 237.83864 235.68638 233.55512 231.43086 229.46560 227.63134
 225.92308 224.40382 223.04256 221.82330 220.71404 219.68278 218.79552 217.94525
 217.19599 216.38473 215.49147 214.86421 214.32295 214.39008 214.55013 214.84082
 215.65562 216.69754 217.46516 217.82344 218.81793 221.48119 225.90343 229.78781
 232.85684 236.23817 240.13193 244.43015 248.58829 252.34177 255.72969 258.85303
 261.77957 264.54340 267.13519 269.48141 271.47540 273.13049 274.67386 276.52145
 277.99783 279.47101 281.09918 282.52884 283.76608 284.86072 285.85944 286.76419
 287.57791 288.30252 288.93555 289.74225
 366.78100 356.34180 345.78061 334.65341 323.06322 311.26402 299.14083 286.95063
 274.66944 262.57324 250.58904 239.89685 230.02565 221.13646 213.32526 206.33407
 200.17487 195.11967 191.70848 189.75728 188.80109 188.87189 189.71370 191.02850
 192.76031 194.86211 197.13191 199.49772 201.94952 204.43633 206.53113 208.37994
 210.01274 211.16455 211.40035 211.63515 211.57896 211.29076 210.93057 210.56737
 210.19118 209.90798 209.72278 209.59359 209.52839 209.86620 210.25900 210.65481
 211.45461 212.63942 213.89622 215.68602 217.62083 219.67063 221.77244 223.86224
 225.92905 228.01985 230.12366 232.23646 234.37226 236.55107 238.81387 241.19068
 243.81848 246.07629 248.08509 249.85690 251.28070 252.41050 253.23931 253.56211
 253.60592 253.38672 252.75353 251.70833 250.32113 248.48894 246.40474 244.24455
 242.04235 239.85316 237.67996 235.52577 233.39257 231.26637 229.29918 227.46298
 225.75279 224.23159 222.86840 221.64720 220.53601 219.50281 218.61361 217.76142
 217.01022 216.19703 215.30183 214.67264 214.12944 214.33258 214.71367 214.77980
 215.50868 216.64807 217.48378 217.82565 218.80069 221.48007 225.97234 229.82776
 232.90344 236.30800 240.20198 244.50081 248.63715 252.35704 255.72646 258.84854
 261.77884 264.54214 267.13260 269.49063 271.50671 273.09311 274.57358 276.57660
 278.38388 280.38312 282.11914 283.64349 284.96268 286.12982 287.19464 288.15933
 289.02695 289.79956 290.47449 291.33463
 366.78100 356.34040 345.77780 334.64920 323.05760 311.25700 299.13241 286.94081
 274.65821 262.56061 250.57501 239.88141 230.00881 221.11821 213.30561 206.31301
 200.15241 195.09582 191.68322 189.73062 188.77302 188.84242 189.68282 190.99622
 192.72662 194.82702 197.09542 199.45982 201.91023 204.39563 206.48903 208.33643
 209.96783 211.11823 211.35263 211.58603 211.52843 211.23883 210.87723 210.51264
 210.13504 209.85044 209.66384 209.53324 209.46664 209.80304 210.19444 210.58884
 211.38724 212.57064 213.82604 215.61445 217.54785 219.59625 221.69665 223.78505
 225.85045 227.93985 230.04225 232.15365 234.28805 236.46545 238.72686 241.10226
 243.72866 245.98506 247.99246 249.76286 251.18526 252.31366 253.14106 253.46246
 253.50486 253.28427 252.64967 251.60307 250.21447 248.38087 246.29527 244.13367
 241.93007 239.73947 237.56487 235.40927 233.27468 231.14708 229.17848 227.34088
 225.62928 224.10668 222.74208 221.51948 220.40688 219.37228 218.48168 217.62809
 216.87549 216.06089 215.16429 214.53369 213.98909 214.27971 214.84521 214.83545
 215.40445 216.49565 217.39383 217.77420 218.84680 221.57317 226.04338 229.86179
 232.93111 236.33502 240.20892 244.49570 248.60229 252.28912 255.65625 258.79160
 261.72821 264.48795 267.06348 269.41251 271.42075 273.02939 274.53979 276.56866
 278.20508 280.01041 281.67892 283.14398 284.41187 285.53363 286.55704 287.48422
 288.31808 289.06067 289.70935 290.53604
 366.78100 356.34011 345.77721 334.64832 323.05643 311.25554 299.13064 286.93875
 274.65586 262.55797 250.57207 239.87818 230.00529 221.11440 213.30150 206.30861
 200.14772 195.09083 191.67793 189.72504 188.76715 188.83626 189.67636 190.98947
 192.71958 194.81969 197.08779 199.45190 201.90201 204.38712 206.48022 208.32733
 209.95844 211.10855 211.34265 211.57576 211.51787 211.22798 210.86608 210.50119
 210.12330 209.83841 209.65151 209.52062 209.45373 209.78984 210.18094 210.57505
 211.37316 212.55627 213.81137 215.59948 217.53259 219.58070 221.68080 223.76891
 225.83402 227.92313 230.02523 232.13634 234.27045 236.44756 238.70866 241.08377
 243.70988 245.96599 247.97309 249.74320 251.16531 252.29342 253.12052 253.44163
 253.48374 253.26285 252.62795 251.58106 250.19217 248.35828 246.27238 244.11049
 241.90660 239.71571 237.54081 235.38492 233.25003 231.12214 229.15324 227.31535
 225.60346 224.08057 222.71567 221.49278 220.37989 219.34500 218.45410 217.60021
 216.84732 216.03242 215.13553 214.50464 213.95975 214.28532 214.92734 214.88708
 215.34529 216.38876 217.35237 217.76746 218.82216 221.55627 226.03648 229.81877
 232.86140 236.26521 240.16106 244.46786 248.56007 252.23671 255.62149 258.78223
 261.73093 264.48236 267.03809 269.37625 271.37289 272.97031 274.44077 276.45477
 277.93588 279.65512 281.30194 282.74796 283.99936 285.10654 286.11667 287.03177
 287.85483 288.58774 289.22800 290.04395
 366.78100 356.34119 345.77938 334.65157 323.06076 311.26095 299.13714 286.94633
 274.66452 262.56771 250.58290 239.89009 230.01828 221.12847 213.31666 206.32485
 200.16504 195.10923 191.69742 189.74561 188.78880 188.85899 189.70018 191.01437
 192.74556 194.84675 197.11594 199.48113 201.93232 204.41851 206.51270 208.36089
 209.99308 211.14427 211.37946 211.61365 211.55684 211.26803 210.90722 210.54341
 210.16660 209.88279 209.69698 209.56717 209.50136 209.83855 210.23074 210.62593
 211.42512 212.60931 213.86550 215.65469 217.58888 219.63807 221.73926 223.82845
 225.89464 227.98483 230.08802 232.20021 234.33541 236.51360 238.77579 241.15198
 243.77917 246.03636 248.04455 249.81574 251.23893 252.36812 253.19631 253.51850
 253.56169 253.34188 252.70807 251.66226 250.27445 248.44164 246.35683 244.19602
 241.99321 239.80340 237.62959 235.47478 233.34097 231.21416 229.24635 227.40954
 225.69873 224.17692 222.81311 221.59130 220.47949 219.44568 218.55587 217.70306
 216.95125 216.13744 215.24163 214.61182 214.06801 214.35643 214.94116 214.92416
 215.27438 216.28084 217.28912 217.74704 218.82747 221.56982 226.06863 229.81783
 232.82677 236.22812 240.14955 244.48398 248.57916 252.25763 255.65993 258.83740
 261.79279 264.53894 267.08762 269.42664 271.44125 273.11731 274.36115 276.39728
 277.78262 279.38013 281.00290 282.42783 283.66098 284.75201 285.74741 286.64917
 287.46021 288.18243 288.81335 289.61740
 366.78100 356.34294 345.78287 334.65681 323.06774 311.26968 299.14762 286.95855
 274.67849 262.58342 250.60036 239.90930 230.03923 221.15117 213.34110 206.35104
 200.19298 195.13891 191.72885 189.77878 188.82372 188.89566 189.73859 191.05453
 192.78746 194.89040 197.16134 199.52827 201.98121 204.46914 206.56508 208.41502
 210.04895 211.20189 211.43882 211.67476 211.61970 211.33263 210.97357 210.61150
 210.23644 209.95438 209.77031 209.64225 209.57818 209.91712 210.31106 210.70799
 211.50893 212.69486 213.95280 215.74374 217.67967 219.73061 221.83354 223.92448
 225.99242 228.08435 230.18929 232.30322 234.44016 236.62010 238.88403 241.26197
 243.89090 246.14984 248.15978 249.93271 251.35765 252.48858 253.31852 253.64246
 253.68739 253.46933 252.83726 251.79320 250.40714 248.57607 246.49301 244.33394
 242.13288 239.94482 237.77275 235.61969 233.48762 231.36256 229.39650 227.56143
 225.85237 224.33230 222.97024 221.75018 220.64011 219.60805 218.71998 217.86892
 217.11886 216.30679 215.41273 214.78466 214.24260 214.46159 214.92313 214.95763
 215.26773 216.25436 217.21889 217.65556 218.77734 221.56798 226.03957 229.78331
 232.74980 236.14597 240.10376 244.47792 248.56781 252.23923 255.65077 258.83682
 261.79581 264.53323 267.06766 269.40744 271.49179 273.16534 274.44443 276.49722
 277.78818 279.17725 280.78268 282.21115 283.44739 284.54114 285.53903 286.44305
 287.25610 287.98013 288.61264 289.41870
 366.78100 356.34232 345.78164 334.65496 323.06528 311.26660 299.14392 286.95424
 274.67356 262.57788 250.59420 239.90252 230.03184 221.14316 213.33248 206.34180
 200.18312 195.12844 191.71776 189.76708 188.81140 188.88272 189.72504 191.04036
 192.77268 194.87500 197.14532 199.51164 201.96396 204.45128 206.54660 208.39592
 210.02924 211.18156 211.41789 211.65321 211.59753 211.30985 210.95017 210.58749
 210.21181 209.92913 209.74445 209.61577 209.55109 209.88941 210.28273 210.67905
 211.47937 212.66469 213.92201 215.71233 217.64765 219.69797 221.80029 223.89061
 225.95793 228.04925 230.15357 232.26689 234.40321 236.58253 238.84585 241.22317
 243.85149 246.10981 248.11913 249.89145 251.31577 252.44609 253.27541 253.59873
 253.64305 253.42437 252.79169 251.74701 250.36033 248.52865 246.44497 244.28529
 242.08361 239.89493 237.72225 235.56857 233.43589 231.31021 229.34353 227.50785
 225.79817 224.27749 222.91481 221.69413 220.58345 219.55077 218.66209 217.81041
 217.05973 216.24705 215.35237 214.72369 214.18102 214.45197 215.02548 214.96089
 215.10941 216.18254 217.20547 217.64339 218.78111 221.61026 226.01978 229.78526
 232.69579 236.06480 240.06006 244.47417 248.55482 252.21176 255.61588 258.79373
 261.73892 264.46176 266.99097 269.33517 271.42673 273.14517 274.58359 276.59760
 278.02094 279.08853 280.42590 281.83328 283.05127 284.12885 285.11200 286.00266
 286.80371 287.51703 288.14020 288.93436
 366.78100 356.33982 345.77664 334.64746 323.05527 311.25409 299.12891 286.93673
 274.65355 262.55537 250.56919 239.87500 230.00182 221.11064 213.29746 206.30428
 200.14310 195.08592 191.67274 189.71955 188.76137 188.83019 189.67001 190.98283
 192.71265 194.81247 197.08028 199.44410 201.89392 204.37874 206.47156 208.31838
 209.94920 211.09901 211.33283 211.56565 211.50747 211.21729 210.85511 210.48993
 210.11174 209.82656 209.63938 209.50820 209.44102 209.77684 210.16766 210.56148
 211.35929 212.54211 213.79693 215.58475 217.51757 219.56539 221.66521 223.75302
 225.81784 227.90666 230.00848 232.11930 234.25312 236.42994 238.69075 241.06557
 243.69139 245.94721 247.95403 249.72385 251.14567 252.27349 253.10030 253.42112
 253.46294 253.24176 252.60658 251.55940 250.17022 248.33603 246.24985 244.08767
 241.88349 239.69231 237.51713 235.36095 233.22576 231.09758 229.12840 227.29022
 225.57804 224.05486 222.68968 221.46649 220.35331 219.31813 218.42695 217.57277
 216.81959 216.00441 215.10723 214.47604 213.93086 214.33916 215.22633 215.06000
 214.83325 215.90184 217.01691 217.56682 218.78531 221.64444 226.05434 229.85121
 232.74792 236.12314 240.13470 244.49059 248.56526 252.21112 255.59190 258.75629
 261.68436 264.39172 266.90649 269.22916 271.30441 273.02905 274.62152 276.57721
 278.06015 278.95395 279.80127 281.04221 282.25974 283.33942 284.32446 285.21686
 286.01947 286.73419 287.35855 288.15424
 366.78100 356.33831 345.77363 334.64294 323.04926 311.24657 299.11989 286.92620
 274.64152 262.54183 250.55414 239.85846 229.98377 221.09109 213.27640 206.28172
 200.11903 195.06035 191.64566 189.69097 188.73129 188.79860 189.63692 190.94823
 192.67655 194.77486 197.04117 199.40349 201.85180 204.33512 206.42643 208.27175
 209.90106 211.04938 211.28169 211.51300 211.45332 211.16163 210.79795 210.43126
 210.05158 209.76489 209.57621 209.44352 209.37483 209.70915 210.09846 210.49078
 211.28709 212.46841 213.72172 215.50804 217.43935 219.48566 221.58398 223.67029
 225.73361 227.82092 229.92124 232.03055 234.16286 236.33818 238.59749 240.97081
 243.59512 245.84944 247.85475 249.62307 251.04338 252.16969 252.99501 253.31432
 253.35464 253.13195 252.49527 251.44658 250.05590 248.22021 246.13252 243.96884
 241.76315 239.57047 237.39378 235.23610 233.09941 230.96973 228.99904 227.15935
 225.44567 223.92098 222.55430 221.32961 220.21493 219.17824 218.28555 217.42987
 216.67518 215.85850 214.95981 214.32713 213.78044 214.28111 215.37715 215.11734
 214.71890 215.65987 216.85959 217.46858 218.72191 221.63431 226.06223 229.85585
 232.78001 236.16695 240.18405 244.52385 248.58176 252.22484 255.60654 258.75964
 261.66690 264.35706 266.86511 269.18210 271.24023 272.95065 274.46793 276.55054
 277.82721 278.70404 279.54816 280.70923 281.91019 283.01331 284.01971 284.93149
 285.75150 286.48175 287.11966 287.93262
 366.78100 356.33816 345.77332 334.64248 323.04864 311.24580 299.11897 286.92513
 274.64029 262.54045 250.55261 239.85677 229.98193 221.08909 213.27425 206.27941
 200.11657 195.05774 191.64290 189.68806 188.72822 188.79538 189.63354 190.94470
 192.67286 194.77102 197.03718 199.39934 201.84751 204.33067 206.42183 208.26699
 209.89615 211.04431 211.27647 211.50763 211.44779 211.15595 210.79211 210.42528
 210.04544 209.75860 209.56976 209.43692 209.36808 209.70224 210.09140 210.48356
 211.27972 212.46088 213.71405 215.50021 217.43137 219.47753 221.57569 223.66185
 225.72501 227.81217 229.91233 232.02149 234.15365 236.32882 238.58798 240.96114
 243.58530 245.83946 247.84462 249.61278 251.03294 252.15910 252.98426 253.30342
 253.34359 253.12075 252.48391 251.43507 250.04423 248.20839 246.12055 243.95671
 241.75087 239.55803 237.38119 235.22336 233.08652 230.95668 228.98584 227.14600
 225.43216 223.90732 222.54048 221.31564 220.20080 219.16396 218.27113 217.41529
 216.66045 215.84361 214.94477 214.31193 213.76509 214.30640 215.45412 215.07837
 214.74277 215.55009 216.85852 217.63739 218.85307 221.66792 226.09540 229.86841
 232.76273 236.14145 240.19777 244.59102 248.63657 252.21915 255.56796 258.73087
 261.65109 264.35049 266.86288 269.17532 271.23740 272.95981 274.43607 276.25955
 277.64975 278.58926 279.56674 280.93140 282.19275 283.30869 284.32684 285.24921
 286.07877 286.81750 287.46286 288.28528
 366.78100 356.33926 345.77551 334.64577 323.05302 311.25128 299.12554 286.93279
 274.64905 262.55030 250.56356 239.86882 229.99507 221.10333 213.28958 206.29584
 200.13410 195.07635 191.66261 189.70886 188.75012 188.81838 189.65763 190.96989
 192.69914 194.79840 197.06566 199.42891 201.87817 204.36242 206.45468 208.30094
 209.93119 211.08045 211.31371 211.54596 211.48722 211.19647 210.83373 210.46799
 210.08924 209.80350 209.61575 209.48401 209.41627 209.75152 210.14178 210.53503
 211.33229 212.51455 213.76880 215.55606 217.48831 219.53557 221.63483 223.72208
 225.78634 227.87459 229.97585 232.08611 234.21936 236.39562 238.65587 241.03013
 243.65539 245.91064 247.91690 249.68615 251.10741 252.23467 253.06092 253.38118
 253.42243 253.20069 252.56495 251.51720 250.12746 248.29271 246.20597 244.04323
 241.83848 239.64674 237.47099 235.31425 233.17851 231.04976 229.08002 227.24127
 225.52853 224.00479 222.63904 221.41530 220.30156 219.26581 218.37407 217.51932
 216.76558 215.94984 215.05209 214.42035 213.87460 214.40251 215.46997 215.15614
 214.67960 215.58945 216.87538 217.63982 218.75281 221.60225 226.16829 229.81503
 232.73445 236.15532 240.20135 244.53659 248.60204 252.26718 255.64825 258.78912
 261.67346 264.34531 266.83969 269.11792 271.15521 272.91757 274.44257 276.01379
 277.48965 279.41962 281.11664 282.60675 283.89633 285.03726 286.07819 287.02121
 287.86932 288.62460 289.28439 290.12521
 366.78100 356.34170 345.78041 334.65311 323.06281 311.26351 299.14022 286.94992
 274.66862 262.57233 250.58803 239.89573 230.02444 221.13514 213.32384 206.33254
 200.17325 195.11795 191.70665 189.75536 188.79906 188.86976 189.71146 191.02617
 192.75787 194.85957 197.12928 199.49498 201.94668 204.43339 206.52809 208.37679
 210.00949 211.16120 211.39690 211.63160 211.57531 211.28701 210.92671 210.56341
 210.18712 209.90382 209.71852 209.58923 209.52393 209.86163 210.25433 210.65004
 211.44974 212.63444 213.89115 215.68085 217.61555 219.66526 221.76696 223.85666
 225.92336 228.01407 230.11777 232.23047 234.36618 236.54488 238.80758 241.18428
 243.81199 246.06969 248.07839 249.85010 251.27380 252.40350 253.23221 253.55491
 253.59861 253.37931 252.74602 251.70072 250.31342 248.48113 246.39683 244.23653
 242.03423 239.84494 237.67164 235.51734 233.38405 231.25775 229.29045 227.45416
 225.74386 224.22256 222.85926 221.63797 220.52667 219.49337 218.60408 217.75178
 217.00048 216.18718 215.29189 214.66259 214.11929 214.55031 215.49745 215.26564
 214.46182 215.19803 216.45425 217.43748 218.87675 221.74950 226.26013 229.95085
 232.81958 236.23459 240.31154 244.63419 248.71133 252.42915 255.85205 258.98419
 261.82916 264.46344 266.91837 269.15479 271.09671 272.87344 274.57776 276.86865
 279.11047 281.03204 282.69485 284.15494 285.41849 286.53641 287.55637 288.48038
 289.31140 290.05145 290.69791 291.52179
 366.78100 356.34291 345.78282 334.65674 323.06765 311.26956 299.14747 286.95839
 274.67830 262.58321 250.60012 239.90904 230.03895 221.15086 213.34077 206.35069
 200.19260 195.13851 191.72842 189.77834 188.82325 188.89516 189.73807 191.05399
 192.78690 194.88981 197.16072 199.52764 201.98055 204.46846 206.56437 208.41429
 210.04820 211.20111 211.43802 211.67394 211.61885 211.33176 210.97267 210.61059
 210.23550 209.95341 209.76932 209.64124 209.57715 209.91606 210.30997 210.70689
 211.50780 212.69371 213.95162 215.74254 217.67845 219.72936 221.83227 223.92319
 225.99110 228.08301 230.18792 232.30184 234.43875 236.61866 238.88257 241.26049
 243.88940 246.14831 248.15822 249.93114 251.35605 252.48696 253.31687 253.64079
 253.68570 253.46761 252.83552 251.79144 250.40535 248.57426 246.49117 244.33209
 242.13100 239.94291 237.77082 235.61774 233.48565 231.36056 229.39447 227.55939
 225.85030 224.33021 222.96812 221.74804 220.63795 219.60586 218.71777 217.86669
 217.11660 216.30451 215.41042 214.78234 214.24025 214.63013 215.52211 215.47635
 214.46989 214.78157 216.02353 217.08540 218.80734 221.88835 226.42990 230.14313
 232.99596 236.37285 240.41739 244.75322 248.85460 252.56389 255.96310 259.07230
 261.91266 264.55383 267.02420 269.24426 271.23846 273.01721 274.74905 277.56512
 280.12112 282.31198 284.20782 285.87253 287.31317 288.58777 289.75067 290.80414
 291.75165 292.59540 293.33249 294.27182
 366.78100 356.34333 345.78367 334.65800 323.06933 311.27167 299.15000 286.96133
 274.68167 262.58700 250.60433 239.91366 230.04400 221.15633 213.34666 206.35700
 200.19933 195.14566 191.73600 189.78633 188.83166 188.90400 189.74733 191.06366
 192.79700 194.90033 197.17166 199.53900 201.99233 204.48066 206.57700 208.42733
 210.06166 211.21499 211.45233 211.68866 211.63399 211.34733 210.98866 210.62699
 210.25233 209.97066 209.78699 209.65933 209.59566 209.93499 210.32933 210.72666
 211.52799 212.71433 213.97266 215.76399 217.70033 219.75166 221.85499 223.94632
 226.01466 228.10699 230.21232 232.32666 234.46399 236.64432 238.90866 241.28699
 243.91632 246.17566 248.18599 249.95932 251.38466 252.51599 253.34632 253.67066
 253.71599 253.49832 252.86666 251.82299 250.43732 248.60665 246.52399 244.36532
 242.16465 239.97699 237.80532 235.65265 233.52099 231.39632 229.43065 227.59599
 225.88732 224.36765 223.00599 221.78632 220.67665 219.64499 218.75732 217.90665
 217.15699 216.34532 215.45165 214.82398 214.28232 214.67242 215.56241 215.60454
 214.61386 214.75470 215.85272 216.78850 218.63876 221.83775 226.38651 230.10313
 232.95613 236.32588 240.40135 244.76430 248.84824 252.50645 255.87473 258.97614
 261.81558 264.46793 266.95789 269.14542 271.22653 273.00491 274.77438 277.08646
 279.52899 281.62262 283.43433 285.02512 286.40182 287.61984 288.73111 289.73782
 290.64328 291.44958 292.15393 293.05157
 366.78100 356.34420 345.78540 334.66060 323.07280 311.27600 299.15520 286.96740
 274.68860 262.59480 250.61300 239.92320 230.05439 221.16759 213.35879 206.36999
 200.21319 195.16039 191.75159 189.80279 188.84899 188.92219 189.76639 191.08359
 192.81779 194.92199 197.19419 199.56239 202.01659 204.50579 206.60299 208.45419
 210.08939 211.24359 211.48179 211.71899 211.66518 211.37938 211.02158 210.66078
 210.28698 210.00618 209.82338 209.69658 209.63378 209.97398 210.36918 210.76738
 211.56958 212.75678 214.01598 215.80818 217.74538 219.79758 221.90178 223.99398
 226.06318 228.15638 230.26258 232.37777 234.51597 236.69717 238.96237 241.34157
 243.97177 246.23197 248.24317 250.01737 251.44357 252.57577 253.40697 253.73217
 253.77837 253.56157 252.93077 251.88797 250.50317 248.67337 246.59157 244.43377
 242.23397 240.04717 237.87637 235.72456 233.59376 231.46996 229.50516 227.67136
 225.96356 224.44476 223.08396 221.86516 220.75636 219.72556 218.83876 217.98896
 217.24016 216.42936 215.53656 214.90976 214.36896 214.73868 215.61516 215.70856
 214.46706 214.50220 215.75105 216.66324 218.54939 221.78036 226.36143 230.05476
 232.92914 236.36282 240.44362 244.79889 248.90965 252.61401 256.01984 259.13928
 261.98843 264.62570 267.07977 269.22110 271.20367 273.13690 274.82806 276.12509
 277.25085 278.21582 279.05084 279.78406 280.41858 280.97995 281.49216 281.95615
 282.37347 282.74509 283.06973 283.48346
 366.78100 356.34400 345.78501 334.66001 323.07202 311.27502 299.15402 286.96603
 274.68703 262.59303 250.61104 239.92104 230.05205 221.16505 213.35605 206.36706
 200.21006 195.15706 191.74807 189.79907 188.84508 188.91808 189.76208 191.07909
 192.81309 194.91710 197.18910 199.55710 202.01111 204.50011 206.59711 208.44812
 210.08312 211.23713 211.47513 211.71213 211.65814 211.37214 211.01414 210.65315
 210.27915 209.99816 209.81516 209.68816 209.62517 209.96517 210.36018 210.75818
 211.56018 212.74719 214.00619 215.79819 217.73520 219.78720 221.89121 223.98321
 226.05221 228.14522 230.25122 232.36622 234.50423 236.68523 238.95024 241.32924
 243.95924 246.21925 248.23025 250.00425 251.43026 252.56226 253.39327 253.71827
 253.76427 253.54728 252.91628 251.87329 250.48829 248.65829 246.57630 244.41830
 242.21830 240.03131 237.86031 235.70832 233.57732 231.45332 229.48833 227.65433
 225.94633 224.42734 223.06634 221.84735 220.73835 219.70735 218.82036 217.97036
 217.22137 216.41037 215.51737 214.89038 214.34938 214.75090 215.65932 215.76709
 214.52843 214.32701 215.53030 216.46764 218.45779 221.77667 226.36029 230.06924
 232.94281 236.39493 240.52000 244.92285 249.05544 252.78206 256.21713 259.39319
 262.29749 265.01193 267.53061 269.71924 271.59464 273.34106 274.91040 277.63449
 280.47095 282.90219 285.00604 286.85339 288.45209 289.86655 291.15701 292.32611
 293.37756 294.31387 295.13184 296.17422
 366.78100 356.34354 345.78408 334.65862 323.07017 311.27271 299.15125 286.96279
 274.68333 262.58887 250.60641 239.91595 230.04650 221.15904 213.34958 206.36012
 200.20266 195.14920 191.73974 189.79028 188.83583 188.90837 189.75191 191.06845
 192.80199 194.90553 197.17707 199.54462 201.99816 204.48670 206.58324 208.43378
 210.06832 211.22186 211.45940 211.69595 211.64149 211.35503 210.99657 210.63511
 210.26065 209.97919 209.79574 209.66828 209.60482 209.94436 210.33890 210.73644
 211.53798 212.72452 213.98307 215.77461 217.71115 219.76269 221.86623 223.95777
 226.02631 228.11885 230.22440 232.33894 234.47648 236.65702 238.92156 241.30010
 243.92964 246.18919 248.19973 249.97327 251.39881 252.53035 253.36089 253.68543
 253.73097 253.51352 252.88206 251.83860 250.45314 248.62268 246.54022 244.38176
 242.18130 239.99385 237.82239 235.66993 233.53847 231.41401 229.44855 227.61409
 225.90564 224.38618 223.02472 221.80526 220.69580 219.66434 218.77688 217.92642
 217.17697 216.36551 215.47205 214.84459 214.30313 214.73946 215.70151 215.77895
 214.76907 214.41096 215.27971 216.16269 218.25821 221.78171 226.23755 230.04359
 232.96547 236.47830 240.56761 244.91734 249.01921 252.68904 256.06473 259.22046
 262.15875 264.94025 267.52994 269.82047 271.85068 273.73257 275.26410 277.24142
 279.79068 282.23895 284.35754 286.21783 287.82776 289.25214 290.55164 291.72891
 292.78772 293.73062 294.55432 295.60400
 366.78100 356.34387 345.78475 334.65962 323.07149 311.27436 299.15324 286.96511
 274.68598 262.59186 250.60973 239.91960 230.05047 221.16335 213.35422 206.36509
 200.20797 195.15484 191.74571 189.79658 188.84246 188.91533 189.75920 191.07608
 192.80995 194.91382 197.18569 199.55357 202.00744 204.49631 206.59319 208.44406
 210.07893 211.23281 211.47068 211.70755 211.65342 211.36730 211.00917 210.64804
 210.27392 209.99279 209.80966 209.68253 209.61941 209.95928 210.35415 210.75203
 211.55390 212.74077 213.99964 215.79152 217.72839 219.78026 221.88414 223.97601
 226.04488 228.13775 230.24363 232.35850 234.49637 236.67725 238.94212 241.32099
 243.95086 246.21074 248.22161 249.99548 251.42136 252.55323 253.38410 253.70897
 253.75485 253.53772 252.90659 251.86347 250.47834 248.64821 246.56608 244.40796
 242.20783 240.02070 237.84958 235.69745 233.56632 231.44220 229.47707 227.64294
 225.93481 224.41569 223.05456 221.83543 220.72631 219.69518 218.80805 217.95792
 217.20880 216.39767 215.50454 214.87742 214.33629 214.76654 215.73289 215.82860
 214.83098 214.47238 215.12978 215.95473 218.10435 221.77493 226.19476 230.01822
 232.93036 236.46281 240.57265 244.92264 249.01186 252.67624 256.01978 259.12891
 262.02170 264.77060 267.33722 269.60040 271.67139 273.66202 275.33203 277.22403
 279.47864 281.71332 283.64706 285.34503 286.81445 288.11453 289.30066 290.37521
 291.34167 292.20227 292.95410 293.91220
 366.78100 356.34453 345.78606 334.66158 323.07411 311.27764 299.15717 286.96970
 274.69122 262.59775 250.61628 239.92681 230.05834 221.17187 213.36339 206.37492
 200.21845 195.16598 191.75751 189.80903 188.85556 188.92909 189.77362 191.09115
 192.82567 194.93020 197.20273 199.57126 202.02579 204.51531 206.61284 208.46437
 210.09990 211.25443 211.49296 211.73048 211.67701 211.39154 211.03407 210.67360
 210.30012 210.01965 209.83718 209.71071 209.64824 209.98876 210.38429 210.78282
 211.58535 212.77288 214.03240 215.82493 217.76246 219.81499 221.91952 224.01205
 226.08157 228.17510 230.28163 232.39716 234.53569 236.71721 238.98274 241.36227
 243.99280 246.25333 248.26485 250.03938 251.46591 252.59844 253.42997 253.75549
 253.80202 253.58555 252.95508 251.91261 250.52814 248.69866 246.61719 244.45972
 242.26025 240.07378 237.90330 235.75183 233.62136 231.49789 229.53342 227.69994
 225.99247 224.47400 223.11353 221.89506 220.78658 219.75611 218.86964 218.02017
 217.27170 216.46123 215.56875 214.94228 214.40181 214.81154 215.74857 215.88570
 214.86449 214.42178 214.93201 215.77356 217.98228 221.74178 226.19836 230.02617
 232.94621 236.50539 240.64127 245.01358 249.12607 252.81754 256.16687 259.25696
 262.10925 264.81915 267.37204 269.59409 271.65518 273.68686 275.37912 277.27246
 279.46213 281.64337 283.53088 285.18826 286.62256 287.89157 289.04935 290.09821
 291.04153 291.88159 292.61542 293.55063
 366.78100 356.34455 345.78611 334.66166 323.07421 311.27776 299.15732 286.96987
 274.69142 262.59798 250.61653 239.92708 230.05863 221.17219 213.36374 206.37529
 200.21885 195.16640 191.75795 189.80950 188.85606 188.92961 189.77416 191.09171
 192.82627 194.93082 197.20337 199.57193 202.02648 204.51603 206.61358 208.46514
 210.10069 211.25524 211.49380 211.73135 211.67790 211.39245 211.03501 210.67456
 210.30111 210.02067 209.83822 209.71177 209.64932 209.98988 210.38543 210.78398
 211.58654 212.77409 214.03364 215.82619 217.76375 219.81630 221.92085 224.01340
 226.08296 228.17651 230.28306 232.39862 234.53717 236.71872 238.98427 241.36383
 243.99438 246.25493 248.26649 250.04104 251.46759 252.60014 253.43170 253.75725
 253.80380 253.58736 252.95691 251.91446 250.53001 248.70057 246.61912 244.46167
 242.26223 240.07578 237.90533 235.75388 233.62344 231.49999 229.53554 227.70210
 225.99465 224.47620 223.11575 221.89731 220.78886 219.75841 218.87196 218.02252
 217.27407 216.46362 215.57118 214.94473 214.40428 214.82526 215.77872 215.92415
 214.94366 214.39296 214.76830 215.61807 217.87091 221.67952 226.14104 229.99034
 232.93582 236.53801 240.69926 245.08195 249.20717 252.91185 256.26111 259.32657
 262.15552 264.85464 267.41245 269.62350 271.68176 273.68613 275.41995 277.25705
 279.36469 281.48392 283.35089 284.99023 286.40894 287.66409 288.80927 289.84671
 290.77979 291.61066 292.33652 293.26154
 366.78100 356.34493 345.78686 334.66278 323.07571 311.27964 299.15957 286.97250
 274.69443 262.60135 250.62028 239.93121 230.06314 221.17707 213.36899 206.38092
 200.22485 195.17278 191.76471 189.81664 188.86356 188.93749 189.78242 191.10035
 192.83528 194.94020 197.21313 199.58206 202.03699 204.52692 206.62485 208.47677
 210.11270 211.26763 211.50656 211.74449 211.69141 211.40634 211.04927 210.68920
 210.31613 210.03606 209.85398 209.72791 209.66584 210.00677 210.40270 210.80162
 211.60455 212.79248 214.05241 215.84534 217.78327 219.83619 221.94112 224.03405
 226.10398 228.19791 230.30483 232.42076 234.55969 236.74162 239.00755 241.38748
 244.01840 246.27933 248.29126 250.06619 251.49312 252.62604 253.45797 253.78390
 253.83083 253.61476 252.98469 251.94261 250.55854 248.72947 246.64840 244.49133
 242.29225 240.10618 237.93611 235.78504 233.65497 231.53190 229.56782 227.73475
 226.02768 224.50961 223.14954 221.93146 220.82339 219.79332 218.90725 218.05818
 217.31011 216.50003 215.60796 214.98189 214.44182 214.85287 215.79581 215.99661
 215.01186 214.35518 214.65746 215.49243 217.74490 221.59886 226.08337 229.92670
 232.89703 236.54399 240.74295 245.14943 249.28830 252.99571 256.33163 259.37207
 262.17947 264.86600 267.42514 269.57855 271.61536 273.64551 275.29776 277.16565
 279.30685 281.52020 283.47568 285.19272 286.67865 287.99335 289.19278 290.27939
 291.25668 292.12698 292.88724 293.85611
 366.78100 356.34661 345.79023 334.66784 323.08245 311.28806 299.16968 286.98429
 274.70790 262.61652 250.63713 239.94974 230.08335 221.19897 213.39258 206.40619
 200.25181 195.20142 191.79503 189.84865 188.89726 188.97287 189.81948 191.13910
 192.87571 194.98232 197.25694 199.62755 202.08416 204.57577 206.67539 208.52900
 210.16661 211.32323 211.56384 211.80345 211.75206 211.46868 211.11329 210.75490
 210.38352 210.10513 209.92474 209.80035 209.73997 210.08258 210.48019 210.88081
 211.68542 212.87503 214.13665 215.93126 217.87087 219.92548 222.03210 224.12671
 226.19832 228.29394 230.40255 232.52016 234.66077 236.84439 239.11200 241.49361
 244.12623 246.38884 248.40245 250.17906 251.60768 252.74229 253.57590 253.90352
 253.95213 253.73774 253.10935 252.06897 250.68658 248.85919 246.77981 244.62442
 242.42703 240.24265 238.07426 235.92487 233.79648 231.67510 229.71271 227.88132
 226.17594 224.65955 223.30116 222.08477 220.97839 219.95000 219.06561 218.21823
 217.47184 216.66345 215.77306 215.14868 214.61029 214.94666 215.76419 216.07950
 215.10562 214.28712 214.44548 215.32214 217.65817 221.44637 226.03351 229.80910
 232.85982 236.56761 240.81248 245.24747 249.42905 253.17944 256.53375 259.57477
 262.35815 265.01065 267.53482 269.68942 271.66318 273.58929 275.33096 277.17303
 279.61911 281.91315 283.89825 285.64133 287.14981 288.48441 289.70206 290.80515
 291.79724 292.68073 293.45251 294.43607
 366.78100 356.34750 345.79200 334.67050 323.08601 311.29251 299.17501 286.99051
 274.71501 262.62451 250.64601 239.95952 230.09402 221.21052 213.40502 206.41952
 200.26602 195.21652 191.81103 189.86553 188.91503 188.99153 189.83903 191.15953
 192.89703 195.00454 197.28004 199.65154 202.10904 204.60154 206.70204 208.55654
 210.19505 211.35255 211.59405 211.83455 211.78405 211.50155 211.14705 210.78956
 210.41906 210.14156 209.96206 209.83856 209.77906 210.12256 210.52107 210.92257
 211.72807 212.91857 214.18107 215.97657 217.91707 219.97258 222.08008 224.17558
 226.24808 228.34458 230.45408 232.57258 234.71409 236.89859 239.16709 241.54959
 244.18309 246.44659 248.46109 250.23860 251.66810 252.80360 253.63810 253.96660
 254.01610 253.80260 253.17511 252.13561 250.75411 248.92761 246.84911 244.69461
 242.49811 240.31462 238.14712 235.99862 233.87112 231.75062 229.78912 227.95862
 226.25413 224.73863 223.38113 222.16563 221.06013 220.03263 219.14913 218.30264
 217.55714 216.74964 215.86014 215.23664 214.69914 215.00784 215.74721 216.09169
 215.26505 214.26317 214.22240 215.15074 217.52203 221.27528 225.89989 229.65349
 232.75345 236.54063 240.86185 245.37360 249.59096 253.40999 256.84219 259.93597
 262.73682 265.36707 267.88089 270.05286 271.96735 273.76605 275.36761 277.45352
 280.18134 282.51947 284.54276 286.31934 287.85681 289.21710 290.45813 291.58243
 292.59363 293.49408 294.28073 295.28317
 366.78100 356.34642 345.78984 334.66726 323.08168 311.28710 299.16852 286.98294
 274.70636 262.61478 250.63520 239.94762 230.08103 221.19645 213.38987 206.40329
 200.24871 195.19813 191.79155 189.84497 188.89339 188.96881 189.81523 191.13465
 192.87107 194.97749 197.25191 199.62233 202.07875 204.57017 206.66959 208.52301
 210.16043 211.31685 211.55727 211.79669 211.74510 211.46152 211.10594 210.74736
 210.37578 210.09720 209.91662 209.79204 209.73146 210.07388 210.47130 210.87172
 211.67614 212.86556 214.12698 215.92140 217.86082 219.91524 222.02166 224.11608
 226.18750 228.28292 230.39134 232.50876 234.64917 236.83259 239.10001 241.48143
 244.11385 246.37627 248.38969 250.16611 251.59453 252.72895 253.56237 253.88979
 253.93821 253.72363 253.09505 252.05447 250.67189 248.84431 246.76473 244.60915
 242.41157 240.22699 238.05841 235.90882 233.78024 231.65866 229.69608 227.86450
 226.15892 224.64234 223.28376 222.06718 220.96060 219.93202 219.04744 218.19986
 217.45328 216.64470 215.75412 215.12954 214.59096 214.96265 215.77592 216.03519
 215.51831 214.47957 214.15331 214.85399 217.28453 221.15871 225.67566 229.49196
 232.64003 236.50327 240.87901 245.38942 249.62051 253.44452 256.86713 259.99045
 262.86041 265.56854 268.17322 270.48148 272.48941 274.36472 275.69812 277.54114
 279.91885 282.21509 284.20212 285.94690 287.45682 288.79272 290.01154 291.11569
 292.10876 292.99310 293.76566 294.75015
 366.78100 356.34636 345.78972 334.66709 323.08145 311.28681 299.16817 286.98253
 274.70590 262.61426 250.63462 239.94698 230.08034 221.19570 213.38907 206.40243
 200.24779 195.19715 191.79051 189.84388 188.89224 188.96760 189.81396 191.13332
 192.86969 194.97605 197.25041 199.62077 202.07713 204.56850 206.66786 208.52122
 210.15858 211.31494 211.55530 211.79467 211.74303 211.45939 211.10375 210.74511
 210.37348 210.09484 209.91420 209.78956 209.72892 210.07129 210.46865 210.86901
 211.67337 212.86273 214.12409 215.91846 217.85782 219.91218 222.01854 224.11290
 226.18427 228.27963 230.38799 232.50535 234.64571 236.82908 239.09644 241.47780
 244.11016 246.37252 248.38589 250.16225 251.59061 252.72497 253.55833 253.88569
 253.93406 253.71942 253.09078 252.05014 250.66750 248.83987 246.76023 244.60459
 242.40695 240.22231 238.05368 235.90404 233.77540 231.65376 229.69112 227.85949
 226.15385 224.63721 223.27857 222.06193 220.95529 219.92666 219.04202 218.19438
 217.44774 216.63910 215.74847 215.12383 214.58519 214.95172 215.76239 216.02509
 215.73268 214.72687 214.20015 214.86018 217.18907 221.03923 225.39937 229.31955
 232.47618 236.41121 240.83249 245.33342 249.53073 253.29964 256.69672 259.81241
 262.71411 265.48074 268.13544 270.55414 272.68225 274.63943 276.30469 277.48328
 279.44400 281.36853 283.22729 284.85944 286.27191 287.52161 288.66174 289.69464
 290.62360 291.45087 292.17352 293.09448
 366.78100 356.34721 345.79142 334.66963 323.08484 311.29105 299.17325 286.98846
 274.71267 262.62188 250.64309 239.95630 230.09051 221.20672 213.40093 206.41514
 200.26135 195.21155 191.80576 189.85997 188.90918 188.98539 189.83260 191.15281
 192.89002 194.99723 197.27244 199.64364 202.10085 204.59306 206.69327 208.54748
 210.18569 211.34290 211.58411 211.82432 211.77353 211.49074 211.13594 210.77815
 210.40736 210.12957 209.94978 209.82599 209.76620 210.10941 210.50762 210.90883
 211.71404 212.90424 214.16645 215.96166 217.90187 219.95708 222.06429 224.15950
 226.23171 228.32792 230.43713 232.55533 234.69654 236.88075 239.14896 241.53117
 244.16438 246.42759 248.44180 250.21901 251.64822 252.78343 253.61763 253.94584
 253.99505 253.78126 253.15347 252.11368 250.73189 248.90510 246.82631 244.67152
 242.47473 240.29093 238.12314 235.97435 233.84656 231.72577 229.76398 227.93319
 226.22840 224.71261 223.35482 222.13903 221.03323 220.00544 219.12165 218.27486
 217.52907 216.72128 215.83149 215.20770 214.66991 214.99088 215.71155 215.98973
 215.85135 214.96989 214.30495 214.75752 217.05260 220.85149 225.21082 229.13324
 232.30197 236.32776 240.82355 245.36565 249.57991 253.34894 256.73544 259.83322
 262.71204 265.45837 268.12573 270.57858 272.77798 274.78372 276.54050 277.82382
 279.26584 281.03152 282.78625 284.39618 285.78940 287.02206 288.14667 289.16550
 290.08182 290.89780 291.61063 292.51904
 366.78100 356.34714 345.79128 334.66942 323.08456 311.29070 299.17284 286.98798
 274.71211 262.62125 250.64239 239.95553 230.08967 221.20581 213.39995 206.41409
 200.26023 195.21037 191.80451 189.85865 188.90779 188.98393 189.83107 191.15120
 192.88834 194.99548 197.27062 199.64176 202.09890 204.59104 206.69118 208.54532
 210.18346 211.34060 211.58174 211.82188 211.77102 211.48816 211.13329 210.77543
 210.40457 210.12671 209.94685 209.82299 209.76313 210.10627 210.50441 210.90555
 211.71069 212.90083 214.16297 215.95811 217.89825 219.95338 222.06052 224.15566
 226.22780 228.32394 230.43308 232.55122 234.69236 236.87650 239.14464 241.52678
 244.15992 246.42306 248.43720 250.21434 251.64347 252.77861 253.61275 253.94089
 253.99003 253.77617 253.14831 252.10845 250.72659 248.89973 246.82087 244.66601
 242.46915 240.28529 238.11743 235.96856 233.84070 231.71984 229.75798 227.92712
 226.22226 224.70640 223.34854 222.13268 221.02682 219.99896 219.11510 218.26824
 217.52238 216.71452 215.82465 215.20079 214.66293 214.98557 215.70293 215.89108
 215.84445 215.15468 214.48677 214.76208 216.96939 220.71927 225.09254 228.98370
 232.18555 236.28304 240.85458 245.42017 249.62758 253.36844 256.72601 259.80286
 262.67722 265.43326 268.10217 270.58826 272.87692 274.96960 276.77618 278.14639
 279.27667 280.87292 282.43799 283.99753 285.36502 286.57492 287.67874 288.67874
 289.57812 290.37906 291.07870 291.97034
 366.78100 356.34723 345.79145 334.66968 323.08490 311.29113 299.17335 286.98858
 274.71280 262.62203 250.64325 239.95648 230.09070 221.20693 213.40115 206.41538
 200.26160 195.21183 191.80605 189.86028 188.90950 188.98573 189.83296 191.15318
 192.89041 194.99763 197.27286 199.64408 202.10131 204.59353 206.69376 208.54798
 210.18621 211.34343 211.58466 211.82488 211.77411 211.49133 211.13656 210.77878
 210.40801 210.13023 209.95046 209.82669 209.76691 210.11014 210.50836 210.90959
 211.71481 212.90504 214.16726 215.96249 217.90271 219.95794 222.06516 224.16039
 226.23261 228.32884 230.43806 232.55629 234.69751 236.88174 239.14996 241.53219
 244.16542 246.42864 248.44287 250.22009 251.64932 252.78454 253.61877 253.94699
 253.99622 253.78244 253.15467 252.11489 250.73312 248.90634 246.82757 244.67279
 242.47602 240.29224 238.12447 235.97569 233.84792 231.72715 229.76537 227.93460
 226.22982 224.71405 223.35627 222.14050 221.03472 220.00695 219.12317 218.27640
 217.53062 216.72285 215.83307 215.20930 214.67152 214.97968 215.67987 215.88020
 215.80353 215.17812 214.59352 214.78442 216.88165 220.60600 225.03230 228.86139
 232.17725 236.29884 240.88676 245.43079 249.61258 253.32089 256.64001 259.70587
 262.58044 265.33881 267.99768 270.48502 272.78482 274.87186 276.66000 278.10495
 279.31613 280.69958 282.14148 283.45755 284.69589 285.81491 286.83582 287.76071
 288.59256 289.33331 289.98041 290.80508
 366.78100 356.34702 345.79104 334.66907 323.08409 311.29011 299.17213 286.98716
 274.71118 262.62020 250.64122 239.95424 230.08827 221.20429 213.39831 206.41233
 200.25835 195.20838 191.80240 189.85642 188.90544 188.98147 189.82849 191.14851
 192.88553 194.99255 197.26758 199.63860 202.09562 204.58764 206.68766 208.54169
 210.17971 211.33673 211.57775 211.81778 211.76680 211.48382 211.12884 210.77086
 210.39989 210.12191 209.94193 209.81795 209.75797 210.10100 210.49902 210.90004
 211.70506 212.89509 214.15711 215.95213 217.89215 219.94717 222.05420 224.14922
 226.22124 228.31726 230.42628 232.54431 234.68533 236.86935 239.13737 241.51940
 244.15242 246.41544 248.42946 250.20648 251.63551 252.77053 253.60455 253.93257
 253.98159 253.76762 253.13964 252.09966 250.71768 248.89071 246.81173 244.65675
 242.45977 240.27579 238.10782 235.95884 233.83086 231.70988 229.74790 227.91693
 226.21195 224.69597 223.33799 222.12202 221.01604 219.98806 219.10408 218.25710
 217.51113 216.70315 215.81317 215.18919 214.65121 214.95868 215.66585 215.88896
 215.79950 215.16159 214.58154 214.70099 216.74860 220.49648 224.96861 228.73077
 232.13176 236.29448 240.93359 245.48274 249.64809 253.34047 256.65070 259.72766
 262.60782 265.37335 268.03323 270.50909 272.78052 274.81821 276.55066 277.95197
 279.16162 280.38623 281.58185 282.70459 283.82663 284.89450 285.87546 286.76410
 287.56335 288.27509 288.89685 289.68921
 366.78100 356.34685 345.79070 334.66855 323.08339 311.28924 299.17109 286.98594
 274.70979 262.61864 250.63949 239.95233 230.08618 221.20203 213.39588 206.40973
 200.25558 195.20542 191.79927 189.85312 188.90197 188.97782 189.82467 191.14452
 192.88136 194.98821 197.26306 199.63391 202.09076 204.58261 206.68246 208.53630
 210.17415 211.33100 211.57185 211.81170 211.76055 211.47739 211.12224 210.76409
 210.39294 210.11479 209.93464 209.81049 209.75033 210.09318 210.49103 210.89188
 211.69673 212.88658 214.14843 215.94327 217.88312 219.93797 222.04482 224.13967
 226.21152 228.30736 230.41621 232.53406 234.67491 236.85876 239.12661 241.50846
 244.14130 246.40415 248.41800 250.19485 251.62370 252.75855 253.59240 253.92024
 253.96909 253.75494 253.12679 252.08664 250.70449 248.87733 246.79818 244.64303
 242.44588 240.26173 238.09358 235.94443 233.81627 231.69512 229.73297 227.90182
 226.19667 224.68052 223.32237 222.10621 221.00006 219.97191 219.08776 218.24061
 217.49446 216.68630 215.79615 215.17200 214.63385 214.93398 215.63507 215.94247
 215.77928 215.07426 214.49208 214.58670 216.61967 220.40714 224.95413 228.62367
 232.10152 236.29013 240.97931 245.54143 249.69183 253.36780 256.66800 259.74783
 262.65601 265.45047 268.12747 270.61020 272.86218 274.85480 276.53094 277.92285
 279.14169 280.25214 281.29352 282.25552 283.05707 283.97174 284.94247 285.83661
 286.64081 287.35693 287.98251 288.77975
 366.78100 356.34838 345.79376 334.67313 323.08951 311.29689 299.18027 286.99665
 274.72202 262.63240 250.65478 239.96916 230.10453 221.22191 213.41729 206.43267
 200.28005 195.23142 191.82680 189.88218 188.93256 189.00994 189.85831 191.17969
 192.91807 195.02645 197.30283 199.67520 202.13358 204.62696 206.72834 208.58371
 210.22309 211.38147 211.62385 211.86523 211.81560 211.53398 211.18036 210.82374
 210.45412 210.17749 209.99887 209.87625 209.81763 210.16201 210.56138 210.96376
 211.77014 212.96152 214.22489 216.02127 217.96265 220.01903 222.12741 224.22378
 226.29716 228.39454 230.50492 232.62430 234.76667 236.95205 239.22143 241.60481
 244.23918 246.50356 248.51894 250.29732 251.72770 252.86407 253.69945 254.02883
 254.07921 253.86659 253.23996 252.20134 250.82072 248.99510 246.91748 244.76385
 242.56823 240.38561 238.21899 236.07136 233.94474 231.82512 229.86450 228.03488
 226.33125 224.81663 223.46001 222.24539 221.14077 220.11414 219.23152 218.38590
 217.64128 216.83466 215.94603 215.32341 214.78679 214.99879 215.50618 216.03946
 215.95483 215.08650 214.38614 214.43867 216.49684 220.34494 224.92972 228.51833
 232.05261 236.27769 241.02750 245.61801 249.75624 253.40244 256.66904 259.72821
 262.63998 265.45639 268.16376 270.66495 272.91199 274.88245 276.48694 277.84250
 279.07129 280.20502 281.22925 282.14481 282.99298 283.83765 284.72961 285.58875
 286.36142 287.04950 287.65057 288.41660
 366.78100 356.34946 345.79592 334.67638 323.09385 311.30231 299.18677 287.00423
 274.73069 262.64215 250.66561 239.98107 230.11754 221.23600 213.43246 206.44892
 200.29738 195.24984 191.84630 189.90276 188.95423 189.03269 189.88215 191.20461
 192.94407 195.05353 197.33099 199.70445 202.16392 204.65838 206.76084 208.61730
 210.25776 211.41722 211.66068 211.90314 211.85461 211.57407 211.22153 210.86599
 210.49745 210.22191 210.04437 209.92283 209.86530 210.21076 210.61122 211.01468
 211.82214 213.01460 214.27906 216.07652 218.01899 220.07645 222.18591 224.28337
 226.35783 228.45629 230.56775 232.68821 234.83168 237.01814 239.28860 241.67306
 244.30852 246.57398 248.59044 250.36990 251.80137 252.93883 253.77529 254.10575
 254.15721 253.94567 253.32013 252.28259 250.90306 249.07852 247.00198 244.84944
 242.65490 240.47336 238.30782 236.16128 234.03575 231.91721 229.95767 228.12913
 226.42659 224.91305 223.55751 222.34397 221.24044 220.21490 219.33336 218.48882
 217.74528 216.93974 216.05220 215.43067 214.89513 215.05553 215.44878 215.98381
 216.04192 215.10538 214.33957 214.43279 216.49269 220.29297 224.82524 228.50993
 231.99641 236.29701 241.06670 245.69025 249.84590 253.48969 256.74936 259.79269
 262.67572 265.48419 268.20169 270.72244 272.96143 274.87106 276.42371 277.73734
 278.98294 280.16098 281.19678 282.07141 283.01648 284.01126 284.97879 285.85532
 286.64362 287.34564 287.95889 288.74042
 366.78100 356.34748 345.79195 334.67043 323.08590 311.29238 299.17485 286.99033
 274.71481 262.62428 250.64576 239.95923 230.09371 221.21018 213.40466 206.41913
 200.26561 195.21609 191.81056 189.86504 188.91451 188.99099 189.83846 191.15894
 192.89642 195.00389 197.27937 199.65084 202.10832 204.60079 206.70127 208.55574
 210.19422 211.35170 211.59317 211.83365 211.78312 211.50060 211.14607 210.78855
 210.41803 210.14050 209.96098 209.83745 209.77793 210.12140 210.51988 210.92135
 211.72683 212.91731 214.17978 215.97526 217.91573 219.97121 222.07868 224.17416
 226.24664 228.34311 230.45259 232.57106 234.71254 236.89701 239.16549 241.54797
 244.18144 246.44492 248.45939 250.23687 251.66634 252.80182 253.63629 253.96477
 254.01425 253.80072 253.17320 252.13367 250.75215 248.92562 246.84710 244.69258
 242.49605 240.31253 238.14500 235.99648 233.86895 231.74843 229.78690 227.95638
 226.25186 224.73633 223.37881 222.16328 221.05776 220.03023 219.14671 218.30019
 217.55466 216.74714 215.85761 215.23409 214.69656 214.95975 215.56834 215.80907
 216.03944 215.25829 214.42090 214.43681 216.46227 220.24411 224.74995 228.44994
 231.94090 236.29251 241.09782 245.75285 249.91966 253.56085 256.81973 259.85876
 262.73328 265.54819 268.29135 270.84692 273.11011 275.02548 276.55969 277.83536
 279.07553 280.27087 281.25037 282.09576 283.15469 284.18060 285.12897 285.98813
 286.76083 287.44894 288.05008 288.81610
 366.78100 356.34736 345.79173 334.67009 323.08546 311.29182 299.17419 286.98955
 274.71392 262.62328 250.64464 239.95801 230.09237 221.20874 213.40310 206.41747
 200.26383 195.21419 191.80856 189.86292 188.91229 188.98865 189.83602 191.15638
 192.89375 195.00111 197.27647 199.64784 202.10520 204.59757 206.69793 208.55230
 210.19066 211.34803 211.58939 211.82975 211.77912 211.49648 211.14185 210.78421
 210.41358 210.13594 209.95630 209.83267 209.77303 210.11640 210.51476 210.91613
 211.72149 212.91186 214.17422 215.96958 217.90995 219.96531 222.07268 224.16804
 226.24041 228.33677 230.44614 232.56450 234.70586 236.89023 239.15859 241.54096
 244.17432 246.43769 248.45205 250.22941 251.65878 252.79414 253.62851 253.95687
 254.00624 253.79260 253.16497 252.12533 250.74369 248.91706 246.83842 244.68379
 242.48715 240.30352 238.13588 235.98725 233.85961 231.73897 229.77734 227.94670
 226.24207 224.72643 223.36880 222.15316 221.04752 220.01989 219.13625 218.28962
 217.54398 216.73635 215.84671 215.22308 214.68544 214.94640 215.55424 215.80835
 216.03351 215.34810 214.44200 214.34448 216.32883 220.13202 224.65411 228.30548
 231.86180 236.25674 241.09064 245.74451 249.88838 253.50963 256.76617 259.80902
 262.70978 265.56451 268.35651 270.97305 273.30240 275.27921 276.85309 278.13556
 279.34747 280.54239 281.54932 282.32889 283.23633 284.19714 285.07672 285.87131
 286.58594 287.22232 287.77826 288.48676
 366.78100 356.34975 345.79650 334.67725 323.09500 311.30375 299.18850 287.00625
 274.73300 262.64475 250.66850 239.98425 230.12101 221.23976 213.43651 206.45326
 200.30201 195.25476 191.85151 189.90826 188.96001 189.03876 189.88851 191.21126
 192.95101 195.06076 197.33851 199.71226 202.17201 204.66676 206.76951 208.62626
 210.26701 211.42676 211.67051 211.91326 211.86502 211.58477 211.23252 210.87727
 210.50902 210.23377 210.05652 209.93527 209.87802 210.22377 210.62452 211.02827
 211.83602 213.02877 214.29352 216.09127 218.03402 220.09177 222.20152 224.29927
 226.37402 228.47277 230.58452 232.70527 234.84903 237.03578 239.30653 241.69128
 244.32703 246.59278 248.60953 250.38928 251.82103 252.95878 253.79553 254.12628
 254.17803 253.96678 253.34153 252.30428 250.92503 249.10078 247.02453 244.87228
 242.67803 240.49678 238.33153 236.18528 234.06004 231.94179 229.98254 228.15429
 226.45204 224.93879 223.58354 222.37029 221.26704 220.24179 219.36054 218.51629
 217.77304 216.96779 216.08054 215.45929 214.92404 215.05984 215.38908 215.88647
 216.13484 215.49997 214.55562 214.31813 216.22774 220.02562 224.54472 228.13397
 231.75934 236.21336 241.07872 245.71678 249.82220 253.41159 256.65500 259.69275
 262.60474 265.48874 268.32800 270.99820 273.39401 275.45111 277.06952 278.38318
 279.61203 280.80179 281.80508 282.55597 283.31006 284.21552 285.08884 285.86041
 286.55435 287.17230 287.71216 288.40012
 366.78100 356.34949 345.79597 334.67646 323.09395 311.30243 299.18692 287.00441
 274.73089 262.64238 250.66587 239.98135 230.11784 221.23633 213.43281 206.44930
 200.29779 195.25027 191.84676 189.90325 188.95473 189.03322 189.88271 191.20520
 192.94468 195.05417 197.33166 199.70514 202.16463 204.65912 206.76160 208.61809
 210.25858 211.41806 211.66155 211.90404 211.85552 211.57501 211.22250 210.86698
 210.49847 210.22296 210.04544 209.92393 209.86642 210.21190 210.61239 211.01588
 211.82336 213.01585 214.28034 216.07782 218.02031 220.07780 222.18728 224.28477
 226.35926 228.45774 230.56923 232.68972 234.83320 237.01969 239.29018 241.67466
 244.31015 246.57564 248.59213 250.37161 251.80310 252.94059 253.77707 254.10756
 254.15905 253.94753 253.32202 252.28451 250.90499 249.08048 247.00397 244.85145
 242.65694 240.47543 238.30991 236.16340 234.03789 231.91937 229.95986 228.13135
 226.42883 224.91532 223.55981 222.34629 221.24278 220.21727 219.33575 218.49124
 217.74773 216.94221 216.05470 215.43319 214.89767 215.04407 215.39444 215.83218
 216.11719 215.58307 214.68488 214.37984 216.21774 219.99461 224.48083 228.03049
 231.69685 236.19495 241.09181 245.72466 249.80779 253.38145 256.61755 259.63684
 262.51941 265.39148 268.24976 270.95422 273.39795 275.49939 277.16519 278.50406
 279.76630 280.96646 281.96341 282.64526 283.27991 284.08197 284.94757 285.69208
 286.34320 286.92300 287.42953 288.07501
 366.78100 356.34777 345.79254 334.67131 323.08707 311.29384 299.17661 286.99238
 274.71715 262.62692 250.64868 239.96245 230.09722 221.21399 213.40876 206.42353
 200.27030 195.22106 191.81583 189.87060 188.92037 188.99714 189.84491 191.16567
 192.90344 195.01121 197.28698 199.65875 202.11652 204.60929 206.71005 208.56482
 210.20359 211.36136 211.60313 211.84390 211.79366 211.51143 211.15720 210.79997
 210.42974 210.15251 209.97328 209.85004 209.79081 210.13458 210.53335 210.93512
 211.74089 212.93165 214.19442 215.99019 217.93096 219.98673 222.09450 224.19026
 226.26303 228.35980 230.46957 232.58834 234.73011 236.91488 239.18364 241.56641
 244.20018 246.46395 248.47872 250.25649 251.68625 252.82202 253.65679 253.98556
 254.03533 253.82210 253.19487 252.15563 250.77440 248.94817 246.86994 244.71571
 242.51948 240.33624 238.16901 236.02078 233.89355 231.77332 229.81209 227.98186
 226.27762 224.76239 223.40516 222.18993 221.08470 220.05747 219.17423 218.32800
 217.58277 216.77554 215.88631 215.26308 214.72585 214.95099 215.48178 215.77460
 216.10686 215.58946 214.70721 214.39017 216.20659 219.98373 224.46747 227.95134
 231.65884 236.18980 241.12001 245.76260 249.84462 253.42221 256.66040 259.65912
 262.49429 265.31354 268.15393 270.87137 273.35349 275.49539 277.19827 278.58408
 279.88165 281.08984 282.04538 282.68555 283.17166 283.83505 284.62903 285.36566
 285.88846 286.35400 286.76071 287.27899
 366.78100 356.34745 345.79190 334.67035 323.08580 311.29225 299.17470 286.99015
 274.71460 262.62405 250.64550 239.95895 230.09340 221.20985 213.40430 206.41875
 200.26520 195.21566 191.81011 189.86456 188.91401 188.99046 189.83791 191.15836
 192.89581 195.00326 197.27871 199.65016 202.10761 204.60006 206.70051 208.55496
 210.19341 211.35086 211.59231 211.83276 211.78221 211.49966 211.14511 210.78756
 210.41701 210.13946 209.95991 209.83636 209.77681 210.12026 210.51871 210.92016
 211.72561 212.91607 214.17852 215.97397 217.91442 219.96987 222.07732 224.17277
 226.24522 228.34167 230.45112 232.56957 234.71102 236.89547 239.16392 241.54637
 244.17982 246.44327 248.45772 250.23517 251.66462 252.80007 253.63452 253.96297
 254.01242 253.79887 253.17132 252.13177 250.75022 248.92367 246.84512 244.69057
 242.49402 240.31047 238.14293 235.99438 233.86683 231.74628 229.78473 227.95418
 226.24963 224.73408 223.37653 222.16098 221.05543 220.02788 219.14433 218.29778
 217.55223 216.74468 215.85513 215.23158 214.69403 214.92998 215.48721 215.75461
 216.21190 215.64207 214.63234 214.27463 216.13124 219.95912 224.41580 227.84563
 231.61441 236.18365 241.14246 245.79338 249.88211 253.47740 256.73267 259.72311
 262.50900 265.25281 268.04340 270.76013 273.27692 275.46619 277.21994 278.66037
 279.99054 281.20010 282.14777 282.74002 283.16290 283.68262 284.39832 285.13135
 285.70084 286.12982 286.50458 286.98218
 366.78100 356.34723 345.79146 334.66969 323.08492 311.29115 299.17338 286.98862
 274.71285 262.62208 250.64331 239.95654 230.09077 221.20700 213.40123 206.41546
 200.26169 195.21192 191.80615 189.86038 188.90961 188.98585 189.83308 191.15331
 192.89054 194.99777 197.27300 199.64423 202.10146 204.59369 206.69392 208.54815
 210.18638 211.34361 211.58484 211.82508 211.77431 211.49154 211.13677 210.77900
 210.40823 210.13046 209.95069 209.82692 209.76715 210.11038 210.50861 210.90984
 211.71508 212.90531 214.16754 215.96277 217.90300 219.95823 222.06546 224.16069
 226.23292 228.32915 230.43838 232.55661 234.69784 236.88207 239.15031 241.53254
 244.16577 246.42900 248.44323 250.22046 251.64969 252.78492 253.61915 253.94738
 253.99661 253.78284 253.15507 252.11531 250.73354 248.90677 246.82800 244.67323
 242.47646 240.29269 238.12492 235.97615 233.84838 231.72761 229.76584 227.93507
 226.23030 224.71454 223.35677 222.14100 221.03523 220.00746 219.12369 218.27692
 217.53115 216.72338 215.83361 215.20984 214.67207 214.92017 215.50569 215.70747
 216.24358 215.74269 214.61642 214.20422 216.06967 219.85834 224.29562 227.77567
 231.57472 236.18248 241.15152 245.80154 249.89951 253.52379 256.81082 259.81271
 262.56989 265.23883 267.94742 270.63803 273.19189 275.44934 277.24338 278.71005
 280.07465 281.28796 282.20837 282.73969 283.10287 283.57007 284.27118 284.99091
 285.53452 285.93634 286.28735 286.73468
 366.78100 356.34599 345.78899 334.66598 323.07997 311.28497 299.16596 286.97996
 274.70295 262.61094 250.63094 239.94293 230.07592 221.19092 213.38391 206.39691
 200.24190 195.19089 191.78389 189.83688 188.88487 188.95987 189.80586 191.12486
 192.86085 194.96684 197.24084 199.61083 202.06682 204.55782 206.65681 208.50980
 210.14680 211.30279 211.54279 211.78178 211.72977 211.44577 211.08976 210.73075
 210.35875 210.07974 209.89874 209.77373 209.71272 210.05472 210.45171 210.85170
 211.65570 212.84469 214.10569 215.89968 217.83867 219.89267 221.99866 224.09265
 226.16365 228.25864 230.36663 232.48363 234.62362 236.80662 239.07361 241.45460
 244.08660 246.34859 248.36158 250.13758 251.56557 252.69957 253.53256 253.85955
 253.90755 253.69254 253.06353 252.02253 250.63952 248.81152 246.73151 244.57550
 242.37750 240.19249 238.02348 235.87348 233.74447 231.62246 229.65946 227.82745
 226.12145 224.60444 223.24543 222.02843 220.92142 219.89241 219.00741 218.15940
 217.41240 216.60339 215.71238 215.08738 214.54837 214.86011 215.59215 215.66745
 216.10400 215.75830 214.68790 214.25787 216.06726 219.76131 224.17227 227.75090
 231.55582 236.18973 241.15242 245.79077 249.89481 253.54642 256.86688 259.89026
 262.64743 265.26889 267.89117 270.53510 273.12973 275.47238 277.32410 278.80994
 280.19965 281.39508 282.26709 282.73178 283.03345 283.49646 284.19650 284.90518
 285.38522 285.80750 286.17639 286.64648
 366.78100 356.34492 345.78684 334.66276 323.07569 311.27961 299.15953 286.97245
 274.69437 262.60129 250.62021 239.93114 230.06306 221.17698 213.36890 206.38082
 200.22474 195.17266 191.76459 189.81651 188.86343 188.93735 189.78227 191.10019
 192.83512 194.94004 197.21296 199.58188 202.03680 204.52672 206.62464 208.47657
 210.11249 211.26741 211.50633 211.74425 211.69117 211.40609 211.04902 210.68894
 210.31586 210.03578 209.85370 209.72762 209.66554 210.00647 210.40239 210.80131
 211.60423 212.79215 214.05207 215.84499 217.78292 219.83584 221.94076 224.03368
 226.10360 228.19752 230.30445 232.42037 234.55929 236.74121 239.00713 241.38705
 244.01797 246.27890 248.29082 250.06574 251.49266 252.62558 253.45750 253.78342
 253.83035 253.61427 252.98419 251.94211 250.55803 248.72895 246.64787 244.49080
 242.29172 240.10564 237.93556 235.78448 233.65440 231.53132 229.56725 227.73417
 226.02709 224.50901 223.14893 221.93085 220.82278 219.79270 218.90662 218.05754
 217.30946 216.49938 215.60730 214.98123 214.44115 214.80354 215.65559 215.69910
 215.97098 215.68869 214.76642 214.31924 216.07077 219.69788 224.10504 227.70804
 231.53328 236.18974 241.15112 245.76837 249.86095 253.52185 256.86386 259.90625
 262.67722 265.28262 267.84076 270.43182 273.06366 275.53473 277.49753 279.01266
 280.41599 281.62036 282.52023 282.94733 283.17825 283.51352 284.13434 284.80472
 285.28751 285.68997 286.04153 286.48959
 366.78100 356.34405 345.78510 334.66015 323.07220 311.27524 299.15429 286.96634
 274.68739 262.59344 250.61149 239.92154 230.05259 221.16564 213.35669 206.36773
 200.21078 195.15783 191.74888 189.79993 188.84598 188.91903 189.76308 191.08013
 192.81418 194.91822 197.19027 199.55832 202.01237 204.50142 206.59847 208.44952
 210.08457 211.23862 211.47667 211.71371 211.65976 211.37381 211.01586 210.65491
 210.28096 210.00001 209.81706 209.69011 209.62715 209.96720 210.36225 210.76030
 211.56235 212.74940 214.00845 215.80050 217.73755 219.78960 221.89364 223.98569
 226.05474 228.14779 230.25384 232.36889 234.50694 236.68799 238.95304 241.33209
 243.96213 246.22218 248.23323 250.00728 251.43333 252.56538 253.39643 253.72148
 253.76753 253.55057 252.91962 251.87667 250.49172 248.66177 246.57982 244.42187
 242.22192 240.03497 237.86402 235.71206 233.58111 231.45716 229.49221 227.65826
 225.95031 224.43136 223.07041 221.85146 220.74251 219.71155 218.82460 217.97465
 217.22570 216.41475 215.52180 214.89485 214.35390 214.75371 215.69833 215.73318
 215.96338 215.59964 214.77089 214.35423 216.05147 219.62639 224.06070 227.65285
 231.51488 236.19254 241.14900 245.73720 249.81419 253.48351 256.84390 259.89957
 262.67554 265.25961 267.75467 270.29224 272.95151 275.52960 277.61218 279.20337
 280.60690 281.81409 282.72781 283.17865 283.40240 283.70624 284.16925 284.75580
 285.34302 285.72040 286.05008 286.47021
 366.78100 356.34360 345.78421 334.65881 323.07042 311.27302 299.15162 286.96323
 274.68383 262.58944 250.60704 239.91664 230.04725 221.15985 213.35046 206.36106
 200.20366 195.15027 191.74087 189.79148 188.83708 188.90968 189.75329 191.06989
 192.80350 194.90710 197.17870 199.54631 201.99991 204.48852 206.58512 208.43572
 210.07033 211.22393 211.46154 211.69814 211.64374 211.35735 210.99895 210.63756
 210.26316 209.98177 209.79837 209.67097 209.60758 209.94718 210.34179 210.73939
 211.54099 212.72760 213.98620 215.77781 217.71441 219.76601 221.86962 223.96122
 226.02983 228.12243 230.22803 232.34264 234.48024 236.66085 238.92545 241.30405
 243.93366 246.19326 248.20387 249.97747 251.40307 252.53468 253.36528 253.68989
 253.73549 253.51809 252.88670 251.84330 250.45791 248.62751 246.54511 244.38672
 242.18632 239.99893 237.82753 235.67513 233.54374 231.41934 229.45395 227.61955
 225.91115 224.39176 223.03036 221.81097 220.70157 219.67017 218.78278 217.93238
 217.18299 216.37159 215.47819 214.85080 214.30940 214.72459 215.70551 215.79501
 215.96657 215.51511 214.67552 214.35124 216.07220 219.59727 224.05269 227.62030
 231.50389 236.19614 241.16241 245.73933 249.81616 253.50137 256.87930 259.93713
 262.70642 265.26559 267.69815 270.15112 272.79950 275.47165 277.64172 279.26443
 280.67383 281.89606 282.75900 283.16461 283.34875 283.60110 284.03690 284.65317
 285.28836 285.82706 286.24738 286.78302
 366.78100 356.34432 345.78563 334.66095 323.07326 311.27658 299.15590 286.96821
 274.68953 262.59584 250.61416 239.92448 230.05579 221.16911 213.36042 206.37174
 200.21506 195.16237 191.75369 189.80500 188.85132 188.92464 189.76895 191.08627
 192.82058 194.92490 197.19722 199.56553 202.01985 204.50916 206.60648 208.45780
 210.09311 211.24743 211.48574 211.72306 211.66938 211.38369 211.02601 210.66532
 210.29164 210.01096 209.82827 209.70159 209.63890 209.97922 210.37454 210.77285
 211.57517 212.76248 214.02180 215.81412 217.75143 219.80375 221.90806 224.00038
 226.06970 228.16301 230.26933 232.38464 234.52296 236.70428 238.96959 241.34891
 243.97922 246.23954 248.25086 250.02517 251.45149 252.58380 253.41512 253.74044
 253.78675 253.57007 252.93938 251.89670 250.51202 248.68233 246.60065 244.44296
 242.24328 240.05660 237.88591 235.73423 233.60354 231.47986 229.51518 227.68149
 225.97381 224.45512 223.09444 221.87576 220.76707 219.73639 218.84970 218.00002
 217.25134 216.44065 215.54797 214.92128 214.38060 214.75801 215.64970 215.89990
 216.01831 215.32274 214.49805 214.34561 216.10944 219.54895 223.99684 227.67990
 231.53955 236.23000 241.17490 245.74469 249.83586 253.55682 256.96484 260.03336
 262.79922 265.31070 267.65137 270.01389 272.66226 275.41986 277.61819 279.27277
 280.72806 281.88843 282.56116 282.79694 283.04626 283.44748 283.97501 284.61151
 285.25427 285.79700 286.15692 286.61560
 354.97500 345.04800 334.58700 324.11500 313.32600 302.53700 291.65000 280.76700
 269.93100 259.19300 248.62200 238.61700 229.08700 220.35500 212.54000 205.53500
 199.46400 194.49300 191.14300 189.19000 188.08900 188.01400 188.72400 189.90600
 191.46900 193.38200 195.40300 197.55600 199.80700 202.06000 204.28800 206.47900
 208.55200 210.37800 212.02500 213.65900 214.99800 216.11800 217.17200 218.25900
 219.49400 220.64500 221.67900 222.61400 223.54500 224.98200 226.57100 228.19000
 229.79700 231.81100 233.86500 235.97200 238.24200 240.55300 242.89900 245.25300
 247.48800 249.53500 251.36600 252.84800 254.09800 255.16700 256.02700 256.25300
 256.09500 255.54300 253.93500 252.56600 251.38400 250.24500 249.05200 247.70100
 246.01600 243.99600 241.78400 239.39300 236.81300 234.22300 231.65800 229.14400
 226.74000 224.47300 222.33500 220.32500 218.44000 216.67700 214.96200 213.47200
 212.20000 211.10800 210.26000 209.63900 209.24400 209.03100 209.05800 209.33300
 209.78400 210.62600 211.33100 212.39100 213.62500 214.84668 217.72949 219.47640
 220.32566 220.86828 220.88710 220.27371 219.43733 218.84250 219.04934 220.86203
 222.60583 225.72206 229.03064 232.61777 236.12270 239.51333 242.70767 245.68587
 248.41061 250.90679 253.19353 254.91714 256.48655 257.94920 259.39966 260.69384
 261.81714 262.77997 263.71679 264.54570 265.26305 265.89772 266.47676 267.00133
 267.47312 267.89325 268.26027 268.72800
