|-------------------------------------------------------------------------|
|   File Name : in_temp.dat
|   Subject   : temperature profiles used for initial guess atmosphere
|   File Type : input of gmtr
|   Data Type : atmospherical data
|   Author/s  : WRF-Chem
|   Date      : Fri Jul 26 15:39:24 2024
|-------------------------------------------------------------------------|

 WRF-Chem temperature
#
 values of T (K)    (8f10.5)
#
 354.97500 345.04800 334.58700 324.11500 313.32600 302.53700 291.65000 280.76700
 269.93100 259.19300 248.62200 238.61700 229.08700 220.35500 212.54000 205.53500
 199.46400 194.49300 191.14300 189.19000 188.08900 188.01400 188.72400 189.90600
 191.46900 193.38200 195.40300 197.55600 199.80700 202.06000 204.28800 206.47900
 208.55200 210.37800 212.02500 213.65900 214.99800 216.11800 217.17200 218.25900
 219.49400 220.64500 221.67900 222.61400 223.54500 224.98200 226.57100 228.19000
 229.79700 231.81100 233.86500 235.97200 238.24200 240.55300 242.89900 245.25300
 247.48800 249.53500 251.36600 252.84800 254.09800 255.16700 256.02700 256.25300
 256.09500 255.54300 253.93500 252.56600 251.38400 250.24500 249.05200 247.70100
 246.01600 243.99600 241.78400 239.39300 236.81300 234.22300 231.65800 229.14400
 226.74000 224.47300 222.33500 220.32500 218.44000 216.67700 214.96200 213.47200
 212.20000 211.10800 210.26000 209.63900 209.24400 209.03100 209.05800 209.33300
 209.78400 210.62600 211.33100 212.39100 213.62500 214.84668 217.72949 219.47640
 220.32566 220.86828 220.88710 220.27371 219.43733 218.84250 219.04934 220.86203
 222.60583 225.72206 229.03064 232.61777 236.12270 239.51333 242.70767 245.68587
 248.41061 250.90679 253.19353 254.91714 256.48655 257.94920 259.39966 260.69384
 261.81714 262.77997 263.71679 264.54570 265.26305 265.89772 266.47676 267.00133
 267.47312 267.89325 268.26027 268.72800
 366.78100 356.33500 345.76700 334.63300 323.03600 311.23000 299.10000 286.90300
 274.61500 262.51200 250.52100 239.82200 229.94400 221.04800 213.23000 206.23200
 200.06600 195.00400 191.58600 189.62800 188.66500 188.72900 189.56400 190.87200
 192.59700 194.69200 196.95500 199.31400 201.75900 204.23900 206.32700 208.16900
 209.79500 210.94000 211.16900 211.39700 211.33400 211.03900 210.67200 210.30200
 209.91900 209.62900 209.43700 209.30100 209.22900 209.56000 209.94600 210.33500
 211.12800 212.30600 213.55600 215.33900 217.26700 219.31000 221.40500 223.48800
 225.54800 227.63200 229.72900 231.83500 233.96400 236.13600 238.39200 240.76200
 243.38300 245.63400 247.63600 249.40100 250.81800 251.94100 252.76300 253.07900
 253.11600 252.89000 252.25000 251.19800 249.80400 247.96500 245.87400 243.70700
 241.49800 239.30200 237.12200 234.96100 232.82100 230.68800 228.71400 226.87100
 225.15400 223.62600 222.25600 221.02800 219.91000 218.87000 217.97400 217.11500
 216.35700 215.53700 214.63500 213.99900 213.44900 212.85855 212.01316 212.61654
 214.26826 216.08686 218.14273 220.53346 223.40855 226.78828 231.49734 235.90155
 239.42278 243.28576 247.23140 251.11907 254.80144 258.23331 261.38913 264.27520
 266.89312 269.26852 271.44504 273.08845 274.58484 275.98591 277.39845 278.65879
 279.75272 280.69038 281.56708 282.34086 283.01050 283.60295 284.14348 284.63317
 285.07358 285.46577 285.80838 286.24500
 381.81900 372.39900 361.20600 349.77600 337.62200 324.85300 311.81000 298.35300
 284.86000 271.32400 258.56100 246.30400 236.08700 226.79600 218.44800 211.29000
 205.52200 200.89400 197.38100 194.84800 193.01500 192.31500 192.25000 192.43100
 192.91200 193.53700 194.13600 194.71200 195.26200 195.83100 196.39300 196.97600
 197.60400 198.14900 198.58400 199.05700 199.69500 200.37800 201.05400 201.70800
 202.31300 202.85700 203.35500 203.86200 204.56900 205.29700 206.02600 206.98700
 208.19300 209.44100 210.96900 212.57600 214.46200 216.51300 218.63000 220.85300
 223.34100 225.96200 228.73900 231.69700 234.70600 237.70600 240.69200 243.65700
 246.73700 249.69900 252.52100 255.06300 257.29000 259.23300 260.63300 261.68000
 262.46100 262.79800 262.69100 262.22400 261.06900 259.52500 257.70700 255.50700
 253.00100 250.30200 247.39800 244.45200 241.65400 239.05400 236.73300 234.59000
 232.59500 230.72500 228.83400 226.82600 224.66600 222.38700 220.10400 217.71500
 215.45900 213.06600 210.54600 208.09300 205.35400 202.08130 196.05959 200.71215
 209.01611 216.90438 223.84126 229.78593 235.00632 240.20838 245.98943 250.68668
 254.32982 257.93487 261.55666 264.96801 268.15192 271.06452 273.76717 276.25691
 278.57680 280.74479 282.77456 284.60533 286.27232 287.81705 289.31715 290.65561
 291.81734 292.81312 293.70701 294.49387 295.17482 295.77730 296.32696 296.82492
 297.27278 297.67160 298.02000 298.46400
 399.33000 389.90700 379.81300 368.66800 357.52200 345.30100 333.07400 320.22700
 307.21600 293.84800 280.37600 267.29600 254.61000 242.98700 232.15100 221.97700
 212.67200 204.28600 197.66900 192.82100 189.48600 187.45200 186.81400 187.08900
 187.78100 189.05400 190.64800 192.54200 194.63000 196.75200 198.67100 200.15800
 201.53500 202.48700 202.97500 203.34000 203.53900 203.49700 203.38500 203.24700
 203.00500 202.78600 202.60300 202.43700 202.42600 202.88800 203.42000 203.95100
 204.89500 205.99200 207.30100 208.95800 210.73800 213.10000 215.56400 218.18000
 220.96600 223.91800 226.96100 230.09200 233.29300 236.55700 239.95500 243.53700
 246.84500 249.39000 251.54200 253.47400 255.19500 256.48400 257.43100 258.05900
 258.21200 258.04000 257.58200 256.64300 255.23900 253.50700 251.40800 249.05600
 246.57600 243.99400 241.38900 238.83000 236.34400 233.98600 231.96900 230.11800
 228.42300 226.89900 225.54800 224.29700 223.10500 221.96500 220.95800 220.11300
 219.49000 218.92000 218.32500 217.88100 217.42300 216.96366 216.35568 216.80261
 217.73415 218.28582 218.64258 219.10077 220.44626 222.53987 226.38451 230.35736
 233.59734 237.39164 241.29814 245.22796 248.98002 252.51130 255.78595 258.80109
 261.54781 264.05210 266.34239 268.04198 269.58951 271.01303 272.35754 273.55718
 274.59842 275.49092 276.28989 276.99307 277.60161 278.14001 278.63122 279.07623
 279.47646 279.83287 280.14422 280.54100
 399.73800 389.78500 379.66200 368.15100 356.64100 344.35000 331.79200 318.88800
 305.72600 292.49300 279.20900 266.73800 254.69600 244.21100 234.45700 225.43300
 217.56900 210.45100 204.30000 199.30600 195.45800 192.57600 191.02700 190.38600
 190.23900 190.53400 191.16600 191.92500 192.79500 193.76600 194.73200 195.31200
 195.80000 196.05200 196.11500 196.11500 196.03900 195.72300 195.34000 194.98900
 194.75100 194.79200 195.13300 195.59800 196.50600 198.13600 199.85800 201.56600
 204.17900 206.82300 209.89300 213.28400 216.82800 220.60500 224.38700 228.20900
 232.03200 235.82500 239.56000 243.25800 246.84500 250.20100 253.70900 257.46800
 261.53000 264.22100 266.60100 268.68100 270.32900 271.74100 272.83600 273.47400
 273.89800 274.00200 273.75700 273.28800 272.37100 271.10000 269.58900 267.77900
 265.81600 263.72100 261.39300 258.91600 256.29800 253.42300 250.33100 247.11400
 243.83700 240.52900 237.24900 233.99900 230.72800 227.51500 224.25400 220.95200
 217.62700 213.65600 210.12100 206.78900 204.01000 201.99491 199.07309 198.76551
 199.40006 200.48994 201.46112 202.31912 203.45100 204.96110 207.47502 210.85391
 213.70530 217.29629 220.99574 224.72316 228.28753 231.64854 234.68024 237.40893
 239.70644 241.60899 243.46854 245.67368 247.68154 249.52395 251.24767 252.78566
 254.12057 255.26479 256.23740 257.09036 257.82852 258.48160 259.07744 259.61723
 260.10271 260.53504 260.91270 261.39400
 399.73800 389.78500 379.66200 368.15100 356.64100 344.35000 331.79200 318.88800
 305.72600 292.49300 279.20900 266.73800 254.69600 244.21100 234.45700 225.43300
 217.56900 210.45100 204.30000 199.30600 195.45800 192.57600 191.02700 190.38600
 190.23900 190.53400 191.16600 191.92500 192.79500 193.76600 194.73200 195.31200
 195.80000 196.05200 196.11500 196.11500 196.03900 195.72300 195.34000 194.98900
 194.75100 194.79200 195.13300 195.59800 196.50600 198.13600 199.85800 201.56600
 204.17900 206.82300 209.89300 213.28400 216.82800 220.60500 224.38700 228.20900
 232.03200 235.82500 239.56000 243.25800 246.84500 250.20100 253.70900 257.46800
 261.53000 264.22100 266.60100 268.68100 270.32900 271.74100 272.83600 273.47400
 273.89800 274.00200 273.75700 273.28800 272.37100 271.10000 269.58900 267.77900
 265.81600 263.72100 261.39300 258.91600 256.29800 253.42300 250.33100 247.11400
 243.83700 240.52900 237.24900 233.99900 230.72800 227.51500 224.25400 220.95200
 217.62700 213.65600 210.12100 206.78900 204.01000 201.99491 199.07309 198.76551
 199.40006 200.48994 201.46112 202.31912 203.45100 204.96110 207.47502 210.85391
 213.70530 217.29629 220.99574 224.72316 228.28753 231.64854 234.68024 237.40893
 239.70644 241.60899 243.46854 245.67368 247.68154 249.52395 251.24767 252.78566
 254.12057 255.26479 256.23740 257.09036 257.82852 258.48160 259.07744 259.61723
 260.10271 260.53504 260.91270 261.39400
 399.33000 389.90700 379.81300 368.66800 357.52200 345.30100 333.07400 320.22700
 307.21600 293.84800 280.37600 267.29600 254.61000 242.98700 232.15100 221.97700
 212.67200 204.28600 197.66900 192.82100 189.48600 187.45200 186.81400 187.08900
 187.78100 189.05400 190.64800 192.54200 194.63000 196.75200 198.67100 200.15800
 201.53500 202.48700 202.97500 203.34000 203.53900 203.49700 203.38500 203.24700
 203.00500 202.78600 202.60300 202.43700 202.42600 202.88800 203.42000 203.95100
 204.89500 205.99200 207.30100 208.95800 210.73800 213.10000 215.56400 218.18000
 220.96600 223.91800 226.96100 230.09200 233.29300 236.55700 239.95500 243.53700
 246.84500 249.39000 251.54200 253.47400 255.19500 256.48400 257.43100 258.05900
 258.21200 258.04000 257.58200 256.64300 255.23900 253.50700 251.40800 249.05600
 246.57600 243.99400 241.38900 238.83000 236.34400 233.98600 231.96900 230.11800
 228.42300 226.89900 225.54800 224.29700 223.10500 221.96500 220.95800 220.11300
 219.49000 218.92000 218.32500 217.88100 217.42300 216.96366 216.35568 216.80261
 217.73415 218.28582 218.64258 219.10077 220.44626 222.53987 226.38451 230.35736
 233.59734 237.39164 241.29814 245.22796 248.98002 252.51130 255.78595 258.80109
 261.54781 264.05210 266.34239 268.04198 269.58951 271.01303 272.35754 273.55718
 274.59842 275.49092 276.28989 276.99307 277.60161 278.14001 278.63122 279.07623
 279.47646 279.83287 280.14422 280.54100
 381.81900 372.39900 361.20600 349.77600 337.62200 324.85300 311.81000 298.35300
 284.86000 271.32400 258.56100 246.30400 236.08700 226.79600 218.44800 211.29000
 205.52200 200.89400 197.38100 194.84800 193.01500 192.31500 192.25000 192.43100
 192.91200 193.53700 194.13600 194.71200 195.26200 195.83100 196.39300 196.97600
 197.60400 198.14900 198.58400 199.05700 199.69500 200.37800 201.05400 201.70800
 202.31300 202.85700 203.35500 203.86200 204.56900 205.29700 206.02600 206.98700
 208.19300 209.44100 210.96900 212.57600 214.46200 216.51300 218.63000 220.85300
 223.34100 225.96200 228.73900 231.69700 234.70600 237.70600 240.69200 243.65700
 246.73700 249.69900 252.52100 255.06300 257.29000 259.23300 260.63300 261.68000
 262.46100 262.79800 262.69100 262.22400 261.06900 259.52500 257.70700 255.50700
 253.00100 250.30200 247.39800 244.45200 241.65400 239.05400 236.73300 234.59000
 232.59500 230.72500 228.83400 226.82600 224.66600 222.38700 220.10400 217.71500
 215.45900 213.06600 210.54600 208.09300 205.35400 202.08130 196.05959 200.71215
 209.01611 216.90438 223.84126 229.78593 235.00632 240.20838 245.98943 250.68668
 254.32982 257.93487 261.55666 264.96801 268.15192 271.06452 273.76717 276.25691
 278.57680 280.74479 282.77456 284.60533 286.27232 287.81705 289.31715 290.65561
 291.81734 292.81312 293.70701 294.49387 295.17482 295.77730 296.32696 296.82492
 297.27278 297.67160 298.02000 298.46400
 366.78100 356.33520 345.76739 334.63359 323.03679 311.23099 299.10118 286.90438
 274.61658 262.51377 250.52297 239.82417 229.94636 221.05056 213.23276 206.23496
 200.06915 195.00735 191.58955 189.63174 188.66894 188.73314 189.56833 190.87653
 192.60173 194.69693 196.96012 199.31932 201.76452 204.24471 206.33291 208.17511
 209.80131 210.94650 211.17570 211.40390 211.34109 211.04629 210.67949 210.30968
 209.92688 209.63708 209.44528 209.30947 209.23767 209.56887 209.95506 210.34426
 211.13746 212.31566 213.56585 215.34905 217.27725 219.32044 221.41564 223.49884
 225.55903 227.64323 229.74043 231.84663 233.97582 236.14802 238.40422 240.77441
 243.39561 245.64681 247.64900 249.41420 250.83140 251.95460 252.77679 253.09299
 253.13019 252.90438 252.26458 251.21278 249.81898 247.98017 245.88937 243.72257
 241.51376 239.31796 237.13816 234.97735 232.83755 230.70475 228.73095 226.88814
 225.17134 223.64354 222.27373 221.04593 219.92813 218.88832 217.99252 217.13372
 216.37592 215.55611 214.65431 214.01851 213.46870 212.96805 211.79111 212.16922
 213.49544 215.42503 216.89490 217.36891 218.62033 222.63103 228.62752 233.50916
 237.29407 241.05122 244.81865 248.55203 252.15244 255.26596 257.87253 260.31653
 262.94949 265.54465 267.95398 270.08585 272.11417 274.05969 275.70935 277.30835
 278.97110 280.61554 282.12909 283.48697 284.66861 285.71680 286.67896 287.55310
 288.34467 289.05444 289.67819 290.51648
 366.78100 356.33413 345.76525 334.63038 323.03251 311.22563 299.09476 286.89689
 274.60802 262.50414 250.51227 239.81240 229.93352 221.03665 213.21778 206.21890
 200.05203 194.98916 191.57028 189.61141 188.64754 188.71067 189.54479 190.85192
 192.57605 194.67017 196.93230 199.29043 201.73455 204.21368 206.30081 208.14194
 209.76706 210.91119 211.13932 211.36644 211.30257 211.00670 210.63882 210.26795
 209.88408 209.59320 209.40033 209.26346 209.19059 209.52071 209.90584 210.29397
 211.08609 212.26322 213.51235 215.29447 217.22160 219.26373 221.35785 223.43998
 225.49911 227.58224 229.67836 231.78349 233.91162 236.08274 238.33787 240.70700
 243.32712 245.57725 247.57838 249.34251 250.75863 251.88076 252.70189 253.01701
 253.05314 252.82627 252.18539 251.13252 249.73765 247.89777 245.80590 243.63803
 241.42816 239.23128 237.05041 234.88854 232.74766 230.61379 228.63892 226.79504
 225.07717 223.54830 222.17742 220.94855 219.82968 218.78881 217.89193 217.03206
 216.27319 215.45231 214.54944 213.91257 213.36169 212.91914 211.87833 212.28593
 213.60396 215.53151 216.92665 217.48407 218.59950 222.64398 228.56387 233.42278
 237.20358 240.97211 244.75729 248.47549 251.99751 255.08633 257.73032 260.21115
 262.78482 265.36111 267.81787 269.97488 272.00101 273.93619 275.57907 277.17630
 278.83981 280.49396 282.01160 283.37140 284.55280 285.60257 286.56332 287.43869
 288.23090 288.94098 289.56732 290.40341
 366.78100 356.33310 345.76320 334.62730 323.02840 311.22050 299.08859 286.88969
 274.59979 262.49489 250.50199 239.80109 229.92119 221.02329 213.20339 206.20349
 200.03559 194.97168 191.55178 189.59188 188.62698 188.68908 189.52218 190.82828
 192.55138 194.64448 196.90558 199.26268 201.70578 204.18387 206.26997 208.11007
 209.73417 210.87727 211.10437 211.33047 211.26557 210.96867 210.59977 210.22787
 209.84296 209.55106 209.35716 209.21926 209.14536 209.47446 209.85856 210.24566
 211.03676 212.21286 213.46096 215.24205 217.16815 219.20925 221.30235 223.38345
 225.44155 227.52365 229.61875 231.72285 233.84995 236.02005 238.27414 240.64224
 243.26134 245.51044 247.51054 249.27364 250.68874 251.80984 252.62994 252.94404
 252.97914 252.75124 252.10933 251.05543 249.65953 247.81863 245.72573 243.55683
 241.34593 239.14803 236.96613 234.80323 232.66133 230.52642 228.55052 226.70562
 224.98672 223.45682 222.08492 220.85502 219.73512 218.69322 217.79532 216.93442
 216.17451 215.35261 214.44871 213.81081 213.25891 212.87163 211.96036 212.40828
 213.71591 215.62369 216.95782 217.56346 218.61766 222.67755 228.50375 233.33655
 237.11063 240.88646 244.68649 248.39018 251.83484 254.90317 257.59366 260.11728
 262.63092 265.17944 267.67508 269.85715 271.88467 273.81165 275.45026 277.04822
 278.72092 280.37814 281.90161 283.26187 284.44431 285.49402 286.45496 287.33167
 288.12427 288.83490 289.46115 290.29935
 366.78100 356.33224 345.76149 334.62473 323.02498 311.21622 299.08347 286.88371
 274.59296 262.48720 250.49345 239.79169 229.91094 221.01218 213.19143 206.19067
 200.02192 194.95716 191.53641 189.57565 188.60990 188.67114 189.50338 190.80863
 192.53087 194.62312 196.88336 199.23961 201.68185 204.15910 206.24434 208.08359
 209.70683 210.84908 211.07532 211.30057 211.23481 210.93706 210.56730 210.19455
 209.80879 209.51604 209.32128 209.18253 209.10777 209.43601 209.81926 210.20550
 210.99575 212.17099 213.41824 215.19848 217.12373 219.16397 221.25622 223.33646
 225.39371 227.47495 229.56920 231.67244 233.79869 235.96793 238.22118 240.58842
 243.20667 245.45491 247.45415 249.21640 250.63064 251.75089 252.57013 252.88338
 252.91762 252.68887 252.04611 250.99136 249.59460 247.75285 245.65909 243.48934
 241.27758 239.07883 236.89607 234.73232 232.58956 230.45381 228.47705 226.63130
 224.91154 223.38078 222.00803 220.77727 219.65652 218.61376 217.71501 216.85325
 216.09250 215.26974 214.36499 213.72623 213.17348 212.83313 212.03191 212.53366
 213.83179 215.70248 217.00722 217.61426 218.67177 222.70969 228.45190 233.25203
 237.01639 240.79680 244.61003 248.30038 251.66916 254.71785 257.45895 260.02805
 262.47870 264.99524 267.52420 269.73218 271.76862 273.69162 275.32538 276.92294
 278.61023 280.26895 281.79910 283.15982 284.34277 285.39307 286.35513 287.23187
 288.02429 288.73438 289.36273 290.19965
 366.78100 356.33147 345.75995 334.62242 323.02190 311.21237 299.07885 286.87832
 274.58679 262.48027 250.48574 239.78322 229.90169 221.00217 213.18064 206.17912
 200.00959 194.94406 191.52254 189.56101 188.59449 188.65496 189.48644 190.79091
 192.51238 194.60386 196.86333 199.21881 201.66028 204.13676 206.22123 208.05971
 209.68218 210.82365 211.04913 211.27360 211.20708 210.90855 210.53803 210.16450
 209.77797 209.48445 209.28892 209.14940 209.07387 209.40135 209.78382 210.16929
 210.95877 212.13324 213.37972 215.15919 217.08367 219.12314 221.21462 223.29409
 225.35056 227.43104 229.52451 231.62699 233.75246 235.92094 238.17341 240.53988
 243.15736 245.40483 247.40331 249.16478 250.57826 251.69773 252.51620 252.82868
 252.86215 252.63263 251.98910 250.93358 249.53605 247.69353 245.59900 243.42847
 241.21595 239.01642 236.83290 234.66837 232.52485 230.38832 228.41079 226.56427
 224.84374 223.31222 221.93869 220.70717 219.58564 218.54212 217.64259 216.78006
 216.01854 215.19501 214.28949 213.64996 213.09644 212.79930 212.09938 212.65839
 213.94377 215.77556 217.07040 217.65894 218.75563 222.72972 228.40939 233.17427
 236.92241 240.70580 244.52618 248.20334 251.49736 254.52663 257.32120 259.93823
 262.33148 264.80911 267.36618 269.60269 271.65155 273.57614 275.20987 276.80786
 278.49915 280.17014 281.70346 283.06619 284.24808 285.29941 286.26193 287.13840
 287.93066 288.64246 289.26883 290.10770
 366.78100 356.33070 345.75839 334.62009 323.01879 311.20849 299.07418 286.87288
 274.58058 262.47328 250.47797 239.77467 229.89237 220.99207 213.16976 206.16746
 199.99716 194.93086 191.50855 189.54625 188.57895 188.63864 189.46934 190.77304
 192.49374 194.58443 196.84313 199.19783 201.63853 204.11422 206.19792 208.03562
 209.65732 210.79801 211.02271 211.24641 211.17911 210.87980 210.50850 210.13420
 209.74690 209.45259 209.25629 209.11599 209.03968 209.36638 209.74808 210.13278
 210.92147 212.09517 213.34087 215.11957 217.04326 219.08196 221.17266 223.25136
 225.30705 227.38675 229.47945 231.58115 233.70584 235.87354 238.12524 240.49093
 243.10763 245.35433 247.35203 249.11272 250.52542 251.64412 252.46182 252.77351
 252.80621 252.57591 251.93161 250.87530 249.47700 247.63370 245.53840 243.36709
 241.15379 238.95349 236.76918 234.60388 232.45958 230.32228 228.34397 226.49667
 224.77537 223.24307 221.86876 220.63646 219.51416 218.46986 217.56955 216.70625
 215.94395 215.11965 214.21334 213.57304 213.01874 212.76544 212.16829 212.78226
 214.05254 215.84398 217.12885 217.71323 218.85822 222.74191 228.37601 233.10497
 236.83189 240.61636 244.44016 248.10037 251.32100 254.32779 257.17398 259.83939
 262.19101 264.62436 267.19937 269.45889 271.52554 273.45917 275.11154 276.72733
 278.42249 280.07877 281.61115 282.97415 284.15778 285.20792 286.17160 287.04565
 287.84039 288.55145 289.17822 290.01880
 366.78100 356.32997 345.75694 334.61791 323.01589 311.20486 299.06983 286.86780
 274.57477 262.46674 250.47072 239.76669 229.88366 220.98263 213.15960 206.15657
 199.98554 194.91852 191.49549 189.53246 188.56443 188.62340 189.45337 190.75634
 192.47632 194.56629 196.82426 199.17823 201.61820 204.09317 206.17615 208.01312
 209.63409 210.77406 210.99803 211.22100 211.15297 210.85295 210.48092 210.10589
 209.71786 209.42283 209.22580 209.08478 209.00775 209.33372 209.71469 210.09866
 210.88663 212.05960 213.30458 215.08255 217.00552 219.04349 221.13346 223.21143
 225.26640 227.34538 229.43735 231.53832 233.66229 235.82926 238.08023 240.44521
 243.06118 245.30715 247.30412 249.06409 250.47606 251.59403 252.41101 252.72198
 252.75395 252.52292 251.87789 250.82086 249.42184 247.57781 245.48178 243.30975
 241.09572 238.89469 236.70966 234.54364 232.39861 230.26058 228.28155 226.43352
 224.71149 223.17847 221.80344 220.57041 219.44738 218.40235 217.50132 216.63729
 215.87427 215.04924 214.14221 213.50118 212.94615 212.73499 212.23669 212.90471
 214.15955 215.91309 217.18118 217.77206 218.96330 222.76024 228.34727 233.04208
 236.74805 240.53139 244.35664 247.99617 251.14548 254.12550 257.01688 259.73096
 262.05237 264.44510 267.02383 269.29709 271.38132 273.32437 274.99490 276.63687
 278.33841 280.02704 281.56882 282.93323 284.11859 285.17117 286.13724 287.01828
 287.82053 288.53784 289.17300 290.01212
 366.78100 356.32937 345.75575 334.61612 323.01349 311.20187 299.06624 286.86361
 274.56999 262.46136 250.46474 239.76011 229.87648 220.97486 213.15123 206.14760
 199.97598 194.90835 191.48472 189.52110 188.55247 188.61084 189.44022 190.74259
 192.46196 194.55134 196.80871 199.16209 201.60146 204.07583 206.15821 207.99458
 209.61495 210.75433 210.97770 211.20007 211.13145 210.83082 210.45819 210.08257
 209.69394 209.39831 209.20069 209.05906 208.98144 209.30681 209.68718 210.07056
 210.85793 212.03030 213.27468 215.05205 216.97442 219.01180 221.10117 223.17854
 225.23292 227.31129 229.40266 231.50304 233.62641 235.79279 238.04316 240.40753
 243.02291 245.26828 247.26465 249.02403 250.43540 251.55277 252.36915 252.67952
 252.71089 252.47927 251.83364 250.77601 249.37639 247.53176 245.43513 243.26251
 241.04788 238.84626 236.66063 234.49400 232.34838 230.20975 228.23012 226.38150
 224.65887 223.12524 221.74962 220.51599 219.39236 218.34674 217.44511 216.58048
 215.81686 214.99123 214.08361 213.44198 212.88635 212.71233 212.30116 213.02408
 214.26408 215.98697 217.24223 217.82437 219.06792 222.78661 228.32446 232.97949
 236.66698 240.44958 244.27576 247.89037 250.97083 253.92052 256.85022 259.61279
 261.91132 264.27493 266.84875 269.13397 271.23822 273.19284 274.87732 276.53647
 278.25790 279.99026 281.53790 282.90356 284.08887 285.14374 286.10950 286.99323
 287.79944 288.51926 289.15216 289.99634
 366.78100 356.32890 345.75480 334.61471 323.01161 311.19951 299.06341 286.86031
 274.56622 262.45712 250.46002 239.75492 229.87082 220.96873 213.14463 206.14053
 199.96843 194.90033 191.47624 189.51214 188.54304 188.60094 189.42984 190.73175
 192.45065 194.53955 196.79645 199.14935 201.58826 204.06216 206.14406 207.97996
 209.59986 210.73877 210.96167 211.18357 211.11447 210.81338 210.44028 210.06418
 209.67508 209.37898 209.18089 209.03879 208.96069 209.28559 209.66549 210.04840
 210.83530 212.00720 213.25110 215.02800 216.94991 218.98681 221.07571 223.15261
 225.20651 227.28442 229.37532 231.47522 233.59812 235.76402 238.01393 240.37783
 242.99273 245.23763 247.23353 248.99244 250.40334 251.52024 252.33614 252.64604
 252.67695 252.44485 251.79875 250.74065 249.34055 247.49546 245.39836 243.22526
 241.01016 238.80806 236.62197 234.45487 232.30877 230.16967 228.18957 226.34048
 224.61738 223.08328 221.70718 220.47308 219.34899 218.30289 217.40079 216.53569
 215.77159 214.94550 214.03740 213.39530 212.83920 212.69772 212.36343 213.14227
 214.36382 216.06436 217.31104 217.87866 219.17058 222.81795 228.30312 232.91759
 236.58833 240.37320 244.19809 247.78242 250.79364 253.70912 256.67120 259.47998
 261.76642 264.10934 266.67517 268.97476 271.10669 273.07950 274.77789 276.45081
 278.20370 279.95126 281.50064 282.86829 284.05508 285.11032 286.07687 286.96088
 287.76819 288.49170 289.12540 289.97107
 366.78100 356.32840 345.75380 334.61320 323.00961 311.19701 299.06041 286.85681
 274.56221 262.45261 250.45502 239.74942 229.86482 220.96222 213.13762 206.13302
 199.96042 194.89183 191.46723 189.50263 188.53303 188.59043 189.41883 190.72024
 192.43864 194.52704 196.78344 199.13584 201.57424 204.04764 206.12905 207.96445
 209.58385 210.72225 210.94465 211.16605 211.09646 210.79486 210.42126 210.04466
 209.65506 209.35846 209.15986 209.01727 208.93867 209.26307 209.64247 210.02487
 210.81127 211.98268 213.22608 215.00248 216.92388 218.96028 221.04868 223.12508
 225.17849 227.25589 229.34629 231.44569 233.56809 235.73349 237.98290 240.34630
 242.96070 245.20510 247.20050 248.95890 250.36930 251.48571 252.30111 252.61051
 252.64091 252.40831 251.76171 250.70312 249.30252 247.45692 245.35932 243.18572
 240.97012 238.76752 236.58093 234.41333 232.26673 230.12713 228.14653 226.29693
 224.57334 223.03874 221.66214 220.42754 219.30294 218.25634 217.35374 216.48815
 215.72355 214.89695 213.98835 213.34575 212.78915 212.68318 212.43285 213.25740
 214.46519 216.13687 217.38103 217.92551 219.28671 222.84715 228.27885 232.85341
 236.50967 240.30107 244.12315 247.67468 250.61844 253.49678 256.48520 259.33728
 261.62534 263.95020 266.50458 268.82025 270.98273 272.97668 274.68909 276.37341
 278.15997 279.91788 281.46918 282.83734 284.02570 285.08148 286.05057 286.93497
 287.74539 288.46857 289.10300 289.95071
 366.78100 356.32793 345.75287 334.61180 323.00774 311.19467 299.05761 286.85354
 274.55848 262.44841 250.45035 239.74428 229.85922 220.95615 213.13109 206.12602
 199.95296 194.88389 191.45883 189.49376 188.52370 188.58063 189.40857 190.70950
 192.42743 194.51537 196.77130 199.12324 201.56117 204.03411 206.11504 207.94998
 209.56891 210.70685 210.92878 211.14972 211.07965 210.77759 210.40352 210.02646
 209.63639 209.33933 209.14026 208.99720 208.91813 209.24206 209.62100 210.00293
 210.78887 211.95980 213.20274 214.97867 216.89961 218.93554 221.02348 223.09941
 225.15235 227.22928 229.31922 231.41815 233.54009 235.70502 237.95396 240.31689
 242.93083 245.17476 247.16970 248.92763 250.33756 251.45350 252.26843 252.57737
 252.60730 252.37424 251.72717 250.66811 249.26704 247.42098 245.32291 243.14885
 240.93278 238.72972 236.54265 234.37459 232.22752 230.08746 228.10639 226.25633
 224.53226 222.99719 221.62013 220.38506 219.26000 218.21293 217.30987 216.44380
 215.67874 214.85167 213.94261 213.29954 212.74248 212.67136 212.50333 213.38350
 214.56276 216.20705 217.44208 217.97308 219.40363 222.86931 228.26270 232.79309
 236.43054 240.22906 244.04593 247.56146 250.43764 253.27606 256.28622 259.17908
 261.48462 263.80432 266.34848 268.68579 270.88379 272.90863 274.64026 276.33630
 278.11172 279.86392 281.41382 282.78226 283.97043 285.02545 285.99390 286.88107
 287.68777 288.41422 289.04773 289.89716
 366.78100 356.32718 345.75136 334.60954 323.00472 311.19090 299.05308 286.84826
 274.55244 262.44162 250.44280 239.73598 229.85016 220.94634 213.12052 206.11470
 199.94088 194.87106 191.44524 189.47942 188.50860 188.56478 189.39195 190.69213
 192.40931 194.49649 196.75167 199.10285 201.54003 204.01221 206.09239 207.92657
 209.54475 210.68193 210.90311 211.12329 211.05247 210.74965 210.37483 209.99701
 209.60619 209.30837 209.10855 208.96473 208.88491 209.20809 209.58627 209.96745
 210.75263 211.92281 213.16499 214.94017 216.86035 218.89553 220.98271 223.05789
 225.11007 227.18625 229.27543 231.37361 233.49479 235.65897 237.90715 240.26933
 242.88251 245.12569 247.11986 248.87704 250.28622 251.40140 252.21558 252.52376
 252.55294 252.31912 251.67130 250.61148 249.20966 247.36284 245.26402 243.08920
 240.87238 238.66856 236.48074 234.31192 232.16410 230.02328 228.04146 226.19064
 224.46582 222.93000 221.55218 220.31636 219.19054 218.14272 217.23890 216.37208
 215.60626 214.77844 213.86862 213.22480 212.66698 212.64520 212.59375 213.52275
 214.63686 216.25491 217.53429 218.03357 219.55119 222.90538 228.22609 232.71368
 236.33978 240.14713 243.95656 247.43050 250.24059 253.04398 256.07819 259.01147
 261.35458 263.68201 266.21307 268.57217 270.80453 272.86301 274.61502 276.31564
 278.07379 279.81345 281.36334 282.72931 283.91602 284.96988 285.93649 286.81989
 287.62637 288.34793 288.96793 289.80615
 366.78100 356.32633 345.74966 334.60700 323.00133 311.18666 299.04799 286.84232
 274.54565 262.43399 250.43432 239.72665 229.83998 220.93531 213.10865 206.10198
 199.92731 194.85664 191.42997 189.46330 188.49164 188.54697 189.37330 190.67263
 192.38896 194.47530 196.72963 199.07996 201.51629 203.98762 206.06696 207.90029
 209.51762 210.65395 210.87428 211.09361 211.02195 210.71828 210.34261 209.96394
 209.57227 209.27361 209.07294 208.92827 208.84760 209.16993 209.54726 209.92760
 210.71193 211.88126 213.12259 214.89692 216.81626 218.85059 220.93692 223.01125
 225.06258 227.13791 229.22625 231.32358 233.44391 235.60724 237.85457 240.21591
 242.82824 245.07057 247.06390 248.82023 250.22857 251.34290 252.15623 252.46356
 252.49189 252.25722 251.60856 250.54789 249.14522 247.29755 245.19788 243.02222
 240.80455 238.59988 236.41121 234.24154 232.09287 229.95121 227.96854 226.11687
 224.39120 222.85453 221.47587 220.23920 219.11253 218.06386 217.15919 216.29152
 215.52486 214.69619 213.78552 213.14085 212.58218 212.61342 212.68723 213.69931
 214.71005 216.20383 217.65768 218.22090 219.67705 222.88036 228.17102 232.62665
 236.24377 240.06161 243.86119 247.29189 250.04205 252.81786 255.87302 258.84613
 261.24442 263.58292 266.09320 268.46814 270.73300 272.82584 274.59952 276.30478
 278.04541 279.77744 281.32535 282.69186 283.87775 284.93292 285.89932 286.78406
 287.59088 288.31558 288.93475 289.77335
 366.78100 356.32603 345.74905 334.60608 323.00011 311.18513 299.04616 286.84019
 274.54321 262.43124 250.43127 239.72329 229.83632 220.93134 213.10437 206.09740
 199.92242 194.85145 191.42448 189.45750 188.48553 188.54056 189.36658 190.66561
 192.38164 194.46766 196.72169 199.07172 201.50774 203.97877 206.05780 207.89082
 209.50785 210.64387 210.86390 211.08293 211.01095 210.70698 210.33101 209.95203
 209.56006 209.26109 209.06011 208.91514 208.83417 209.15619 209.53322 209.91325
 210.69727 211.86630 213.10733 214.88135 216.80038 218.83441 220.92043 222.99446
 225.04548 227.12051 229.20854 231.30556 233.42559 235.58862 237.83564 240.19667
 242.80870 245.05072 247.04375 248.79978 250.20780 251.32183 252.13486 252.44188
 252.46991 252.23494 251.58596 250.52499 249.12201 247.27404 245.17407 242.99809
 240.78012 238.57515 236.38617 234.21620 232.06723 229.92525 227.94228 226.09031
 224.36433 222.82736 221.44839 220.21141 219.08444 218.03547 217.13049 216.26252
 215.49554 214.66657 213.75560 213.11062 212.55165 212.61134 212.75237 213.85875
 214.87598 216.23456 217.64180 218.32928 219.80328 222.83638 228.13448 232.55420
 236.14738 239.97314 243.75905 247.14574 249.84477 252.59700 255.66870 258.67886
 261.14185 263.49976 265.99103 268.38486 270.68018 272.80823 274.60684 276.31277
 278.04205 279.73737 281.28183 282.64761 283.83536 284.88879 285.85388 286.73969
 287.54892 288.27139 288.89142 289.73038
 366.78100 356.32596 345.74892 334.60587 322.99983 311.18479 299.04575 286.83971
 274.54266 262.43062 250.43058 239.72254 229.83550 220.93045 213.10341 206.09637
 199.92133 194.85029 191.42324 189.45620 188.48416 188.53912 189.36508 190.66403
 192.37999 194.46595 196.71991 199.06987 201.50582 203.97678 206.05574 207.88870
 209.50566 210.64161 210.86157 211.08053 211.00849 210.70445 210.32840 209.94936
 209.55732 209.25828 209.05724 208.91219 208.83115 209.15311 209.53007 209.91003
 210.69398 211.86294 213.10390 214.87786 216.79682 218.83077 220.91673 222.99069
 225.04165 227.11661 229.20456 231.30152 233.42148 235.58444 237.83140 240.19235
 242.80431 245.04627 247.03923 248.79519 250.20314 251.31710 252.13006 252.43702
 252.46498 252.22993 251.58089 250.51985 249.11681 247.26877 245.16872 242.99268
 240.77464 238.56960 236.38056 234.21051 232.06147 229.91943 227.93639 226.08435
 224.35830 222.82126 221.44222 220.20518 219.07814 218.02909 217.12405 216.25601
 215.48897 214.65993 213.74888 213.10384 212.54480 212.62769 212.82353 213.95555
 215.05850 216.35391 217.61299 218.41852 219.95314 222.83160 228.10016 232.47031
 236.04231 239.87456 243.64398 246.98273 249.63455 252.36830 255.45238 258.49515
 261.03024 263.42041 265.90155 268.31378 270.64270 272.80801 274.63428 276.32788
 278.03445 279.69910 281.24475 282.61139 283.79904 284.85245 285.81937 286.70547
 287.51279 288.23093 288.85013 289.69128
 366.78100 356.32564 345.74829 334.60493 322.99857 311.18322 299.04386 286.83750
 274.54015 262.42779 250.42743 239.71908 229.83172 220.92636 213.09901 206.09165
 199.91629 194.84494 191.41758 189.45022 188.47787 188.53251 189.35815 190.65680
 192.37244 194.45808 196.71173 199.06137 201.49701 203.96766 206.04630 207.87894
 209.49559 210.63123 210.85087 211.06952 210.99716 210.69280 210.31645 209.93709
 209.54473 209.24538 209.04402 208.89866 208.81731 209.13895 209.51559 209.89524
 210.67888 211.84752 213.08817 214.86181 216.78045 218.81410 220.89974 222.97338
 225.02403 227.09867 229.18631 231.28296 233.40260 235.56525 237.81189 240.17253
 242.78418 245.02582 247.01846 248.77411 250.18175 251.29539 252.10804 252.41468
 252.44232 252.20697 251.55761 250.49625 249.09290 247.24454 245.14418 242.96783
 240.74947 238.54411 236.35476 234.18440 232.03504 229.89269 227.90933 226.05697
 224.33062 222.79326 221.41390 220.17655 219.04919 217.99983 217.09448 216.22612
 215.45876 214.62941 213.71805 213.07269 212.51334 212.63524 212.92323 214.03552
 215.19226 216.47119 217.61844 218.53223 220.11232 222.90385 228.06007 232.38307
 235.93768 239.77719 243.52747 246.81526 249.42322 252.13890 255.22946 258.29352
 260.89450 263.33023 265.80682 268.24350 270.60471 272.81760 274.70184 276.42801
 278.13660 279.72589 281.17108 282.52441 283.70795 284.75806 285.72134 286.60742
 287.42099 288.13409 288.75592 289.59885
 366.78100 356.32497 345.74694 334.60291 322.99587 311.17984 299.03981 286.83278
 274.53475 262.42172 250.42069 239.71165 229.82362 220.91759 213.08956 206.08153
 199.90550 194.83347 191.40544 189.43740 188.46437 188.51834 189.34331 190.64128
 192.35625 194.44122 196.69418 199.04315 201.47812 203.94809 206.02606 207.85803
 209.47400 210.60896 210.82793 211.04590 210.97287 210.66784 210.29081 209.91078
 209.51774 209.21771 209.01568 208.86965 208.78762 209.10859 209.48456 209.86353
 210.64649 211.81446 213.05443 214.82740 216.74537 218.77834 220.86331 222.93627
 224.98624 227.06021 229.14718 231.24315 233.36212 235.52409 237.77005 240.13002
 242.74099 244.98196 246.97393 248.72890 250.13587 251.24883 252.06080 252.36677
 252.39374 252.15771 251.50768 250.44565 249.04161 247.19258 245.09155 242.91452
 240.69549 238.48946 236.29943 234.12840 231.97836 229.83533 227.85130 225.99827
 224.27124 222.73321 221.35318 220.11514 218.98711 217.93708 217.03105 216.16202
 215.39399 214.56396 213.65192 213.00589 212.44586 212.62296 213.04135 214.16727
 215.30482 216.52179 217.62907 218.62868 220.22012 223.00031 228.00121 232.29378
 235.83141 239.67871 243.40149 246.63103 249.20969 251.91298 255.01361 258.10590
 260.79486 263.26993 265.74808 268.19629 270.57562 272.81104 274.73199 276.47726
 278.18613 279.74716 281.18320 282.53574 283.71985 284.77026 285.73242 286.61853
 287.43454 288.14233 288.76114 289.60452
 366.78100 356.32455 345.74609 334.60164 322.99419 311.17773 299.03728 286.82982
 274.53137 262.41792 250.41646 239.70701 229.81856 220.91210 213.08365 206.07519
 199.89874 194.82629 191.39783 189.42938 188.45593 188.50947 189.33402 190.63156
 192.34611 194.43066 196.68320 199.03175 201.46630 203.93584 206.01339 207.84493
 209.46048 210.59503 210.81357 211.03112 210.95767 210.65221 210.27476 209.89430
 209.50085 209.20040 208.99794 208.85149 208.76904 209.08958 209.46513 209.84367
 210.62622 211.79377 213.03331 214.80586 216.72341 218.75595 220.84050 222.91304
 224.96259 227.03614 229.12268 231.21823 233.33678 235.49832 237.74387 240.10341
 242.71396 244.95451 246.94605 248.70060 250.10715 251.21969 252.03124 252.33678
 252.36333 252.12688 251.47642 250.41397 249.00952 247.16006 245.05861 242.88115
 240.66170 238.45525 236.26479 234.09334 231.94289 229.79943 227.81498 225.96152
 224.23407 222.69562 221.31516 220.07671 218.94826 217.89780 216.99135 216.12189
 215.35344 214.52299 213.61053 212.96408 212.40363 212.61646 213.11928 214.41444
 215.41397 216.51355 217.67738 218.72444 220.30014 223.08287 227.92941 232.18387
 235.71783 239.56732 243.25330 246.41081 248.97527 251.66344 254.77319 257.89182
 260.66763 263.21085 265.70001 268.17621 270.57880 272.82950 274.80334 276.56635
 278.24213 279.78293 281.21179 282.57693 283.76215 284.81381 285.77728 286.66434
 287.47781 288.18799 288.80984 289.64917
 366.78100 356.32510 345.74719 334.60329 322.99639 311.18048 299.04058 286.83368
 274.53577 262.42287 250.42197 239.71306 229.82516 220.91926 213.09135 206.08345
 199.90755 194.83564 191.40774 189.43984 188.46693 188.52103 189.34613 190.64422
 192.35932 194.44442 196.69751 199.04661 201.48171 203.95180 206.02990 207.86200
 209.47809 210.61319 210.83229 211.05038 210.97748 210.67258 210.29567 209.91577
 209.52287 209.22296 209.02106 208.87516 208.79325 209.11435 209.49045 209.86954
 210.65264 211.82074 213.06083 214.83393 216.75203 218.78512 220.87022 222.94332
 224.99341 227.06751 229.15461 231.25070 233.36980 235.53190 237.77799 240.13809
 242.74918 244.99028 246.98238 248.73747 250.14457 251.25767 252.06976 252.37586
 252.40296 252.16705 251.51715 250.45525 249.05134 247.20244 245.10154 242.92463
 240.70573 238.49983 236.30992 234.13902 231.98912 229.84621 227.86231 226.00941
 224.28250 222.74460 221.36470 220.12679 218.99889 217.94899 217.04308 216.17418
 215.40628 214.57637 213.66447 213.01857 212.45866 212.65523 213.12054 214.70688
 215.53020 216.56432 217.81395 218.85229 220.40048 223.16057 227.85403 232.04564
 235.58978 239.41841 243.04489 246.11848 248.67567 251.35945 254.47411 257.59290
 260.42395 263.03751 265.58466 268.11801 270.55948 272.83438 274.87088 276.69235
 278.37576 279.90195 281.28662 282.60352 283.78735 284.83365 285.79181 286.67581
 287.47552 288.18158 288.81287 289.63391
 366.78100 356.32607 345.74914 334.60622 323.00029 311.18536 299.04643 286.84051
 274.54358 262.43165 250.43172 239.72380 229.83687 220.93194 213.10501 206.09808
 199.92316 194.85223 191.42530 189.45837 188.48645 188.54152 189.36759 190.66666
 192.38273 194.46881 196.72288 199.07295 201.50902 203.98010 206.05917 207.89224
 209.50931 210.64539 210.86546 211.08453 211.01260 210.70867 210.33275 209.95382
 209.56189 209.26296 209.06204 208.91711 208.83618 209.15825 209.53533 209.91540
 210.69947 211.86854 213.10961 214.88369 216.80276 218.83683 220.92290 222.99698
 225.04805 227.12312 229.21119 231.30826 233.42834 235.59141 237.83848 240.19955
 242.81163 245.05370 247.04677 248.80284 250.21092 251.32499 252.13806 252.44513
 252.47320 252.23828 251.58935 250.52842 249.12549 247.27757 245.17764 243.00171
 240.78378 238.57886 236.38993 234.22000 232.07107 229.92914 227.94622 226.09429
 224.36836 222.83143 221.45251 220.21558 219.08865 218.03972 217.13479 216.26687
 215.49994 214.67101 213.76008 213.11516 212.55623 212.72929 213.14209 214.78090
 215.66652 216.82915 218.03867 219.01241 220.53917 223.24811 227.80090 231.92340
 235.46744 239.24561 242.79231 245.78835 248.33864 251.03575 254.15855 257.28873
 260.16595 262.84702 265.46454 268.03461 270.51239 272.82202 274.91330 276.78299
 278.47363 279.97827 281.33853 282.64200 283.83047 284.88626 285.85526 286.73035
 287.50827 288.19733 288.81390 289.60593
 366.78100 356.32643 345.74986 334.60729 323.00173 311.18716 299.04859 286.84302
 274.54645 262.43488 250.43531 239.72775 229.84118 220.93661 213.11004 206.10347
 199.92890 194.85834 191.43177 189.46520 188.49363 188.54906 189.37549 190.67492
 192.39136 194.47779 196.73222 199.08265 201.51908 203.99051 206.06994 207.90338
 209.52081 210.65724 210.87767 211.09710 211.02553 210.72196 210.34640 209.96783
 209.57626 209.27769 209.07712 208.93255 208.85199 209.17442 209.55185 209.93228
 210.71671 211.88614 213.12757 214.90201 216.82144 218.85587 220.94230 223.01673
 225.06816 227.14359 229.23203 231.32946 233.44989 235.61332 237.86075 240.22218
 242.83461 245.07705 247.07048 248.82691 250.23534 251.34977 252.16320 252.47063
 252.49907 252.26450 251.61593 250.55536 249.15279 247.30522 245.20566 243.03009
 240.81252 238.60795 236.41938 234.24981 232.10124 229.95968 227.97711 226.12554
 224.39997 222.86340 221.48483 220.24826 219.12170 218.07313 217.16856 216.30099
 215.53442 214.70585 213.79528 213.15072 212.59215 212.78647 213.24809 214.70181
 215.70508 217.09114 218.27061 219.23485 220.77484 223.41089 227.81715 231.86331
 235.38759 239.10370 242.57289 245.50691 248.05643 250.77991 253.92047 257.08069
 260.00342 262.73236 265.38690 267.97256 270.47284 272.80695 274.91922 276.79465
 278.47668 279.97931 281.34354 282.64996 283.83472 284.88721 285.85446 286.72659
 287.50146 288.18875 288.80365 289.59381
 366.78100 356.32774 345.75248 334.61122 323.00696 311.19369 299.05643 286.85217
 274.55691 262.44665 250.44839 239.74213 229.85687 220.95361 213.12834 206.12308
 199.94982 194.88056 191.45530 189.49004 188.51978 188.57652 189.40425 190.70499
 192.42273 194.51047 196.76621 199.11795 201.55569 204.02843 206.10917 207.94390
 209.56264 210.70038 210.92212 211.14286 211.07260 210.77034 210.39608 210.01882
 209.62855 209.33129 209.13203 208.98877 208.90951 209.23325 209.61199 209.99373
 210.77946 211.95020 213.19294 214.96868 216.88942 218.92516 221.01290 223.08864
 225.14138 227.21811 229.30785 231.40659 233.52833 235.69307 237.94181 240.30455
 242.91829 245.16203 247.15676 248.91450 250.32424 251.43998 252.25472 252.56346
 252.59320 252.35994 251.71267 250.65341 249.25215 247.40589 245.30763 243.13337
 240.91711 238.71385 236.52659 234.35832 232.21106 230.07080 228.08954 226.23928
 224.51502 222.97976 221.60250 220.36724 219.24197 218.19471 217.29145 216.42519
 215.65993 214.83267 213.92341 213.28015 212.72289 212.88907 213.28168 214.75890
 215.76941 217.15396 218.41493 219.44479 221.02209 223.59398 227.86598 231.83177
 235.31830 238.96791 242.34796 245.21953 247.78122 250.54379 253.69824 256.88416
 259.86627 262.66083 265.35568 267.96841 270.46741 272.79391 274.89438 276.75659
 278.44226 279.95532 281.30518 282.58777 283.76944 284.81921 285.78757 286.66144
 287.43939 288.13693 288.77344 289.62140
 366.78100 356.32887 345.75474 334.61462 323.01149 311.19936 299.06323 286.86011
 274.56598 262.45685 250.45972 239.75460 229.87047 220.96834 213.14421 206.14009
 199.96796 194.89983 191.47570 189.51158 188.54245 188.60032 189.42919 190.73107
 192.44994 194.53881 196.79568 199.14856 201.58743 204.06130 206.14317 207.97905
 209.59892 210.73779 210.96066 211.18253 211.11341 210.81228 210.43915 210.06302
 209.67390 209.37777 209.17964 209.03751 208.95939 209.28426 209.66413 210.04700
 210.83388 212.00575 213.24962 215.02649 216.94837 218.98524 221.07411 223.15098
 225.20486 227.28273 229.37360 231.47347 233.59635 235.76222 238.01209 240.37596
 242.99084 245.23571 247.23158 248.99045 250.40133 251.51820 252.33407 252.64394
 252.67481 252.44269 251.79656 250.73843 249.33830 247.49318 245.39605 243.22292
 241.00779 238.80567 236.61954 234.45241 232.30628 230.16716 228.18703 226.33790
 224.61477 223.08065 221.70452 220.47039 219.34626 218.30014 217.39801 216.53288
 215.76875 214.94263 214.03450 213.39237 212.83624 212.97598 213.30614 214.85638
 215.92680 217.23982 218.50320 219.55878 221.18439 223.70439 227.88052 231.79147
 235.22069 238.79109 242.06456 244.87257 247.45586 250.27698 253.47063 256.70953
 259.78207 262.66302 265.39746 268.01590 270.48401 272.77228 274.84772 276.70599
 278.40750 279.94998 281.30396 282.48242 283.61108 284.65430 285.61081 286.45178
 287.21506 287.90720 288.53952 289.40543
 366.78100 356.32963 345.75626 334.61688 323.01451 311.20314 299.06777 286.86540
 274.57202 262.46365 250.46728 239.76291 229.87954 220.97816 213.15479 206.15142
 199.98005 194.91268 191.48930 189.52593 188.55756 188.61619 189.44582 190.74844
 192.46807 194.55770 196.81533 199.16896 201.60859 204.08321 206.16584 208.00247
 209.62310 210.76273 210.98635 211.20898 211.14061 210.84024 210.46787 210.09249
 209.70412 209.40875 209.21138 209.07001 208.99263 209.31826 209.69889 210.08252
 210.87015 212.04277 213.28740 215.06503 216.98766 219.02529 221.11491 223.19254
 225.24717 227.32580 229.41743 231.51805 233.64168 235.80831 238.05894 240.42357
 243.03919 245.28482 247.28145 249.04108 250.45271 251.57033 252.38696 252.69759
 252.72922 252.49785 251.85248 250.79510 249.39573 247.55136 245.45499 243.28262
 241.06824 238.86687 236.68150 234.51513 232.36976 230.23138 228.25201 226.40364
 224.68127 223.14790 221.77252 220.53915 219.41578 218.37041 217.46904 216.60466
 215.84129 215.01592 214.10855 213.46718 212.91180 213.04401 213.35634 214.91248
 216.08195 217.41512 218.61116 219.62996 221.30098 223.75992 227.87086 231.76016
 235.12332 238.60909 241.76955 244.51691 247.12898 250.02538 253.28630 256.59900
 259.76080 262.70996 265.45587 268.05045 270.47629 272.73151 274.78827 276.65656
 278.39410 279.95615 281.32584 282.51727 283.49838 284.52301 285.47281 286.27692
 287.03915 287.73007 288.35840 289.22195
 366.78100 356.32927 345.75555 334.61582 323.01309 311.20136 299.06564 286.86291
 274.56918 262.46046 250.46373 239.75900 229.87528 220.97355 213.14982 206.14609
 199.97437 194.90664 191.48291 189.51919 188.55046 188.60873 189.43801 190.74028
 192.45955 194.54882 196.80610 199.15937 201.59864 204.07292 206.15519 207.99146
 209.61174 210.75101 210.97428 211.19655 211.12783 210.82710 210.45437 210.07865
 209.68992 209.39419 209.19646 209.05474 208.97701 209.30228 209.68256 210.06583
 210.85310 212.02538 213.26965 215.04692 216.96919 219.00647 221.09574 223.17301
 225.22729 227.30556 229.39683 231.49711 233.62038 235.78665 238.03692 240.40120
 243.01647 245.26174 247.25802 249.01729 250.42856 251.54583 252.36211 252.67238
 252.70365 252.47193 251.82620 250.76847 249.36875 247.52402 245.42729 243.25456
 241.03984 238.83811 236.65238 234.48566 232.33993 230.20120 228.22148 226.37275
 224.65002 223.11629 221.74057 220.50684 219.38311 218.33739 217.43566 216.57093
 215.80721 214.98148 214.07375 213.43202 212.87630 213.05296 213.47037 214.97993
 216.19916 217.57886 218.65646 219.67485 221.41345 223.81351 227.86731 231.75122
 235.06177 238.45779 241.49437 244.17197 246.81805 249.80009 253.13588 256.51764
 259.74579 262.74020 265.49823 268.07748 270.47400 272.70505 274.75937 276.64688
 278.40143 279.96667 281.32217 282.49197 283.51001 284.53015 285.47665 286.09772
 286.84222 287.53717 288.16620 289.04605
 366.78100 356.32760 345.75219 334.61079 323.00638 311.19298 299.05557 286.85117
 274.55576 262.44536 250.44696 239.74055 229.85515 220.95174 213.12634 206.12093
 199.94753 194.87812 191.45272 189.48732 188.51691 188.57351 189.40110 190.70170
 192.41929 194.50689 196.76248 199.11408 201.55168 204.02427 206.10487 207.93946
 209.55806 210.69565 210.91725 211.13784 211.06744 210.76504 210.39063 210.01323
 209.62282 209.32542 209.12601 208.98261 208.90321 209.22680 209.60540 209.98699
 210.77259 211.94318 213.18578 214.96137 216.88197 218.91757 221.00516 223.08076
 225.13335 227.20995 229.29954 231.39814 233.51973 235.68433 237.93293 240.29552
 242.90912 245.15271 247.14731 248.90490 250.31450 251.43009 252.24469 252.55329
 252.58288 252.34948 251.70207 250.64267 249.24126 247.39486 245.29645 243.12205
 240.90565 238.70224 236.51484 234.34643 232.19903 230.05862 228.07722 226.22681
 224.50241 222.96701 221.58960 220.35420 219.22879 218.18139 217.27798 216.41158
 215.64617 214.81877 213.90937 213.26596 212.70856 212.98457 213.63669 215.15620
 216.20287 217.70494 218.73119 219.66187 221.48705 223.86237 227.90025 231.78198
 235.03366 238.32585 241.22504 243.81779 246.50050 249.56229 252.96660 256.40152
 259.68536 262.72818 265.52115 268.11139 270.49945 272.71396 274.77258 276.67151
 278.42950 279.99072 281.34753 282.50494 283.53125 284.52682 285.43063 286.02463
 286.77563 287.47354 288.10776 288.98911
 366.78100 356.32889 345.75478 334.61466 323.01155 311.19944 299.06333 286.86022
 274.56610 262.45699 250.45988 239.75477 229.87066 220.96854 213.14443 206.14032
 199.96821 194.90010 191.47598 189.51187 188.54276 188.60065 189.42954 190.73142
 192.45031 194.53920 196.79609 199.14898 201.58786 204.06175 206.14364 207.97953
 209.59942 210.73830 210.96119 211.18308 211.11397 210.81286 210.43974 210.06363
 209.67452 209.37841 209.18030 209.03818 208.96007 209.28496 209.66485 210.04774
 210.83462 212.00651 213.25040 215.02729 216.94918 218.98606 221.07495 223.15184
 225.20573 227.28362 229.37450 231.47439 233.59728 235.76317 238.01306 240.37694
 242.99183 245.23672 247.23261 248.99150 250.40238 251.51927 252.33516 252.64505
 252.67594 252.44382 251.79771 250.73960 249.33949 247.49438 245.39726 243.22415
 241.00904 238.80693 236.62082 234.45370 232.30759 230.16848 228.18837 226.33926
 224.61614 223.08203 221.70592 220.47181 219.34770 218.30158 217.39947 216.53436
 215.77025 214.94414 214.03602 213.39391 212.83780 213.06828 213.61284 215.39893
 216.49773 217.63202 218.69473 219.83101 221.63000 224.03062 227.97694 231.78369
 234.96118 238.11488 240.85030 243.33897 246.06754 249.22606 252.69853 256.19418
 259.53238 262.64990 265.52823 268.16583 270.56665 272.77585 274.84518 276.76917
 278.53107 280.08835 281.44443 282.61432 283.63474 284.53625 285.38269 286.13260
 286.90027 287.59769 288.23764 289.12149
 366.78100 356.32886 345.75472 334.61457 323.01143 311.19929 299.06315 286.86000
 274.56586 262.45672 250.45958 239.75443 229.87029 220.96815 213.14401 206.13986
 199.96772 194.89958 191.47544 189.51129 188.54215 188.60001 189.42887 190.73073
 192.44958 194.53844 196.79530 199.14816 201.58701 204.06087 206.14273 207.97859
 209.59844 210.73730 210.96016 211.18202 211.11287 210.81173 210.43859 210.06245
 209.67331 209.37716 209.17902 209.03688 208.95874 209.28359 209.66345 210.04631
 210.83317 212.00502 213.24888 215.02574 216.94760 218.98445 221.07331 223.15017
 225.20403 227.28188 229.37274 231.47260 233.59546 235.76132 238.01117 240.37503
 242.98989 245.23475 247.23060 248.98946 250.40032 251.51718 252.33303 252.64289
 252.67375 252.44161 251.79546 250.73732 249.33718 247.49204 245.39489 243.22175
 241.00661 238.80447 236.61833 234.45118 232.30504 230.16590 228.18576 226.33661
 224.61347 223.07933 221.70319 220.46904 219.34490 218.29876 217.39662 216.53147
 215.76733 214.94119 214.03305 213.39090 212.83476 213.08238 213.66740 215.65045
 216.67426 217.64632 218.88319 220.08382 221.76511 224.14734 228.01064 231.68196
 234.78613 237.82275 240.42009 242.83051 245.59819 248.85999 252.39189 255.90787
 259.26825 262.41763 265.35132 268.04895 270.52020 272.81241 274.97052 276.96326
 278.75375 280.30457 281.63995 282.79901 283.83243 284.76846 285.62686 286.43680
 287.20026 287.89334 288.52243 289.37482
 366.78100 356.32832 345.75363 334.61295 323.00926 311.19658 299.05989 286.85621
 274.56153 262.45184 250.45416 239.74847 229.86379 220.96111 213.13642 206.13174
 199.95905 194.89037 191.46568 189.50100 188.53132 188.58863 189.41695 190.71826
 192.43658 194.52489 196.78121 199.13353 201.57184 204.04516 206.12647 207.96179
 209.58111 210.71942 210.94174 211.16305 211.09337 210.79168 210.41800 210.04132
 209.65163 209.35495 209.15626 209.01358 208.93489 209.25921 209.63853 210.02084
 210.80716 211.97847 213.22179 214.99811 216.91942 218.95574 221.04405 223.12037
 225.17368 227.25100 229.34132 231.44063 233.56295 235.72826 237.97758 240.34089
 242.95521 245.19953 247.19484 248.95316 250.36347 251.47979 252.29511 252.60442
 252.63474 252.40205 251.75537 250.69668 249.29600 247.45032 245.35263 243.17895
 240.96326 238.76058 236.57389 234.40621 232.25953 230.11984 228.13916 226.28947
 224.56579 223.03110 221.65442 220.41974 219.29505 218.24837 217.34568 216.48000
 215.71532 214.88863 213.97995 213.33726 212.78058 213.07777 213.77994 215.70702
 216.77324 217.89377 219.09889 220.31941 221.95129 224.39812 228.22685 231.57874
 234.64932 237.54216 240.05804 242.48235 245.28380 248.55341 252.07086 255.57898
 258.94095 262.10400 265.06876 267.81046 270.35141 272.73236 274.97711 277.03558
 278.86386 280.42831 281.77176 282.94034 283.97226 284.87582 285.65302 286.33105
 286.91541 287.55157 288.16388 288.99606
 366.78100 356.33019 345.75739 334.61858 323.01677 311.20597 299.07116 286.86936
 274.57655 262.46874 250.47294 239.76913 229.88632 220.98552 213.16271 206.15991
 199.98910 194.92229 191.49949 189.53668 188.56887 188.62807 189.45826 190.76145
 192.48165 194.57184 196.83004 199.18423 201.62442 204.09962 206.18281 208.02000
 209.64120 210.78139 211.00559 211.22878 211.16097 210.86117 210.48936 210.11455
 209.72675 209.43194 209.23513 209.09433 209.01752 209.34372 209.72491 210.10910
 210.89730 212.07049 213.31568 215.09388 217.01707 219.05527 221.14546 223.22365
 225.27885 227.35804 229.45023 231.55143 233.67562 235.84281 238.09401 240.45920
 243.07540 245.32159 247.31878 249.07898 250.49117 251.60936 252.42656 252.73775
 252.76995 252.53914 251.89433 250.83753 249.43872 247.59491 245.49911 243.32730
 241.11349 238.91269 236.72788 234.56208 232.41727 230.27946 228.30066 226.45285
 224.73104 223.19824 221.82343 220.59063 219.46782 218.42301 217.52221 216.65840
 215.89559 215.07079 214.16398 213.52317 212.96837 213.19989 213.75278 215.75974
 216.91844 217.95235 219.08427 220.37523 222.06476 224.63167 228.43257 231.57326
 234.72382 237.42833 239.83058 242.13791 244.88416 248.16943 251.77022 255.35454
 258.78107 262.02124 265.04654 267.81726 270.35025 272.69934 274.90924 276.95059
 278.77997 280.36456 281.72177 282.89737 283.91757 284.73111 285.39127 285.93936
 286.47562 287.16385 287.85770 288.74194
 366.78100 356.33429 345.76559 334.63088 323.03318 311.22647 299.09577 286.89806
 274.60936 262.50565 250.51395 239.81424 229.93554 221.03883 213.22013 206.22142
 200.05472 194.99201 191.57331 189.61460 188.65090 188.71419 189.54849 190.85578
 192.58008 194.67437 196.93667 199.29496 201.73926 204.21855 206.30585 208.14714
 209.77244 210.91673 211.14503 211.37232 211.30862 211.01291 210.64521 210.27450
 209.89080 209.60009 209.40739 209.27068 209.19798 209.52827 209.91357 210.30186
 211.09416 212.27145 213.52075 215.30304 217.23034 219.27263 221.36693 223.44922
 225.50852 227.59181 229.68811 231.79340 233.92170 236.09299 238.34829 240.71758
 243.33788 245.58817 247.58947 249.35376 250.77006 251.89235 252.71365 253.02894
 253.06524 252.83853 252.19783 251.14512 249.75042 247.91071 245.81901 243.65130
 241.44160 239.24489 237.06419 234.90248 232.76178 230.62807 228.65337 226.80966
 225.09195 223.56325 222.19254 220.96384 219.84513 218.80443 217.90772 217.04802
 216.28931 215.46861 214.56590 213.92920 213.37849 213.45683 213.72778 215.57094
 216.93665 218.05785 219.27905 220.58702 222.24339 224.74507 228.41203 231.58899
 234.65045 237.16371 239.41370 241.63683 244.45638 247.93588 251.66556 255.32568
 258.81534 262.09818 265.13071 267.86563 270.32272 272.59894 274.76886 276.81390
 278.67535 280.31393 281.71341 282.94363 284.02606 284.98077 285.94449 286.88214
 287.72546 288.47644 289.13248 289.96851
 366.78100 356.33845 345.77390 334.64335 323.04980 311.24725 299.12070 286.92715
 274.64260 262.54305 250.55550 239.85995 229.98540 221.09285 213.27830 206.28375
 200.12120 195.06265 191.64810 189.69355 188.73400 188.80145 189.63990 190.95135
 192.67980 194.77825 197.04470 199.40715 201.85560 204.33905 206.43050 208.27595
 209.90540 211.05385 211.28630 211.51775 211.45820 211.16665 210.80310 210.43655
 210.05700 209.77045 209.58190 209.44935 209.38080 209.71525 210.10470 210.49715
 211.29360 212.47505 213.72850 215.51495 217.44640 219.49285 221.59130 223.67775
 225.74120 227.82864 229.92909 232.03854 234.17099 236.34644 238.60589 240.97934
 243.60379 245.85824 247.86369 249.63214 251.05259 252.17904 253.00449 253.32394
 253.36439 253.14184 252.50529 251.45674 250.06619 248.23064 246.14309 243.97954
 241.77399 239.58144 237.40489 235.24734 233.11079 230.98124 229.01069 227.17114
 225.45759 223.93304 222.56649 221.34194 220.22739 219.19084 218.29829 217.44274
 216.68819 215.87164 214.97309 214.34054 213.79399 213.72160 213.73749 215.38063
 217.05370 218.50488 219.77576 220.99571 222.57735 224.90915 228.25096 231.66560
 234.40346 236.88037 239.00621 241.25378 244.18492 247.83270 251.74605 255.44276
 258.92352 262.17017 265.15244 267.81479 270.15088 272.26791 274.40396 276.55280
 278.57037 280.35135 281.90771 283.30151 284.56461 285.69138 286.71936 287.65063
 288.48825 289.23413 289.88571 290.71609
 366.78100 356.33912 345.77525 334.64537 323.05250 311.25062 299.12475 286.93187
 274.64800 262.54912 250.56225 239.86737 229.99350 221.10162 213.28775 206.29387
 200.13199 195.07412 191.66024 189.70637 188.74749 188.81562 189.65474 190.96687
 192.69599 194.79512 197.06224 199.42537 201.87449 204.35861 206.45074 208.29686
 209.92699 211.07611 211.30924 211.54136 211.48249 211.19161 210.82874 210.46286
 210.08399 209.79811 209.61024 209.47836 209.41048 209.74561 210.13573 210.52886
 211.32598 212.50811 213.76223 215.54936 217.48148 219.52861 221.62773 223.71486
 225.77898 227.86711 229.96823 232.07835 234.21148 236.38760 238.64773 241.02185
 243.64698 245.90210 247.90823 249.67735 251.09848 252.22560 253.05173 253.37185
 253.41298 253.19110 252.55522 251.50735 250.11747 248.28260 246.19572 244.03285
 241.82797 239.63610 237.46022 235.30335 233.16747 231.03860 229.06872 227.22984
 225.51697 223.99309 222.62722 221.40334 220.28947 219.25359 218.36172 217.50684
 216.75297 215.93709 215.03922 214.40734 213.86147 213.78415 213.81956 215.42259
 217.14467 218.78639 220.00777 221.17287 222.67705 224.88364 228.12680 231.63914
 234.38243 236.75432 238.70840 240.81543 243.87973 247.77081 251.71942 255.39507
 258.88113 262.13696 265.13287 267.75613 270.02283 272.11902 274.31436 276.41190
 278.28860 280.08466 281.68921 283.20349 284.54742 285.73645 286.82126 287.80402
 288.68790 289.47501 290.16260 291.03885
 366.78100 356.34108 345.77915 334.65123 323.06030 311.26038 299.13646 286.94553
 274.66361 262.56668 250.58176 239.88884 230.01691 221.12699 213.31506 206.32314
 200.16322 195.10729 191.69537 189.74344 188.78652 188.85659 189.69767 191.01175
 192.74282 194.84390 197.11297 199.47805 201.92913 204.41520 206.50928 208.35735
 209.98943 211.14051 211.37558 211.60966 211.55273 211.26381 210.90289 210.53896
 210.16204 209.87811 209.69219 209.56227 209.49634 209.83342 210.22549 210.62057
 211.41965 212.60372 213.85980 215.64887 217.58295 219.63203 221.73310 223.82218
 225.88825 227.97833 230.08141 232.19348 234.32856 236.50663 238.76871 241.14478
 243.77186 246.02894 248.03701 249.80809 251.23116 252.36024 253.18832 253.51039
 253.55347 253.33354 252.69962 251.65370 250.26577 248.43285 246.34792 244.18700
 241.98408 239.79415 237.62023 235.46530 233.33138 231.20446 229.23653 227.39961
 225.68868 224.16676 222.80284 221.58091 220.46899 219.43506 218.54514 217.69222
 216.94029 216.12637 215.23044 214.60052 214.05659 213.87866 213.66499 215.71036
 217.26141 218.55959 220.02448 221.23857 222.68942 224.87596 228.21329 231.52000
 234.24335 236.54117 238.46318 240.63133 243.72713 247.60907 251.56497 255.28755
 258.78857 262.04858 265.00967 267.61227 269.93842 272.14212 274.29626 276.37817
 278.21707 279.75555 281.07718 282.44550 283.69775 284.89261 285.98935 286.98291
 287.87653 288.67227 289.36743 290.25333
 366.78100 356.34155 345.78009 334.65264 323.06218 311.26273 299.13927 286.94882
 274.66737 262.57091 250.58646 239.89400 230.02255 221.13309 213.32164 206.33019
 200.17073 195.11528 191.70382 189.75237 188.79592 188.86646 189.70801 191.02255
 192.75410 194.85564 197.12519 199.49074 201.94228 204.42883 206.52337 208.37192
 210.00446 211.15601 211.39156 211.62610 211.56965 211.28119 210.92074 210.55728
 210.18083 209.89738 209.71192 209.58247 209.51701 209.85456 210.24711 210.64265
 211.44220 212.62674 213.88329 215.67283 217.60738 219.65693 221.75847 223.84802
 225.91456 228.00511 230.10865 232.22120 234.35675 236.53529 238.79784 241.17438
 243.80193 246.05947 248.06802 249.83957 251.26311 252.39266 253.22120 253.54375
 253.58730 253.36784 252.73439 251.68893 250.30148 248.46902 246.38457 244.22412
 242.02166 239.83221 237.65875 235.50430 233.37084 231.24439 229.27694 227.44048
 225.73003 224.20857 222.84512 221.62366 220.51221 219.47876 218.58930 217.73685
 216.98539 216.17194 215.27649 214.64703 214.10358 213.91632 213.51314 215.74628
 217.75816 218.61305 220.17821 221.32404 222.67973 224.81767 228.38303 231.38335
 234.16158 236.32204 238.12590 240.22807 243.37744 247.39438 251.45659 255.23706
 258.77069 262.03036 264.98038 267.56204 269.85742 272.03610 274.19672 276.26675
 278.12006 279.69907 281.01230 282.22418 283.22858 283.98788 284.74457 285.59940
 286.40881 287.18362 287.86044 288.72302
 366.78100 356.33931 345.77563 334.64594 323.05325 311.25157 299.12588 286.93319
 274.64951 262.55082 250.56414 239.86945 229.99576 221.10408 213.29039 206.29670
 200.13502 195.07733 191.66364 189.70996 188.75127 188.81958 189.65890 190.97121
 192.70053 194.79984 197.06715 199.43047 201.87978 204.36409 206.45641 208.30272
 209.93303 211.08235 211.31566 211.54797 211.48929 211.19860 210.83592 210.47023
 210.09154 209.80586 209.61817 209.48648 209.41880 209.75411 210.14442 210.53774
 211.33505 212.51736 213.77168 215.55899 217.49131 219.53862 221.63793 223.72525
 225.78956 227.87787 229.97919 232.08950 234.22281 236.39913 238.65944 241.03375
 243.65907 245.91438 247.92069 249.69001 251.11132 252.23864 253.06495 253.38526
 253.42658 253.20489 252.56920 251.52152 250.13183 248.29714 246.21046 244.04777
 241.84308 239.65140 237.47571 235.31903 233.18334 231.05465 229.08497 227.24628
 225.53359 224.00991 222.64422 221.42053 220.30685 219.27116 218.37947 217.52479
 216.77110 215.95542 215.05773 214.42604 213.88036 213.81827 213.67159 215.76659
 217.92369 218.73955 220.29187 221.59766 222.94757 224.98445 228.41063 231.42047
 233.95540 236.04959 237.78104 239.93968 243.21156 247.25697 251.35164 255.19356
 258.74841 262.01300 264.95966 267.52118 269.77798 271.92261 274.07794 276.13699
 278.00507 279.59619 280.94196 282.16107 283.29947 284.11710 284.70074 285.32889
 286.10172 286.79968 287.43256 288.29572
 366.78100 356.33782 345.77264 334.64147 323.04729 311.24411 299.11693 286.92276
 274.63758 262.53740 250.54922 239.85305 229.97787 221.08469 213.26951 206.27433
 200.11116 195.05198 191.63680 189.68162 188.72145 188.78827 189.62609 190.93691
 192.66474 194.76256 197.02838 199.39020 201.83802 204.32085 206.41167 208.25649
 209.88531 211.03314 211.26496 211.49578 211.43560 211.14343 210.77925 210.41207
 210.03189 209.74471 209.55554 209.42236 209.35318 209.68700 210.07583 210.46765
 211.26347 212.44429 213.69712 215.48294 217.41376 219.45958 221.55741 223.64323
 225.70605 227.79287 229.89269 232.00152 234.13334 236.30816 238.56698 240.93981
 243.56363 245.81745 247.82227 249.59010 251.00992 252.13574 252.96056 253.27938
 253.31921 253.09603 252.45885 251.40967 250.01850 248.18232 246.09414 243.92996
 241.72379 239.53061 237.35343 235.19525 233.05807 230.92790 228.95672 227.11654
 225.40236 223.87719 222.51001 221.28483 220.16965 219.13248 218.23930 217.38312
 216.62794 215.81076 214.91159 214.27841 213.73123 213.75554 213.81297 215.86673
 217.96887 218.77679 220.34241 221.84680 223.21651 225.15266 228.39828 231.39737
 233.80382 235.74084 237.39914 239.61897 243.01723 247.11024 251.21837 255.10127
 258.67847 261.96274 264.92352 267.49796 269.75400 271.88217 274.00443 276.02969
 277.88785 279.48114 280.84235 282.06961 283.11322 284.00531 284.74548 285.38571
 286.14163 286.83923 287.46866 288.34006
 366.78100 356.33788 345.77276 334.64163 323.04751 311.24439 299.11727 286.92315
 274.63802 262.53790 250.54978 239.85366 229.97854 221.08541 213.27029 206.27517
 200.11205 195.05293 191.63780 189.68268 188.72256 188.78944 189.62732 190.93819
 192.66607 194.76395 197.02983 199.39171 201.83958 204.32246 206.41334 208.25822
 209.88710 211.03497 211.26685 211.49773 211.43761 211.14549 210.78136 210.41424
 210.03412 209.74700 209.55788 209.42475 209.35563 209.68951 210.07839 210.47027
 211.26614 212.44702 213.69990 215.48578 217.41666 219.46253 221.56041 223.64629
 225.70917 227.79605 229.89592 232.00480 234.13668 236.31156 238.57044 240.94331
 243.56719 245.82107 247.82595 249.59383 251.01370 252.13958 252.96446 253.28334
 253.32322 253.10009 252.46297 251.41385 250.02273 248.18661 246.09848 243.93436
 241.72824 239.53512 237.35800 235.19987 233.06275 230.93263 228.96151 227.12139
 225.40727 223.88214 222.51502 221.28990 220.17478 219.13766 218.24453 217.38841
 216.63329 215.81617 214.91705 214.28392 213.73680 213.77478 213.86452 215.97758
 217.99710 218.87619 220.48506 222.08609 223.42694 225.30257 228.40924 231.34109
 233.60046 235.38013 237.01079 239.33244 242.84181 246.96188 251.08807 255.01035
 258.61752 261.91638 264.88330 267.46368 269.71771 271.83014 273.91983 275.92273
 277.78668 279.40158 280.78592 281.95718 282.91922 283.94757 284.91071 285.48279
 286.23401 286.93069 287.56110 288.41876
 366.78100 356.33794 345.77288 334.64182 323.04776 311.24470 299.11764 286.92358
 274.63852 262.53846 250.55040 239.85433 229.97927 221.08621 213.27115 206.27609
 200.11303 195.05397 191.63891 189.68385 188.72379 188.79073 189.62867 190.93961
 192.66755 194.76549 197.03143 199.39337 201.84131 204.32425 206.41519 208.26012
 209.88906 211.03700 211.26894 211.49988 211.43982 211.14776 210.78370 210.41664
 210.03658 209.74952 209.56046 209.42740 209.35834 209.69228 210.08122 210.47316
 211.26910 212.45004 213.70298 215.48891 217.41985 219.46579 221.56373 223.64967
 225.71261 227.79955 229.89949 232.00843 234.14037 236.31531 238.57425 240.94719
 243.57113 245.82507 247.83001 249.59795 251.01789 252.14383 252.96877 253.28770
 253.32764 253.10458 252.46752 251.41846 250.02740 248.19134 246.10328 243.93922
 241.73316 239.54010 237.36304 235.20498 233.06792 230.93786 228.96680 227.12674
 225.41268 223.88762 222.52056 221.29549 220.18043 219.14337 218.25031 217.39425
 216.63919 215.82213 214.92307 214.29001 213.74295 213.80054 213.93657 215.98364
 218.10088 219.03633 220.65411 222.28783 223.61555 225.41664 228.41684 231.25893
 233.36891 235.01469 236.63940 239.06830 242.67879 246.83089 250.98409 254.94107
 258.56848 261.87045 264.83426 267.41757 269.67380 271.77094 273.82309 275.80237
 277.66492 279.29794 280.70239 281.87329 282.86151 283.89655 284.87369 285.60910
 286.35999 287.05569 287.68301 288.53217
 366.78100 356.33771 345.77241 334.64112 323.04683 311.24353 299.11624 286.92195
 274.63665 262.53636 250.54807 239.85177 229.97648 221.08319 213.26789 206.27260
 200.10931 195.05001 191.63472 189.67943 188.71913 188.78584 189.62355 190.93425
 192.66196 194.75967 197.02537 199.38708 201.83479 204.31749 206.40820 208.25291
 209.88161 211.02932 211.26103 211.49173 211.43144 211.13915 210.77485 210.40756
 210.02727 209.73997 209.55068 209.41739 209.34809 209.68180 210.07051 210.46221
 211.25792 212.43863 213.69133 215.47704 217.40775 219.45345 221.55116 223.63687
 225.69957 227.78628 229.88599 231.99469 234.12640 236.30111 238.55981 240.93252
 243.55623 245.80993 247.81464 249.58235 251.00205 252.12776 252.95247 253.27117
 253.31088 253.08759 252.45029 251.40100 250.00971 248.17341 246.08512 243.92083
 241.71453 239.52124 237.34395 235.18565 233.04836 230.91807 228.94677 227.10648
 225.39219 223.86689 222.49960 221.27431 220.15901 219.12172 218.22843 217.37213
 216.61684 215.79955 214.90025 214.26696 213.71967 213.81477 214.03947 215.93295
 218.16241 219.34473 220.90274 222.40710 223.68816 225.48672 228.43195 231.17522
 233.14314 234.66132 236.27925 238.81509 242.52238 246.71811 250.90164 254.88390
 258.52414 261.82220 264.77698 267.35812 269.61414 271.69730 273.71854 275.67740
 277.54388 279.18912 280.60117 281.79846 282.87689 283.91721 284.89044 285.75986
 286.52127 287.20734 287.81616 288.64233
 366.78100 356.33797 345.77295 334.64192 323.04789 311.24486 299.11784 286.92381
 274.63878 262.53875 250.55073 239.85470 229.97967 221.08664 213.27162 206.27659
 200.11356 195.05453 191.63951 189.68448 188.72445 188.79142 189.62940 190.94037
 192.66834 194.76632 197.03229 199.39426 201.84223 204.32521 206.41618 208.26115
 209.89012 211.03810 211.27007 211.50104 211.44101 211.14899 210.78496 210.41793
 210.03790 209.75088 209.56185 209.42882 209.35980 209.69377 210.08274 210.47471
 211.27069 212.45166 213.70463 215.49060 217.42158 219.46755 221.56552 223.65149
 225.71447 227.80144 229.90141 232.01038 234.14236 236.31733 238.57630 240.94927
 243.57325 245.82722 247.83219 249.60017 251.02014 252.14611 252.97108 253.29006
 253.33003 253.10700 252.46997 251.42095 250.02992 248.19389 246.10586 243.94184
 241.73581 239.54278 237.36575 235.20773 233.07070 230.94067 228.96964 227.12962
 225.41559 223.89056 222.52354 221.29851 220.18348 219.14645 218.25343 217.39740
 216.64237 215.82534 214.92632 214.29329 213.74626 213.85306 214.10535 215.93370
 218.22458 219.60114 221.11665 222.51381 223.75079 225.58160 228.48938 231.09908
 232.90402 234.28375 235.91000 238.57510 242.38043 246.62212 250.83023 254.83176
 258.48141 261.77341 264.71783 267.29639 269.54861 271.60825 273.58444 275.51990
 277.38150 279.00806 280.45456 281.80051 282.97617 284.02600 285.00494 285.88806
 286.66833 287.35938 287.96863 288.77997
 366.78100 356.33832 345.77364 334.64296 323.04928 311.24660 299.11992 286.92624
 274.64156 262.54188 250.55421 239.85853 229.98385 221.09117 213.27649 206.28181
 200.11913 195.06045 191.64577 189.69109 188.73141 188.79873 189.63705 190.94837
 192.67669 194.77501 197.04133 199.40365 201.85197 204.33529 206.42662 208.27194
 209.90126 211.04958 211.28190 211.51322 211.45354 211.16186 210.79818 210.43150
 210.05182 209.76514 209.57646 209.44378 209.37510 209.70942 210.09874 210.49106
 211.28738 212.46871 213.72203 215.50835 217.43967 219.48599 221.58431 223.67063
 225.73395 227.82127 229.92159 232.03091 234.16323 236.33855 238.59787 240.97119
 243.59551 245.84983 247.85515 249.62347 251.04380 252.17012 252.99544 253.31476
 253.35508 253.13240 252.49572 251.44704 250.05636 248.22068 246.13300 243.96932
 241.76364 239.57096 237.39428 235.23660 233.09992 230.97024 228.99956 227.15988
 225.44621 223.92153 222.55485 221.33017 220.21549 219.17881 218.28613 217.43045
 216.67577 215.85909 214.96041 214.32773 213.78105 213.89354 214.15932 215.95644
 218.28270 219.81418 221.29083 222.64172 223.86325 225.71320 228.57164 231.01503
 232.62306 233.86230 235.53703 238.36263 242.26231 246.53703 250.76392 254.78206
 258.43958 261.72546 264.66058 267.23730 269.47324 271.48694 273.41843 275.34302
 277.19101 278.91754 280.46191 281.82376 283.00320 284.04797 285.00034 285.89014
 286.71713 287.41898 288.03198 288.85110
 366.78100 356.33856 345.77412 334.64368 323.05024 311.24781 299.12137 286.92793
 274.64349 262.54405 250.55661 239.86117 229.98673 221.09429 213.27986 206.28542
 200.12298 195.06454 191.65010 189.69566 188.73622 188.80378 189.64235 190.95391
 192.68247 194.78103 197.04759 199.41015 201.85871 204.34227 206.43383 208.27940
 209.90896 211.05752 211.29008 211.52164 211.46220 211.17076 210.80732 210.44088
 210.06145 209.77501 209.58657 209.45413 209.38569 209.72025 210.10981 210.50237
 211.29894 212.48050 213.73406 215.52062 217.45218 219.49874 221.59730 223.68386
 225.74742 227.83499 229.93555 232.04511 234.17767 236.35323 238.61279 240.98635
 243.61091 245.86547 247.87104 249.63960 251.06016 252.18672 253.01228 253.33184
 253.37240 253.14996 252.51352 251.46509 250.07465 248.23921 246.15177 243.98833
 241.78289 239.59045 237.41401 235.25658 233.12014 230.99070 229.02026 227.18082
 225.46738 223.94294 222.57650 221.35206 220.23763 219.20119 218.30875 217.45331
 216.69887 215.88243 214.98399 214.35155 213.80511 213.92853 214.22011 215.97420
 218.31206 220.00195 221.45462 222.79172 224.02161 225.84238 228.63000 230.93669
 232.33279 233.43207 235.18132 238.17798 242.15701 246.45041 250.68964 254.72197
 258.38690 261.66998 264.60129 267.18649 269.42538 271.42484 273.32654 275.24020
 277.10712 278.81241 280.36243 281.72797 282.90817 283.95633 284.91489 285.80121
 286.62234 287.35446 287.97949 288.80472
 366.78100 356.33873 345.77446 334.64419 323.05092 311.24864 299.12237 286.92910
 274.64483 262.54556 250.55829 239.86302 229.98875 221.09647 213.28220 206.28793
 200.12566 195.06739 191.65312 189.69885 188.73958 188.80731 189.64603 190.95776
 192.68649 194.78522 197.05195 199.41468 201.86341 204.34714 206.43887 208.28459
 209.91432 211.06305 211.29578 211.52751 211.46824 211.17697 210.81370 210.44742
 210.06815 209.78188 209.59361 209.46134 209.39307 209.72780 210.11753 210.51026
 211.30698 212.48871 213.74244 215.52917 217.46090 219.50763 221.60636 223.69309
 225.75682 227.84454 229.94527 232.05500 234.18773 236.36346 238.62319 240.99692
 243.62165 245.87637 247.88210 249.65083 251.07156 252.19829 253.02402 253.34375
 253.38448 253.16221 252.52593 251.47766 250.08739 248.25212 246.16485 244.00158
 241.79631 239.60404 237.42777 235.27049 233.13422 231.00495 229.03468 227.19541
 225.48214 223.95787 222.59160 221.36732 220.25305 219.21678 218.32451 217.46924
 216.71497 215.89870 215.00043 214.36816 213.82188 213.95982 214.28575 215.99988
 218.32433 220.15588 221.62991 222.96918 224.20744 225.94716 228.65938 230.87393
 232.07547 233.03888 234.86127 238.01605 242.05548 246.36220 250.61069 254.65271
 258.32007 261.59601 264.52075 267.11389 269.37619 271.39279 273.25897 275.11942
 277.02176 278.72906 280.28546 281.65457 282.83789 283.88953 284.85428 285.74197
 286.55801 287.29147 287.92993 288.77005
 366.78100 356.33882 345.77465 334.64447 323.05130 311.24912 299.12294 286.92977
 274.64559 262.54641 250.55924 239.86406 229.98989 221.09771 213.28353 206.28936
 200.12718 195.06900 191.65483 189.70065 188.74148 188.80930 189.64812 190.95995
 192.68877 194.78759 197.05442 199.41724 201.86607 204.34989 206.44171 208.28754
 209.91736 211.06618 211.29901 211.53083 211.47166 211.18048 210.81730 210.45113
 210.07195 209.78577 209.59760 209.46542 209.39725 209.73207 210.12189 210.51472
 211.31154 212.49336 213.74719 215.53401 217.46584 219.51266 221.61148 223.69831
 225.76213 227.84995 229.95078 232.06060 234.19343 236.36925 238.62907 241.00290
 243.62772 245.88254 247.88837 249.65719 251.07802 252.20484 253.03066 253.35049
 253.39131 253.16913 252.53296 251.48478 250.09461 248.25943 246.17225 244.00908
 241.80390 239.61172 237.43555 235.27837 233.14220 231.01302 229.04284 227.20367
 225.49049 223.96631 222.60014 221.37596 220.26179 219.22561 218.33343 217.47826
 216.72408 215.90790 215.00973 214.37755 213.83138 213.98718 214.35526 216.03416
 218.34711 220.27670 221.81418 223.16881 224.40063 226.03087 228.67589 230.80838
 231.85130 232.69313 234.57796 237.86549 241.95895 246.27811 250.53203 254.57249
 258.23407 261.50101 264.42593 267.03384 269.31018 271.30927 273.11722 274.92661
 276.94897 278.71286 280.26553 281.63632 282.82242 283.87656 284.84363 285.73059
 286.54126 287.27332 287.91885 288.77698
 366.78100 356.33888 345.77477 334.64465 323.05154 311.24942 299.12330 286.93019
 274.64607 262.54695 250.55984 239.86472 229.99061 221.09849 213.28437 206.29026
 200.12814 195.07003 191.65591 189.70179 188.74268 188.81056 189.64945 190.96133
 192.69021 194.78910 197.05598 199.41886 201.86775 204.35163 206.44352 208.28940
 209.91928 211.06817 211.30105 211.53294 211.47382 211.18270 210.81959 210.45347
 210.07435 209.78824 209.60012 209.46801 209.39989 209.73477 210.12466 210.51754
 211.31443 212.49631 213.75019 215.53708 217.46896 219.51585 221.61473 223.70161
 225.76550 227.85338 229.95426 232.06415 234.19703 236.37292 238.63280 241.00668
 243.63157 245.88645 247.89234 249.66122 251.08210 252.20899 253.03487 253.35475
 253.39564 253.17352 252.53741 251.48929 250.09917 248.26406 246.17694 244.01383
 241.80871 239.61659 237.44048 235.28336 233.14725 231.01813 229.04801 227.20890
 225.49578 223.97166 222.60555 221.38143 220.26732 219.23120 218.33908 217.48397
 216.72985 215.91374 215.01562 214.38350 213.83739 214.01314 214.42841 216.06296
 218.37169 220.37161 221.99178 223.36914 224.58638 226.10698 228.67990 230.73048
 231.63475 232.37222 234.31458 237.72285 241.87489 246.20671 250.46013 254.49347
 258.14752 261.41074 264.34470 266.97290 269.25247 271.19522 272.85275 274.87903
 276.85910 278.64456 280.20178 281.57495 282.76285 283.81744 284.78351 285.66705
 286.47104 287.19406 287.82883 288.69058
 366.78100 356.33889 345.77477 334.64466 323.05155 311.24944 299.12332 286.93021
 274.64610 262.54699 250.55987 239.86476 229.99065 221.09854 213.28442 206.29031
 200.12820 195.07009 191.65597 189.70186 188.74275 188.81063 189.64952 190.96141
 192.69030 194.78918 197.05607 199.41896 201.86785 204.35173 206.44362 208.28951
 209.91940 211.06828 211.30117 211.53306 211.47395 211.18283 210.81972 210.45361
 210.07450 209.78838 209.60027 209.46816 209.40004 209.73493 210.12482 210.51771
 211.31459 212.49648 213.75037 215.53726 217.46914 219.51603 221.61492 223.70181
 225.76569 227.85358 229.95447 232.06436 234.19724 236.37313 238.63302 241.00690
 243.63179 245.88668 247.89257 249.66145 251.08234 252.20923 253.03512 253.35500
 253.39589 253.17378 252.53767 251.48955 250.09944 248.26433 246.17722 244.01410
 241.80899 239.61688 237.44077 235.28365 233.14754 231.01843 229.04831 227.20920
 225.49609 223.97198 222.60586 221.38175 220.26764 219.23153 218.33941 217.48430
 216.73019 215.91408 215.01596 214.38385 213.83774 214.03773 214.51024 216.08615
 218.38300 220.45541 222.16087 223.55824 224.76595 226.19353 228.67953 230.63678
 231.42232 232.08060 234.07753 237.58881 241.79495 246.13666 250.38463 254.40944
 258.05673 261.31857 264.25769 266.88739 269.14001 271.04736 272.86288 274.85986
 276.77527 278.55957 280.12173 281.49661 282.68735 283.74377 284.71283 285.59631
 286.40265 287.12903 287.76385 288.62943
 366.78100 356.33872 345.77444 334.64415 323.05087 311.24859 299.12231 286.92903
 274.64475 262.54546 250.55818 239.86290 229.98862 221.09634 213.28206 206.28777
 200.12549 195.06721 191.65293 189.69865 188.73937 188.80708 189.64580 190.95752
 192.68624 194.78496 197.05168 199.41439 201.86311 204.34683 206.43855 208.28427
 209.91399 211.06270 211.29542 211.52714 211.46786 211.17658 210.81330 210.44701
 210.06773 209.78145 209.59317 209.46089 209.39261 209.72732 210.11704 210.50976
 211.30648 212.48820 213.74192 215.52863 217.46035 219.50707 221.60579 223.69251
 225.75623 227.84394 229.94466 232.05438 234.18710 236.36282 238.62254 240.99625
 243.62097 245.87569 247.88141 249.65013 251.07085 252.19756 253.02328 253.34300
 253.38372 253.16144 252.52516 251.47687 250.08659 248.25131 246.16403 244.00075
 241.79547 239.60318 237.42690 235.26962 233.13334 231.00406 229.03377 227.19449
 225.48121 223.95693 222.59065 221.36637 220.25208 219.21580 218.32352 217.46824
 216.71396 215.89768 214.99939 214.36711 213.82083 214.05435 214.60605 216.11453
 218.37666 220.52908 222.31395 223.72803 224.93904 226.29659 228.67725 230.52620
 231.21635 231.82205 233.87100 237.47357 241.72299 246.06894 250.30563 254.31551
 257.95020 261.20575 264.15295 266.80856 269.08862 270.98508 272.76837 274.82639
 276.78427 278.51813 280.07272 281.44550 282.63626 283.69220 284.66342 285.54837
 286.35953 287.08813 287.72855 288.59558
 366.78100 356.33841 345.77381 334.64322 323.04962 311.24703 299.12044 286.92684
 274.64225 262.54266 250.55506 239.85947 229.98487 221.09228 213.27769 206.28309
 200.12050 195.06190 191.64731 189.69272 188.73312 188.80053 189.63893 190.95034
 192.67875 194.77715 197.04356 199.40597 201.85437 204.33778 206.42918 208.27459
 209.90400 211.05240 211.28481 211.51621 211.45662 211.16503 210.80143 210.43484
 210.05524 209.76865 209.58006 209.44746 209.37887 209.71328 210.10268 210.49509
 211.29149 212.47290 213.72631 215.51271 217.44412 219.49052 221.58893 223.67534
 225.73874 227.82615 229.92655 232.03596 234.16837 236.34377 238.60318 240.97659
 243.60099 245.85540 247.86080 249.62921 251.04962 252.17602 253.00143 253.32083
 253.36124 253.13865 252.50205 251.45346 250.06286 248.22727 246.13968 243.97608
 241.77049 239.57790 237.40130 235.24371 233.10711 230.97752 229.00693 227.16733
 225.45374 223.92914 222.56255 221.33796 220.22336 219.18677 218.29418 217.43858
 216.68399 215.86739 214.96880 214.33621 213.78961 214.06361 214.71095 216.15753
 218.35298 220.58087 222.45639 223.88426 225.09334 226.39966 228.67480 230.40117
 231.01039 231.59241 233.69810 237.38687 241.67049 246.01465 250.23555 254.22453
 257.84204 261.08804 264.03571 266.69644 268.96146 270.86093 272.90009 274.72232
 276.71741 278.48599 280.03635 281.40536 282.59216 283.64886 284.61664 285.50314
 286.31500 287.04660 287.68979 288.55533
 366.78100 356.33801 345.77303 334.64204 323.04806 311.24507 299.11808 286.92410
 274.63911 262.53912 250.55114 239.85515 229.98017 221.08718 213.27219 206.27721
 200.11422 195.05523 191.64025 189.68526 188.72528 188.79229 189.63030 190.94132
 192.66933 194.76735 197.03336 199.39537 201.84339 204.32640 206.41741 208.26243
 209.89144 211.03946 211.27147 211.50248 211.44250 211.15051 210.78652 210.41954
 210.03955 209.75257 209.56358 209.43059 209.36161 209.69562 210.08464 210.47665
 211.27266 212.45368 213.70669 215.49270 217.42372 219.46973 221.56775 223.65376
 225.71677 227.80379 229.90380 232.01282 234.14483 236.31984 238.57886 240.95187
 243.57588 245.82990 247.83491 249.60293 251.02294 252.14895 252.97397 253.29298
 253.33299 253.11001 252.47302 251.42404 250.03305 248.19706 246.10908 243.94509
 241.73911 239.54612 237.36913 235.21115 233.07416 230.94417 228.97319 227.13320
 225.41922 223.89423 222.52724 221.30226 220.18727 219.15028 218.25730 217.40131
 216.64633 215.82934 214.93035 214.29737 213.75038 214.06665 214.81387 216.19688
 218.33606 220.62421 222.57202 224.03430 225.25650 226.51588 228.67780 230.26714
 230.79962 231.37871 233.54979 237.32014 241.63185 245.96848 250.17030 254.13538
 257.73215 260.96552 263.91699 266.60034 268.90359 270.84396 272.74716 274.66333
 276.64975 278.40732 279.95779 281.32870 282.51807 283.57281 284.54187 285.42950
 286.24182 286.97336 287.61249 288.45209
 366.78100 356.33754 345.77208 334.64063 323.04617 311.24271 299.11525 286.92080
 274.63534 262.53488 250.54642 239.84996 229.97451 221.08105 213.26559 206.27013
 200.10667 195.04722 191.63176 189.67630 188.71584 188.78239 189.61993 190.93047
 192.65801 194.75555 197.02110 199.38264 201.83018 204.31272 206.40326 208.24781
 209.87635 211.02389 211.25543 211.48598 211.42552 211.13306 210.76860 210.40114
 210.02069 209.73323 209.54377 209.41031 209.34086 209.67440 210.06294 210.45448
 211.25002 212.43057 213.68311 215.46865 217.39919 219.44473 221.54228 223.62782
 225.69036 227.77690 229.87645 231.98499 234.11653 236.29107 238.54961 240.92216
 243.54570 245.79924 247.80378 249.57133 250.99087 252.11641 252.94095 253.25949
 253.29904 253.07558 252.43812 251.38866 249.99720 248.16075 246.07229 243.90783
 241.70137 239.50792 237.33046 235.17200 233.03454 230.90408 228.93263 227.09217
 225.37771 223.85225 222.48479 221.25934 220.14388 219.10642 218.21296 217.35651
 216.60105 215.78359 214.88413 214.25067 213.70322 214.06636 214.92433 216.24335
 218.31760 220.64998 222.66666 224.17706 225.41136 226.62816 228.68810 230.12622
 230.57585 231.17522 233.42654 237.27588 241.60988 245.93201 250.10780 254.04271
 257.61539 260.83719 263.79224 266.47644 268.74283 270.66428 272.83429 274.63553
 276.62430 278.37469 279.92365 281.29358 282.48138 283.53610 284.50320 285.39090
 286.20380 286.93735 287.57007 288.40829
 366.78100 356.33690 345.77080 334.63869 323.04359 311.23949 299.11139 286.91629
 274.63019 262.52908 250.53998 239.84288 229.96678 221.07268 213.25658 206.26047
 200.09637 195.03627 191.62017 189.66407 188.70296 188.76886 189.60576 190.91566
 192.64256 194.73946 197.00435 199.36525 201.81215 204.29405 206.38395 208.22785
 209.85574 211.00264 211.23354 211.46344 211.40234 211.10924 210.74413 210.37603
 209.99493 209.70683 209.51673 209.38262 209.31252 209.64542 210.03332 210.42422
 211.21912 212.39901 213.65091 215.43581 217.36571 219.41061 221.50751 223.59240
 225.65430 227.74020 229.83910 231.94700 234.07789 236.25179 238.50969 240.88159
 243.50449 245.75739 247.76128 249.52818 250.94708 252.07198 252.89588 253.21378
 253.25267 253.02857 252.39047 251.34037 249.94827 248.11116 246.02206 243.85696
 241.64986 239.45576 237.27766 235.11855 232.98045 230.84935 228.87725 227.03615
 225.32105 223.79494 222.42684 221.20074 220.08464 219.04654 218.15243 217.29533
 216.53923 215.72113 214.82103 214.18693 213.63882 214.05437 215.03613 216.31482
 218.30214 220.65208 222.73911 224.29192 225.53197 226.72107 228.68091 229.97711
 230.36491 231.01013 233.34192 237.25786 241.60776 245.91260 250.05869 253.95811
 257.50491 260.71744 263.68286 266.39700 268.70377 270.65533 272.56332 274.69388
 276.54398 278.30463 279.85892 281.22772 282.41458 283.46750 284.43188 285.31729
 286.13110 286.86557 287.49084 288.32434
 366.78100 356.33617 345.76934 334.63652 323.04069 311.23586 299.10703 286.91120
 274.62438 262.52255 250.53272 239.83489 229.95806 221.06324 213.24641 206.24958
 200.08475 195.02392 191.60709 189.65027 188.68844 188.75361 189.58978 190.89895
 192.62513 194.72130 196.98547 199.34564 201.79181 204.27299 206.36216 208.20533
 209.83250 210.97867 211.20885 211.43802 211.37619 211.08236 210.71653 210.34771
 209.96588 209.67705 209.48622 209.35139 209.28056 209.61274 209.99991 210.39008
 211.18425 212.36342 213.61460 215.39877 217.32794 219.37211 221.46828 223.55246
 225.61363 227.69880 229.79697 231.90414 234.03432 236.20749 238.46466 240.83583
 243.45800 245.71018 247.71335 249.47952 250.89769 252.02186 252.84503 253.16221
 253.20038 252.97555 252.33672 251.28589 249.89307 248.05524 245.96541 243.79958
 241.59175 239.39693 237.21810 235.05827 232.91944 230.78761 228.81479 226.97296
 225.25713 223.73030 222.36147 221.13465 220.01782 218.97899 218.08416 217.22633
 216.46950 215.65068 214.74985 214.11502 213.56619 214.03392 215.13896 216.40881
 218.30247 220.64613 222.78712 224.37497 225.60657 226.76703 228.67529 229.85597
 230.17000 230.86444 233.28401 237.25693 241.61992 245.90831 250.02495 253.88802
 257.40674 260.60355 263.57224 266.30023 268.59732 270.52994 272.53427 274.63742
 276.53955 278.27130 279.81866 281.18530 282.36923 283.42001 284.38144 285.26541
 286.07880 286.81146 287.43436 288.26572
 366.78100 356.33533 345.76765 334.63398 323.03731 311.23163 299.10196 286.90528
 274.61761 262.51494 250.52426 239.82559 229.94792 221.05224 213.23457 206.23689
 200.07122 195.00955 191.59187 189.63420 188.67153 188.73585 189.57118 190.87950
 192.60483 194.70016 196.96348 199.32281 201.76814 204.24846 206.33679 208.17911
 209.80544 210.95077 211.18009 211.40842 211.34575 211.05107 210.68440 210.31473
 209.93205 209.64238 209.45070 209.31503 209.24336 209.57468 209.96101 210.35034
 211.14366 212.32199 213.57231 215.35564 217.28397 219.32729 221.42262 223.50595
 225.56627 227.65060 229.74792 231.85425 233.98358 236.15590 238.41223 240.78256
 243.40388 245.65521 247.65753 249.42286 250.84019 251.96351 252.78584 253.10217
 253.13949 252.91382 252.27415 251.22247 249.82880 247.99012 245.89945 243.73278
 241.52410 239.32843 237.14876 234.98808 232.84841 230.71573 228.74206 226.89939
 225.18271 223.65504 222.28537 221.05769 219.94002 218.90034 218.00467 217.14600
 216.38832 215.56865 214.66698 214.03130 213.48163 214.00418 215.23878 216.51683
 218.32346 220.64406 222.82700 224.41692 225.64513 226.85011 228.65546 229.67928
 229.94678 230.73015 233.24600 237.26999 241.64577 245.92004 250.00844 253.83913
 257.33102 260.51019 263.47134 266.20053 268.48669 270.42532 272.52835 274.55179
 276.49881 278.22324 279.76590 281.13046 282.31256 283.36304 284.32028 285.20334
 286.01642 286.75244 287.36951 288.19391
 366.78100 356.33436 345.76571 334.63107 323.03343 311.22678 299.09614 286.89849
 274.60985 262.50621 250.51456 239.81492 229.93628 221.03963 213.22099 206.22234
 200.05570 194.99306 191.57441 189.61577 188.65213 188.71548 189.54984 190.85719
 192.58155 194.67591 196.93826 199.29662 201.74098 204.22033 206.30769 208.14904
 209.77440 210.91876 211.14711 211.37447 211.31083 211.01518 210.64754 210.27690
 209.89325 209.60261 209.40996 209.27332 209.20068 209.53103 209.91639 210.30475
 211.09710 212.27446 213.52381 215.30617 217.23353 219.27588 221.37024 223.45260
 225.51195 227.59531 229.69166 231.79702 233.92538 236.09673 238.35209 240.72145
 243.34180 245.59216 247.59351 249.35787 250.77423 251.89658 252.71794 253.03330
 253.06965 252.84301 252.20236 251.14972 249.75508 247.91543 245.82379 243.65615
 241.44650 239.24986 237.06922 234.90757 232.76693 230.63328 228.65864 226.81500
 225.09735 223.56871 222.19807 220.96942 219.85078 218.81013 217.91349 217.05385
 216.29520 215.47456 214.57192 213.93527 213.38463 213.96597 215.33946 216.63025
 218.36472 220.65437 222.85829 224.44153 225.66713 226.91521 228.60555 229.47450
 229.72098 230.61575 233.22682 237.29436 241.68201 245.94348 250.00557 253.80489
 257.27151 260.43274 263.38791 266.13052 268.43390 270.39191 272.40497 274.52130
 276.43375 278.14569 279.67828 281.03586 282.21423 283.26013 284.21390 285.09332
 285.91022 286.64389 287.25989 288.08170
 366.78100 356.33331 345.76363 334.62794 323.02925 311.22157 299.08988 286.89119
 274.60151 262.49682 250.50413 239.80345 229.92376 221.02608 213.20639 206.20670
 200.03902 194.97533 191.55564 189.59596 188.63127 188.69358 189.52690 190.83321
 192.55652 194.64984 196.91115 199.26846 201.71178 204.19009 206.27640 208.11672
 209.74103 210.88435 211.11166 211.33797 211.27329 210.97660 210.60791 210.23623
 209.85154 209.55985 209.36617 209.22848 209.15479 209.48411 209.86842 210.25573
 211.04705 212.22336 213.47167 215.25299 217.17930 219.22062 221.31393 223.39524
 225.45356 227.53587 229.63118 231.73550 233.86281 236.03312 238.28744 240.65575
 243.27506 245.52438 247.52469 249.28800 250.70332 251.82463 252.64494 252.95926
 252.99457 252.76689 252.12520 251.07151 249.67583 247.83514 245.74245 243.57377
 241.36308 239.16539 236.98371 234.82102 232.67933 230.54465 228.56896 226.72427
 225.00559 223.47590 222.10421 220.87453 219.75484 218.71316 217.81547 216.95478
 216.19510 215.37341 214.46972 213.83204 213.28035 213.92249 215.43964 216.74828
 218.41237 220.67287 222.88751 224.46097 225.66521 226.94537 228.55397 229.28345
 229.50151 230.50493 233.21492 237.32332 241.72154 245.97310 250.01100 253.77852
 257.21744 260.36209 263.31412 266.06772 268.37857 270.35196 272.31912 274.47327
 276.35898 278.06317 279.58688 280.93707 282.10822 283.14890 284.10190 284.97949
 285.79831 286.52573 287.14105 287.96024
 366.78100 356.33236 345.76172 334.62507 323.02543 311.21679 299.08415 286.88450
 274.59386 262.48822 250.49458 239.79294 229.91229 221.01365 213.19301 206.19237
 200.02373 194.95908 191.53844 189.57780 188.61216 188.67351 189.50587 190.81123
 192.53359 194.62595 196.88630 199.24266 201.68502 204.16238 206.24774 208.08709
 209.71045 210.85281 211.07917 211.30452 211.23888 210.94124 210.57160 210.19896
 209.81331 209.52067 209.32603 209.18739 209.11274 209.44110 209.82446 210.21082
 211.00118 212.17653 213.42389 215.20425 217.12961 219.16997 221.26232 223.34268
 225.40004 227.48140 229.57575 231.67911 233.80547 235.97483 238.22819 240.59554
 243.21390 245.46226 247.46162 249.22398 250.63833 251.75869 252.57805 252.89141
 252.92576 252.69712 252.05448 250.99984 249.60320 247.76155 245.66791 243.49827
 241.28663 239.08798 236.90534 234.74170 232.59906 230.46342 228.48677 226.64113
 224.92149 223.39085 222.01821 220.78756 219.66692 218.62428 217.72564 216.86399
 216.10335 215.28071 214.37607 213.73743 213.18478 213.88074 215.52501 216.88417
 218.47142 220.69200 222.91002 224.47397 225.63345 226.93817 228.51439 229.12502
 229.29207 230.39116 233.20595 237.35365 241.76088 246.00070 250.01326 253.74832
 257.16107 260.29266 263.24326 266.01199 268.34702 270.35867 272.31815 274.43146
 276.28998 277.97687 279.49432 280.83105 281.98657 283.01974 283.96426 284.84198
 285.66656 286.38428 287.00055 287.81857
 366.78100 356.33159 345.76017 334.62276 323.02235 311.21294 299.07952 286.87911
 274.58770 262.48129 250.48687 239.78446 229.90305 221.00363 213.18222 206.18081
 200.01140 194.94598 191.52457 189.56316 188.59675 188.65733 189.48892 190.79351
 192.51509 194.60668 196.86627 199.22186 201.66344 204.14003 206.22462 208.06321
 209.68579 210.82738 211.05297 211.27755 211.21114 210.91273 210.54232 210.16890
 209.78249 209.48908 209.29367 209.15425 209.07884 209.40643 209.78901 210.17460
 210.96419 212.13878 213.38536 215.16495 217.08954 219.12913 221.22071 223.30030
 225.35689 227.43747 229.53106 231.63365 233.75924 235.92782 238.18041 240.54700
 243.16459 245.41217 247.41076 249.17235 250.58593 251.70552 252.52411 252.83670
 252.87028 252.64087 251.99746 250.94205 249.54463 247.70222 245.60781 243.43739
 241.22498 239.02557 236.84216 234.67774 232.53433 230.39792 228.42051 226.57409
 224.85368 223.32227 221.94885 220.71744 219.59603 218.55262 217.65320 216.79079
 216.02938 215.20597 214.30055 213.66114 213.10773 213.84538 215.58817 217.04318
 218.55713 220.71181 222.90996 224.46672 225.58043 226.90018 228.46637 228.98245
 229.09581 230.28752 233.20972 237.39163 241.80638 246.03387 250.02229 253.72749
 257.11331 260.22607 263.16345 265.93423 268.29309 270.35797 272.35425 274.37903
 276.21811 277.88858 279.39606 280.73865 281.91074 282.95844 283.92621 284.80930
 285.60452 286.30090 286.91046 287.71960
 366.78100 356.33064 345.75829 334.61993 323.01858 311.20822 299.07387 286.87251
 274.58016 262.47280 250.47744 239.77409 229.89173 220.99138 213.16902 206.16667
 199.99631 194.92996 191.50760 189.54524 188.57789 188.63753 189.46818 190.77182
 192.49247 194.58311 196.84176 199.19640 201.63704 204.11269 206.19633 208.03398
 209.65562 210.79627 211.02091 211.24456 211.17720 210.87784 210.50649 210.13213
 209.74478 209.45042 209.25407 209.11371 209.03735 209.36400 209.74564 210.13029
 210.91893 212.09258 213.33822 215.11687 217.04051 219.07915 221.16980 223.24844
 225.30409 227.38373 229.47638 231.57802 233.70267 235.87031 238.12195 240.48760
 243.10424 245.35089 247.34853 249.10918 250.52182 251.64047 252.45811 252.76975
 252.80240 252.57204 251.92769 250.87133 249.47298 247.62962 245.53427 243.36291
 241.14955 238.94920 236.76484 234.59949 232.45513 230.31778 228.33942 226.49207
 224.77071 223.23835 221.86400 220.63164 219.50929 218.46493 217.56458 216.70122
 215.93887 215.11451 214.20815 213.56780 213.01344 213.79648 215.64650 217.22607
 218.66936 220.73465 222.87872 224.43164 225.52745 226.85522 228.40143 228.84373
 228.91920 230.19156 233.21443 237.43091 241.85338 246.07248 250.04326 253.72382
 257.08524 260.17270 263.08560 265.85477 268.23651 270.34924 272.36456 274.31580
 276.14465 277.80280 279.29446 280.62988 281.79868 282.84460 283.81146 284.69205
 285.48392 286.17844 286.78708 287.59354
 366.78100 356.33068 345.75837 334.62005 323.01873 311.20842 299.07410 286.87278
 274.58046 262.47315 250.47783 239.77451 229.89220 220.99188 213.16956 206.16725
 199.99693 194.93061 191.50829 189.54598 188.57866 188.63834 189.46903 190.77271
 192.49339 194.58408 196.84276 199.19744 201.63812 204.11381 206.19749 208.03517
 209.65686 210.79754 211.02222 211.24591 211.17859 210.87927 210.50796 210.13364
 209.74632 209.45200 209.25569 209.11537 209.03905 209.36574 209.74742 210.13210
 210.92079 212.09447 213.34015 215.11883 217.04252 219.08120 221.17188 223.25057
 225.30625 227.38593 229.47862 231.58030 233.70498 235.87267 238.12435 240.49003
 243.10671 245.35340 247.35108 249.11176 250.52445 251.64313 252.46081 252.77250
 252.80518 252.57486 251.93054 250.87423 249.47591 247.63259 245.53728 243.36596
 241.15264 238.95233 236.76801 234.60269 232.45837 230.32106 228.34274 226.49542
 224.77411 223.24179 221.86747 220.63516 219.51284 218.46852 217.56821 216.70489
 215.94257 215.11825 214.21194 213.57162 213.01730 213.79860 215.64450 217.39450
 218.86949 220.80252 222.81599 224.32581 225.41368 226.74466 228.24066 228.67331
 228.73689 230.11287 233.23241 237.48811 241.91660 246.13544 250.09454 253.75624
 257.09207 260.15012 263.03177 265.80548 268.20389 270.33154 272.33844 274.24081
 276.05844 277.71854 279.20667 280.52332 281.68665 282.73376 283.70078 284.58542
 285.37750 286.07742 286.70483 287.51428
 366.78100 356.33156 345.76012 334.62268 323.02223 311.21279 299.07935 286.87891
 274.58747 262.48103 250.48659 239.78415 229.90270 221.00326 213.18182 206.18038
 200.01094 194.94550 191.52406 189.56262 188.59617 188.65673 189.48829 190.79285
 192.51441 194.60597 196.86553 199.22109 201.66264 204.13920 206.22376 208.06232
 209.68488 210.82644 211.05200 211.27656 211.21011 210.91167 210.54123 210.16779
 209.78135 209.48791 209.29247 209.15303 209.07758 209.40514 209.78770 210.17326
 210.96282 212.13738 213.38394 215.16350 217.08805 219.12761 221.21917 223.29873
 225.35529 227.43585 229.52941 231.63197 233.75752 235.92608 238.17864 240.54520
 243.16276 245.41032 247.40888 249.17044 250.58399 251.70355 252.52211 252.83467
 252.86823 252.63879 251.99535 250.93991 249.54246 247.70002 245.60558 243.43514
 241.22270 239.02326 236.83982 234.67538 232.53193 230.39549 228.41805 226.57161
 224.85117 223.31973 221.94629 220.71485 219.59340 218.54996 217.65052 216.78808
 216.02664 215.20320 214.29776 213.65831 213.10487 213.85246 215.62891 217.45126
 219.07756 220.90292 222.74948 224.17303 225.23091 226.54138 227.93373 228.51732
 228.40669 229.97125 233.21301 237.53403 242.06279 246.30125 250.25935 253.90346
 257.21780 260.23987 263.07693 265.76221 268.14160 270.27048 272.24503 274.14294
 275.92288 277.55591 279.01877 280.35260 281.52505 282.57669 283.54691 284.43613
 285.25406 285.98294 286.61966 287.43109
 366.78100 356.33208 345.76116 334.62424 323.02432 311.21540 299.08248 286.88256
 274.59164 262.48572 250.49180 239.78987 229.90895 221.01003 213.18911 206.18819
 200.01927 194.95435 191.53343 189.57251 188.60659 188.66767 189.49975 190.80483
 192.52691 194.61899 196.87907 199.23515 201.67723 204.15431 206.23939 208.07847
 209.70154 210.84362 211.06970 211.29478 211.22886 210.93094 210.56102 210.18810
 209.80218 209.50926 209.31434 209.17542 209.10050 209.42858 209.81166 210.19774
 210.98782 212.16290 213.40998 215.19006 217.11513 219.15521 221.24729 223.32737
 225.38445 227.46553 229.55961 231.66269 233.78877 235.95785 238.21093 240.57801
 243.19609 245.44417 247.44325 249.20533 250.61941 251.73949 252.55857 252.87165
 252.90573 252.67680 252.03388 250.97896 249.58204 247.74012 245.64620 243.47628
 241.26436 239.06544 236.88252 234.71860 232.57568 230.43976 228.46284 226.61692
 224.89700 223.36608 221.99316 220.76224 219.64132 218.59840 217.69947 216.83755
 216.07663 215.25371 214.34879 213.70987 213.15695 213.89409 215.67047 217.48872
 219.27148 221.01205 222.72879 224.13828 225.24823 226.44171 227.64197 228.37682
 228.27449 229.97224 233.29610 237.58072 242.09157 246.44807 250.44484 254.07961
 257.36166 260.33508 263.11514 265.71652 268.02411 270.12430 272.14130 273.96579
 275.72272 277.30478 278.75754 280.11429 281.32129 282.45966 283.55002 284.53781
 285.42621 286.21735 286.90845 287.78922
 366.78100 356.33281 345.76261 334.62642 323.02722 311.21903 299.08684 286.88764
 274.59745 262.49225 250.49906 239.79787 229.91767 221.01948 213.19928 206.19909
 200.03090 194.96670 191.54651 189.58631 188.62112 188.68293 189.51573 190.82154
 192.54434 194.63715 196.89796 199.25476 201.69757 204.17537 206.26118 208.10099
 209.72479 210.86760 211.09440 211.32021 211.25502 210.95782 210.58863 210.21643
 209.83124 209.53905 209.34485 209.20666 209.13246 209.46127 209.84508 210.23188
 211.02269 212.19849 213.44630 215.22711 217.15291 219.19372 221.28652 223.36733
 225.42514 227.50694 229.60175 231.70555 233.83236 236.00217 238.25597 240.62378
 243.24258 245.49139 247.49120 249.25400 250.66881 251.78961 252.60942 252.92323
 252.95803 252.72984 252.08764 251.03345 249.63726 247.79606 245.70287 243.53367
 241.32248 239.12429 236.94209 234.77890 232.63670 230.50151 228.52532 226.68012
 224.96093 223.43073 222.05854 220.82835 219.70815 218.66596 217.76776 216.90657
 216.14638 215.32418 214.41999 213.78179 213.22960 213.94087 215.68306 217.59029
 219.50172 221.18987 222.82584 224.22578 225.37022 226.44106 227.57123 228.13609
 228.18513 229.89836 233.26102 237.59103 242.12621 246.46411 250.48965 254.15245
 257.42889 260.36230 263.11426 265.65143 267.92545 269.89566 272.13931 273.92139
 275.56335 277.11133 278.60049 279.98868 281.29730 282.47931 283.55771 284.53470
 285.41336 286.19583 286.87936 287.75046
 366.78100 356.33309 345.76317 334.62726 323.02835 311.22043 299.08852 286.88961
 274.59970 262.49478 250.50187 239.80096 229.92104 221.02313 213.20322 206.20330
 200.03539 194.97148 191.55156 189.59165 188.62674 188.68882 189.52191 190.82800
 192.55109 194.64417 196.90526 199.26235 201.70543 204.18352 206.26961 208.10969
 209.73378 210.87687 211.10395 211.33004 211.26513 210.96822 210.59930 210.22739
 209.84248 209.55056 209.35665 209.21874 209.14482 209.47391 209.85800 210.24508
 211.03617 212.21226 213.46035 215.24143 217.16752 219.20861 221.30169 223.38278
 225.44087 227.52295 229.61804 231.72213 233.84921 236.01930 238.27339 240.64147
 243.26056 245.50965 247.50974 249.27282 250.68791 251.80900 252.62908 252.94317
 252.97826 252.75034 252.10843 251.05452 249.65860 247.81769 245.72478 243.55587
 241.34495 239.14704 236.96513 234.80221 232.66030 230.52539 228.54947 226.70456
 224.98565 223.45573 222.08382 220.85391 219.73400 218.69208 217.79417 216.93326
 216.17334 215.35143 214.44752 213.80960 213.25769 213.95239 215.67393 217.70609
 219.59587 221.24017 222.88292 224.30222 225.46552 226.50328 227.58466 228.04669
 228.00937 229.72983 233.18501 237.56670 242.13727 246.50836 250.53122 254.18489
 257.46194 260.39090 263.10825 265.65063 267.94498 269.90396 272.08282 273.86725
 275.47778 276.95944 278.43140 279.80890 281.08066 282.21747 283.25461 284.19418
 285.03925 285.79178 286.44919 287.28696
 366.78100 356.33234 345.76168 334.62502 323.02535 311.21669 299.08403 286.88437
 274.59371 262.48805 250.49438 239.79272 229.91206 221.01340 213.19274 206.19208
 200.02342 194.95875 191.53809 189.57743 188.61177 188.67311 189.50545 190.81078
 192.53312 194.62546 196.88580 199.24214 201.68448 204.16182 206.24715 208.08649
 209.70983 210.85217 211.07851 211.30385 211.23818 210.94052 210.57086 210.19820
 209.81254 209.51988 209.32522 209.18655 209.11189 209.44023 209.82357 210.20991
 211.00025 212.17558 213.42292 215.20326 217.12860 219.16894 221.26128 223.34162
 225.39895 227.48029 229.57463 231.67797 233.80431 235.97365 238.22698 240.59432
 243.21266 245.46100 247.46034 249.22268 250.63702 251.75735 252.57669 252.89003
 252.92437 252.69571 252.05305 250.99838 249.60172 247.76006 245.66640 243.49674
 241.28508 239.08642 236.90375 234.74009 232.59743 230.46177 228.48511 226.63945
 224.91978 223.38912 222.01646 220.78580 219.66514 218.62248 217.72382 216.86215
 216.10149 215.27883 214.37417 213.73551 213.18285 213.90303 215.67981 217.87733
 219.65508 221.18506 222.80104 224.22813 225.43393 226.54384 227.56584 228.01930
 227.80717 229.57715 233.14006 237.56911 242.15762 246.54527 250.58224 254.24255
 257.52551 260.46127 263.14188 265.69864 267.97595 269.94614 272.09467 273.83783
 275.47079 276.88315 278.27966 279.61655 280.80768 281.91800 282.93555 283.85739
 284.68649 285.42480 286.06976 286.89172
 366.78100 356.33334 345.76368 334.62803 323.02937 311.22171 299.09005 286.89140
 274.60174 262.49708 250.50442 239.80376 229.92411 221.02645 213.20679 206.20713
 200.03947 194.97582 191.55616 189.59650 188.63184 188.69419 189.52753 190.83387
 192.55721 194.65055 196.91190 199.26924 201.71258 204.19092 206.27727 208.11761
 209.74195 210.88529 211.11263 211.33898 211.27432 210.97766 210.60900 210.23735
 209.85269 209.56103 209.36737 209.22971 209.15606 209.48540 209.86974 210.25708
 211.04842 212.22477 213.47311 215.25445 217.18079 219.22214 221.31548 223.39682
 225.45516 227.53750 229.63285 231.73719 233.86453 236.03487 238.28922 240.65756
 243.27690 245.52624 247.52658 249.28993 250.70527 251.82661 252.64695 252.96130
 252.99664 252.76898 252.12732 251.07366 249.67801 247.83735 245.74469 243.57603
 241.36537 239.16772 236.98606 234.82340 232.68174 230.54709 228.57143 226.72677
 225.00811 223.47845 222.10680 220.87714 219.75748 218.71582 217.81817 216.95751
 216.19785 215.37619 214.47253 213.83488 213.28322 213.95459 215.66014 217.97926
 219.91368 221.40034 222.84911 224.19679 225.39709 226.41577 227.37410 227.67561
 227.75435 229.65796 233.21577 237.60278 242.16293 246.52232 250.57114 254.25911
 257.54520 260.48569 263.17581 265.66626 267.91397 269.84076 272.09332 273.86813
 275.29498 276.73315 278.14417 279.51193 280.80746 281.95901 283.00964 283.96146
 284.81747 285.57977 286.24573 287.09436
 366.78100 356.33489 345.76677 334.63266 323.03554 311.22943 299.09931 286.90220
 274.61408 262.51097 250.51985 239.82074 229.94263 221.04651 213.22840 206.23028
 200.06417 195.00205 191.58394 189.62582 188.66271 188.72659 189.56148 190.86937
 192.59425 194.68914 196.95202 199.31091 201.75579 204.23568 206.32356 208.16545
 209.79133 210.93622 211.16511 211.39299 211.32988 211.03476 210.66765 210.29753
 209.91442 209.62430 209.43219 209.29607 209.22396 209.55485 209.94073 210.32962
 211.12250 212.30039 213.55027 215.33316 217.26104 219.30393 221.39881 223.48170
 225.54159 227.62547 229.72236 231.82824 233.95713 236.12901 238.38490 240.75478
 243.37567 245.62655 247.62844 249.39333 250.81021 251.93310 252.75498 253.07087
 253.10775 252.88164 252.24152 251.18941 249.79529 247.95618 245.86507 243.69795
 241.48884 239.29272 237.11261 234.95149 232.81138 230.67826 228.70415 226.86103
 225.14392 223.61581 222.24569 221.01758 219.89946 218.85935 217.96323 217.10412
 216.34600 215.52589 214.62377 213.98766 213.43755 214.04939 215.62807 217.89536
 220.18089 221.74997 223.06444 224.25177 225.34290 226.24397 227.19455 227.33160
 227.52338 229.60338 233.28732 237.72038 242.27174 246.62590 250.67627 254.35712
 257.66388 260.61151 263.28796 265.74622 267.89987 269.86237 272.01147 273.77740
 275.33170 276.83685 278.37000 279.92200 281.33173 282.57901 283.71695 284.74783
 285.67499 286.50064 287.22192 288.14111
 366.78100 356.33510 345.76720 334.63330 323.03640 311.23050 299.10060 286.90370
 274.61580 262.51290 250.52200 239.82310 229.94520 221.04930 213.23140 206.23350
 200.06760 195.00570 191.58780 189.62990 188.66700 188.73110 189.56620 190.87430
 192.59940 194.69450 196.95760 199.31670 201.76180 204.24190 206.33000 208.17210
 209.79819 210.94329 211.17239 211.40049 211.33759 211.04269 210.67579 210.30589
 209.92299 209.63309 209.44119 209.30529 209.23339 209.56449 209.95059 210.33969
 211.13279 212.31089 213.56099 215.34409 217.27219 219.31529 221.41039 223.49349
 225.55359 227.63769 229.73479 231.84089 233.96999 236.14209 238.39819 240.76829
 243.38939 245.64049 247.64259 249.40769 250.82479 251.94789 252.76999 253.08609
 253.12319 252.89729 252.25739 251.20549 249.81159 247.97269 245.88179 243.71489
 241.50599 239.31009 237.13019 234.96929 232.82939 230.69649 228.72259 226.87969
 225.16279 223.63489 222.26499 221.03709 219.91919 218.87929 217.98339 217.12449
 216.36658 215.54668 214.64478 214.00888 213.45898 214.06992 215.58348 217.81584
 220.36174 221.86626 222.99429 224.16885 225.32297 226.23196 226.99672 227.06265
 227.14755 229.36526 233.23166 237.73050 242.29747 246.66676 250.72870 254.43642
 257.77563 260.72961 263.40189 265.93762 268.07098 270.07147 272.02203 273.82474
 275.51596 276.96518 278.29031 279.57605 280.76807 281.91367 283.05698 284.09271
 285.02426 285.85379 286.57846 287.50198
 366.78100 356.33729 345.77159 334.63988 323.04518 311.24147 299.11377 286.91906
 274.63336 262.53265 250.54395 239.84724 229.97154 221.07783 213.26213 206.26642
 200.10272 195.04301 191.62731 189.67160 188.71090 188.77719 189.61449 190.92478
 192.65208 194.74937 197.01467 199.37596 201.82326 204.30555 206.39585 208.24014
 209.86844 211.01573 211.24703 211.47732 211.41662 211.12391 210.75921 210.39150
 210.01080 209.72309 209.53339 209.39968 209.32998 209.66327 210.05157 210.44286
 211.23816 212.41845 213.67075 215.45604 217.38634 219.43163 221.52893 223.61422
 225.67652 227.76281 229.86211 231.97040 234.10170 236.27599 238.53429 240.90658
 243.52988 245.78317 247.78747 249.55476 250.97406 252.09935 252.92365 253.24194
 253.28124 253.05753 252.41983 251.37012 249.97842 248.14171 246.05301 243.88830
 241.68160 239.48789 237.31019 235.15148 233.01378 230.88307 228.91137 227.07066
 225.35596 223.83025 222.46255 221.23684 220.12114 219.08343 218.18973 217.33302
 216.57732 215.75961 214.85991 214.22620 213.67850 214.19411 215.52168 217.93231
 220.53470 221.97270 223.05444 224.19794 225.38292 226.29253 226.83099 226.90932
 226.91925 229.20944 233.15065 237.69077 242.27888 246.66872 250.74280 254.45267
 257.83939 260.80768 263.41083 265.90405 267.98654 269.84390 271.91101 273.65207
 275.25208 276.59625 277.87408 279.08182 280.24103 281.33810 282.34607 283.25925
 284.08054 284.81189 285.45081 286.26501
 366.78100 356.33700 345.77101 334.63901 323.04401 311.24002 299.11202 286.91703
 274.63103 262.53003 250.54104 239.84404 229.96804 221.07405 213.25805 206.26206
 200.09806 195.03806 191.62207 189.66607 188.70507 188.77108 189.60808 190.91808
 192.64509 194.74209 197.00710 199.36810 201.81510 204.29711 206.38711 208.23111
 209.85912 211.00612 211.23713 211.46713 211.40613 211.11314 210.74814 210.38014
 209.99915 209.71115 209.52115 209.38716 209.31716 209.65017 210.03817 210.42917
 211.22418 212.40418 213.65618 215.44119 217.37119 219.41620 221.51320 223.59820
 225.66021 227.74621 229.84521 231.95322 234.08422 236.25822 238.51623 240.88823
 243.51124 245.76424 247.76824 249.53525 250.95425 252.07925 252.90326 253.22126
 253.26027 253.03627 252.39827 251.34828 249.95628 248.11928 246.03029 243.86529
 241.65829 239.46430 237.28630 235.12731 232.98931 230.85831 228.88632 227.04532
 225.33032 223.80433 222.43633 221.21034 220.09434 219.05634 218.16235 217.30535
 216.54935 215.73136 214.83136 214.19736 213.64937 214.20238 215.65799 217.93729
 220.49536 222.23462 223.47820 224.46313 225.49017 226.20966 226.71953 226.50929
 226.82307 229.20844 233.17218 237.73351 242.34846 246.73361 250.81314 254.50414
 257.84933 260.89746 263.56693 266.03162 267.86438 269.73349 271.87903 273.63995
 275.07434 276.40195 277.88037 279.39572 280.70920 281.87131 282.93155 283.89206
 284.75592 285.52521 286.19724 287.05365
 366.78100 356.33335 345.76370 334.62805 323.02941 311.22176 299.09011 286.89146
 274.60181 262.49716 250.50452 239.80387 229.92422 221.02657 213.20692 206.20727
 200.03963 194.97598 191.55633 189.59668 188.63203 188.69438 189.52774 190.83409
 192.55744 194.65079 196.91214 199.26949 201.71285 204.19120 206.27755 208.11790
 209.74225 210.88560 211.11296 211.33931 211.27466 210.97801 210.60936 210.23771
 209.85307 209.56142 209.36777 209.23012 209.15647 209.48582 209.87018 210.25753
 211.04888 212.22523 213.47358 215.25493 217.18129 219.22264 221.31599 223.39734
 225.45569 227.53804 229.63340 231.73775 233.86510 236.03545 238.28980 240.65815
 243.27751 245.52686 247.52721 249.29056 250.70591 251.82726 252.64762 252.96197
 252.99732 252.76967 252.12802 251.07437 249.67872 247.83808 245.74543 243.57678
 241.36613 239.16848 236.98683 234.82419 232.68254 230.54789 228.57224 226.72759
 225.00894 223.47930 222.10765 220.87800 219.75835 218.71670 217.81905 216.95841
 216.19876 215.37711 214.47346 213.83581 213.28416 214.02174 215.84634 217.94093
 220.27548 222.35419 223.68127 224.55119 225.50908 226.33795 226.66464 226.33565
 226.61057 229.03316 233.09337 237.69078 242.27910 246.67668 250.78271 254.53276
 257.91797 261.01627 263.75299 266.24548 268.22998 269.81046 271.76447 273.80084
 275.41077 276.79935 278.26712 279.74338 281.13672 282.36948 283.49417 284.51306
 285.42944 286.24548 286.95837 287.86685
 366.78100 356.33362 345.76425 334.62887 323.03049 311.22312 299.09174 286.89336
 274.60399 262.49961 250.50724 239.80686 229.92748 221.03011 213.21073 206.21135
 200.04398 194.98060 191.56122 189.60185 188.63747 188.70009 189.53372 190.84034
 192.56397 194.65759 196.91921 199.27684 201.72046 204.19908 206.28571 208.12633
 209.75095 210.89458 211.12220 211.34882 211.28445 210.98807 210.61970 210.24832
 209.86394 209.57257 209.37919 209.24181 209.16844 209.49806 209.88268 210.27031
 211.06193 212.23855 213.48718 215.26880 217.19542 219.23705 221.33067 223.41230
 225.47092 227.55354 229.64917 231.75379 233.88141 236.05204 238.30666 240.67528
 243.29491 245.54453 247.54515 249.30878 250.72440 251.84603 252.66665 252.98127
 253.01690 252.78952 252.14814 251.09477 249.69939 247.85901 245.76664 243.59826
 241.38788 239.19051 237.00913 234.84676 232.70538 230.57100 228.59563 226.75125
 225.03287 223.50350 222.13212 220.90274 219.78337 218.74199 217.84461 216.98424
 216.22486 215.40348 214.50011 213.86273 213.31136 214.03152 215.83102 218.08829
 220.30037 222.37680 223.64174 224.44296 225.39438 226.36966 226.77139 226.33089
 226.55452 228.92583 233.04282 237.64130 242.19127 246.54735 250.63914 254.39580
 257.80493 260.87515 263.65634 266.17108 268.26346 269.88467 271.66983 273.80524
 275.51541 276.99121 278.51031 279.91910 281.29779 282.54196 283.67712 284.70547
 285.63037 286.45401 287.17349 288.09042
 366.78100 356.33796 345.77292 334.64188 323.04784 311.24480 299.11776 286.92372
 274.63868 262.53864 250.55060 239.85456 229.97952 221.08648 213.27144 206.27640
 200.11336 195.05432 191.63928 189.68424 188.72420 188.79116 189.62912 190.94008
 192.66804 194.76599 197.03195 199.39391 201.84187 204.32483 206.41579 208.26075
 209.88971 211.03767 211.26963 211.50059 211.44055 211.14851 210.78447 210.41743
 210.03739 209.75035 209.56131 209.42827 209.35923 209.69319 210.08215 210.47411
 211.27007 212.45103 213.70399 215.48995 217.42091 219.46687 221.56483 223.65079
 225.71375 227.80071 229.90067 232.00963 234.14159 236.31655 238.57551 240.94847
 243.57243 245.82639 247.83135 249.59931 251.01927 252.14523 252.97019 253.28915
 253.32911 253.10607 252.46903 251.41998 250.02894 248.19290 246.10486 243.94082
 241.73478 239.54174 237.36470 235.20666 233.06962 230.93958 228.96854 227.12850
 225.41446 223.88942 222.52238 221.29734 220.18230 219.14526 218.25222 217.39618
 216.64114 215.82410 214.92506 214.29202 213.74498 214.26724 215.68053 218.14075
 220.59483 222.55821 223.66618 224.34882 225.25327 226.22054 226.69327 226.28334
 226.56641 228.98285 233.08394 237.67935 242.21745 246.58025 250.66058 254.39934
 257.80182 260.84772 263.61041 266.14084 268.24380 269.94241 271.74438 273.74622
 275.43646 277.07999 278.65613 280.20718 281.61005 282.85123 283.98361 285.00946
 285.93210 286.75372 287.47150 288.38620
 366.78100 356.34087 345.77874 334.65061 323.05948 311.25936 299.13523 286.94410
 274.66197 262.56484 250.57971 239.88658 230.01445 221.12432 213.31219 206.32007
 200.15994 195.10381 191.69168 189.73955 188.78242 188.85229 189.69316 191.00703
 192.73790 194.83878 197.10765 199.47252 201.92339 204.40926 206.50313 208.35100
 209.98287 211.13374 211.36861 211.60249 211.54536 211.25623 210.89510 210.53097
 210.15384 209.86971 209.68358 209.55345 209.48733 209.82420 210.21607 210.61094
 211.40981 212.59368 213.84955 215.63842 217.57229 219.62116 221.72204 223.81091
 225.87678 227.96665 230.06952 232.18139 234.31626 236.49413 238.75600 241.13187
 243.75875 246.01562 248.02349 249.79436 251.21723 252.34610 253.17397 253.49584
 253.53871 253.31858 252.68446 251.63833 250.25020 248.41707 246.33194 244.17081
 241.96768 239.77755 237.60342 235.44829 233.31417 231.18704 229.21891 227.38178
 225.67065 224.14852 222.78439 221.56226 220.45013 219.41601 218.52588 217.67275
 216.92062 216.10649 215.21036 214.58023 214.03610 214.44073 215.59296 218.08211
 220.77122 222.72348 223.79619 224.37328 225.17950 226.11256 226.52257 226.06998
 226.42229 228.92133 233.09813 237.72337 242.26956 246.64890 250.75732 254.51009
 257.92670 260.97366 263.71268 266.23825 268.41959 270.19397 271.90042 273.80078
 275.48834 277.13986 278.72589 280.29800 281.74512 283.02548 284.19360 285.25183
 286.20358 287.05115 287.79153 288.73511
 366.78100 356.34200 345.78100 334.65400 323.06401 311.26501 299.14201 286.95201
 274.67101 262.57501 250.59101 239.89902 230.02802 221.13902 213.32802 206.33702
 200.17802 195.12302 191.71203 189.76103 188.80503 188.87603 189.71803 191.03303
 192.76503 194.86703 197.13704 199.50304 201.95504 204.44204 206.53704 208.38604
 210.01904 211.17105 211.40705 211.64205 211.58605 211.29805 210.93805 210.57505
 210.19906 209.91606 209.73106 209.60206 209.53706 209.87506 210.26806 210.66407
 211.46407 212.64907 213.90607 215.69607 217.63107 219.68107 221.78308 223.87308
 225.94008 228.03108 230.13508 232.24808 234.38408 236.56309 238.82609 241.20309
 243.83109 246.08909 248.09809 249.87009 251.29409 252.42410 253.25310 253.57610
 253.62010 253.40110 252.76810 251.72310 250.33611 248.50411 246.42011 244.26011
 242.05811 239.86911 237.69611 235.54212 233.40912 231.28312 229.31612 227.48012
 225.77012 224.24912 222.88613 221.66513 220.55413 219.52113 218.63213 217.78013
 217.02913 216.21614 215.32114 214.69214 214.14914 214.52573 215.59297 218.01364
 220.81586 222.81258 223.95914 224.51865 225.22299 226.08507 226.36006 225.77913
 226.18365 228.78052 233.05429 237.71404 242.26805 246.67729 250.81464 254.58289
 258.01825 261.08292 263.80737 266.31342 268.54404 270.39429 272.06409 273.86209
 275.52341 277.10141 278.67450 280.17102 281.60040 282.86502 284.01883 285.06409
 286.00418 286.84134 287.57266 288.50464
 366.78100 356.34161 345.78021 334.65282 323.06242 311.26303 299.13963 286.94924
 274.66784 262.57145 250.58705 239.89466 230.02327 221.13387 213.32248 206.33108
 200.17169 195.11629 191.70490 189.75350 188.79711 188.86771 189.70932 191.02392
 192.75553 194.85714 197.12674 199.49235 201.94395 204.43056 206.52516 208.37377
 210.00637 211.15798 211.39358 211.62819 211.57180 211.28340 210.92301 210.55961
 210.18322 209.89982 209.71443 209.58503 209.51964 209.85724 210.24985 210.64546
 211.44506 212.62967 213.88627 215.67588 217.61048 219.66009 221.76169 223.85130
 225.91790 228.00851 230.11211 232.22472 234.36033 236.53893 238.80154 241.17814
 243.80575 246.06335 248.07196 249.84356 251.26717 252.39677 253.22538 253.54799
 253.59159 253.37220 252.73880 251.69341 250.30601 248.47362 246.38922 244.22883
 242.02643 239.83704 237.66365 235.50925 233.37586 231.24946 229.28207 227.44567
 225.73528 224.21388 222.85049 221.62909 220.51770 219.48430 218.59491 217.74252
 216.99112 216.17773 215.28233 214.65294 214.10954 214.53313 215.68134 217.95872
 220.74641 222.83698 224.09328 224.73785 225.38829 226.14111 226.27731 225.53072
 225.90060 228.58949 232.96205 237.65836 242.24446 246.67036 250.82463 254.63989
 258.10437 261.20618 263.96768 266.46274 268.70547 270.59906 272.26447 273.96100
 275.58926 277.06018 278.62619 280.10306 281.54993 282.83002 283.99792 285.05597
 286.00757 286.85495 287.59521 288.53860
 366.78100 356.33847 345.77394 334.64341 323.04988 311.24734 299.12081 286.92728
 274.64275 262.54322 250.55569 239.86016 229.98563 221.09310 213.27857 206.28403
 200.12150 195.06297 191.64844 189.69391 188.73438 188.80185 189.64032 190.95179
 192.68026 194.77872 197.04519 199.40766 201.85613 204.33960 206.43107 208.27654
 209.90601 211.05448 211.28695 211.51841 211.45888 211.16735 210.80382 210.43729
 210.05776 209.77123 209.58270 209.45017 209.38164 209.71610 210.10557 210.49804
 211.29451 212.47598 213.72945 215.51592 217.44739 219.49386 221.59233 223.67879
 225.74226 227.82973 229.93020 232.03967 234.17214 236.34761 238.60708 240.98055
 243.60502 245.85948 247.86495 249.63342 251.05389 252.18036 253.00583 253.32530
 253.36577 253.14324 252.50670 251.45817 250.06764 248.23211 246.14458 243.98105
 241.77552 239.58299 237.40646 235.24893 233.11239 230.98286 229.01233 227.17280
 225.45927 223.93474 222.56821 221.34368 220.22915 219.19262 218.30008 217.44455
 216.69002 215.87349 214.97496 214.34243 213.79590 214.39024 215.87195 217.94955
 220.48921 222.69836 224.14154 224.94080 225.57346 226.29192 226.41147 225.31345
 225.63748 228.32306 232.78979 237.50795 242.11490 246.55692 250.74759 254.61852
 258.14752 261.32617 264.12561 266.66394 268.94595 270.91830 272.62106 274.21619
 275.76865 277.17792 278.61258 280.00348 281.28775 282.57562 283.75061 284.81506
 285.77243 286.62497 287.36972 288.31885
 366.78100 356.33541 345.76782 334.63423 323.03764 311.23204 299.10245 286.90586
 274.61827 262.51568 250.52509 239.82650 229.94891 221.05331 213.23572 206.23813
 200.07254 195.01095 191.59336 189.63577 188.67318 188.73759 189.57299 190.88140
 192.60681 194.70222 196.96563 199.32504 201.77045 204.25086 206.33927 208.18167
 209.80808 210.95349 211.18290 211.41131 211.34872 211.05413 210.68754 210.31794
 209.93535 209.64576 209.45417 209.31858 209.24699 209.57840 209.96481 210.35422
 211.14762 212.32603 213.57644 215.35985 217.28826 219.33167 221.42708 223.51049
 225.57089 227.65530 229.75271 231.85912 233.98853 236.16094 238.41735 240.78776
 243.40917 245.66057 247.66298 249.42839 250.84580 251.96921 252.79162 253.10803
 253.14544 252.91984 252.28025 251.22866 249.83507 247.99648 245.90589 243.73930
 241.53071 239.33512 237.15552 234.99493 232.85534 230.72275 228.74916 226.90657
 225.18998 223.66239 222.29280 221.06520 219.94761 218.90802 218.01243 217.15384
 216.39625 215.57666 214.67507 214.03947 213.48988 214.23534 216.03258 218.09918
 220.21347 222.37413 223.99014 224.97659 225.74074 226.51418 226.82747 225.14641
 225.36864 228.07722 232.61763 237.26959 241.86763 246.31090 250.52242 254.42406
 257.99533 261.22897 264.12128 266.74161 269.09457 271.15567 272.93509 274.51620
 275.98929 277.37747 278.67926 279.98520 281.17993 282.26389 283.35785 284.39645
 285.33054 286.16235 286.88904 287.81506
 366.78100 356.33565 345.76830 334.63495 323.03860 311.23325 299.10389 286.90754
 274.62019 262.51784 250.52749 239.82914 229.95179 221.05644 213.23909 206.24174
 200.07638 195.01503 191.59768 189.64033 188.67798 188.74263 189.57828 190.88693
 192.61258 194.70823 196.97187 199.33152 201.77717 204.25782 206.34647 208.18912
 209.81577 210.96142 211.19107 211.41972 211.35736 211.06301 210.69666 210.32731
 209.94496 209.65561 209.46426 209.32891 209.25756 209.58921 209.97585 210.36550
 211.15915 212.33780 213.58845 215.37210 217.30075 219.34440 221.44005 223.52370
 225.58434 227.66899 229.76664 231.87329 234.00294 236.17559 238.43224 240.80289
 243.42454 245.67619 247.67883 249.44448 250.86213 251.98578 252.80843 253.12508
 253.16273 252.93738 252.29803 251.24668 249.85332 248.01497 245.92462 243.75827
 241.54992 239.35457 237.17522 235.01487 232.87552 230.74317 228.76981 226.92746
 225.21111 223.68376 222.31441 221.08706 219.96971 218.93036 218.03501 217.17666
 216.41930 215.59995 214.69860 214.06325 213.51390 214.24844 216.00682 218.28795
 220.29491 222.33434 223.89836 224.85657 225.70406 226.57083 227.02325 225.43886
 225.46254 228.03583 232.52606 237.08286 241.65500 246.07697 250.28831 254.20682
 257.80966 261.08688 264.03769 266.70514 269.10992 271.24063 273.09882 274.71759
 276.17410 277.53043 278.79269 280.02451 281.19165 282.24908 283.23984 284.17767
 285.06244 285.85034 286.53864 287.41577
 366.78100 356.33736 345.77172 334.64008 323.04544 311.24180 299.11416 286.91953
 274.63389 262.53325 250.54461 239.84797 229.97233 221.07869 213.26305 206.26741
 200.10377 195.04413 191.62849 189.67285 188.71221 188.77858 189.61594 190.92630
 192.65366 194.75102 197.01638 199.37774 201.82510 204.30746 206.39782 208.24218
 209.87054 211.01790 211.24927 211.47963 211.41899 211.12635 210.76171 210.39407
 210.01343 209.72579 209.53615 209.40251 209.33287 209.66623 210.05459 210.44595
 211.24132 212.42168 213.67404 215.45940 217.38976 219.43512 221.53248 223.61784
 225.68020 227.76656 229.86592 231.97428 234.10564 236.28001 238.53837 240.91073
 243.53409 245.78745 247.79181 249.55917 250.97853 252.10389 252.92825 253.24661
 253.28597 253.06233 252.42469 251.37506 249.98342 248.14678 246.05814 243.89350
 241.68686 239.49322 237.31558 235.15694 233.01930 230.88866 228.91702 227.07638
 225.36174 223.83611 222.46847 221.24283 220.12719 219.08955 218.19591 217.33927
 216.58363 215.76599 214.86635 214.23271 213.68507 214.34814 215.92213 218.36316
 220.45566 222.36372 223.86580 224.76802 225.60413 226.56267 227.10780 225.65524
 225.59941 228.12560 232.48929 236.99263 241.53154 245.93535 250.14842 254.08398
 257.71710 261.03076 264.01178 266.69400 269.12268 271.29086 273.18942 274.84235
 276.31155 277.65097 278.88397 280.07886 281.22949 282.27606 283.25311 284.15009
 284.96317 285.72665 286.39359 287.24353
 366.78100 356.33910 345.77520 334.64530 323.05240 311.25050 299.12460 286.93170
 274.64780 262.54890 250.56199 239.86709 229.99319 221.10129 213.28739 206.29349
 200.13159 195.07369 191.65979 189.70589 188.74699 188.81509 189.65419 190.96629
 192.69539 194.79449 197.06159 199.42469 201.87379 204.35788 206.44998 208.29608
 209.92618 211.07528 211.30838 211.54048 211.48158 211.19068 210.82778 210.46188
 210.08298 209.79708 209.60918 209.47728 209.40938 209.74448 210.13458 210.52768
 211.32477 212.50687 213.76097 215.54807 217.48017 219.52727 221.62637 223.71347
 225.77757 227.86567 229.96677 232.07687 234.20997 236.38607 238.64617 241.02027
 243.64537 245.90047 247.90657 249.67566 251.09676 252.22386 253.04996 253.37006
 253.41116 253.18926 252.55336 251.50546 250.11556 248.28066 246.19376 244.03086
 241.82596 239.63406 237.45816 235.30126 233.16536 231.03646 229.06656 227.22765
 225.51475 223.99085 222.62495 221.40105 220.28715 219.25125 218.35935 217.50445
 216.75055 215.93465 215.03675 214.40485 213.85895 214.45673 215.86903 218.38031
 220.55493 222.41023 223.87282 224.76297 225.55785 226.52393 227.11319 225.73463
 225.64061 228.16022 232.46614 236.95601 241.45505 245.84943 250.06589 254.02032
 257.67712 261.01559 264.01385 266.69922 269.13474 271.32767 273.24341 274.89926
 276.37119 277.71219 278.95154 280.13773 281.27521 282.32181 283.29803 284.17902
 284.96182 285.69318 286.35178 287.19110
 366.78100 356.33991 345.77682 334.64773 323.05563 311.25454 299.12945 286.93736
 274.65427 262.55618 250.57008 239.87599 230.00290 221.11181 213.29872 206.30563
 200.14453 195.08744 191.67435 189.72126 188.76317 188.83208 189.67198 190.98489
 192.71480 194.81471 197.08262 199.44653 201.89643 204.38134 206.47425 208.32116
 209.95207 211.10198 211.33588 211.56879 211.51070 211.22061 210.85852 210.49343
 210.11533 209.83024 209.64315 209.51206 209.44497 209.78088 210.17178 210.56569
 211.36360 212.54651 213.80142 215.58933 217.52223 219.57014 221.67005 223.75796
 225.82287 227.91178 230.01368 232.12459 234.25850 236.43541 238.69632 241.07123
 243.69713 245.95304 247.95995 249.72986 251.15177 252.27968 253.10658 253.42749
 253.46940 253.24831 252.61322 251.56613 250.17703 248.34294 246.25685 244.09476
 241.89067 239.69958 237.52448 235.36839 233.23330 231.10521 229.13612 227.29803
 225.58593 224.06284 222.69775 221.47466 220.36157 219.32648 218.43538 217.58129
 216.82820 216.01311 215.11602 214.48493 213.93983 214.51779 215.88330 218.37074
 220.58508 222.44756 223.88503 224.76530 225.53867 226.47595 227.10197 225.80173
 225.67851 228.17821 232.44527 236.93587 241.40028 245.78674 250.01138 253.98608
 257.67096 261.03186 264.03021 266.69791 269.12634 271.33340 273.25928 274.91644
 276.39230 277.73914 278.98441 280.18756 281.33472 282.38428 283.36340 284.26523
 285.06793 285.79169 286.44528 287.27823
 366.78100 356.33993 345.77685 334.64778 323.05570 311.25463 299.12955 286.93748
 274.65440 262.55633 250.57025 239.87618 230.00310 221.11203 213.29895 206.30588
 200.14480 195.08773 191.67466 189.72158 188.76351 188.83243 189.67236 190.98528
 192.71521 194.81513 197.08306 199.44698 201.89691 204.38183 206.47476 208.32168
 209.95261 211.10253 211.33646 211.56938 211.51131 211.22124 210.85916 210.49409
 210.11601 209.83094 209.64386 209.51279 209.44571 209.78164 210.17256 210.56649
 211.36441 212.54734 213.80226 215.59019 217.52311 219.57104 221.67097 223.75889
 225.82382 227.91274 230.01467 232.12559 234.25952 236.43644 238.69737 241.07229
 243.69822 245.95414 247.96107 249.73099 251.15292 252.28084 253.10777 253.42870
 253.47062 253.24955 252.61447 251.56740 250.17832 248.34425 246.25817 244.09610
 241.89202 239.70095 237.52587 235.36980 233.23472 231.10665 229.13757 227.29950
 225.58742 224.06435 222.69928 221.47620 220.36313 219.32805 218.43698 217.58290
 216.82983 216.01475 215.11768 214.48660 213.94153 214.53529 215.93813 218.35994
 220.61519 222.42549 223.81929 224.74133 225.53777 226.45532 227.11339 225.90186
 225.74506 228.18964 232.41740 236.90910 241.34865 245.73192 249.97067 253.97456
 257.70026 261.10233 264.11948 266.76306 269.15851 271.35950 273.27155 274.91245
 276.38889 277.74466 279.00748 280.25009 281.42340 282.47888 283.46710 284.37473
 285.18823 285.90924 286.55457 287.37695
 366.78100 356.34063 345.77826 334.64989 323.05852 311.25815 299.13378 286.94241
 274.66005 262.56268 250.57731 239.88394 230.01157 221.12120 213.30883 206.31646
 200.15609 195.09972 191.68735 189.73498 188.77761 188.84724 189.68788 191.00151
 192.73214 194.83277 197.10140 199.46603 201.91666 204.40229 206.49592 208.34355
 209.97518 211.12581 211.36044 211.59407 211.53671 211.24734 210.88597 210.52160
 210.14423 209.85986 209.67349 209.54312 209.47675 209.81338 210.20501 210.59964
 211.39827 212.58190 213.83753 215.62617 217.55980 219.60843 221.70906 223.79769
 225.86332 227.95295 230.05558 232.16721 234.30184 236.47947 238.74110 241.11673
 243.74336 246.00000 248.00763 249.77826 251.20089 252.32952 253.15715 253.47878
 253.52141 253.30104 252.66667 251.62030 250.23193 248.39856 246.31319 244.15183
 241.94846 239.75809 237.58372 235.42835 233.29398 231.16661 229.19824 227.36087
 225.64950 224.12713 222.76276 221.54039 220.42802 219.39365 218.50329 217.64992
 216.89755 216.08318 215.18681 214.55644 214.01207 214.58614 215.94241 218.40079
 220.65498 222.38678 223.73787 224.67410 225.48695 226.42758 227.13664 226.03900
 225.84340 228.20766 232.37970 236.87215 241.30211 245.68008 249.92979 253.95895
 257.72366 261.17227 264.23654 266.89612 269.28220 271.48682 273.38940 274.99725
 276.44189 277.78278 279.04132 280.29004 281.46756 282.51675 283.47894 284.37445
 285.19315 285.93640 286.59967 287.44543
 366.78100 356.34198 345.78096 334.65394 323.06393 311.26491 299.14189 286.95187
 274.67085 262.57483 250.59081 239.89880 230.02778 221.13876 213.32774 206.33672
 200.17770 195.12268 191.71167 189.76065 188.80463 188.87561 189.71759 191.03257
 192.76455 194.86654 197.13652 199.50250 201.95448 204.44146 206.53644 208.38542
 210.01840 211.17039 211.40637 211.64135 211.58533 211.29731 210.93729 210.57427
 210.19826 209.91524 209.73022 209.60120 209.53618 209.87416 210.26714 210.66313
 211.46311 212.64809 213.90507 215.69505 217.63003 219.68001 221.78200 223.87198
 225.93896 228.02994 230.13392 232.24690 234.38288 236.56187 238.82485 241.20183
 243.82981 246.08779 248.09677 249.86875 251.29274 252.42272 253.25170 253.57468
 253.61866 253.39964 252.76662 251.72161 250.33459 248.50257 246.41855 244.25853
 242.05651 239.86749 237.69448 235.54046 233.40744 231.28142 229.31440 227.47838
 225.76836 224.24735 222.88433 221.66331 220.55229 219.51927 218.63025 217.77823
 217.02721 216.21420 215.31918 214.69016 214.14714 214.67183 215.91147 218.44484
 220.69614 222.40775 223.74127 224.60025 225.36040 226.32680 227.11938 226.18701
 225.95753 228.24147 232.34554 236.84010 241.26465 245.63229 249.88579 253.93005
 257.71976 261.19833 264.29507 266.97946 269.38870 271.63120 273.55646 275.15503
 276.56403 277.87466 279.09845 280.30740 281.47891 282.52396 283.48312 284.36450
 285.18771 285.92987 286.57883 287.41254
 366.78100 356.34267 345.78233 334.65600 323.06667 311.26833 299.14600 286.95667
 274.67634 262.58100 250.59767 239.90634 230.03600 221.14767 213.33734 206.34700
 200.18867 195.13434 191.72401 189.77367 188.81834 188.89001 189.73267 191.04834
 192.78101 194.88367 197.15434 199.52101 201.97368 204.46134 206.55701 208.40668
 210.04034 211.19301 211.42968 211.66534 211.61001 211.32268 210.96335 210.60101
 210.22568 209.94335 209.75901 209.63068 209.56635 209.90501 210.29868 210.69535
 211.49602 212.68168 213.93935 215.73002 217.66568 219.71635 221.81902 223.90968
 225.97735 228.06902 230.17368 232.28735 234.42402 236.60369 238.86735 241.24502
 243.87369 246.13235 248.14202 249.91469 251.33935 252.47002 253.29969 253.62336
 253.66802 253.44969 252.81736 251.77302 250.38669 248.55536 246.47202 244.31269
 242.11136 239.92303 237.75069 235.59736 233.46503 231.33969 229.37336 227.53803
 225.82869 224.30836 222.94603 221.72570 220.61536 219.58303 218.69470 217.84336
 217.09303 216.28070 215.38636 214.75803 214.21570 214.72592 215.93138 218.42473
 220.71532 222.45755 223.78879 224.57262 225.25763 226.21362 227.06593 226.27560
 226.03850 228.26865 232.32051 236.81903 241.23158 245.59608 249.85533 253.91243
 257.72034 261.21399 264.31754 266.98947 269.40726 271.66882 273.60541 275.22736
 276.65747 277.96356 279.17120 280.35086 281.50879 282.55679 283.51764 284.39807
 285.21594 285.97528 286.62427 287.46872
 366.78100 356.34224 345.78148 334.65472 323.06496 311.26620 299.14344 286.95368
 274.67292 262.57716 250.59340 239.90164 230.03088 221.14211 213.33135 206.34059
 200.18183 195.12707 191.71631 189.76555 188.80979 188.88103 189.72327 191.03851
 192.77075 194.87299 197.14323 199.50947 201.96171 204.44895 206.54419 208.39343
 210.02667 211.17891 211.41515 211.65039 211.59463 211.30686 210.94710 210.58434
 210.20858 209.92582 209.74106 209.61230 209.54754 209.88578 210.27902 210.67526
 211.47550 212.66074 213.91798 215.70822 217.64346 219.69370 221.79594 223.88618
 225.95342 228.04466 230.14890 232.26214 234.39838 236.57761 238.84085 241.21809
 243.84633 246.10457 248.11381 249.88605 251.31029 252.44053 253.26977 253.59301
 253.63725 253.41849 252.78573 251.74097 250.35421 248.52245 246.43869 244.27893
 242.07717 239.88841 237.71565 235.56189 233.42913 231.30336 229.33660 227.50084
 225.79108 224.27032 222.90756 221.68680 220.57604 219.54328 218.65452 217.80276
 217.05200 216.23924 215.34448 214.71572 214.17296 214.72096 216.01570 218.38412
 220.68500 222.46057 223.79150 224.56337 225.22090 226.16168 227.04167 226.32983
 226.09978 228.28033 232.29582 236.79437 241.20679 245.56677 249.83394 253.90582
 257.73114 261.23987 264.34802 266.99911 269.40826 271.66772 273.58011 275.19586
 276.65546 277.98727 279.20752 280.39212 281.55289 282.60403 283.56839 284.45398
 285.27234 286.02521 286.68109 287.52716
 366.78100 356.34155 345.78011 334.65266 323.06221 311.26277 299.13932 286.94887
 274.66743 262.57098 250.58653 239.89409 230.02264 221.13319 213.32175 206.33030
 200.17085 195.11541 191.70396 189.75251 188.79607 188.86662 189.70817 191.02273
 192.75428 194.85583 197.12539 199.49094 201.94250 204.42905 206.52360 208.37216
 210.00471 211.15626 211.39182 211.62637 211.56992 211.28148 210.92103 210.55758
 210.18114 209.89769 209.71224 209.58280 209.51735 209.85490 210.24746 210.64301
 211.44256 212.62712 213.88367 215.67322 217.60778 219.65733 221.75888 223.84844
 225.91499 228.00554 230.10910 232.22165 234.35720 236.53576 238.79831 241.17486
 243.80242 246.05997 248.06852 249.84008 251.26363 252.39318 253.22174 253.54429
 253.58784 253.36840 252.73495 251.68950 250.30206 248.46961 246.38516 244.22472
 242.02227 239.83283 237.65938 235.50493 233.37149 231.24504 229.27759 227.44115
 225.73070 224.20925 222.84581 221.62436 220.51291 219.47947 218.59002 217.73757
 216.98613 216.17268 215.27723 214.64779 214.10434 214.69800 216.10059 218.37698
 220.64291 222.43060 223.74989 224.52190 225.18069 226.13193 227.04456 226.40727
 226.18121 228.29900 232.27725 236.77243 241.17754 245.53917 249.81778 253.90150
 257.73849 261.25638 264.37006 267.01526 269.42804 271.69400 273.58163 275.16919
 276.63504 277.99106 279.22827 280.43390 281.59824 282.65103 283.61850 284.50748
 285.32535 286.07855 286.73126 287.58139
 366.78100 356.34158 345.78016 334.65274 323.06232 311.26291 299.13949 286.94907
 274.66765 262.57123 250.58681 239.89439 230.02297 221.13355 213.32213 206.33072
 200.17130 195.11588 191.70446 189.75304 188.79662 188.86720 189.70878 191.02336
 192.75494 194.85653 197.12611 199.49169 201.94327 204.42985 206.52443 208.37301
 210.00559 211.15717 211.39275 211.62734 211.57092 211.28250 210.92208 210.55866
 210.18224 209.89882 209.71340 209.58398 209.51856 209.85615 210.24873 210.64431
 211.44389 212.62847 213.88505 215.67463 217.60921 219.65879 221.76037 223.84996
 225.91654 228.00712 230.11070 232.22328 234.35886 236.53744 238.80002 241.17660
 243.80418 246.06177 248.07035 249.84193 251.26551 252.39509 253.22367 253.54625
 253.58983 253.37041 252.73700 251.69158 250.30416 248.47174 246.38732 244.22690
 242.02448 239.83506 237.66164 235.50722 233.37381 231.24739 229.27997 227.44355
 225.73313 224.21171 222.84829 221.62687 220.51545 219.48203 218.59262 217.74020
 216.98878 216.17536 215.27994 214.65052 214.10710 214.70979 216.13373 218.39381
 220.63092 222.41191 223.70830 224.44582 225.08455 226.06078 227.03723 226.50200
 226.28613 228.33363 232.26860 236.75734 241.16325 245.52861 249.81662 253.90581
 257.74472 261.25900 264.36938 267.01105 269.43729 271.72253 273.60312 275.16501
 276.61710 277.98273 279.23611 280.47128 281.64240 282.69742 283.66513 284.55609
 285.37656 286.12494 286.78162 287.63458
 366.78100 356.34225 345.78150 334.65474 323.06499 311.26624 299.14349 286.95374
 274.67299 262.57723 250.59348 239.90173 230.03098 221.14223 213.33148 206.34072
 200.18197 195.12722 191.71647 189.76572 188.80997 188.88121 189.72346 191.03871
 192.77096 194.87321 197.14346 199.50970 201.96195 204.44920 206.54445 208.39370
 210.02694 211.17919 211.41544 211.65069 211.59494 211.30719 210.94743 210.58468
 210.20893 209.92618 209.74143 209.61268 209.54792 209.88617 210.27942 210.67567
 211.47592 212.66117 213.91841 215.70866 217.64391 219.69416 221.79641 223.88666
 225.95390 228.04515 230.14940 232.26265 234.39890 236.57815 238.84139 241.21864
 243.84689 246.10514 248.11439 249.88663 251.31088 252.44113 253.27038 253.59363
 253.63788 253.41912 252.78637 251.74162 250.35487 248.52312 246.43937 244.27961
 242.07786 239.88911 237.71636 235.56261 233.42986 231.30410 229.33735 227.50160
 225.79185 224.27110 222.90835 221.68759 220.57684 219.54409 218.65534 217.80359
 217.05283 216.24008 215.34533 214.71658 214.17383 214.75581 216.13080 218.40053
 220.64674 222.42398 223.68480 224.35426 224.94592 225.94086 226.98940 226.58675
 226.41151 228.39111 232.27690 236.76205 241.16948 245.54362 249.83919 253.92715
 257.75876 261.26038 264.35626 266.98874 269.42670 271.72672 273.60834 275.16290
 276.60199 277.96808 279.23135 280.50555 281.68268 282.73846 283.70801 284.59949
 285.41855 286.16910 286.82263 287.68362
 366.78100 356.34290 345.78279 334.65669 323.06758 311.26948 299.14738 286.95827
 274.67817 262.58307 250.59996 239.90886 230.03875 221.15065 213.34055 206.35044
 200.19234 195.13823 191.72813 189.77803 188.82292 188.89482 189.73772 191.05361
 192.78651 194.88940 197.16030 199.52720 201.98009 204.46799 206.56389 208.41378
 210.04768 211.20057 211.43747 211.67337 211.61826 211.33116 210.97205 210.60995
 210.23485 209.95274 209.76864 209.64054 209.57643 209.91533 210.30922 210.70612
 211.50702 212.69291 213.95081 215.74170 217.67760 219.72850 221.83139 223.92229
 225.99019 228.08208 230.18698 232.30087 234.43777 236.61767 238.88156 241.25946
 243.88835 246.14725 248.15715 249.93004 251.35494 252.48584 253.31573 253.63963
 253.68452 253.46642 252.83432 251.79021 250.40411 248.57301 246.48990 244.33080
 242.12969 239.94159 237.76949 235.61638 233.48428 231.35917 229.39307 227.55797
 225.84886 224.32876 222.96666 221.74655 220.63645 219.60434 218.71624 217.86514
 217.11503 216.30293 215.40882 214.78072 214.23862 214.80223 216.13383 218.39134
 220.65683 222.45274 223.68695 224.27762 224.79286 225.78218 226.90630 226.63913
 226.52388 228.46358 232.30220 236.78467 241.20102 245.58461 249.88332 253.96407
 257.78076 261.26111 264.33560 266.95920 269.40445 271.70987 273.59082 275.15033
 276.58762 277.94995 279.21924 280.53436 281.71765 282.77313 283.74362 284.63486
 285.45398 286.20367 286.85870 287.71777
 366.78100 356.34317 345.78335 334.65752 323.06869 311.27086 299.14904 286.96021
 274.68038 262.58555 250.60273 239.91190 230.04207 221.15424 213.34442 206.35459
 200.19676 195.14294 191.73311 189.78328 188.82845 188.90063 189.74380 191.05997
 192.79314 194.89632 197.16749 199.53466 201.98783 204.47601 206.57218 208.42235
 210.05653 211.20970 211.44687 211.68304 211.62822 211.34139 210.98256 210.62073
 210.24591 209.96408 209.78025 209.65242 209.58860 209.92777 210.32194 210.71911
 211.52029 212.70646 213.96463 215.75581 217.69198 219.74315 221.84632 223.93750
 226.00567 228.09784 230.20301 232.31719 234.45436 236.63453 238.89870 241.27688
 243.90605 246.16522 248.17540 249.94857 251.37374 252.50491 253.33509 253.65926
 253.70443 253.48660 252.85478 251.81095 250.42512 248.59429 246.51147 244.35264
 242.15181 239.96399 237.79216 235.63933 233.50750 231.38268 229.41685 227.58202
 225.87319 224.35337 222.99154 221.77171 220.66188 219.63006 218.74223 217.89140
 217.14158 216.32975 215.43592 214.80809 214.26627 214.82919 216.15916 218.37805
 220.64565 222.47475 223.70259 224.23079 224.66225 225.60466 226.77196 226.66414
 226.64413 228.54907 232.33501 236.81908 241.24767 245.64392 249.94467 254.01233
 257.80655 261.25958 264.30969 266.92813 269.38049 271.68454 273.56128 275.12772
 276.56995 277.93063 279.22037 280.55411 281.74268 282.80045 283.77444 284.66788
 285.48700 286.23743 286.89386 287.76981
 366.78100 356.34316 345.78332 334.65747 323.06863 311.27079 299.14895 286.96011
 274.68026 262.58542 250.60258 239.91174 230.04189 221.15405 213.34421 206.35437
 200.19653 195.14268 191.73284 189.78300 188.82816 188.90032 189.74347 191.05963
 192.79279 194.89595 197.16710 199.53426 201.98742 204.47558 206.57174 208.42189
 210.05605 211.20921 211.44637 211.68253 211.62768 211.34084 210.98200 210.62016
 210.24531 209.96347 209.77963 209.65179 209.58795 209.92710 210.32126 210.71842
 211.51958 212.70574 213.96389 215.75505 217.69121 219.74237 221.84552 223.93668
 226.00484 228.09700 230.20216 232.31631 234.45347 236.63363 238.89779 241.27595
 243.90510 246.16426 248.17442 249.94758 251.37273 252.50389 253.33405 253.65821
 253.70337 253.48552 252.85368 251.80984 250.42400 248.59316 246.51031 244.35147
 242.15063 239.96279 237.79094 235.63810 233.50626 231.38142 229.41558 227.58073
 225.87189 224.35205 222.99021 221.77037 220.66052 219.62868 218.74084 217.89000
 217.14015 216.32831 215.43447 214.80663 214.26479 214.84015 216.19951 218.36192
 220.62727 222.49478 223.72191 224.18269 224.52682 225.42789 226.63858 226.64668
 226.72461 228.64395 232.38399 236.86293 241.31125 245.72009 250.02023 254.07071
 257.83612 261.25690 264.27899 266.89615 269.35791 271.66052 273.53140 275.10153
 276.55008 277.91446 279.22705 280.56891 281.75870 282.81998 283.79605 284.68906
 285.50812 286.25717 286.91281 287.78860
 366.78100 356.34303 345.78306 334.65709 323.06812 311.27014 299.14817 286.95920
 274.67923 262.58426 250.60129 239.91032 230.04035 221.15238 213.34240 206.35243
 200.19446 195.14049 191.73052 189.78055 188.82558 188.89761 189.74064 191.05667
 192.78969 194.89272 197.16375 199.53078 201.98381 204.47184 206.56787 208.41790
 210.05193 211.20495 211.44198 211.67801 211.62304 211.33607 210.97710 210.61513
 210.24016 209.95819 209.77421 209.64624 209.58227 209.92130 210.31533 210.71236
 211.51339 212.69942 213.95745 215.74847 217.68450 219.73553 221.83856 223.92959
 225.99762 228.08965 230.19468 232.30871 234.44574 236.62576 238.88979 241.26782
 243.89685 246.15588 248.16591 249.93894 251.36397 252.49500 253.32502 253.64905
 253.69408 253.47611 252.84414 251.80017 250.41420 248.58323 246.50026 244.34128
 242.14031 239.95234 237.78037 235.62740 233.49543 231.37046 229.40449 227.56952
 225.86055 224.34057 222.97860 221.75863 220.64866 219.61669 218.72872 217.87775
 217.12778 216.31581 215.42183 214.79386 214.25189 214.84459 216.24489 218.34271
 220.60088 222.52501 223.76469 224.14294 224.37321 225.19423 226.45357 226.68860
 226.87769 228.73499 232.42668 236.91762 241.38698 245.80583 250.10480 254.13664
 257.86966 261.25452 264.24902 266.86746 269.33878 271.64008 273.50650 275.07767
 276.53055 277.90277 279.23093 280.57532 281.76712 282.82910 283.80469 284.69885
 285.51587 286.26318 286.91559 287.78946
 366.78100 356.34289 345.78278 334.65668 323.06757 311.26946 299.14735 286.95824
 274.67813 262.58303 250.59992 239.90881 230.03870 221.15059 213.34048 206.35038
 200.19227 195.13816 191.72805 189.77794 188.82283 188.89473 189.73762 191.05351
 192.78640 194.88929 197.16019 199.52708 201.97997 204.46786 206.56375 208.41364
 210.04754 211.20043 211.43732 211.67321 211.61810 211.33099 210.97189 210.60978
 210.23467 209.95256 209.76845 209.64035 209.57624 209.91513 210.30902 210.70591
 211.50680 212.69270 213.95059 215.74148 217.67737 219.72826 221.83115 223.92205
 225.98994 228.08183 230.18672 232.30061 234.43750 236.61740 238.88129 241.25918
 243.88807 246.14696 248.15686 249.92975 251.35464 252.48553 253.31542 253.63931
 253.68421 253.46610 252.83399 251.78988 250.40377 248.57266 246.48956 244.33045
 242.12934 239.94123 237.76912 235.61601 233.48391 231.35880 229.39269 227.55758
 225.84847 224.32837 222.96626 221.74615 220.63604 219.60393 218.71582 217.86472
 217.11461 216.30250 215.40839 214.78028 214.23817 214.84819 216.28944 218.32994
 220.55785 222.54552 223.82536 224.14029 224.25044 224.95685 226.23207 226.70169
 227.02113 228.82188 232.46681 236.97289 241.47353 245.90388 250.19952 254.21127
 257.90790 261.25351 264.21982 266.84113 269.32233 271.62183 273.48608 275.05804
 276.51285 277.89648 279.22964 280.57535 281.76785 282.83029 283.80502 284.69824
 285.51364 286.25534 286.90765 287.77969
 366.78100 356.34283 345.78266 334.65649 323.06732 311.26915 299.14698 286.95781
 274.67765 262.58248 250.59931 239.90814 230.03797 221.14980 213.33963 206.34946
 200.19129 195.13712 191.72695 189.77678 188.82161 188.89344 189.73628 191.05211
 192.78494 194.88777 197.15860 199.52543 201.97826 204.46609 206.56192 208.41175
 210.04558 211.19841 211.43524 211.67107 211.61591 211.32874 210.96957 210.60740
 210.23223 209.95006 209.76589 209.63772 209.57355 209.91238 210.30621 210.70304
 211.50387 212.68970 213.94754 215.73837 217.67420 219.72503 221.82786 223.91869
 225.98652 228.07835 230.18318 232.29701 234.43384 236.61367 238.87750 241.25533
 243.88417 246.14300 248.15283 249.92566 251.35049 252.48132 253.31115 253.63498
 253.67981 253.46164 252.82947 251.78530 250.39913 248.56796 246.48480 244.32563
 242.12446 239.93629 237.76412 235.61095 233.47878 231.35361 229.38744 227.55227
 225.84310 224.32293 222.96076 221.74059 220.63043 219.59826 218.71009 217.85892
 217.10875 216.29658 215.40241 214.77424 214.23207 214.85570 216.32906 218.32640
 220.51186 222.54201 223.86780 224.15189 224.16492 224.75191 226.01080 226.67036
 227.11922 228.89397 232.50729 237.03761 241.57193 246.01167 250.30296 254.29295
 257.95068 261.25610 264.19470 266.81873 269.30872 271.60498 273.46915 275.04147
 276.49802 277.88809 279.22406 280.56958 281.76254 282.82367 283.79810 284.69037
 285.50192 286.24231 286.89203 287.76123
 366.78100 356.34287 345.78273 334.65660 323.06746 311.26933 299.14719 286.95806
 274.67792 262.58279 250.59965 239.90852 230.03838 221.15025 213.34011 206.34998
 200.19184 195.13771 191.72757 189.77744 188.82230 188.89417 189.73703 191.05290
 192.78576 194.88863 197.15949 199.52636 201.97922 204.46709 206.56295 208.41282
 210.04668 211.19955 211.43641 211.67228 211.61714 211.33001 210.97087 210.60874
 210.23360 209.95147 209.76733 209.63920 209.57506 209.91393 210.30779 210.70466
 211.50552 212.69139 213.94925 215.74012 217.67598 219.72685 221.82971 223.92058
 225.98844 228.08031 230.18517 232.29904 234.43590 236.61577 238.87963 241.25750
 243.88636 246.14523 248.15509 249.92796 251.35282 252.48369 253.31355 253.63742
 253.68228 253.46415 252.83201 251.78788 250.40174 248.57061 246.48747 244.32834
 242.12720 239.93907 237.76693 235.61380 233.48166 231.35653 229.39039 227.55526
 225.84612 224.32599 222.96385 221.74372 220.63358 219.60145 218.71331 217.86218
 217.11204 216.29991 215.40577 214.77764 214.23550 214.86884 216.36517 218.32346
 220.47675 222.52744 223.88437 224.15202 224.09123 224.57452 225.80647 226.61011
 227.17810 228.96069 232.55431 237.10527 241.67236 246.12820 250.41582 254.38240
 258.00067 261.26556 264.17862 266.80438 269.30011 271.59216 273.45502 275.02942
 276.48663 277.87912 279.21515 280.56134 281.75302 282.81412 283.78854 284.67764
 285.49011 286.22577 286.87387 287.73904
 366.78100 356.34295 345.78289 334.65684 323.06778 311.26973 299.14767 286.95862
 274.67856 262.58351 250.60045 239.90940 230.03934 221.15129 213.34123 206.35118
 200.19312 195.13907 191.72902 189.77896 188.82391 188.89585 189.73880 191.05474
 192.78769 194.89063 197.16158 199.52852 201.98147 204.46941 206.56536 208.41530
 210.04925 211.20219 211.43914 211.67509 211.62003 211.33298 210.97392 210.61187
 210.23681 209.95476 209.77070 209.64265 209.57859 209.91754 210.31148 210.70843
 211.50937 212.69532 213.95327 215.74421 217.68016 219.73110 221.83405 223.92499
 225.99294 228.08488 230.18983 232.30377 234.44072 236.62066 238.88461 241.26255
 243.89150 246.15044 248.16039 249.93334 251.35828 252.48923 253.31917 253.64312
 253.68806 253.47001 252.83795 251.79390 250.40784 248.57679 246.49373 244.33468
 242.13362 239.94557 237.77351 235.62046 233.48841 231.36335 229.39730 227.56224
 225.85319 224.33313 222.97108 221.75102 220.64097 219.60891 218.72086 217.86980
 217.11975 216.30769 215.41364 214.78558 214.24353 214.88516 216.40109 218.31595
 220.44777 222.51341 223.88882 224.13609 224.00963 224.40623 225.61707 226.52609
 227.20203 229.02179 232.61237 237.18442 241.78242 246.25345 250.53426 254.47668
 258.05640 261.28198 264.17001 266.79810 269.29697 271.58463 273.44626 275.02109
 276.47833 277.86902 279.20621 280.55276 281.74405 282.80386 283.77737 284.66434
 285.47379 286.20642 286.85345 287.71445
 366.78100 356.34301 345.78302 334.65703 323.06804 311.27005 299.14806 286.95907
 274.67908 262.58409 250.60110 239.91011 230.04012 221.15213 213.34214 206.35215
 200.19416 195.14017 191.73018 189.78019 188.82520 188.89721 189.74022 191.05623
 192.78924 194.89225 197.16326 199.53027 201.98328 204.47129 206.56730 208.41731
 210.05132 211.20432 211.44133 211.67734 211.62235 211.33536 210.97637 210.61438
 210.23939 209.95740 209.77341 209.64542 209.58143 209.92044 210.31445 210.71146
 211.51247 212.69848 213.95649 215.74750 217.68351 219.73452 221.83753 223.92854
 225.99655 228.08856 230.19357 232.30758 234.44459 236.62460 238.88861 241.26662
 243.89563 246.15464 248.16465 249.93766 251.36267 252.49368 253.32369 253.64770
 253.69271 253.47472 252.84273 251.79874 250.41275 248.58176 246.49877 244.33978
 242.13879 239.95080 237.77881 235.62582 233.49383 231.36884 229.40285 227.56786
 225.85887 224.33888 222.97689 221.75690 220.64691 219.61492 218.72693 217.87594
 217.12595 216.31396 215.41997 214.79197 214.24998 214.90111 216.43948 218.30792
 220.41325 222.49945 223.89156 224.11227 223.91833 224.23628 225.43658 226.41956
 227.20001 229.08972 232.68443 237.26869 241.89767 246.38188 250.65450 254.57269
 258.11511 261.30368 264.17029 266.80136 269.30127 271.58237 273.44153 275.01685
 276.47363 277.86011 279.20084 280.54755 281.73825 282.79810 283.76846 284.65536
 285.46078 286.19183 286.83429 287.69708
 366.78100 356.34307 345.78315 334.65722 323.06829 311.27036 299.14844 286.95951
 274.67958 262.58465 250.60173 239.91080 230.04087 221.15295 213.34302 206.35309
 200.19516 195.14124 191.73131 189.78138 188.82645 188.89853 189.74160 191.05767
 192.79075 194.89382 197.16489 199.53196 201.98504 204.47311 206.56918 208.41925
 210.05333 211.20640 211.44347 211.67954 211.62462 211.33769 210.97876 210.61684
 210.24191 209.95998 209.77605 209.64813 209.58420 209.92327 210.31734 210.71442
 211.51549 212.70156 213.95964 215.75071 217.68678 219.73785 221.84093 223.93200
 226.00007 228.09214 230.19722 232.31129 234.44836 236.62844 238.89251 241.27058
 243.89965 246.15873 248.16880 249.94187 251.36694 252.49802 253.32809 253.65216
 253.69724 253.47931 252.84738 251.80345 250.41753 248.58660 246.50367 244.34474
 242.14382 239.95589 237.78396 235.63104 233.49911 231.37418 229.40825 227.57333
 225.86440 224.34447 222.98254 221.76262 220.65269 219.62076 218.73284 217.88191
 217.13198 216.32005 215.42613 214.79820 214.25627 214.91722 216.47881 218.30583
 220.36942 222.47806 223.89240 224.08847 223.82796 224.06638 225.25587 226.28754
 227.17851 229.17377 232.77550 237.36061 242.01741 246.51039 250.77205 254.66629
 258.17395 261.33041 264.17966 266.81360 269.31406 271.58868 273.44415 275.01767
 276.47226 277.85471 279.20108 280.54761 281.73825 282.79474 283.76517 284.65063
 285.45486 286.18188 286.82471 287.67776
 366.78100 356.34319 345.78338 334.65757 323.06876 311.27094 299.14913 286.96032
 274.68051 262.58570 250.60289 239.91208 230.04227 221.15445 213.34464 206.35483
 200.19702 195.14321 191.73340 189.78359 188.82878 188.90097 189.74415 191.06034
 192.79353 194.89672 197.16791 199.53510 201.98829 204.47648 206.57266 208.42285
 210.05704 211.21023 211.44742 211.68361 211.62880 211.34199 210.98318 210.62136
 210.24655 209.96474 209.78093 209.65312 209.58931 209.92850 210.32269 210.71988
 211.52106 212.70725 213.96544 215.75663 217.69282 219.74401 221.84720 223.93839
 226.00657 228.09876 230.20395 232.31814 234.45533 236.63552 238.89971 241.27790
 243.90709 246.16627 248.17646 249.94965 251.37484 252.50603 253.33622 253.66041
 253.70560 253.48778 252.85597 251.81216 250.42635 248.59554 246.51273 244.35392
 242.15311 239.96530 237.79348 235.64067 233.50886 231.38405 229.41824 227.58343
 225.87462 224.35481 222.99299 221.77318 220.66337 219.63156 218.74375 217.89294
 217.14313 216.33132 215.43751 214.80969 214.26788 214.93600 216.51451 218.31017
 220.31992 222.44122 223.88179 224.06699 223.75124 223.90773 225.07153 226.13454
 227.14156 229.26634 232.88322 237.47018 242.13850 246.63120 250.88023 254.75211
 258.23080 261.36221 264.19998 266.83759 269.33566 271.60257 273.45303 275.02350
 276.47498 277.85287 279.20840 280.55634 281.74600 282.80222 283.77133 284.65652
 285.45963 286.18567 286.82593 287.68283
 366.78100 356.34342 345.78384 334.65825 323.06967 311.27209 299.15051 286.96192
 274.68234 262.58776 250.60518 239.91459 230.04501 221.15743 213.34785 206.35827
 200.20068 195.14710 191.73752 189.78794 188.83335 188.90577 189.74919 191.06561
 192.79903 194.90244 197.17386 199.54128 201.99470 204.48311 206.57953 208.42995
 210.06437 211.21778 211.45520 211.69162 211.63704 211.35046 210.99187 210.63029
 210.25571 209.97413 209.79054 209.66296 209.59938 209.93880 210.33321 210.73063
 211.53205 212.71847 213.97689 215.76830 217.70472 219.75614 221.85956 223.95097
 226.01939 228.11181 230.21723 232.33165 234.46906 236.64948 238.91390 241.29232
 243.92173 246.18115 248.19157 249.96499 251.39040 252.52182 253.35224 253.67666
 253.72208 253.50449 252.87291 251.82933 250.44375 248.61316 246.53058 244.37200
 242.17142 239.98383 237.81225 235.65967 233.52809 231.40351 229.43792 227.60334
 225.89476 224.37518 223.01359 221.79401 220.68443 219.65285 218.76527 217.91468
 217.16510 216.35352 215.45994 214.83235 214.29077 214.96132 216.54555 218.31793
 220.27173 222.39008 223.85231 224.03964 223.69063 223.77132 224.88591 225.98274
 227.10945 229.36002 232.99451 237.57617 242.25192 246.74380 250.98125 254.83406
 258.28946 261.40210 264.23251 266.87253 269.36423 271.62012 273.46286 275.03036
 276.48007 277.85931 279.22583 280.57443 281.76425 282.82138 283.78986 284.67365
 285.47778 286.20508 286.84824 287.70166
 366.78100 356.34380 345.78461 334.65941 323.07121 311.27401 299.15282 286.96462
 274.68542 262.59123 250.60903 239.91883 230.04963 221.16244 213.35324 206.36404
 200.20685 195.15365 191.74445 189.79525 188.84106 188.91386 189.75766 191.07447
 192.80827 194.91207 197.18387 199.55168 202.00548 204.49428 206.59109 208.44189
 210.07669 211.23049 211.46830 211.70510 211.65090 211.36471 211.00651 210.64531
 210.27111 209.98992 209.80672 209.67952 209.61633 209.95613 210.35093 210.74873
 211.55054 212.73734 213.99614 215.78795 217.72475 219.77655 221.88035 223.97216
 226.04096 228.13376 230.23957 232.35437 234.49217 236.67297 238.93778 241.31658
 243.94638 246.20619 248.21699 249.99079 251.41659 252.54840 253.37920 253.70400
 253.74980 253.53261 252.90141 251.85821 250.47302 248.64282 246.56062 244.40242
 242.20223 240.01503 237.84383 235.69164 233.56044 231.43624 229.47104 227.63685
 225.92865 224.40945 223.04826 221.82906 220.71986 219.68866 218.80147 217.95127
 217.20207 216.39088 215.49768 214.87048 214.32928 214.99532 216.56885 218.32669
 220.23039 222.32660 223.80301 224.00374 223.63922 223.65402 224.70193 225.84145
 227.08875 229.44716 233.09998 237.67888 242.36095 246.85153 251.07733 254.91422
 258.34985 261.44766 264.27362 266.91461 269.39594 271.63702 273.46887 275.03308
 276.48535 277.86401 279.25937 280.61307 281.80276 282.86081 283.82892 284.71396
 285.51730 286.24524 286.88702 287.74380
 366.78100 356.34430 345.78559 334.66089 323.07319 311.27649 299.15578 286.96808
 274.68938 262.59568 250.61397 239.92427 230.05557 221.16887 213.36016 206.37146
 200.21476 195.16206 191.75335 189.80465 188.85095 188.92425 189.76854 191.08584
 192.82014 194.92443 197.19673 199.56503 202.01933 204.50862 206.60592 208.45722
 210.09252 211.24681 211.48511 211.72241 211.66871 211.38300 211.02530 210.66460
 210.29090 210.01019 209.82749 209.70079 209.63808 209.97838 210.37368 210.77198
 211.57427 212.76157 214.02087 215.81317 217.75046 219.80276 221.90706 223.99936
 226.06865 228.16195 230.26825 232.38355 234.52184 236.70314 238.96844 241.34774
 243.97803 246.23833 248.24963 250.02392 251.45022 252.58252 253.41382 253.73911
 253.78541 253.56871 252.93801 251.89530 250.51060 248.68090 246.59920 244.44149
 242.24179 240.05509 237.88439 235.73268 233.60198 231.47828 229.51358 227.67987
 225.97217 224.45347 223.09276 221.87406 220.76536 219.73466 218.84795 217.99825
 217.24955 216.43885 215.54614 214.91944 214.37874 215.03502 216.58556 218.33319
 220.19969 222.25958 223.73462 223.95102 223.59381 223.55591 224.51395 225.70940
 227.08456 229.52362 233.19653 237.78125 242.46812 246.95564 251.17035 254.99260
 258.41098 261.49667 264.32117 266.96063 269.42831 271.64908 273.46814 275.02975
 276.49155 277.87820 279.31027 280.66714 281.85544 282.91226 283.88251 284.76489
 285.56924 286.30072 286.94281 287.79956
 366.78100 356.34476 345.78653 334.66229 323.07505 311.27881 299.15858 286.97134
 274.69310 262.59986 250.61863 239.92939 230.06115 221.17491 213.36668 206.37844
 200.22220 195.16996 191.76173 189.81349 188.86025 188.93402 189.77878 191.09654
 192.83130 194.93607 197.20883 199.57759 202.03235 204.52212 206.61988 208.47164
 210.10740 211.26217 211.50093 211.73869 211.68545 211.40022 211.04298 210.68274
 210.30950 210.02927 209.84703 209.72079 209.65856 209.99932 210.39508 210.79384
 211.59661 212.78437 214.04413 215.83689 217.77466 219.82742 221.93218 224.02494
 226.09471 228.18847 230.29523 232.41099 234.54976 236.73152 238.99728 241.37705
 244.00781 246.26857 248.28033 250.05510 251.48186 252.61462 253.44638 253.77215
 253.81891 253.60267 252.97243 251.93020 250.54596 248.71672 246.63548 244.47825
 242.27901 240.09277 237.92254 235.77130 233.64106 231.51782 229.55359 227.72035
 226.01311 224.49487 223.13464 221.91640 220.80816 219.77792 218.89169 218.04245
 217.29421 216.48397 215.59174 214.96550 214.42526 215.07292 216.60309 218.33589
 220.17140 222.20030 223.66457 223.88275 223.52728 223.45741 224.34456 225.58229
 227.07210 229.58659 233.28723 237.88631 242.57658 247.05801 251.26157 255.06996
 258.47272 261.54837 264.37198 267.01025 269.45966 271.65634 273.46072 275.02182
 276.49796 277.87930 279.37482 280.74084 281.93060 282.98749 283.95581 284.83878
 285.64465 286.37274 287.01663 287.87341
 366.78100 356.34522 345.78743 334.66365 323.07686 311.28108 299.16129 286.97451
 274.69673 262.60394 250.62316 239.93437 230.06659 221.18081 213.37302 206.38524
 200.22945 195.17767 191.76988 189.82210 188.86932 188.94353 189.78875 191.10696
 192.84218 194.94740 197.22061 199.58983 202.04504 204.53526 206.63347 208.48569
 210.12191 211.27712 211.51634 211.75455 211.70177 211.41698 211.06020 210.70042
 210.32763 210.04785 209.86606 209.74028 209.67850 210.01971 210.41593 210.81514
 211.61836 212.80657 214.06679 215.86001 217.79822 219.85144 221.95665 224.04987
 226.12009 228.21430 230.32152 232.43773 234.57695 236.75916 239.02538 241.40560
 244.03681 246.29803 248.31024 250.08546 251.51268 252.64589 253.47811 253.80432
 253.85154 253.63575 253.00597 251.96419 250.58040 248.75162 246.67083 244.51405
 242.31526 240.12948 237.95970 235.80891 233.67913 231.55634 229.59256 227.75978
 226.05299 224.53521 223.17542 221.95764 220.84985 219.82007 218.93429 218.08550
 217.33772 216.52793 215.63615 215.01037 214.47058 215.10973 216.61975 218.33733
 220.14072 222.13795 223.59685 223.82027 223.47156 223.35268 224.15240 225.46370
 227.06917 229.63661 233.37689 237.99849 242.68605 247.15810 251.35071 255.14667
 258.53506 261.60211 264.42719 267.06140 269.49026 271.65741 273.44418 275.00589
 276.50046 277.92252 279.43811 280.81213 282.00665 283.06650 284.03625 284.91818
 285.72278 286.45331 287.09485 287.94263
 366.78100 356.34569 345.78838 334.66507 323.07876 311.28344 299.16413 286.97782
 274.70051 262.60820 250.62789 239.93958 230.07227 221.18695 213.37964 206.39233
 200.23702 195.18571 191.77840 189.83109 188.87878 188.95347 189.79915 191.11784
 192.85353 194.95922 197.23291 199.60260 202.05829 204.54898 206.64766 208.50035
 210.13704 211.29273 211.53242 211.77111 211.71880 211.43449 211.07818 210.71886
 210.34655 210.06724 209.88593 209.76062 209.69931 210.04100 210.43769 210.83738
 211.64106 212.82975 214.09044 215.88413 217.82282 219.87651 221.98220 224.07589
 226.14657 228.24126 230.34895 232.46564 234.60533 236.78802 239.05471 241.43540
 244.06709 246.32877 248.34146 250.11715 251.54484 252.67853 253.51122 253.83791
 253.88560 253.67028 253.04097 251.99966 250.61635 248.78804 246.70773 244.55142
 242.35311 240.16780 237.99848 235.84817 233.71886 231.59655 229.63324 227.80093
 226.09462 224.57731 223.21799 222.00068 220.89337 219.86406 218.97875 218.13044
 217.38313 216.57382 215.68251 215.05719 214.51788 215.14709 216.63367 218.33943
 220.11304 222.07181 223.51343 223.74452 223.41502 223.27888 224.00287 225.27414
 226.99480 229.69888 233.48091 238.11554 242.79469 247.25436 251.43747 255.22328
 258.59909 261.65942 264.48529 267.11450 269.51749 271.65088 273.41858 274.98959
 276.50980 277.98318 279.50711 280.88440 282.08109 283.14249 284.11136 284.99619
 285.79999 286.53174 287.16846 288.01816
 366.78100 356.34616 345.78931 334.66647 323.08063 311.28579 299.16694 286.98110
 274.70426 262.61242 250.63257 239.94473 230.07789 221.19305 213.38620 206.39936
 200.24452 195.19368 191.78683 189.83999 188.88815 188.96331 189.80946 191.12862
 192.86478 194.97094 197.24509 199.61525 202.07141 204.56257 206.66172 208.51488
 210.15204 211.30820 211.54835 211.78751 211.73567 211.45182 211.09598 210.73714
 210.36530 210.08645 209.90561 209.78077 209.71993 210.06208 210.45924 210.85940
 211.66356 212.85271 214.11387 215.90803 217.84719 219.90134 222.00750 224.10166
 226.17282 228.26797 230.37613 232.49329 234.63345 236.81660 239.08376 241.46492
 244.09708 246.35923 248.37239 250.14855 251.57671 252.71086 253.54402 253.87118
 253.91933 253.70449 253.07565 252.03481 250.65196 248.82412 246.74428 244.58844
 242.39059 240.20575 238.03691 235.88707 233.75822 231.63638 229.67354 227.84170
 226.13585 224.61901 223.26017 222.04333 220.93648 219.90764 219.02280 218.17496
 217.42811 216.61927 215.72843 215.10359 214.56474 215.18311 216.64407 218.34169
 220.08992 222.01245 223.42293 223.64752 223.33107 223.19537 223.88158 225.09448
 226.88991 229.75011 233.59778 238.24278 242.90700 247.35223 251.52647 255.30142
 258.66483 261.71838 264.54468 267.16580 269.54050 271.63477 273.37881 274.94983
 276.50662 278.05103 279.58673 280.96616 282.16437 283.22647 284.19699 285.08029
 285.88400 286.61325 287.25381 288.08954
 366.78100 356.34661 345.79023 334.66784 323.08246 311.28807 299.16969 286.98430
 274.70792 262.61653 250.63715 239.94976 230.08338 221.19899 213.39261 206.40622
 200.25184 195.20145 191.79507 189.84868 188.89729 188.97291 189.81952 191.13914
 192.87575 194.98237 197.25698 199.62760 202.08421 204.57583 206.67544 208.52906
 210.16667 211.32329 211.56390 211.80352 211.75213 211.46875 211.11336 210.75497
 210.38359 210.10520 209.92482 209.80043 209.74005 210.08266 210.48028 210.88089
 211.68551 212.87512 214.13674 215.93135 217.87097 219.92558 222.03220 224.12681
 226.19843 228.29404 230.40265 232.52027 234.66088 236.84450 239.11211 241.49373
 244.12634 246.38896 248.40257 250.17919 251.60780 252.74242 253.57603 253.90365
 253.95226 253.73788 253.10949 252.06911 250.68672 248.85933 246.77995 244.62456
 242.42718 240.24279 238.07441 235.92502 233.79664 231.67525 229.71287 227.88148
 226.17610 224.65971 223.30133 222.08494 220.97856 219.95017 219.06579 218.21840
 217.47201 216.66363 215.77324 215.14886 214.61047 215.21663 216.64873 218.34000
 220.07120 221.96480 223.34048 223.54520 223.22826 223.08347 223.75839 224.94252
 226.78362 229.79303 233.72543 238.37868 243.02151 247.44978 251.61580 255.38176
 258.73282 261.77914 264.60126 267.20859 269.54980 271.60220 273.33319 274.94473
 276.51526 278.10403 279.64615 281.02728 282.22617 283.29028 284.25980 285.14261
 285.94641 286.67694 287.31613 288.15137
 366.78100 356.34701 345.79102 334.66903 323.08404 311.29005 299.17206 286.98707
 274.71108 262.62009 250.64110 239.95411 230.08812 221.20413 213.39813 206.41214
 200.25815 195.20816 191.80217 189.85618 188.90519 188.98120 189.82821 191.14822
 192.88523 194.99224 197.26725 199.63826 202.09527 204.58728 206.68729 208.54130
 210.17931 211.33632 211.57733 211.81734 211.76635 211.48336 211.12837 210.77038
 210.39939 210.12139 209.94140 209.81741 209.75742 210.10043 210.49844 210.89945
 211.70446 212.89447 214.15648 215.95149 217.89150 219.94651 222.05352 224.14853
 226.22054 228.31655 230.42556 232.54357 234.68458 236.86859 239.13660 241.51861
 244.15162 246.41463 248.42864 250.20565 251.63466 252.76966 253.60367 253.93168
 253.98069 253.76670 253.13871 252.09872 250.71673 248.88974 246.81075 244.65576
 242.45877 240.27478 238.10679 235.95780 233.82981 231.70882 229.74683 227.91584
 226.21085 224.69486 223.33687 222.12088 221.01489 219.98690 219.10291 218.25592
 217.50992 216.70193 215.81194 215.18795 214.64996 215.24544 216.65231 218.32826
 220.05237 221.92830 223.26776 223.44023 223.11499 222.94849 223.62532 224.81129
 226.68903 229.82619 233.85728 238.51642 243.13115 247.54425 251.70572 255.46472
 258.80862 261.84576 264.66339 267.25580 269.55966 271.55981 273.25778 274.84482
 276.46506 278.20041 279.75638 281.13235 282.32761 283.38733 284.35489 285.23514
 286.03604 286.76694 287.40335 288.23416
 366.78100 356.34732 345.79165 334.66997 323.08529 311.29161 299.17394 286.98926
 274.71358 262.62290 250.64423 239.95755 230.09187 221.20820 213.40252 206.41684
 200.26316 195.21349 191.80781 189.86213 188.91145 188.98778 189.83510 191.15542
 192.89275 195.00007 197.27539 199.64671 202.10404 204.59636 206.69668 208.55101
 210.18933 211.34665 211.58797 211.82830 211.77762 211.49494 211.14026 210.78259
 210.41191 210.13423 209.95456 209.83088 209.77120 210.11452 210.51285 210.91417
 211.71949 212.90981 214.17214 215.96746 217.90778 219.96311 222.07043 224.16575
 226.23807 228.33440 230.44372 232.56204 234.70336 236.88769 239.15601 241.53833
 244.17166 246.43498 248.44930 250.22662 251.65595 252.79127 253.62559 253.95391
 254.00324 253.78956 253.16188 252.12221 250.74053 248.91385 246.83517 244.68050
 242.48382 240.30014 238.13247 235.98379 233.85611 231.73543 229.77376 227.94308
 226.23840 224.72272 223.36505 222.14937 221.04369 220.01602 219.13234 218.28566
 217.53998 216.73231 215.84263 215.21895 214.68127 215.26813 216.65463 218.31082
 220.02739 221.89822 223.21059 223.34106 222.99167 222.78996 223.47574 224.67854
 226.60045 229.86069 233.98886 238.65807 243.25188 247.65195 251.80608 255.55453
 258.87698 261.91046 264.71991 267.29172 269.55771 271.51596 273.21506 274.90189
 276.42874 278.18091 279.75000 281.13339 282.33145 283.39188 284.35760 285.23715
 286.03809 286.76801 287.40143 288.22797
 366.78100 356.34774 345.79247 334.67121 323.08694 311.29368 299.17642 286.99215
 274.71689 262.62662 250.64836 239.96210 230.09683 221.21357 213.40830 206.42304
 200.26978 195.22051 191.81525 189.86998 188.91972 188.99645 189.84419 191.16493
 192.90266 195.01040 197.28613 199.65787 202.11561 204.60834 206.70908 208.56381
 210.20255 211.36029 211.60202 211.84276 211.79249 211.51023 211.15597 210.79870
 210.42844 210.15117 209.97191 209.84865 209.78938 210.13312 210.53185 210.93359
 211.73933 212.93006 214.19280 215.98853 217.92927 219.98501 222.09274 224.18848
 226.26121 228.35795 230.46769 232.58642 234.72816 236.91289 239.18163 241.56436
 244.19810 246.46184 248.47657 250.25431 251.68404 252.81978 253.65452 253.98325
 254.03299 253.81972 253.19246 252.15320 250.77193 248.94567 246.86740 244.71314
 242.51688 240.33361 238.16635 236.01808 233.89082 231.77056 229.80929 227.97903
 226.27476 224.75950 223.40224 222.18697 221.08171 220.05444 219.17118 218.32492
 217.57965 216.77239 215.88312 215.25986 214.72260 215.29640 216.65211 218.29622
 220.00206 221.85789 223.15463 223.25046 222.87799 222.63751 223.31064 224.52605
 226.50217 229.87683 234.11659 238.80231 243.36594 247.76144 251.92838 255.68103
 259.00873 262.00406 264.78381 267.32379 269.53683 271.43301 273.09882 274.61719
 276.55246 278.31863 279.86972 281.24463 282.44394 283.50372 284.46973 285.34927
 286.15179 286.88171 287.51462 288.34839
 366.78100 356.34819 345.79339 334.67258 323.08878 311.29597 299.17917 286.99536
 274.72056 262.63075 250.65295 239.96714 230.10234 221.21953 213.41473 206.42992
 200.27712 195.22831 191.82351 189.87870 188.92890 189.00609 189.85429 191.17548
 192.91368 195.02187 197.29807 199.67026 202.12846 204.62165 206.72285 208.57804
 210.21724 211.37543 211.61763 211.85882 211.80902 211.52721 211.17341 210.81660
 210.44680 210.16999 209.99119 209.86838 209.80958 210.15377 210.55297 210.95516
 211.76136 212.95255 214.21575 216.01194 217.95314 220.00933 222.11753 224.21372
 226.28692 228.38411 230.49431 232.61350 234.75570 236.94089 239.21009 241.59328
 244.22748 246.49167 248.50687 250.28506 251.71526 252.85145 253.68665 254.01584
 254.06604 253.85323 253.22643 252.18762 250.80682 248.98101 246.90321 244.74940
 242.55359 240.37079 238.20398 236.05618 233.92937 231.80957 229.84876 228.01896
 226.31515 224.80035 223.44354 222.22874 221.12393 220.09713 219.21432 218.36852
 217.62371 216.81691 215.92810 215.30530 214.76849 215.32721 216.64726 218.27643
 219.98503 221.81082 223.07413 223.15755 222.77827 222.49890 223.15929 224.36992
 226.40550 229.88135 234.20616 238.90451 243.49687 247.90269 252.07385 255.82301
 259.09116 262.12549 264.89081 267.38486 269.52960 271.35559 272.96683 274.52817
 276.54132 278.28525 279.82892 281.15906 282.24149 283.27863 284.21454 285.07272
 285.84897 286.53214 287.08066 287.69409
 366.78100 356.34846 345.79392 334.67337 323.08983 311.29729 299.18075 286.99721
 274.72267 262.63312 250.65558 239.97004 230.10550 221.22296 213.41842 206.43387
 200.28133 195.23279 191.82825 189.88371 188.93417 189.01162 189.86008 191.18154
 192.92000 195.02846 197.30492 199.67737 202.13583 204.62929 206.73075 208.58621
 210.22567 211.38412 211.62658 211.86804 211.81850 211.53696 211.18342 210.82687
 210.45733 210.18079 210.00225 209.87971 209.82117 210.16562 210.56508 210.96754
 211.77400 212.96546 214.22892 216.02537 217.96683 220.02329 222.13175 224.22821
 226.30166 228.39912 230.50958 232.62904 234.77150 236.95696 239.22641 241.60987
 244.24433 246.50879 248.52425 250.30271 251.73316 252.86962 253.70508 254.03454
 254.08500 253.87246 253.24591 252.20737 250.82683 249.00129 246.92375 244.77021
 242.57466 240.39212 238.22558 236.07804 233.95150 231.83196 229.87141 228.04187
 226.33833 224.82379 223.46725 222.25271 221.14816 220.12162 219.23908 218.39354
 217.64900 216.84246 215.95391 215.33137 214.79483 215.34633 216.64932 218.24792
 219.95998 221.77342 222.97937 223.00726 222.65759 222.39568 223.04382 224.25392
 226.36580 229.93651 234.29729 239.01668 243.58591 247.98357 252.14803 255.89610
 259.15588 262.19699 264.97104 267.45712 269.57437 271.35788 272.94485 274.56830
 276.46988 278.19391 279.69174 280.94943 281.99277 282.99271 283.90472 284.74658
 285.51910 286.20355 286.75409 287.42215
 366.78100 356.34864 345.79429 334.67393 323.09057 311.29822 299.18186 286.99850
 274.72415 262.63479 250.65744 239.97208 230.10772 221.22537 213.42101 206.43665
 200.28430 195.23594 191.83158 189.88723 188.93787 189.01551 189.86416 191.18580
 192.92445 195.03309 197.30973 199.68238 202.14102 204.63466 206.73631 208.59195
 210.23159 211.39024 211.63288 211.87452 211.82517 211.54381 211.19045 210.83410
 210.46474 210.18839 210.01003 209.88767 209.82932 210.17396 210.57360 210.97625
 211.78289 212.97453 214.23818 216.03482 217.97646 220.03311 222.14175 224.23839
 226.31204 228.40968 230.52033 232.63997 234.78261 236.96826 239.23790 241.62154
 244.25619 246.52083 248.53647 250.31512 251.74576 252.88240 253.71805 254.04769
 254.09834 253.88598 253.25962 252.22127 250.84091 249.01555 246.93820 244.78484
 242.58948 240.40713 238.24077 236.09341 233.96706 231.84770 229.88734 228.05799
 226.35463 224.84028 223.48392 222.26956 221.16521 220.13885 219.25649 218.41114
 217.66678 216.86042 215.97207 215.34971 214.81335 215.35873 216.64726 218.22295
 219.94057 221.72206 222.86421 222.85468 222.51965 222.22346 222.91505 224.16985
 226.33542 230.01141 234.44527 239.15463 243.68517 248.06543 252.20757 255.93150
 259.19910 262.22906 265.02176 267.52493 269.65027 271.44037 273.04663 274.68277
 276.42371 278.10419 279.57681 280.83752 281.93033 282.93668 283.85065 284.70917
 285.49515 286.21567 286.77341 287.48416
 366.78100 356.34933 345.79567 334.67600 323.09334 311.30167 299.18600 287.00334
 274.72967 262.64101 250.66434 239.97968 230.11601 221.23434 213.43068 206.44701
 200.29535 195.24768 191.84401 189.90035 188.95168 189.03002 189.87935 191.20169
 192.94102 195.05035 197.32769 199.70102 202.16036 204.65469 206.75702 208.61336
 210.25369 211.41303 211.65636 211.89870 211.85003 211.56936 211.21670 210.86103
 210.49237 210.21670 210.03903 209.91737 209.85970 210.20504 210.60537 211.00871
 211.81604 213.00837 214.27271 216.07004 218.01238 220.06971 222.17904 224.27638
 226.35071 228.44905 230.56038 232.68072 234.82405 237.01038 239.28072 241.66505
 244.30039 246.56572 248.58205 250.36139 251.79272 252.93006 253.76639 254.09673
 254.14806 253.93639 253.31073 252.27306 250.89340 249.06873 246.99206 244.83940
 242.64473 240.46307 238.29740 236.15074 234.02507 231.90640 229.94674 228.11807
 226.41541 224.90174 223.54607 222.33241 221.22874 220.20308 219.32141 218.47674
 217.73308 216.92741 216.03975 215.41808 214.88242 215.39481 216.60538 218.21959
 219.95711 221.67641 222.80753 222.72383 222.30568 222.01494 222.74759 224.02910
 226.33528 230.13127 234.62596 239.28241 243.80478 248.18169 252.30089 255.98903
 259.26678 262.28720 265.05316 267.54697 269.64996 271.42941 273.05594 274.72284
 276.42847 278.05728 279.48795 280.74551 281.86566 282.88629 283.83682 284.69955
 285.46628 286.11761 286.63913 287.30374
 366.78100 356.34867 345.79433 334.67400 323.09066 311.29833 299.18199 286.99866
 274.72432 262.63499 250.65765 239.97232 230.10798 221.22565 213.42132 206.43698
 200.28465 195.23631 191.83198 189.88764 188.93831 189.01597 189.86464 191.18630
 192.92497 195.03363 197.31030 199.68296 202.14163 204.63530 206.73696 208.59263
 210.23229 211.39096 211.63362 211.87529 211.82595 211.54462 211.19128 210.83495
 210.46561 210.18928 210.01095 209.88861 209.83028 210.17494 210.57461 210.97727
 211.78394 212.97560 214.23927 216.03593 217.97760 220.03426 222.14293 224.23960
 226.31326 228.41093 230.52159 232.64126 234.78392 236.96959 239.23925 241.62292
 244.25758 246.52225 248.53791 250.31658 251.74724 252.88391 253.71958 254.04924
 254.09991 253.88757 253.26124 252.22290 250.84257 249.01723 246.93990 244.78656
 242.59123 240.40889 238.24256 236.09523 233.96889 231.84956 229.88922 228.05989
 226.35655 224.84222 223.48588 222.27155 221.16721 220.14088 219.25854 218.41321
 217.66888 216.86254 215.97421 215.35187 214.81554 215.35933 216.64412 218.14877
 219.97314 221.80733 222.75797 222.49313 222.02982 221.81522 222.57927 223.93050
 226.29355 230.24448 234.83723 239.46950 243.96190 248.31494 252.43324 256.10187
 259.34576 262.31284 265.05267 267.51355 269.71951 271.50916 273.13644 274.75873
 276.37631 277.91705 279.31927 280.58289 281.66885 282.64352 283.58054 284.44608
 285.21463 285.86890 286.41873 287.11188
 366.78100 356.34777 345.79255 334.67132 323.08709 311.29386 299.17664 286.99241
 274.71718 262.62696 250.64873 239.96250 230.09727 221.21405 213.40882 206.42359
 200.27037 195.22114 191.81591 189.87068 188.92046 188.99723 189.84500 191.16578
 192.90355 195.01132 197.28709 199.65887 202.11664 204.60941 206.71019 208.56496
 210.20373 211.36150 211.60328 211.84405 211.79382 211.51160 211.15737 210.80014
 210.42992 210.15269 209.97346 209.85023 209.79101 210.13478 210.53355 210.93533
 211.74110 212.93187 214.19464 215.99042 217.93119 219.98696 222.09474 224.19051
 226.26328 228.36005 230.46983 232.58860 234.73037 236.91515 239.18392 241.56669
 244.20046 246.46424 248.47901 250.25678 251.68656 252.82233 253.65710 253.98587
 254.03565 253.82242 253.19519 252.15597 250.77474 248.94851 246.87028 244.71606
 242.51983 240.33660 238.16938 236.02115 233.89392 231.77369 229.81247 227.98224
 226.27801 224.76279 223.40556 222.19033 221.08510 220.05788 219.17465 218.32842
 217.58320 216.77597 215.88674 215.26351 214.72629 215.32410 216.74380 218.07175
 219.83398 221.35321 222.62042 222.66843 222.13705 221.35634 222.04985 223.65118
 226.22449 230.33176 235.01759 239.66742 244.15672 248.50595 252.61589 256.27719
 259.48318 262.36801 264.99991 267.43207 269.56906 271.39090 273.08716 274.75864
 276.36600 277.86172 279.21573 280.42477 281.47803 282.51486 283.51215 284.49911
 285.38678 286.17725 286.86777 287.74777
 366.78100 356.34703 345.79106 334.66909 323.08413 311.29016 299.17219 286.98722
 274.71125 262.62028 250.64132 239.95435 230.08838 221.20441 213.39844 206.41247
 200.25851 195.20854 191.80257 189.85660 188.90563 188.98166 189.82870 191.14873
 192.88576 194.99279 197.26782 199.63885 202.09588 204.58792 206.68795 208.54198
 210.18001 211.33704 211.57807 211.81811 211.76714 211.48417 211.12920 210.77123
 210.40026 210.12230 209.94233 209.81836 209.75839 210.10142 210.49945 210.90049
 211.70552 212.89555 214.15758 215.95261 217.89264 219.94768 222.05471 224.14974
 226.22177 228.31780 230.42683 232.54486 234.68590 236.86993 239.13796 241.51999
 244.15302 246.41605 248.43009 250.20712 251.63615 252.77118 253.60521 253.93324
 253.98228 253.76831 253.14034 252.10037 250.71840 248.89143 246.81247 244.65750
 242.46053 240.27656 238.10859 235.95962 233.83165 231.71069 229.74872 227.91775
 226.21278 224.69681 223.33884 222.12288 221.01691 219.98894 219.10497 218.25800
 217.51203 216.70407 215.81410 215.19013 214.65216 215.31288 216.85378 218.05246
 219.86906 221.48590 222.84093 222.88715 221.97514 221.20622 221.88261 223.53175
 226.28668 230.45453 235.17114 239.85927 244.34013 248.68178 252.77159 256.41116
 259.61322 262.45532 265.07162 267.43112 269.50906 271.33511 273.05179 274.73956
 276.29758 277.98245 279.67499 281.29327 282.69379 283.93289 285.06335 286.08749
 287.00861 287.82886 288.54541 289.45856
 366.78100 356.34685 345.79071 334.66856 323.08342 311.28927 299.17113 286.98598
 274.70984 262.61869 250.63954 239.95240 230.08625 221.20211 213.39596 206.40982
 200.25567 195.20553 191.79938 189.85323 188.90209 188.97794 189.82480 191.14465
 192.88151 194.98836 197.26322 199.63407 202.09092 204.58278 206.68263 208.53649
 210.17434 211.33120 211.57205 211.81191 211.76076 211.47761 211.12247 210.76432
 210.39318 210.11503 209.93489 209.81074 209.75060 210.09345 210.49130 210.89216
 211.69701 212.88687 214.14872 215.94358 217.88343 219.93829 222.04514 224.13999
 226.21185 228.30770 230.41656 232.53441 234.67527 236.85912 239.12698 241.50883
 244.14168 246.40454 248.41839 250.19525 251.62410 252.75896 253.59281 253.92067
 253.96952 253.75537 253.12723 252.08708 250.70494 248.87779 246.79865 244.64350
 242.44636 240.26221 238.09407 235.94492 233.81677 231.69563 229.73348 227.90234
 226.19719 224.68105 223.32290 222.10676 221.00061 219.97246 219.08832 218.24117
 217.49503 216.68688 215.79674 215.17259 214.63445 215.30154 216.85686 218.00945
 219.76738 221.64339 222.83546 222.60811 221.74484 221.17030 221.63911 223.32571
 226.27449 230.54904 235.33025 240.03812 244.47661 248.74727 252.79108 256.41852
 259.64075 262.53091 265.17935 267.59354 269.65897 271.43042 273.08603 274.67502
 276.26978 277.93961 279.52585 281.02902 282.32986 283.48077 284.53082 285.48209
 286.33765 287.09952 287.76508 288.61325
 366.78100 356.34729 345.79158 334.66987 323.08517 311.29146 299.17375 286.98904
 274.71333 262.62262 250.64392 239.95721 230.09150 221.20779 213.40208 206.41637
 200.26267 195.21296 191.80725 189.86154 188.91083 188.98712 189.83442 191.15471
 192.89200 194.99929 197.27458 199.64587 202.10317 204.59546 206.69575 208.55004
 210.18833 211.34562 211.58691 211.82721 211.77650 211.49379 211.13908 210.78137
 210.41066 210.13296 209.95325 209.82954 209.76983 210.11312 210.51141 210.91271
 211.71800 212.90829 214.17058 215.96587 217.90616 219.96146 222.06875 224.16404
 226.23633 228.33262 230.44191 232.56021 234.70150 236.88579 239.15408 241.53637
 244.16966 246.43296 248.44725 250.22454 251.65383 252.78912 253.62341 253.95170
 254.00100 253.78729 253.15958 252.11987 250.73816 248.91145 246.83275 244.67804
 242.48133 240.29762 238.12991 235.98120 233.85350 231.73279 229.77108 227.94037
 226.23566 224.71995 223.36225 222.14654 221.04083 220.01312 219.12941 218.28270
 217.53700 216.72929 215.83958 215.21587 214.67816 215.30374 216.79373 218.05968
 219.56969 221.50447 222.78320 222.49728 221.53442 220.86127 221.40129 223.24118
 226.36014 230.66072 235.46742 240.21117 244.67363 248.91052 252.91313 256.49457
 259.63995 262.47287 265.08905 267.48798 269.60562 271.44266 273.13620 274.70966
 276.09906 277.42719 278.76083 280.04614 281.23895 282.31256 283.29202 284.17938
 284.97745 285.68811 286.30896 287.10016
 366.78100 356.34804 345.79309 334.67213 323.08817 311.29522 299.17826 286.99430
 274.71935 262.62939 250.65143 239.96548 230.10052 221.21756 213.41261 206.42765
 200.27469 195.22574 191.82078 189.87582 188.92587 189.00291 189.85095 191.17200
 192.91004 195.01808 197.29412 199.66617 202.12421 204.61725 206.71830 208.57334
 210.21238 211.37043 211.61247 211.85351 211.80356 211.52160 211.16764 210.81069
 210.44073 210.16377 209.98482 209.86186 209.80290 210.14695 210.54599 210.94803
 211.75408 212.94512 214.20816 216.00421 217.94525 220.00129 222.10934 224.20538
 226.27842 228.37547 230.48551 232.60455 234.74660 236.93164 239.20068 241.58373
 244.21777 246.48181 248.49686 250.27490 251.70494 252.84099 253.67603 254.00507
 254.05512 253.84216 253.21520 252.17624 250.79529 248.96933 246.89137 244.73742
 242.54146 240.35850 238.19155 236.04359 233.91663 231.79668 229.83572 228.00576
 226.30181 224.78685 223.42989 222.21494 221.10998 220.08302 219.20007 218.35411
 217.60915 216.80220 215.91324 215.29028 214.75333 215.33203 216.72775 218.11153
 219.55414 221.33658 222.68527 222.55479 221.45679 220.51607 221.08435 223.19064
 226.41516 230.77283 235.61948 240.40479 244.90543 249.14365 253.10042 256.65073
 259.76263 262.52194 265.05991 267.38861 269.47107 271.31784 273.05826 274.68250
 276.08798 277.32816 278.51108 279.78070 281.02383 282.17288 283.22122 284.17093
 285.02512 285.78577 286.45023 287.29703
 366.78100 356.34817 345.79334 334.67251 323.08868 311.29585 299.17902 286.99519
 274.72037 262.63054 250.65271 239.96688 230.10205 221.21922 213.41439 206.42956
 200.27673 195.22790 191.82307 189.87824 188.92841 189.00558 189.85375 191.17493
 192.91310 195.02127 197.29744 199.66961 202.12778 204.62095 206.72212 208.57729
 210.21646 211.37463 211.61680 211.85797 211.80814 211.52631 211.17249 210.81566
 210.44583 210.16900 209.99017 209.86734 209.80851 210.15268 210.55185 210.95402
 211.76019 212.95136 214.21453 216.01070 217.95188 220.00805 222.11622 224.21239
 226.28556 228.38273 230.49290 232.61207 234.75424 236.93941 239.20858 241.59175
 244.22592 246.49009 248.50526 250.28344 251.71361 252.84978 253.68495 254.01412
 254.06429 253.85146 253.22463 252.18580 250.80497 248.97914 246.90131 244.74748
 242.55165 240.36882 238.20200 236.05417 233.92734 231.80751 229.84668 228.01685
 226.31302 224.79819 223.44136 222.22653 221.12170 220.09487 219.21204 218.36621
 217.62138 216.81456 215.92573 215.30290 214.76607 215.33557 216.71413 218.09856
 219.60797 221.28183 222.60535 222.50890 221.30580 220.24811 220.83017 223.20149
 226.48708 230.89450 235.77254 240.59378 245.12904 249.35904 253.26773 256.77350
 259.87616 262.62000 265.10519 267.38586 269.43201 271.27847 273.02472 274.62146
 275.97461 277.16718 278.40045 279.72018 280.97861 282.09195 283.10773 284.02795
 284.85559 285.59259 286.23645 287.05695
 366.78100 356.34748 345.79196 334.67043 323.08591 311.29239 299.17487 286.99034
 274.71482 262.62430 250.64578 239.95925 230.09373 221.21021 213.40469 206.41916
 200.26564 195.21612 191.81060 189.86507 188.91455 188.99103 189.83851 191.15899
 192.89646 195.00394 197.27942 199.65090 202.10837 204.60085 206.70133 208.55581
 210.19428 211.35176 211.59324 211.83372 211.78319 211.50067 211.14615 210.78863
 210.41810 210.14058 209.96106 209.83754 209.77802 210.12149 210.51997 210.92145
 211.72693 212.91740 214.17988 215.97536 217.91584 219.97131 222.07879 224.17427
 226.24675 228.34322 230.45270 232.57118 234.71266 236.89713 239.16561 241.54809
 244.18157 246.44505 248.45952 250.23700 251.66648 252.80196 253.63643 253.96491
 254.01439 253.80087 253.17334 252.13382 250.75230 248.92578 246.84725 244.69273
 242.49621 240.31269 238.14516 235.99664 233.86912 231.74860 229.78708 227.95655
 226.25203 224.73651 223.37899 222.16346 221.05794 220.03042 219.14690 218.30037
 217.55485 216.74733 215.85781 215.23428 214.69676 215.30043 216.74736 218.05965
 219.63132 221.29726 222.55205 222.37061 221.07945 220.00301 220.59125 223.14851
 226.53365 231.00281 235.91794 240.77733 245.34357 249.57962 253.44675 256.90674
 259.98865 262.73135 265.19778 267.45575 269.48401 271.32074 273.04407 274.60336
 275.82996 276.84271 278.08600 279.47562 280.73431 281.84790 282.86389 283.78433
 284.61215 285.34930 285.99329 286.81396
 366.78100 356.34666 345.79033 334.66799 323.08265 311.28832 299.16998 286.98464
 274.70831 262.61697 250.63763 239.95030 230.08396 221.19962 213.39329 206.40695
 200.25261 195.20228 191.79594 189.84960 188.89827 188.97393 189.82059 191.14025
 192.87692 194.98358 197.25824 199.62891 202.08557 204.57723 206.67690 208.53056
 210.16822 211.32489 211.56555 211.80521 211.75388 211.47054 211.11520 210.75687
 210.38553 210.10719 209.92686 209.80252 209.74218 210.08485 210.48251 210.88317
 211.68784 212.87750 214.13916 215.93383 217.87349 219.92815 222.03482 224.12948
 226.20114 228.29681 230.40547 232.52313 234.66380 236.84746 239.11512 241.49679
 244.12945 246.39211 248.40578 250.18244 251.61110 252.74576 253.57943 253.90709
 253.95575 253.74142 253.11308 252.07274 250.69041 248.86307 246.78373 244.62840
 242.43106 240.24672 238.07839 235.92905 233.80071 231.67938 229.71704 227.88570
 226.18037 224.66403 223.30569 222.08936 220.98302 219.95468 219.07035 218.22301
 217.47667 216.66834 215.77800 215.15366 214.61533 215.25735 216.77917 218.02933
 219.63545 221.31651 222.48074 222.18355 220.85512 219.77664 220.37889 223.09094
 226.58426 231.11340 236.05507 240.94218 245.53046 249.76489 253.63237 257.06827
 260.10089 262.81653 265.28281 267.54535 269.58810 271.43713 273.16345 274.75912
 275.77930 276.14771 277.33911 278.77271 280.03076 281.14380 282.15927 283.07922
 283.90662 284.64340 285.28708 286.10733
 366.78100 356.34583 345.78866 334.66549 323.07932 311.28415 299.16497 286.97880
 274.70163 262.60946 250.62929 239.94112 230.07395 221.18878 213.38161 206.39444
 200.23926 195.18809 191.78092 189.83375 188.88158 188.95641 189.80224 191.12107
 192.85690 194.96273 197.23656 199.60638 202.06221 204.55304 206.65187 208.50470
 210.14153 211.29736 211.53719 211.77602 211.72385 211.43968 211.08350 210.72433
 210.35216 210.07299 209.89182 209.76665 209.70548 210.04731 210.44414 210.84397
 211.64779 212.83662 214.09745 215.89128 217.83011 219.88394 221.98977 224.08360
 226.15443 228.24926 230.35709 232.47391 234.61374 236.79657 239.06340 241.44423
 244.07606 246.33789 248.35072 250.12655 251.55438 252.68821 253.52103 253.84786
 253.89569 253.68052 253.05135 252.01018 250.62701 248.79884 246.71867 244.56250
 242.36432 240.17915 238.00998 235.85981 233.73064 231.60847 229.64530 227.81313
 226.10696 224.58979 223.23062 222.01344 220.90627 219.87710 218.99193 218.14376
 217.39659 216.58742 215.69625 215.07108 214.53191 215.21291 216.80876 218.00267
 219.63477 221.34105 222.39214 221.96260 220.63391 219.59143 220.17395 223.03461
 226.65155 231.22748 236.18686 241.09358 245.67487 249.92300 253.80399 257.24149
 260.23349 262.87177 265.28949 267.55325 269.61023 271.48257 273.32471 274.81619
 275.14728 275.96768 276.72772 277.29156 277.77954 278.21127 278.60516 278.96201
 279.28293 279.56873 279.81839 280.13657
 354.97500 345.04800 334.58700 324.11500 313.32600 302.53700 291.65000 280.76700
 269.93100 259.19300 248.62200 238.61700 229.08700 220.35500 212.54000 205.53500
 199.46400 194.49300 191.14300 189.19000 188.08900 188.01400 188.72400 189.90600
 191.46900 193.38200 195.40300 197.55600 199.80700 202.06000 204.28800 206.47900
 208.55200 210.37800 212.02500 213.65900 214.99800 216.11800 217.17200 218.25900
 219.49400 220.64500 221.67900 222.61400 223.54500 224.98200 226.57100 228.19000
 229.79700 231.81100 233.86500 235.97200 238.24200 240.55300 242.89900 245.25300
 247.48800 249.53500 251.36600 252.84800 254.09800 255.16700 256.02700 256.25300
 256.09500 255.54300 253.93500 252.56600 251.38400 250.24500 249.05200 247.70100
 246.01600 243.99600 241.78400 239.39300 236.81300 234.22300 231.65800 229.14400
 226.74000 224.47300 222.33500 220.32500 218.44000 216.67700 214.96200 213.47200
 212.20000 211.10800 210.26000 209.63900 209.24400 209.03100 209.05800 209.33300
 209.78400 210.62600 211.33100 212.39100 213.62500 214.84668 217.72949 219.47640
 220.32566 220.86828 220.88710 220.27371 219.43733 218.84250 219.04934 220.86203
 222.60583 225.72206 229.03064 232.61777 236.12270 239.51333 242.70767 245.68587
 248.41061 250.90679 253.19353 254.91714 256.48655 257.94920 259.39966 260.69384
 261.81714 262.77997 263.71679 264.54570 265.26305 265.89772 266.47676 267.00133
 267.47312 267.89325 268.26027 268.72800
