|-------------------------------------------------------------------------|
|   File Name : in_temp.dat
|   Subject   : temperature profiles used for initial guess atmosphere
|   File Type : input of gmtr
|   Data Type : atmospherical data
|   Author/s  : WRF-Chem
|   Date      : Fri Jul 26 15:39:24 2024
|-------------------------------------------------------------------------|

 WRF-Chem temperature
#
 values of T (K)    (8f10.5)
#
 354.97500 345.04800 334.58700 324.11500 313.32600 302.53700 291.65000 280.76700
 269.93100 259.19300 248.62200 238.61700 229.08700 220.35500 212.54000 205.53500
 199.46400 194.49300 191.14300 189.19000 188.08900 188.01400 188.72400 189.90600
 191.46900 193.38200 195.40300 197.55600 199.80700 202.06000 204.28800 206.47900
 208.55200 210.37800 212.02500 213.65900 214.99800 216.11800 217.17200 218.25900
 219.49400 220.64500 221.67900 222.61400 223.54500 224.98200 226.57100 228.19000
 229.79700 231.81100 233.86500 235.97200 238.24200 240.55300 242.89900 245.25300
 247.48800 249.53500 251.36600 252.84800 254.09800 255.16700 256.02700 256.25300
 256.09500 255.54300 253.93500 252.56600 251.38400 250.24500 249.05200 247.70100
 246.01600 243.99600 241.78400 239.39300 236.81300 234.22300 231.65800 229.14400
 226.74000 224.47300 222.33500 220.32500 218.44000 216.67700 214.96200 213.47200
 212.20000 211.10800 210.26000 209.63900 209.24400 209.03100 209.05800 209.33300
 209.78400 210.62600 211.33100 212.39100 213.62500 214.84668 217.72949 219.47640
 220.32566 220.86828 220.88710 220.27371 219.43733 218.84250 219.04934 220.86203
 222.60583 225.72206 229.03064 232.61777 236.12270 239.51333 242.70767 245.68587
 248.41061 250.90679 253.19353 254.91714 256.48655 257.94920 259.39966 260.69384
 261.81714 262.77997 263.71679 264.54570 265.26305 265.89772 266.47676 267.00133
 267.47312 267.89325 268.26027 268.72800
 366.78100 356.33500 345.76700 334.63300 323.03600 311.23000 299.10000 286.90300
 274.61500 262.51200 250.52100 239.82200 229.94400 221.04800 213.23000 206.23200
 200.06600 195.00400 191.58600 189.62800 188.66500 188.72900 189.56400 190.87200
 192.59700 194.69200 196.95500 199.31400 201.75900 204.23900 206.32700 208.16900
 209.79500 210.94000 211.16900 211.39700 211.33400 211.03900 210.67200 210.30200
 209.91900 209.62900 209.43700 209.30100 209.22900 209.56000 209.94600 210.33500
 211.12800 212.30600 213.55600 215.33900 217.26700 219.31000 221.40500 223.48800
 225.54800 227.63200 229.72900 231.83500 233.96400 236.13600 238.39200 240.76200
 243.38300 245.63400 247.63600 249.40100 250.81800 251.94100 252.76300 253.07900
 253.11600 252.89000 252.25000 251.19800 249.80400 247.96500 245.87400 243.70700
 241.49800 239.30200 237.12200 234.96100 232.82100 230.68800 228.71400 226.87100
 225.15400 223.62600 222.25600 221.02800 219.91000 218.87000 217.97400 217.11500
 216.35700 215.53700 214.63500 213.99900 213.44900 212.85855 212.01316 212.61654
 214.26826 216.08686 218.14273 220.53346 223.40855 226.78828 231.49734 235.90155
 239.42278 243.28576 247.23140 251.11907 254.80144 258.23331 261.38913 264.27520
 266.89312 269.26852 271.44504 273.08845 274.58484 275.98591 277.39845 278.65879
 279.75272 280.69038 281.56708 282.34086 283.01050 283.60295 284.14348 284.63317
 285.07358 285.46577 285.80838 286.24500
 381.81900 372.39900 361.20600 349.77600 337.62200 324.85300 311.81000 298.35300
 284.86000 271.32400 258.56100 246.30400 236.08700 226.79600 218.44800 211.29000
 205.52200 200.89400 197.38100 194.84800 193.01500 192.31500 192.25000 192.43100
 192.91200 193.53700 194.13600 194.71200 195.26200 195.83100 196.39300 196.97600
 197.60400 198.14900 198.58400 199.05700 199.69500 200.37800 201.05400 201.70800
 202.31300 202.85700 203.35500 203.86200 204.56900 205.29700 206.02600 206.98700
 208.19300 209.44100 210.96900 212.57600 214.46200 216.51300 218.63000 220.85300
 223.34100 225.96200 228.73900 231.69700 234.70600 237.70600 240.69200 243.65700
 246.73700 249.69900 252.52100 255.06300 257.29000 259.23300 260.63300 261.68000
 262.46100 262.79800 262.69100 262.22400 261.06900 259.52500 257.70700 255.50700
 253.00100 250.30200 247.39800 244.45200 241.65400 239.05400 236.73300 234.59000
 232.59500 230.72500 228.83400 226.82600 224.66600 222.38700 220.10400 217.71500
 215.45900 213.06600 210.54600 208.09300 205.35400 202.08130 196.05959 200.71215
 209.01611 216.90438 223.84126 229.78593 235.00632 240.20838 245.98943 250.68668
 254.32982 257.93487 261.55666 264.96801 268.15192 271.06452 273.76717 276.25691
 278.57680 280.74479 282.77456 284.60533 286.27232 287.81705 289.31715 290.65561
 291.81734 292.81312 293.70701 294.49387 295.17482 295.77730 296.32696 296.82492
 297.27278 297.67160 298.02000 298.46400
 399.33000 389.90700 379.81300 368.66800 357.52200 345.30100 333.07400 320.22700
 307.21600 293.84800 280.37600 267.29600 254.61000 242.98700 232.15100 221.97700
 212.67200 204.28600 197.66900 192.82100 189.48600 187.45200 186.81400 187.08900
 187.78100 189.05400 190.64800 192.54200 194.63000 196.75200 198.67100 200.15800
 201.53500 202.48700 202.97500 203.34000 203.53900 203.49700 203.38500 203.24700
 203.00500 202.78600 202.60300 202.43700 202.42600 202.88800 203.42000 203.95100
 204.89500 205.99200 207.30100 208.95800 210.73800 213.10000 215.56400 218.18000
 220.96600 223.91800 226.96100 230.09200 233.29300 236.55700 239.95500 243.53700
 246.84500 249.39000 251.54200 253.47400 255.19500 256.48400 257.43100 258.05900
 258.21200 258.04000 257.58200 256.64300 255.23900 253.50700 251.40800 249.05600
 246.57600 243.99400 241.38900 238.83000 236.34400 233.98600 231.96900 230.11800
 228.42300 226.89900 225.54800 224.29700 223.10500 221.96500 220.95800 220.11300
 219.49000 218.92000 218.32500 217.88100 217.42300 216.96366 216.35568 216.80261
 217.73415 218.28582 218.64258 219.10077 220.44626 222.53987 226.38451 230.35736
 233.59734 237.39164 241.29814 245.22796 248.98002 252.51130 255.78595 258.80109
 261.54781 264.05210 266.34239 268.04198 269.58951 271.01303 272.35754 273.55718
 274.59842 275.49092 276.28989 276.99307 277.60161 278.14001 278.63122 279.07623
 279.47646 279.83287 280.14422 280.54100
 399.73800 389.78500 379.66200 368.15100 356.64100 344.35000 331.79200 318.88800
 305.72600 292.49300 279.20900 266.73800 254.69600 244.21100 234.45700 225.43300
 217.56900 210.45100 204.30000 199.30600 195.45800 192.57600 191.02700 190.38600
 190.23900 190.53400 191.16600 191.92500 192.79500 193.76600 194.73200 195.31200
 195.80000 196.05200 196.11500 196.11500 196.03900 195.72300 195.34000 194.98900
 194.75100 194.79200 195.13300 195.59800 196.50600 198.13600 199.85800 201.56600
 204.17900 206.82300 209.89300 213.28400 216.82800 220.60500 224.38700 228.20900
 232.03200 235.82500 239.56000 243.25800 246.84500 250.20100 253.70900 257.46800
 261.53000 264.22100 266.60100 268.68100 270.32900 271.74100 272.83600 273.47400
 273.89800 274.00200 273.75700 273.28800 272.37100 271.10000 269.58900 267.77900
 265.81600 263.72100 261.39300 258.91600 256.29800 253.42300 250.33100 247.11400
 243.83700 240.52900 237.24900 233.99900 230.72800 227.51500 224.25400 220.95200
 217.62700 213.65600 210.12100 206.78900 204.01000 201.99491 199.07309 198.76551
 199.40006 200.48994 201.46112 202.31912 203.45100 204.96110 207.47502 210.85391
 213.70530 217.29629 220.99574 224.72316 228.28753 231.64854 234.68024 237.40893
 239.70644 241.60899 243.46854 245.67368 247.68154 249.52395 251.24767 252.78566
 254.12057 255.26479 256.23740 257.09036 257.82852 258.48160 259.07744 259.61723
 260.10271 260.53504 260.91270 261.39400
 399.73800 389.78500 379.66200 368.15100 356.64100 344.35000 331.79200 318.88800
 305.72600 292.49300 279.20900 266.73800 254.69600 244.21100 234.45700 225.43300
 217.56900 210.45100 204.30000 199.30600 195.45800 192.57600 191.02700 190.38600
 190.23900 190.53400 191.16600 191.92500 192.79500 193.76600 194.73200 195.31200
 195.80000 196.05200 196.11500 196.11500 196.03900 195.72300 195.34000 194.98900
 194.75100 194.79200 195.13300 195.59800 196.50600 198.13600 199.85800 201.56600
 204.17900 206.82300 209.89300 213.28400 216.82800 220.60500 224.38700 228.20900
 232.03200 235.82500 239.56000 243.25800 246.84500 250.20100 253.70900 257.46800
 261.53000 264.22100 266.60100 268.68100 270.32900 271.74100 272.83600 273.47400
 273.89800 274.00200 273.75700 273.28800 272.37100 271.10000 269.58900 267.77900
 265.81600 263.72100 261.39300 258.91600 256.29800 253.42300 250.33100 247.11400
 243.83700 240.52900 237.24900 233.99900 230.72800 227.51500 224.25400 220.95200
 217.62700 213.65600 210.12100 206.78900 204.01000 201.99491 199.07309 198.76551
 199.40006 200.48994 201.46112 202.31912 203.45100 204.96110 207.47502 210.85391
 213.70530 217.29629 220.99574 224.72316 228.28753 231.64854 234.68024 237.40893
 239.70644 241.60899 243.46854 245.67368 247.68154 249.52395 251.24767 252.78566
 254.12057 255.26479 256.23740 257.09036 257.82852 258.48160 259.07744 259.61723
 260.10271 260.53504 260.91270 261.39400
 399.33000 389.90700 379.81300 368.66800 357.52200 345.30100 333.07400 320.22700
 307.21600 293.84800 280.37600 267.29600 254.61000 242.98700 232.15100 221.97700
 212.67200 204.28600 197.66900 192.82100 189.48600 187.45200 186.81400 187.08900
 187.78100 189.05400 190.64800 192.54200 194.63000 196.75200 198.67100 200.15800
 201.53500 202.48700 202.97500 203.34000 203.53900 203.49700 203.38500 203.24700
 203.00500 202.78600 202.60300 202.43700 202.42600 202.88800 203.42000 203.95100
 204.89500 205.99200 207.30100 208.95800 210.73800 213.10000 215.56400 218.18000
 220.96600 223.91800 226.96100 230.09200 233.29300 236.55700 239.95500 243.53700
 246.84500 249.39000 251.54200 253.47400 255.19500 256.48400 257.43100 258.05900
 258.21200 258.04000 257.58200 256.64300 255.23900 253.50700 251.40800 249.05600
 246.57600 243.99400 241.38900 238.83000 236.34400 233.98600 231.96900 230.11800
 228.42300 226.89900 225.54800 224.29700 223.10500 221.96500 220.95800 220.11300
 219.49000 218.92000 218.32500 217.88100 217.42300 216.96366 216.35568 216.80261
 217.73415 218.28582 218.64258 219.10077 220.44626 222.53987 226.38451 230.35736
 233.59734 237.39164 241.29814 245.22796 248.98002 252.51130 255.78595 258.80109
 261.54781 264.05210 266.34239 268.04198 269.58951 271.01303 272.35754 273.55718
 274.59842 275.49092 276.28989 276.99307 277.60161 278.14001 278.63122 279.07623
 279.47646 279.83287 280.14422 280.54100
 381.81900 372.39900 361.20600 349.77600 337.62200 324.85300 311.81000 298.35300
 284.86000 271.32400 258.56100 246.30400 236.08700 226.79600 218.44800 211.29000
 205.52200 200.89400 197.38100 194.84800 193.01500 192.31500 192.25000 192.43100
 192.91200 193.53700 194.13600 194.71200 195.26200 195.83100 196.39300 196.97600
 197.60400 198.14900 198.58400 199.05700 199.69500 200.37800 201.05400 201.70800
 202.31300 202.85700 203.35500 203.86200 204.56900 205.29700 206.02600 206.98700
 208.19300 209.44100 210.96900 212.57600 214.46200 216.51300 218.63000 220.85300
 223.34100 225.96200 228.73900 231.69700 234.70600 237.70600 240.69200 243.65700
 246.73700 249.69900 252.52100 255.06300 257.29000 259.23300 260.63300 261.68000
 262.46100 262.79800 262.69100 262.22400 261.06900 259.52500 257.70700 255.50700
 253.00100 250.30200 247.39800 244.45200 241.65400 239.05400 236.73300 234.59000
 232.59500 230.72500 228.83400 226.82600 224.66600 222.38700 220.10400 217.71500
 215.45900 213.06600 210.54600 208.09300 205.35400 202.08130 196.05959 200.71215
 209.01611 216.90438 223.84126 229.78593 235.00632 240.20838 245.98943 250.68668
 254.32982 257.93487 261.55666 264.96801 268.15192 271.06452 273.76717 276.25691
 278.57680 280.74479 282.77456 284.60533 286.27232 287.81705 289.31715 290.65561
 291.81734 292.81312 293.70701 294.49387 295.17482 295.77730 296.32696 296.82492
 297.27278 297.67160 298.02000 298.46400
 366.78100 356.33399 345.76498 334.62996 323.03195 311.22494 299.09393 286.89591
 274.60690 262.50289 250.51088 239.81087 229.93185 221.03484 213.21583 206.21682
 200.04980 194.98679 191.56778 189.60877 188.64476 188.70774 189.54173 190.84872
 192.57271 194.66669 196.92868 199.28667 201.73066 204.20965 206.29663 208.13762
 209.76261 210.90660 211.13458 211.36157 211.29756 211.00155 210.63354 210.26252
 209.87851 209.58750 209.39449 209.25747 209.18446 209.51445 209.89944 210.28743
 211.07941 212.25640 213.50539 215.28738 217.21436 219.25635 221.35034 223.43233
 225.49132 227.57430 229.67029 231.77528 233.90327 236.07425 238.32924 240.69823
 243.31822 245.56821 247.56919 249.33318 250.74917 251.87116 252.69214 253.00713
 253.04312 252.81611 252.17510 251.12208 249.72707 247.88706 245.79505 243.62703
 241.41702 239.22001 237.03900 234.87699 232.73597 230.60196 228.62695 226.78294
 225.06492 223.53591 222.16490 220.93589 219.81688 218.77586 217.87885 217.01884
 216.25983 215.43881 214.53580 213.89879 213.34778 212.90344 211.85786 212.03592
 213.14500 215.06377 216.62930 217.21782 218.63321 222.63490 228.67818 233.59103
 237.38510 241.13307 244.89696 248.65852 252.33289 255.47400 258.07645 260.52960
 263.21124 265.83008 268.22824 270.34790 272.34619 274.25620 275.91260 277.52274
 279.18607 280.82123 282.32642 283.68399 284.86456 285.91235 286.87357 287.74677
 288.53748 289.24667 289.87234 290.70657
 366.78100 356.33249 345.76198 334.62547 323.02596 311.21745 299.08494 286.88543
 274.59492 262.48941 250.49590 239.79439 229.91388 221.01537 213.19486 206.19435
 200.02584 194.96133 191.54082 189.58031 188.61480 188.67629 189.50878 190.81427
 192.53676 194.62925 196.88974 199.24623 201.68872 204.16621 206.25170 208.09119
 209.71468 210.85717 211.08366 211.30915 211.24364 210.94613 210.57663 210.20412
 209.81861 209.52610 209.33159 209.19308 209.11857 209.44706 209.83055 210.21704
 211.00753 212.18302 213.43051 215.21100 217.13649 219.17698 221.26947 223.34996
 225.40745 227.48894 229.58343 231.68692 233.81341 235.98290 238.23639 240.60388
 243.22237 245.47086 247.47035 249.23284 250.64733 251.76782 252.58731 252.90080
 252.93529 252.70678 252.06427 251.00976 249.61325 247.77174 245.67823 243.50872
 241.29721 239.09870 236.91619 234.75268 232.61017 230.47466 228.49815 226.65264
 224.93313 223.40262 222.03011 220.79960 219.67909 218.63658 217.73807 216.87656
 216.11605 215.29354 214.38903 213.75052 213.19801 212.82991 211.96344 212.16948
 213.24416 215.14705 216.65488 217.32034 218.58664 222.60045 228.62560 233.51056
 237.29758 241.05859 244.84477 248.59732 252.20467 255.32123 257.94531 260.41992
 263.04718 265.65872 268.10516 270.24207 272.23221 274.12994 275.77884 277.38828
 279.05374 280.69955 282.21146 283.56830 284.75052 285.79916 286.76028 287.63440
 288.42584 289.13538 289.75946 290.60083
 366.78100 356.33116 345.75931 334.62147 323.02063 311.21078 299.07694 286.87610
 274.58425 262.47741 250.48257 239.77973 229.89788 220.99804 213.17620 206.17435
 200.00451 194.93867 191.51682 189.55498 188.58814 188.64829 189.47945 190.78361
 192.50476 194.59592 196.85508 199.21023 201.65139 204.12755 206.21170 208.04986
 209.67202 210.81318 211.03833 211.26249 211.19565 210.89680 210.52596 210.15212
 209.76527 209.47143 209.27559 209.13574 209.05990 209.38706 209.76921 210.15437
 210.94353 212.11768 213.36384 215.14300 217.06715 219.10631 221.19747 223.27663
 225.33278 227.41294 229.50610 231.60825 233.73341 235.90157 238.15372 240.51988
 243.13704 245.38419 247.38235 249.14351 250.55666 251.67582 252.49398 252.80613
 252.83929 252.60945 251.96560 250.90976 249.51192 247.66908 245.57423 243.40339
 241.19055 238.99070 236.80686 234.64202 232.49817 230.36133 228.38349 226.53664
 224.81580 223.28396 221.91011 220.67827 219.55643 218.51258 217.61274 216.74990
 215.98805 215.16421 214.25837 213.61853 213.06468 212.76453 212.05782 212.30147
 213.34714 215.23254 216.68497 217.40352 218.56807 222.60390 228.56682 233.42876
 237.20879 240.97971 244.78467 248.52786 252.06595 255.16255 257.81827 260.32153
 262.89169 265.48688 267.97427 270.12885 272.11325 274.00101 275.64688 277.25632
 278.93112 280.58423 282.10184 283.46060 284.64319 285.69229 286.65308 287.52930
 288.32037 289.02985 289.65759 290.49341
 366.78100 356.32994 345.75688 334.61782 323.01576 311.20470 299.06964 286.86758
 274.57452 262.46646 250.47040 239.76634 229.88328 220.98222 213.15916 206.15610
 199.98504 194.91798 191.49492 189.53186 188.56380 188.62274 189.45268 190.75562
 192.47556 194.56550 196.82344 199.17738 201.61732 204.09226 206.17520 208.01214
 209.63308 210.77302 210.99696 211.21990 211.15184 210.85178 210.47972 210.10466
 209.71660 209.42154 209.22448 209.08342 209.00636 209.33230 209.71324 210.09718
 210.88512 212.05806 213.30300 215.08094 217.00388 219.04182 221.13176 223.20970
 225.26464 227.34358 229.43552 231.53646 233.66040 235.82734 238.07828 240.44322
 243.05916 245.30510 247.30204 249.06198 250.47392 251.59186 252.40880 252.71974
 252.75168 252.52062 251.87555 250.81849 249.41943 247.57537 245.47931 243.30725
 241.09319 238.89213 236.70707 234.54101 232.39595 230.25789 228.27883 226.43077
 224.70871 223.17565 221.80059 220.56753 219.44447 218.39941 217.49835 216.63429
 215.87123 215.04617 214.13911 213.49805 212.94299 212.70538 212.14572 212.42960
 213.45708 215.31357 216.72829 217.45798 218.58640 222.62498 228.50850 233.34448
 237.11784 240.89772 244.71947 248.45345 251.92198 254.99986 257.69281 260.22833
 262.74136 265.31143 267.83344 270.00647 271.99203 273.87451 275.51813 277.13214
 278.82245 280.47403 281.99924 283.35980 284.54318 285.59222 286.55280 287.43008
 288.22195 288.93225 289.55872 290.39679
 366.78100 356.32883 345.75467 334.61450 323.01134 311.19917 299.06301 286.85984
 274.56568 262.45651 250.45935 239.75418 229.87002 220.96785 213.14369 206.13952
 199.96736 194.89919 191.47503 189.51086 188.54169 188.59953 189.42836 190.73020
 192.44903 194.53787 196.79470 199.14754 201.58637 204.06021 206.14204 207.97788
 209.59771 210.73655 210.95938 211.18122 211.11205 210.81089 210.43772 210.06155
 209.67239 209.37622 209.17806 209.03589 208.95773 209.28256 209.66240 210.04523
 210.83207 212.00390 213.24774 215.02457 216.94641 218.98324 221.07208 223.14891
 225.20275 227.28058 229.37141 231.47125 233.59408 235.75992 238.00975 240.37359
 242.98842 245.23326 247.22909 248.98793 250.39876 251.51560 252.33143 252.64127
 252.67210 252.43994 251.79377 250.73561 249.33544 247.49027 245.39311 243.21994
 241.00478 238.80261 236.61645 234.44928 232.30312 230.16395 228.18379 226.33462
 224.61146 223.07729 221.70113 220.46696 219.34280 218.29663 217.39447 216.52930
 215.76513 214.93897 214.03080 213.38864 212.83247 212.65213 212.22729 212.55623
 213.56721 215.39096 216.78378 217.49426 218.63689 222.64896 228.45674 233.26279
 237.02704 240.81264 244.64848 248.37323 251.77213 254.83093 257.56381 260.13562
 262.59253 265.13406 267.68445 269.87799 271.87228 273.75705 275.39972 277.01407
 278.71002 280.37369 281.90616 283.26672 284.44986 285.50037 286.46222 287.33911
 288.12903 288.84167 289.46759 290.30841
 366.78100 356.32788 345.75277 334.61165 323.00753 311.19442 299.05730 286.85318
 274.55807 262.44795 250.44983 239.74372 229.85860 220.95548 213.13037 206.12525
 199.95213 194.88302 191.45790 189.49278 188.52267 188.57955 189.40743 190.70832
 192.42620 194.51408 196.76997 199.12185 201.55973 204.03262 206.11350 207.94838
 209.56727 210.70515 210.92703 211.14792 211.07780 210.77568 210.40157 210.02445
 209.63433 209.33722 209.13810 208.99498 208.91587 209.23975 209.61863 210.00052
 210.78640 211.95728 213.20017 214.97605 216.89693 218.93282 221.02070 223.09658
 225.14947 227.22635 229.31623 231.41512 233.53700 235.70188 237.95077 240.31365
 242.92753 245.17142 247.16630 248.92418 250.33407 251.44995 252.26483 252.57372
 252.60360 252.37048 251.72337 250.66425 249.26313 247.41702 245.31890 243.14478
 240.92867 238.72555 236.53843 234.37032 232.22320 230.08308 228.10197 226.25185
 224.52773 222.99262 221.61550 220.38039 219.25527 218.20815 217.30504 216.43892
 215.67380 214.84669 213.93757 213.29445 212.73734 212.60712 212.30023 212.68364
 213.67836 215.46356 216.83920 217.52917 218.71327 222.66867 228.41667 233.18959
 236.93967 240.72960 244.57397 248.28741 251.61668 254.65474 257.42981 260.03900
 262.44528 264.95309 267.52307 269.73465 271.74350 273.64209 275.30084 276.92831
 278.62659 280.28403 281.81488 283.17682 284.35971 285.41019 286.37244 287.24908
 288.04150 288.75262 289.37952 290.22052
 366.78100 356.32706 345.75113 334.60919 323.00426 311.19032 299.05239 286.84745
 274.55152 262.44058 250.44165 239.73471 229.84878 220.94484 213.11891 206.11297
 199.93904 194.86910 191.44317 189.47723 188.50630 188.56236 189.38943 190.68949
 192.40656 194.49362 196.74869 199.09975 201.53682 204.00888 206.08895 207.92301
 209.54108 210.67814 210.89921 211.11927 211.04834 210.74540 210.37047 209.99253
 209.60159 209.30366 209.10372 208.95979 208.87985 209.20292 209.58098 209.96205
 210.74711 211.91718 213.15924 214.93431 216.85437 218.88944 220.97650 223.05157
 225.10363 227.17970 229.26876 231.36683 233.48789 235.65196 237.90002 240.26209
 242.87515 245.11822 247.11228 248.86935 250.27841 251.39348 252.20754 252.51561
 252.54467 252.31074 251.66280 250.60287 249.20093 247.35400 245.25506 243.08012
 240.86319 238.65925 236.47132 234.30238 232.15445 230.01351 228.03158 226.18064
 224.45571 222.91977 221.54184 220.30590 219.17997 218.13203 217.22810 216.36116
 215.59523 214.76729 213.85736 213.21342 212.65549 212.56947 212.36665 212.81174
 213.79523 215.53610 216.88376 217.56813 218.80067 222.68610 228.38504 233.12474
 236.85634 240.64964 244.49907 248.19853 251.45871 254.47220 257.28876 259.93671
 262.30548 264.77554 267.35248 269.57596 271.60117 273.51147 275.18808 276.84189
 278.55161 280.22076 281.75739 283.12064 284.30429 285.35428 286.31842 287.19370
 287.98718 288.69925 289.32901 290.17160
 366.78100 356.32629 345.74957 334.60686 323.00114 311.18643 299.04772 286.84200
 274.54529 262.43358 250.43386 239.72615 229.83943 220.93472 213.10801 206.10129
 199.92658 194.85587 191.42915 189.46244 188.49072 188.54601 189.37230 190.67158
 192.38787 194.47416 196.72844 199.07873 201.51501 203.98630 206.06559 207.89887
 209.51616 210.65245 210.87273 211.09202 211.02030 210.71659 210.34088 209.96216
 209.57045 209.27173 209.07102 208.92631 208.84559 209.16788 209.54517 209.92545
 210.70974 211.87902 213.12031 214.89460 216.81388 218.84817 220.93446 223.00874
 225.06003 227.13531 229.22360 231.32089 233.44117 235.60446 237.85175 240.21303
 242.82532 245.06760 247.06089 248.81718 250.22546 251.33975 252.15304 252.46032
 252.48861 252.25389 251.60518 250.54447 249.14175 247.29404 245.19432 243.01861
 240.80090 238.59618 236.40747 234.23776 232.08904 229.94733 227.96461 226.11290
 224.38719 222.85047 221.47176 220.23505 219.10833 218.05962 217.15490 216.28719
 215.52048 214.69176 213.78105 213.13634 212.57762 212.53465 212.43317 212.94081
 213.91412 215.60887 216.92729 217.60582 218.89279 222.70685 228.35582 233.06233
 236.77606 240.57217 244.42661 248.10774 251.29793 254.28212 257.13495 259.82339
 262.16901 264.60410 267.17889 269.41422 271.45895 273.37976 275.06900 276.74231
 278.46573 280.18439 281.72995 283.09503 284.28009 285.33401 286.30115 287.18219
 287.98499 288.70535 289.33923 290.18253
 366.78100 356.32554 345.74808 334.60462 322.99816 311.18270 299.04324 286.83678
 274.53932 262.42686 250.42640 239.71794 229.83048 220.92502 213.09756 206.09010
 199.91464 194.84318 191.41572 189.44826 188.47580 188.53034 189.35588 190.65442
 192.36997 194.45551 196.70905 199.05859 201.49413 203.96467 206.04321 207.87575
 209.49229 210.62783 210.84737 211.06591 210.99345 210.68899 210.31253 209.93307
 209.54061 209.24115 209.03969 208.89423 208.81277 209.13431 209.51085 209.89039
 210.67393 211.84247 213.08301 214.85655 216.77509 218.80863 220.89417 222.96771
 225.01825 227.09279 229.18033 231.27687 233.39641 235.55895 237.80549 240.16603
 242.77757 245.01911 247.01165 248.76719 250.17473 251.28827 252.10081 252.40736
 252.43490 252.19944 251.54998 250.48852 249.08506 247.23660 245.13614 242.95968
 240.74122 238.53576 236.34630 234.17584 232.02638 229.88392 227.90046 226.04800
 224.32154 222.78408 221.40462 220.16716 219.03970 217.99024 217.08478 216.21632
 215.44886 214.61940 213.70794 213.06248 212.50302 212.50192 212.49933 213.07545
 214.02818 215.68398 216.97424 217.64014 218.98128 222.73572 228.33133 232.99796
 236.69623 240.49619 244.35522 248.01369 251.13486 254.08577 256.97079 259.70099
 262.03357 264.43945 267.00519 269.25256 271.32434 273.26624 274.96964 276.65784
 278.40231 280.14578 281.69534 283.06094 284.24796 285.30215 286.26944 287.15308
 287.95837 288.68002 289.31378 290.16040
 366.78100 356.32484 345.74669 334.60253 322.99538 311.17922 299.03906 286.83191
 274.53375 262.42059 250.41944 239.71028 229.82213 220.91597 213.08781 206.07966
 199.90350 194.83134 191.40319 189.43503 188.46188 188.51572 189.34056 190.63841
 192.35325 194.43810 196.69094 199.03978 201.47463 203.94447 206.02231 207.85416
 209.47000 210.60485 210.82369 211.04153 210.96838 210.66322 210.28606 209.90591
 209.51275 209.21260 209.01044 208.86428 208.78213 209.10297 209.47881 209.85766
 210.64050 211.80835 213.04819 214.82103 216.73888 218.77172 220.85657 222.92941
 224.97925 227.05310 229.13994 231.23578 233.35463 235.51647 237.76232 240.12216
 242.73300 244.97385 246.96569 248.72053 250.12738 251.24022 252.05207 252.35791
 252.38475 252.14860 251.49844 250.43629 249.03213 247.18297 245.08182 242.90466
 240.68550 238.47935 236.28919 234.11804 231.96788 229.82472 227.84057 225.98741
 224.26025 222.72210 221.34194 220.10379 218.97563 217.92547 217.01932 216.15016
 215.38200 214.55185 213.63969 212.99354 212.43338 212.47270 212.56561 213.20862
 214.14781 215.75847 217.02730 217.67241 219.07330 222.76726 228.30150 232.93031
 236.61673 240.42363 244.28529 247.91624 250.96782 253.88353 256.79642 259.56760
 261.89673 264.28040 266.83350 269.09683 271.20169 273.16830 274.88406 276.58069
 278.35608 280.11026 281.66046 283.02768 284.21518 285.26993 286.23865 287.12167
 287.92761 288.65195 289.28802 290.13419
 366.78100 356.32419 345.74538 334.60056 322.99275 311.17594 299.03513 286.82732
 274.52851 262.41469 250.41288 239.70307 229.81426 220.90745 213.07863 206.06982
 199.89301 194.82020 191.39139 189.42257 188.44876 188.50195 189.32614 190.62333
 192.33752 194.42170 196.67389 199.02208 201.45627 203.92546 206.00264 207.83383
 209.44902 210.58321 210.80140 211.01858 210.94477 210.63896 210.26115 209.88034
 209.48653 209.18571 208.98290 208.83609 208.75328 209.07347 209.44865 209.82684
 210.60903 211.77622 213.01541 214.78759 216.70478 218.73697 220.82116 222.89335
 224.94254 227.01572 229.10191 231.19710 233.31529 235.47648 237.72166 240.08085
 242.69104 244.93123 246.92242 248.67660 250.08279 251.19498 252.00617 252.31136
 252.33755 252.10073 251.44992 250.38711 248.98230 247.13249 245.03067 242.85286
 240.63305 238.42624 236.23543 234.06361 231.91280 229.76899 227.78418 225.93037
 224.20256 222.66374 221.28293 220.04412 218.91531 217.86450 216.95768 216.08787
 215.31906 214.48825 213.57544 212.92862 212.36781 212.44675 212.63324 213.34180
 214.26140 215.83907 217.08551 217.71123 219.17586 222.79987 228.27727 232.86462
 236.53595 240.35109 244.21144 247.80980 250.78969 253.66769 256.60529 259.41568
 261.75525 264.12759 266.66986 268.95303 271.09705 273.09448 274.82349 276.52414
 278.31274 280.07169 281.62378 282.99142 284.17978 285.23508 286.20291 287.08902
 287.89639 288.62149 289.25558 290.10498
 366.78100 356.32340 345.74380 334.59820 322.98960 311.17200 299.03040 286.82180
 274.52220 262.40760 250.40500 239.69440 229.80480 220.89720 213.06760 206.05800
 199.88041 194.80681 191.37721 189.40761 188.43301 188.48541 189.30881 190.60521
 192.31861 194.40201 196.65341 199.00081 201.43421 203.90261 205.97901 207.80941
 209.42381 210.55721 210.77461 210.99101 210.91641 210.60981 210.23121 209.84961
 209.45501 209.15341 208.94981 208.80221 208.71861 209.03801 209.41241 209.78982
 210.57122 211.73762 212.97602 214.74742 216.66382 218.69522 220.77862 222.85002
 224.89842 226.97082 229.05622 231.15062 233.26802 235.42842 237.67282 240.03122
 242.64062 244.88002 246.87042 248.62382 250.02922 251.14062 251.95102 252.25542
 252.28082 252.04322 251.39162 250.32802 248.92242 247.07182 244.96922 242.79063
 240.57003 238.36243 236.17083 233.99823 231.84663 229.70203 227.71643 225.86183
 224.13323 222.59363 221.21203 219.97243 218.84283 217.79123 216.88363 216.01303
 215.24343 214.41183 213.49823 212.85063 212.28903 212.41516 212.71317 213.47873
 214.34039 215.92000 217.19968 217.76843 219.28987 222.83456 228.25436 232.78979
 236.44397 240.26849 244.12631 247.68837 250.59749 253.43913 256.40167 259.25220
 261.61694 263.98660 266.51620 268.82141 271.00510 273.03979 274.78821 276.49704
 278.27039 280.03036 281.58197 282.94992 284.13809 285.19363 286.16449 287.04959
 287.85822 288.58408 289.21997 290.07394
 366.78100 356.32329 345.74358 334.59787 322.98916 311.17146 299.02975 286.82104
 274.52133 262.40662 250.40391 239.69320 229.80349 220.89578 213.06607 206.05637
 199.87866 194.80495 191.37524 189.40553 188.43082 188.48311 189.30640 190.60269
 192.31599 194.39928 196.65057 198.99786 201.43115 203.89944 205.97573 207.80602
 209.42031 210.55361 210.77090 210.98719 210.91248 210.60577 210.22706 209.84535
 209.45064 209.14893 208.94522 208.79752 208.71381 209.03310 209.40739 209.78468
 210.56597 211.73226 212.97055 214.74184 216.65814 218.68943 220.77272 222.84401
 224.89230 226.96459 229.04988 231.14417 233.26146 235.42176 237.66605 240.02434
 242.63363 244.87292 246.86321 248.61650 250.02179 251.13308 251.94337 252.24767
 252.27296 252.03525 251.38354 250.31983 248.91412 247.06341 244.96070 242.78199
 240.56129 238.35358 236.16187 233.98916 231.83745 229.69274 227.70703 225.85232
 224.12361 222.58390 221.20220 219.96249 218.83278 217.78107 216.87336 216.00265
 215.23294 214.40123 213.48752 212.83982 212.27811 212.41922 212.75259 213.63933
 214.46786 215.87386 217.36360 217.99707 219.40573 222.83444 228.18373 232.68053
 236.33514 240.17471 244.03174 247.55736 250.39977 253.20782 256.19498 259.08527
 261.48947 263.86023 266.37125 268.69839 270.92221 272.99664 274.76901 276.48465
 278.23636 279.98831 281.53931 282.90683 284.09604 285.15149 286.12155 287.00803
 287.81900 288.54556 289.18295 290.03525
 366.78100 356.32362 345.74423 334.59885 322.99046 311.17308 299.03169 286.82331
 274.52392 262.40954 250.40716 239.69677 229.80739 220.90000 213.07062 206.06123
 199.88385 194.81047 191.38108 189.41170 188.43731 188.48993 189.31354 190.61016
 192.32377 194.40739 196.65901 199.00662 201.44024 203.90885 205.98547 207.81608
 209.43070 210.56432 210.78193 210.99855 210.92416 210.61778 210.23939 209.85801
 209.46362 209.16224 208.95886 208.81147 208.72809 209.04770 209.42232 209.79993
 210.58155 211.74817 212.98678 214.75840 216.67501 218.70663 220.79024 222.86186
 224.91047 226.98309 229.06871 231.16332 233.28094 235.44155 237.68617 240.04478
 242.65440 244.89402 246.88463 248.63825 250.04386 251.15548 251.96609 252.27071
 252.29632 252.05894 251.40756 250.34417 248.93879 247.08840 244.98602 242.80763
 240.58725 238.37987 236.18848 234.01610 231.86471 229.72033 227.73494 225.88056
 224.15217 222.61279 221.23141 219.99202 218.86264 217.81125 216.90387 216.03348
 215.26410 214.43272 213.51933 212.87195 212.31056 212.44809 212.77299 213.78000
 214.66199 215.91737 217.41739 218.13702 219.51300 222.81433 228.12648 232.59335
 236.23862 240.08926 243.93715 247.42122 250.20023 252.97749 255.98705 258.91434
 261.36554 263.74417 266.23703 268.58618 270.84839 272.96295 274.75858 276.48395
 278.23465 279.94571 281.49213 282.85886 284.04599 285.10117 286.06976 286.95749
 287.76617 288.49326 289.13232 289.98367
 366.78100 356.32326 345.74353 334.59779 322.98905 311.17131 299.02958 286.82084
 274.52110 262.40637 250.40363 239.69289 229.80316 220.89542 213.06568 206.05594
 199.87821 194.80447 191.37473 189.40500 188.43026 188.48252 189.30579 190.60205
 192.31531 194.39857 196.64984 198.99710 201.43036 203.89863 205.97489 207.80515
 209.41942 210.55268 210.76994 210.98620 210.91147 210.60473 210.22599 209.84426
 209.44952 209.14778 208.94405 208.79631 208.71257 209.03183 209.40610 209.78336
 210.56462 211.73089 212.96915 214.74041 216.65668 218.68794 220.77120 222.84246
 224.89073 226.96299 229.04825 231.14252 233.25978 235.42004 237.66431 240.02257
 242.63183 244.87109 246.86136 248.61462 250.01988 251.13115 251.94141 252.24567
 252.27094 252.03320 251.38146 250.31772 248.91199 247.06125 244.95851 242.77978
 240.55904 238.35130 236.15957 233.98683 231.83509 229.69035 227.70462 225.84988
 224.12114 222.58141 221.19967 219.95993 218.83020 217.77846 216.87072 215.99998
 215.23025 214.39851 213.48477 212.83704 212.27530 212.44359 212.84117 213.89784
 214.83275 216.01476 217.40430 218.23686 219.66257 222.80835 228.10501 232.53011
 236.14983 240.00496 243.83760 247.27486 249.99411 252.74309 255.76932 258.72827
 261.23141 263.62491 266.10483 268.48013 270.78580 272.94153 274.76071 276.47803
 278.21320 279.91370 281.45761 282.82404 284.01077 285.06348 286.03082 286.91528
 287.72281 288.44464 289.06927 289.90787
 366.78100 356.32275 345.74250 334.59625 322.98700 311.16875 299.02650 286.81725
 274.51700 262.40174 250.39849 239.68724 229.79699 220.88874 213.05849 206.04824
 199.86999 194.79574 191.36549 189.39524 188.41999 188.47174 189.29449 190.59024
 192.30299 194.38573 196.63648 198.98323 201.41598 203.88373 205.95948 207.78923
 209.40298 210.53573 210.75248 210.96823 210.89298 210.58573 210.20648 209.82423
 209.42898 209.12672 208.92247 208.77422 208.68997 209.00872 209.38247 209.75922
 210.53997 211.70572 212.94347 214.71422 216.62997 218.66072 220.74347 222.81422
 224.86197 226.93371 229.01846 231.11221 233.22896 235.38871 237.63246 239.99021
 242.59896 244.83771 246.82746 248.58021 249.98496 251.09571 251.90546 252.20921
 252.23396 251.99570 251.34345 250.27920 248.87295 247.02170 244.91845 242.73920
 240.51795 238.30970 236.11745 233.94420 231.79195 229.64670 227.66045 225.80520
 224.07595 222.53569 221.15344 219.91319 218.78294 217.73069 216.82244 215.95119
 215.18094 214.34869 213.43444 212.78619 212.22394 212.43129 212.92122 214.00876
 214.98631 216.12621 217.38870 218.34595 219.84549 222.83076 228.08716 232.45848
 236.05310 239.91176 243.72681 247.11528 249.77887 252.50345 255.54260 258.52936
 261.08554 263.50119 265.96957 268.37436 270.72192 272.92175 274.78299 276.52197
 278.27722 279.88467 281.41287 282.77530 283.95917 285.01102 285.97604 286.86090
 287.66809 288.39166 289.01266 289.85461
 366.78100 356.32339 345.74378 334.59817 322.98956 311.17196 299.03035 286.82174
 274.52213 262.40752 250.40491 239.69430 229.80469 220.89709 213.06748 206.05787
 199.88026 194.80665 191.37704 189.40743 188.43282 188.48521 189.30861 190.60500
 192.31839 194.40178 196.65317 199.00056 201.43395 203.90234 205.97873 207.80913
 209.42352 210.55691 210.77430 210.99069 210.91608 210.60947 210.23086 209.84926
 209.45465 209.15304 208.94943 208.80182 208.71821 209.03760 209.41199 209.78938
 210.57078 211.73717 212.97556 214.74695 216.66334 218.69473 220.77812 222.84951
 224.89791 226.97030 229.05569 231.15008 233.26747 235.42786 237.67225 240.03064
 242.64003 244.87943 246.86982 248.62321 250.02860 251.13999 251.95038 252.25477
 252.28016 252.04256 251.39095 250.32734 248.92173 247.07112 244.96851 242.78990
 240.56929 238.36168 236.17008 233.99747 231.84586 229.70125 227.71564 225.86103
 224.13242 222.59281 221.21120 219.97160 218.84199 217.79038 216.88277 216.01216
 215.24255 214.41094 213.49733 212.84973 212.28812 212.48570 212.95255 214.06514
 215.16246 216.27731 217.44038 218.50125 220.04016 222.89857 228.05243 232.37419
 235.94772 239.80830 243.59653 246.92497 249.53500 252.24565 255.29962 258.31171
 260.92694 263.37534 265.84055 268.27359 270.65680 272.89398 274.79443 276.55984
 278.33072 279.91693 281.38425 282.74094 283.92435 284.97650 285.94098 286.82578
 287.63626 288.36157 288.98181 289.82224
 366.78100 356.32532 345.74765 334.60397 322.99730 311.18162 299.04194 286.83527
 274.53759 262.42491 250.42424 239.71556 229.82789 220.92221 213.09453 206.08686
 199.91118 194.83951 191.41183 189.44415 188.47148 188.52580 189.35112 190.64945
 192.36477 194.45010 196.70342 199.05274 201.48807 203.95839 206.03672 207.86904
 209.48536 210.62069 210.84001 211.05833 210.98566 210.68098 210.30431 209.92463
 209.53195 209.23228 209.03060 208.88493 208.80325 209.12457 209.50090 209.88022
 210.66354 211.83187 213.07219 214.84552 216.76384 218.79716 220.88249 222.95581
 225.00614 227.08046 229.16778 231.26411 233.38343 235.54575 237.79208 240.15240
 242.76373 245.00505 246.99737 248.75270 250.16002 251.27335 252.08567 252.39199
 252.41932 252.18364 251.53396 250.47229 249.06861 247.21994 245.11926 242.94258
 240.72391 238.51823 236.32856 234.15788 232.00820 229.86553 227.88185 226.02917
 224.30250 222.76482 221.38515 220.14747 219.01979 217.97012 217.06444 216.19577
 215.42809 214.59841 213.68674 213.04106 212.48138 212.61880 212.94345 214.05148
 215.33186 216.46288 217.59200 218.70100 220.22961 223.00511 228.00827 232.29704
 235.84506 239.70270 243.45055 246.70593 249.27196 251.97305 255.04347 258.07867
 260.75696 263.24768 265.72620 268.19580 270.61496 272.88135 274.81509 276.59064
 278.34726 279.91455 281.38065 282.73749 283.92044 284.97119 285.93631 286.82065
 287.62888 288.35541 288.97357 289.81375
 366.78100 356.32745 345.75190 334.61036 323.00581 311.19226 299.05471 286.85017
 274.55462 262.44407 250.44552 239.73898 229.85343 220.94988 213.12433 206.11878
 199.94524 194.87569 191.45014 189.48459 188.51405 188.57050 189.39795 190.69840
 192.41585 194.50331 196.75876 199.11021 201.54766 204.02012 206.10057 207.93502
 209.55347 210.69093 210.91238 211.13283 211.06228 210.75973 210.38519 210.00764
 209.61709 209.31954 209.12000 208.97645 208.89690 209.22035 209.59881 209.98026
 210.76571 211.93616 213.17861 214.95407 216.87452 218.90997 220.99742 223.07288
 225.12533 227.20178 229.29123 231.38969 233.51114 235.67559 237.92404 240.28649
 242.89995 245.14340 247.13785 248.89530 250.30476 251.42021 252.23466 252.54311
 252.57256 252.33902 251.69147 250.63192 249.23037 247.38383 245.28528 243.11073
 240.89418 238.69064 236.50309 234.33454 232.18699 230.04644 228.06490 226.21435
 224.48980 222.95425 221.57671 220.34116 219.21561 218.16806 217.26452 216.39797
 215.63242 214.80487 213.89532 213.25178 212.69423 212.76436 212.93004 214.08694
 215.42690 216.59836 217.79539 218.89906 220.39297 223.11888 227.96275 232.21982
 235.74820 239.59550 243.29503 246.47467 249.02487 251.71637 254.79803 257.85532
 260.59521 263.13116 265.63034 268.13480 270.57523 272.85071 274.81519 276.61435
 278.38153 279.96713 281.37448 282.72568 283.90814 284.95963 285.92160 286.80466
 287.61404 288.33438 288.95514 289.79175
 366.78100 356.32761 345.75222 334.61083 323.00643 311.19304 299.05565 286.85126
 274.55587 262.44548 250.44709 239.74069 229.85530 220.95191 213.12652 206.12113
 199.94774 194.87835 191.45295 189.48756 188.51717 188.57378 189.40139 190.70200
 192.41960 194.50721 196.76282 199.11443 201.55204 204.02465 206.10526 207.93986
 209.55847 210.69608 210.91769 211.13830 211.06791 210.76552 210.39112 210.01373
 209.62334 209.32595 209.12656 208.98317 208.90378 209.22738 209.60599 209.98760
 210.77321 211.94382 213.18643 214.96204 216.88264 218.91825 221.00586 223.08147
 225.13408 227.21069 229.30030 231.39890 233.52051 235.68512 237.93373 240.29634
 242.90995 245.15356 247.14816 248.90577 250.31538 251.43099 252.24560 252.55421
 252.58381 252.35042 251.70303 250.64364 249.24225 247.39586 245.29747 243.12307
 240.90668 238.70329 236.51590 234.34751 232.20012 230.05973 228.07833 226.22794
 224.50355 222.96816 221.59077 220.35538 219.22999 218.18259 217.27920 216.41281
 215.64742 214.82003 213.91064 213.26725 212.70985 212.79726 213.00375 214.23352
 215.42299 216.65909 217.96841 219.05722 220.53664 223.22627 227.92432 232.13564
 235.65712 239.48151 243.12561 246.24236 248.79994 251.48889 254.57225 257.64978
 260.45032 263.03189 265.54645 268.06558 270.51511 272.79434 274.79315 276.63416
 278.41867 280.00507 281.37918 282.72397 283.90494 284.95294 285.91226 286.79437
 287.60471 288.31784 288.93427 289.77161
 366.78100 356.32680 345.75060 334.60840 323.00319 311.18899 299.05079 286.84559
 274.54939 262.43819 250.43898 239.73178 229.84558 220.94138 213.11518 206.10898
 199.93478 194.86457 191.43837 189.47217 188.50097 188.55677 189.38357 190.68336
 192.40016 194.48696 196.74176 199.09256 201.52936 204.00116 206.08095 207.91475
 209.53255 210.66935 210.89015 211.10995 211.03874 210.73554 210.36034 209.98214
 209.59094 209.29274 209.09253 208.94833 208.86813 209.19093 209.56873 209.94953
 210.73433 211.90412 213.14592 214.92072 216.84052 218.87532 220.96212 223.03691
 225.08871 227.16451 229.25331 231.35111 233.47191 235.63571 237.88350 240.24530
 242.85810 245.10090 247.09470 248.85150 250.26029 251.37509 252.18889 252.49669
 252.52549 252.29129 251.64309 250.58288 249.18068 247.33348 245.23428 243.05908
 240.84188 238.63767 236.44947 234.28027 232.13207 229.99087 228.00867 226.15747
 224.43226 222.89606 221.51786 220.28166 219.15546 218.10726 217.20305 216.33585
 215.56965 214.74145 213.83125 213.18705 212.62885 212.77304 213.11374 214.40668
 215.44269 216.73260 218.04482 219.15894 220.69868 223.33218 227.91196 232.06902
 235.58038 239.36201 242.93802 245.99155 248.55276 251.24892 254.33876 257.44748
 260.31439 262.95224 265.49097 268.02161 270.48557 272.78500 274.81174 276.66394
 278.43344 280.00464 281.37943 282.72021 283.89807 284.94244 285.89987 286.78036
 287.59641 288.29935 288.91809 289.74988
 366.78100 356.32686 345.75071 334.60857 323.00343 311.18928 299.05114 286.84600
 274.54986 262.43871 250.43957 239.73243 229.84628 220.94214 213.11600 206.10985
 199.93571 194.86557 191.43942 189.47328 188.50214 188.55799 189.38485 190.68471
 192.40157 194.48842 196.74328 199.09414 201.53099 204.00285 206.08271 207.91656
 209.53442 210.67128 210.89213 211.11199 211.04085 210.73771 210.36256 209.98442
 209.59328 209.29513 209.09499 208.95085 208.87070 209.19356 209.57142 209.95227
 210.73713 211.90699 213.14884 214.92370 216.84356 218.87842 220.96527 223.04013
 225.09199 227.16784 229.25670 231.35456 233.47541 235.63927 237.88713 240.24898
 242.86184 245.10470 247.09855 248.85541 250.26427 251.37913 252.19298 252.50084
 252.52970 252.29555 251.64741 250.58727 249.18512 247.33798 245.23884 243.06369
 240.84655 238.64241 236.45427 234.28512 232.13698 229.99584 228.01369 226.16255
 224.43741 222.90126 221.52312 220.28698 219.16083 218.11269 217.20855 216.34140
 215.57526 214.74712 213.83698 213.19283 212.63469 212.79759 213.18245 214.53915
 215.53587 216.83713 218.10973 219.25148 220.86830 223.45914 227.92123 232.01468
 235.50694 239.23058 242.72102 245.69917 248.25319 250.97343 254.09041 257.24472
 260.18408 262.88876 265.46918 268.02106 270.49924 272.81210 274.85165 276.69626
 278.45071 280.01447 281.35205 282.69135 283.86917 284.91025 285.86514 286.74728
 287.55768 288.25677 288.87299 289.70120
 366.78100 356.32728 345.75156 334.60984 323.00513 311.19141 299.05369 286.84897
 274.55325 262.44253 250.44382 239.73710 229.85138 220.94766 213.12194 206.11622
 199.94250 194.87279 191.44707 189.48135 188.51063 188.56691 189.39419 190.69448
 192.41176 194.49904 196.75432 199.10560 201.54288 204.01516 206.09545 207.92973
 209.54801 210.68529 210.90657 211.12685 211.05614 210.75342 210.37870 210.00098
 209.61026 209.31254 209.11282 208.96911 208.88939 209.21267 209.59095 209.97223
 210.75751 211.92780 213.17008 214.94536 216.86564 218.90092 220.98820 223.06348
 225.11577 227.19205 229.28133 231.37961 233.50089 235.66517 237.91346 240.27574
 242.88902 245.13230 247.12658 248.88386 250.29315 251.40843 252.22271 252.53099
 252.56027 252.32655 251.67883 250.61912 249.21740 247.37068 245.27196 243.09724
 240.88052 238.67681 236.48909 234.32037 232.17265 230.03193 228.05021 226.19949
 224.47478 222.93906 221.56134 220.32562 219.19990 218.15218 217.24847 216.38175
 215.61603 214.78831 213.87859 213.23487 212.67715 212.84360 213.23682 214.64156
 215.65701 216.96930 218.22116 219.35249 221.01106 223.56303 227.92729 231.96228
 235.42741 239.08420 242.47591 245.37408 247.93030 250.69382 253.84865 257.05133
 260.05835 262.82809 265.45438 268.03290 270.51480 272.82632 274.87231 276.72647
 278.48248 280.05893 281.42575 282.61734 283.78189 284.83224 285.80377 286.68112
 287.46323 288.15439 288.76883 289.59601
 366.78100 356.32763 345.75226 334.61090 323.00653 311.19316 299.05579 286.85143
 274.55606 262.44569 250.44732 239.74095 229.85559 220.95222 213.12685 206.12148
 199.94812 194.87875 191.45338 189.48801 188.51764 188.57428 189.40191 190.70254
 192.42017 194.50780 196.76344 199.11507 201.55270 204.02533 206.10597 207.94060
 209.55923 210.69686 210.91849 211.13913 211.06876 210.76639 210.39202 210.01466
 209.62429 209.32692 209.12755 208.98418 208.90482 209.22845 209.60708 209.98871
 210.77435 211.94498 213.18761 214.96324 216.88387 218.91951 221.00714 223.08277
 225.13540 227.21203 229.30167 231.40030 233.52193 235.68656 237.93520 240.29783
 242.91146 245.15509 247.14972 248.90736 250.31699 251.43262 252.24725 252.55589
 252.58552 252.35215 251.70478 250.64541 249.24405 247.39768 245.29931 243.12494
 240.90858 238.70521 236.51784 234.34947 232.20210 230.06174 228.08037 226.23000
 224.50563 222.97027 221.59290 220.35753 219.23216 218.18479 217.28143 216.41506
 215.64969 214.82232 213.91295 213.26959 212.71222 212.88420 213.29054 214.73291
 215.79587 217.10745 218.33798 219.44983 221.15407 223.65068 227.93594 231.93051
 235.35121 238.93562 242.22015 245.03880 247.60532 250.42047 253.61674 256.86533
 259.93314 262.76538 265.44232 268.05215 270.53030 272.82953 274.87683 276.73840
 278.49835 280.07816 281.45837 282.65079 283.66104 284.69113 285.65799 286.53305
 287.31143 288.00427 288.62024 289.46027
 366.78100 356.32811 345.75323 334.61234 323.00845 311.19556 299.05868 286.85479
 274.55990 262.45002 250.45213 239.74624 229.86136 220.95847 213.13358 206.12869
 199.95581 194.88692 191.46203 189.49715 188.52726 188.58437 189.41249 190.71360
 192.43171 194.51982 196.77594 199.12805 201.56616 204.03928 206.12039 207.95550
 209.57462 210.71273 210.93484 211.15595 211.08607 210.78418 210.41029 210.03341
 209.64352 209.34663 209.14775 209.00486 208.92597 209.25008 209.62920 210.01131
 210.79742 211.96854 213.21165 214.98776 216.90888 218.94499 221.03310 223.10921
 225.16233 227.23944 229.32955 231.42867 233.55078 235.71589 237.96501 240.32812
 242.94223 245.18634 247.18146 248.93957 250.34968 251.46580 252.28091 252.59002
 252.62014 252.38725 251.74036 250.68147 249.28059 247.43470 245.33681 243.16293
 240.94704 238.74415 236.55727 234.38938 232.24249 230.10260 228.12172 226.27183
 224.54794 223.01306 221.63617 220.40128 219.27640 218.22951 217.32662 216.46073
 215.69585 214.86896 213.96007 213.31719 212.76030 212.93578 213.35037 214.72949
 215.96648 217.34047 218.45903 219.56253 221.31412 223.75224 227.95006 231.91933
 235.28528 238.78915 241.95584 244.68639 247.25639 250.12334 253.36581 256.65732
 259.78198 262.68613 265.42950 268.07022 270.54172 272.82507 274.87500 276.74930
 278.51535 280.09348 281.46692 282.65988 283.62457 284.62415 285.56393 286.41180
 287.16928 287.85641 288.47589 289.33560
 366.78100 356.33097 345.75894 334.62091 323.01989 311.20986 299.07583 286.87480
 274.58277 262.47574 250.48072 239.77769 229.89566 220.99563 213.17360 206.17157
 200.00155 194.93552 191.51349 189.55146 188.58443 188.64440 189.47537 190.77935
 192.50032 194.59129 196.85026 199.20523 201.64620 204.12218 206.20615 208.04412
 209.66609 210.80706 211.03203 211.25601 211.18898 210.88995 210.51892 210.14489
 209.75786 209.46383 209.26781 209.12778 209.05175 209.37872 209.76069 210.14566
 210.93464 212.10861 213.35458 215.13355 217.05752 219.09649 221.18747 223.26644
 225.32241 227.40238 229.49535 231.59732 233.72229 235.89027 238.14224 240.50821
 243.12518 245.37215 247.37012 249.13110 250.54407 251.66304 252.48101 252.79298
 252.82595 252.59593 251.95190 250.89587 249.49784 247.65481 245.55978 243.38875
 241.17573 238.97570 236.79167 234.62664 232.48261 230.34558 228.36756 226.52053
 224.79950 223.26747 221.89344 220.66141 219.53939 218.49536 217.59533 216.73230
 215.97027 215.14624 214.24021 213.60019 213.04616 213.11787 213.28734 214.71039
 216.11913 217.62897 218.70128 219.70163 221.50740 223.85072 227.98271 231.94859
 235.24269 238.64117 241.65269 244.26625 246.84116 249.77544 253.07747 256.42087
 259.61554 262.60553 265.41516 268.08173 270.54865 272.82352 274.88696 276.78244
 278.55377 280.12927 281.49631 282.67661 283.65549 284.64658 285.60657 286.22034
 286.96429 287.66248 288.29572 289.17438
 366.78100 356.33403 345.76506 334.63009 323.03212 311.22515 299.09418 286.89621
 274.60725 262.50328 250.51131 239.81134 229.93237 221.03540 213.21643 206.21746
 200.05049 194.98752 191.56855 189.60958 188.64561 188.70864 189.54267 190.84971
 192.57374 194.66777 196.92980 199.28783 201.73186 204.21089 206.29792 208.13895
 209.76398 210.90801 211.13604 211.36307 211.29910 211.00313 210.63517 210.26420
 209.88023 209.58926 209.39629 209.25932 209.18635 209.51638 209.90141 210.28944
 211.08147 212.25850 213.50753 215.28956 217.21659 219.25863 221.35266 223.43469
 225.49372 227.57675 229.67278 231.77781 233.90584 236.07687 238.33190 240.70093
 243.32096 245.57099 247.57202 249.33605 250.75208 251.87412 252.69515 253.01018
 253.04621 252.81924 252.17827 251.12530 249.73033 247.89036 245.79839 243.63042
 241.42045 239.22348 237.04251 234.88054 232.73958 230.60561 228.63064 226.78667
 225.06870 223.53973 222.16876 220.93979 219.82082 218.77985 217.88288 217.02291
 216.26394 215.44297 214.54000 213.90304 213.35207 213.31920 213.24152 214.63837
 216.25914 217.83792 218.89236 219.92294 221.71548 224.05817 228.05144 231.97476
 235.21362 238.49644 241.34155 243.83167 246.42065 249.43547 252.81346 256.22153
 259.48419 262.53690 265.38647 268.05856 270.51477 272.78494 274.87576 276.80759
 278.59979 280.18130 281.54846 282.72894 283.71799 284.64902 285.60068 286.13120
 286.87326 287.57065 288.20801 289.08981
 366.78100 356.33565 345.76829 334.63494 323.03858 311.23323 299.10388 286.90752
 274.62017 262.51781 250.52746 239.82911 229.95175 221.05640 213.23904 206.24169
 200.07634 195.01498 191.59763 189.64027 188.67792 188.74257 189.57821 190.88686
 192.61250 194.70815 196.97179 199.33144 201.77709 204.25773 206.34638 208.18902
 209.81567 210.96132 211.19096 211.41961 211.35725 211.06290 210.69655 210.32719
 209.94484 209.65548 209.46413 209.32878 209.25742 209.58907 209.97571 210.36536
 211.15901 212.33765 213.58830 215.37194 217.30059 219.34424 221.43988 223.52353
 225.58417 227.66882 229.76647 231.87311 234.00276 236.17540 238.43205 240.80270
 243.42434 245.67599 247.67863 249.44428 250.86192 251.98557 252.80822 253.12486
 253.16251 252.93715 252.29780 251.24645 249.85309 248.01474 245.92438 243.75803
 241.54968 239.35432 237.17497 235.01461 232.87526 230.74291 228.76955 226.92720
 225.21084 223.68349 222.31414 221.08678 219.96943 218.93007 218.03472 217.17637
 216.41901 215.59966 214.69830 214.06295 213.51360 213.43970 213.26511 214.64064
 216.34961 217.88741 219.05902 220.21013 221.91336 224.23677 228.10173 231.96849
 235.14285 238.31076 241.01657 243.42986 246.07652 249.18057 252.61769 256.06879
 259.37207 262.46405 265.33963 268.01428 270.46649 272.73694 274.85471 276.81830
 278.62979 280.21359 281.57376 282.74084 283.70456 284.59189 285.52789 286.09720
 286.84952 287.54828 288.18158 289.06042
 366.78100 356.33789 345.77278 334.64166 323.04755 311.24444 299.11733 286.92322
 274.63810 262.53799 250.54988 239.85377 229.97866 221.08554 213.27043 206.27532
 200.11221 195.05309 191.63798 189.68287 188.72276 188.78965 189.62753 190.93842
 192.66631 194.76420 197.03009 199.39197 201.83986 204.32275 206.41364 208.25853
 209.88741 211.03530 211.26719 211.49808 211.43797 211.14585 210.78174 210.41463
 210.03452 209.74741 209.55829 209.42518 209.35607 209.68996 210.07884 210.47073
 211.26662 212.44751 213.70040 215.48628 217.41717 219.46306 221.56095 223.64684
 225.70972 227.79661 229.89650 232.00539 234.13728 236.31216 238.57105 240.94394
 243.56783 245.82172 247.82660 249.59449 251.01438 252.14027 252.96516 253.28404
 253.32393 253.10082 252.46371 251.41459 250.02348 248.18737 246.09926 243.93515
 241.72903 239.53592 237.35881 235.20070 233.06359 230.93347 228.96236 227.12225
 225.40814 223.88303 222.51591 221.29080 220.17569 219.13858 218.24547 217.38935
 216.63424 215.81713 214.91802 214.28491 213.73779 213.58487 213.22353 214.73912
 216.48051 217.91724 219.20158 220.41705 222.05148 224.38159 228.17964 231.95792
 235.04633 238.10242 240.69421 243.05861 245.76509 248.94772 252.42200 255.90781
 259.25546 262.39087 265.29575 267.97220 270.41177 272.67087 274.79718 276.77747
 278.59805 280.18106 281.53619 282.68253 283.60007 284.51300 285.45535 286.02481
 286.78088 287.47928 288.11194 288.98730
 366.78100 356.33911 345.77523 334.64534 323.05246 311.25057 299.12468 286.93180
 274.64791 262.54902 250.56214 239.86725 229.99337 221.10148 213.28759 206.29371
 200.13182 195.07393 191.66005 189.70616 188.74728 188.81539 189.65450 190.96662
 192.69573 194.79485 197.06196 199.42507 201.87419 204.35830 206.45041 208.29653
 209.92664 211.07576 211.30887 211.54098 211.48210 211.19121 210.82833 210.46244
 210.08355 209.79767 209.60978 209.47789 209.41001 209.74512 210.13524 210.52835
 211.32546 212.50758 213.76169 215.54880 217.48092 219.52803 221.62715 223.71426
 225.77837 227.86649 229.96760 232.07772 234.21083 236.38694 238.64706 241.02117
 243.64628 245.90140 247.90751 249.67663 251.09774 252.22485 253.05097 253.37108
 253.41220 253.19031 252.55442 251.50654 250.11665 248.28176 246.19488 244.03199
 241.82711 239.63522 237.45933 235.30245 233.16656 231.03767 229.06779 227.22890
 225.51602 223.99213 222.62624 221.40236 220.28847 219.25259 218.36070 217.50581
 216.75193 215.93604 215.03815 214.40627 213.86038 213.67564 213.23918 214.78241
 216.63545 218.08015 219.31412 220.49947 222.10005 224.50705 228.29506 231.94884
 234.96521 237.93132 240.42412 242.72844 245.45407 248.68698 252.20969 255.74628
 259.14517 262.32690 265.25470 267.92041 270.33099 272.57108 274.70392 276.70285
 278.53821 280.12997 281.49454 282.66824 283.62405 284.55170 285.42120 285.96130
 286.65503 287.34909 287.97736 288.85431
 366.78100 356.33892 345.77484 334.64477 323.05169 311.24961 299.12353 286.93045
 274.64638 262.54730 250.56022 239.86514 229.99106 221.09899 213.28491 206.29083
 200.12875 195.07067 191.65660 189.70252 188.74344 188.81136 189.65028 190.96221
 192.69113 194.79005 197.05697 199.41989 201.86882 204.35274 206.44466 208.29058
 209.92050 211.06943 211.30235 211.53427 211.47519 211.18411 210.82104 210.45496
 210.07588 209.78980 209.60172 209.46965 209.40157 209.73649 210.12641 210.51933
 211.31626 212.49818 213.75210 215.53902 217.47094 219.51787 221.61679 223.70371
 225.76763 227.85556 229.95648 232.06640 234.19932 236.37524 238.63517 241.00909
 243.63401 245.88893 247.89485 249.66378 251.08470 252.21162 253.03754 253.35746
 253.39839 253.17631 252.54023 251.49215 250.10207 248.26700 246.17992 244.01684
 241.81176 239.61968 237.44361 235.28653 233.15045 231.02137 229.05129 227.21222
 225.49914 223.97506 222.60898 221.38490 220.27083 219.23475 218.34267 217.48759
 216.73351 215.91744 215.01936 214.38728 213.84120 213.68642 213.32069 214.84328
 216.76311 218.24919 219.42508 220.61389 222.18329 224.61871 228.38274 231.81668
 234.87033 237.73164 240.13040 242.37793 245.11568 248.41916 252.01350 255.61662
 259.07434 262.28647 265.21118 267.84760 270.22455 272.45688 274.61545 276.64249
 278.48672 280.08087 281.43689 282.63428 283.76337 284.69864 285.39514 285.91248
 286.50357 287.19095 287.81601 288.68674
 366.78100 356.33882 345.77464 334.64447 323.05129 311.24911 299.12293 286.92975
 274.64558 262.54640 250.55922 239.86404 229.98986 221.09769 213.28351 206.28933
 200.12715 195.06898 191.65480 189.70062 188.74144 188.80926 189.64809 190.95991
 192.68873 194.78755 197.05437 199.41720 201.86602 204.34984 206.44166 208.28748
 209.91731 211.06613 211.29895 211.53077 211.47159 211.18042 210.81724 210.45106
 210.07188 209.78570 209.59753 209.46535 209.39717 209.73199 210.12182 210.51464
 211.31146 212.49328 213.74710 215.53393 217.46575 219.51257 221.61139 223.69821
 225.76204 227.84986 229.95068 232.06050 234.19332 236.36915 238.62897 241.00279
 243.62761 245.88243 247.88826 249.65708 251.07790 252.20472 253.03055 253.35037
 253.39119 253.16901 252.53283 251.48466 250.09448 248.25930 246.17212 244.00894
 241.80377 239.61159 237.43541 235.27823 233.14205 231.01288 229.04270 227.20352
 225.49034 223.96616 222.59999 221.37581 220.26163 219.22545 218.33327 217.47810
 216.72392 215.90774 215.00956 214.37739 213.83121 213.69901 213.38666 214.95410
 216.88910 218.31122 219.53311 220.75052 222.30244 224.72772 228.46368 231.76852
 234.78845 237.52397 239.80466 241.98166 244.74754 248.15036 251.84737 255.50192
 258.96378 262.17892 265.12561 267.78888 270.19034 272.42517 274.56387 276.56064
 278.38675 279.97266 281.31931 282.53796 283.76938 284.77115 285.39355 285.88974
 286.33823 287.00082 287.61380 288.47357
 366.78100 356.33885 345.77470 334.64455 323.05140 311.24925 299.12310 286.92995
 274.64580 262.54665 250.55950 239.86435 229.99020 221.09805 213.28390 206.28975
 200.12760 195.06944 191.65529 189.70114 188.74199 188.80984 189.64869 190.96054
 192.68939 194.78824 197.05509 199.41794 201.86679 204.35064 206.44249 208.28834
 209.91819 211.06704 211.29989 211.53174 211.47259 211.18144 210.81829 210.45214
 210.07299 209.78684 209.59869 209.46654 209.39839 209.73324 210.12309 210.51594
 211.31279 212.49463 213.74848 215.53533 217.46718 219.51403 221.61288 223.69973
 225.76358 227.85143 229.95228 232.06213 234.19498 236.37083 238.63068 241.00453
 243.62938 245.88423 247.89008 249.65893 251.07978 252.20663 253.03248 253.35233
 253.39318 253.17103 252.53488 251.48673 250.09658 248.26143 246.17428 244.01113
 241.80598 239.61382 237.43767 235.28052 233.14437 231.01522 229.04507 227.20592
 225.49277 223.96862 222.60247 221.37832 220.26417 219.22802 218.33587 217.48072
 216.72657 215.91042 215.01227 214.38012 213.83397 213.71768 213.44292 215.13651
 216.91226 218.27579 219.57503 220.80524 222.47363 224.94791 228.62921 231.85312
 234.82420 237.46146 239.58539 241.63441 244.39622 247.90236 251.68488 255.34366
 258.81778 262.08273 265.08395 267.78207 270.17911 272.36340 274.44333 276.41302
 278.21671 279.78751 281.17084 282.48813 283.72433 284.69989 285.32956 285.82950
 286.33090 286.92502 287.52963 288.41727
 366.78100 356.33766 345.77232 334.64097 323.04663 311.24329 299.11595 286.92161
 274.63627 262.53592 250.54758 239.85124 229.97590 221.08256 213.26721 206.27187
 200.10853 195.04919 191.63385 189.67850 188.71816 188.78482 189.62248 190.93314
 192.66080 194.75845 197.02411 199.38577 201.83343 204.31609 206.40674 208.25140
 209.88006 211.02772 211.25938 211.49003 211.42969 211.13735 210.77301 210.40567
 210.02533 209.73798 209.54864 209.41530 209.34596 209.67962 210.06827 210.45993
 211.25559 212.43625 213.68891 215.47456 217.40522 219.45088 221.54854 223.63420
 225.69686 227.78351 229.88317 231.99183 234.12349 236.29815 238.55680 240.92946
 243.55312 245.80678 247.81144 249.57909 250.99875 252.12441 252.94907 253.26773
 253.30739 253.08404 252.44670 251.39736 250.00602 248.16968 246.08133 243.91699
 241.71065 239.51731 237.33997 235.18162 233.04428 230.91394 228.94260 227.10226
 225.38792 223.86257 222.49523 221.26989 220.15455 219.11721 218.22386 217.36752
 216.61218 215.79484 214.89550 214.26216 213.71481 213.67091 213.57059 215.35866
 216.68990 218.20760 219.66451 220.94174 222.69498 225.12202 228.71396 231.89134
 234.90236 237.43427 239.40616 241.28828 244.02304 247.67239 251.44492 255.13914
 258.70114 262.03232 265.05713 267.74176 270.10788 272.26703 274.32690 276.26447
 278.03168 279.61655 281.05093 282.37091 283.52927 284.46976 285.20035 285.83508
 286.50076 287.20514 287.86334 288.70218
 366.78100 356.33664 345.77029 334.63793 323.04257 311.23821 299.10986 286.91450
 274.62814 262.52678 250.53743 239.84007 229.96371 221.06935 213.25300 206.25664
 200.09228 195.03192 191.61557 189.65921 188.69785 188.76349 189.60014 190.90978
 192.63642 194.73306 196.99771 199.35835 201.80499 204.28663 206.37628 208.21992
 209.84756 210.99420 211.22485 211.45449 211.39313 211.09977 210.73442 210.36606
 209.98470 209.69634 209.50599 209.37163 209.30127 209.63391 210.02156 210.41220
 211.20684 212.38648 213.63813 215.42277 217.35241 219.39705 221.49370 223.57834
 225.63998 227.72562 229.82427 231.93191 234.06255 236.23619 238.49384 240.86548
 243.48812 245.74076 247.74441 249.51105 250.92969 252.05433 252.87798 253.19562
 253.23426 253.00990 252.37155 251.32119 249.92883 248.09147 246.00212 243.83676
 241.62940 239.43504 237.25669 235.09733 232.95897 230.82761 228.85526 227.01390
 225.29854 223.77218 222.40383 221.17747 220.06111 219.02275 218.12840 217.27104
 216.51468 215.69632 214.79597 214.16161 213.61325 213.63638 213.72885 215.46915
 216.58398 218.05319 219.91205 221.33495 222.93050 225.14894 228.66585 231.82472
 234.83070 237.24269 239.13222 240.93767 243.69376 247.42569 251.27573 255.05856
 258.65454 261.98160 264.97391 267.61002 269.94867 272.12170 274.21359 276.18411
 277.95865 279.51944 280.90433 282.18634 283.35370 284.41385 285.39151 286.26587
 287.07932 287.82010 288.46722 289.29193
 366.78100 356.33684 345.77069 334.63853 323.04338 311.23922 299.11107 286.91591
 274.62976 262.52860 250.53945 239.84229 229.96613 221.07198 213.25582 206.25967
 200.09551 195.03536 191.61920 189.66305 188.70189 188.76774 189.60458 190.91442
 192.64127 194.73811 197.00296 199.36380 201.81065 204.29249 206.38234 208.22618
 209.85403 211.00087 211.23171 211.46156 211.40040 211.10725 210.74209 210.37394
 209.99278 209.70463 209.51447 209.38031 209.31016 209.64300 210.03085 210.42169
 211.21654 212.39638 213.64823 215.43307 217.36292 219.40776 221.50460 223.58945
 225.65129 227.73714 229.83598 231.94383 234.07467 236.24852 238.50636 240.87821
 243.50105 245.75389 247.75774 249.52458 250.94343 252.06827 252.89212 253.20996
 253.24881 253.02465 252.38650 251.33634 249.94418 248.10703 246.01787 243.85272
 241.64556 239.45141 237.27325 235.11410 232.97594 230.84479 228.87263 227.03147
 225.31632 223.79016 222.42201 221.19585 220.07970 219.04154 218.14739 217.29023
 216.53408 215.71592 214.81576 214.18161 213.63345 213.67621 213.80437 215.34532
 216.89143 218.13020 220.13744 221.67322 223.12764 225.16696 228.59915 231.72426
 234.53888 236.82063 238.70076 240.64517 243.49124 247.27513 251.20711 255.02029
 258.60913 261.91193 264.88354 267.51883 269.87210 272.05188 274.14163 276.10657
 277.88074 279.43524 280.78247 281.96057 283.05142 284.10260 285.08038 285.95627
 286.77722 287.54141 288.20901 289.05978
 366.78100 356.33808 345.77316 334.64224 323.04833 311.24541 299.11849 286.92457
 274.63965 262.53973 250.55181 239.85590 229.98098 221.08806 213.27314 206.27822
 200.11530 195.05638 191.64147 189.68655 188.72663 188.79371 189.63179 190.94287
 192.67095 194.76904 197.03512 199.39720 201.84528 204.32836 206.41944 208.26452
 209.89361 211.04169 211.27377 211.50485 211.44493 211.15301 210.78909 210.42218
 210.04226 209.75534 209.56642 209.43350 209.36458 209.69866 210.08774 210.47983
 211.27591 212.45699 213.71007 215.49615 217.42723 219.47331 221.57140 223.65748
 225.72056 227.80764 229.90772 232.01680 234.14888 236.32397 238.58305 240.95613
 243.58021 245.83429 247.83937 249.60745 251.02754 252.15362 252.97870 253.29778
 253.33786 253.11494 252.47802 251.42911 250.03819 248.20227 246.11435 243.95043
 241.74451 239.55159 237.37468 235.21676 233.07984 230.94992 228.97900 227.13908
 225.42516 223.90025 222.53333 221.30841 220.19349 219.15657 218.26365 217.40773
 216.65282 215.83590 214.93698 214.30406 213.75714 213.76738 213.79158 215.21352
 217.30170 218.48051 220.26114 221.79344 223.26053 225.24493 228.57768 231.69460
 234.30312 236.47771 238.28214 240.36966 243.39676 247.20271 251.16371 254.98473
 258.56433 261.85019 264.80878 267.44315 269.78391 271.94547 274.01544 275.96054
 277.74435 279.31213 280.68259 281.85391 282.85873 283.86304 284.82498 285.49109
 286.16772 286.87000 287.52509 288.36459
 366.78100 356.34032 345.77765 334.64897 323.05729 311.25661 299.13194 286.94026
 274.65758 262.55990 250.57423 239.88055 230.00787 221.11719 213.30452 206.31184
 200.15116 195.09448 191.68181 189.72913 188.77145 188.84078 189.68110 190.99442
 192.72474 194.82507 197.09339 199.45771 201.90803 204.39336 206.48668 208.33400
 209.96532 211.11565 211.34997 211.58329 211.52561 211.23594 210.87426 210.50958
 210.13190 209.84723 209.66055 209.52987 209.46320 209.79952 210.19084 210.58516
 211.38349 212.56681 213.82213 215.61045 217.54378 219.59210 221.69242 223.78074
 225.84607 227.93539 230.03771 232.14903 234.28336 236.46068 238.72200 241.09733
 243.72365 245.97997 247.98729 249.75762 251.17994 252.30826 253.13558 253.45691
 253.49923 253.27855 252.64387 251.59720 250.20852 248.37484 246.28916 244.12749
 241.92381 239.73313 237.55846 235.40278 233.26810 231.14042 229.17175 227.33407
 225.62239 224.09971 222.73504 221.51236 220.39968 219.36500 218.47433 217.62065
 216.86797 216.05329 215.15662 214.52594 213.98126 213.90620 213.72888 215.25899
 217.54417 218.74599 220.41164 221.92133 223.33612 225.30789 228.56270 231.67665
 234.15329 236.20683 237.90439 240.02809 243.22751 247.12228 251.11438 254.95139
 258.52716 261.79892 264.74362 267.36108 269.66843 271.80289 273.85373 275.79071
 277.58792 279.16684 280.54788 281.74329 282.78992 283.83289 284.82425 285.48068
 286.06992 286.75226 287.36725 288.19745
 366.78100 356.34217 345.78133 334.65450 323.06467 311.26583 299.14300 286.95317
 274.67233 262.57650 250.59267 239.90083 230.03000 221.14117 213.33033 206.33950
 200.18067 195.12583 191.71500 189.76417 188.80833 188.87950 189.72167 191.03683
 192.76900 194.87117 197.14133 199.50750 201.95967 204.44683 206.54200 208.39117
 210.02433 211.17650 211.41267 211.64783 211.59200 211.30417 210.94433 210.58150
 210.20567 209.92283 209.73800 209.60917 209.54433 209.88250 210.27567 210.67183
 211.47200 212.65717 213.91433 215.70450 217.63967 219.68983 221.79200 223.88217
 225.94933 228.04050 230.14467 232.25783 234.39400 236.57317 238.83633 241.21350
 243.84167 246.09983 248.10900 249.88117 251.30533 252.43550 253.26467 253.58783
 253.63200 253.41317 252.78033 251.73550 250.34867 248.51683 246.43300 244.27317
 242.07133 239.88250 237.70967 235.55583 233.42300 231.29716 229.33033 227.49450
 225.78466 224.26383 222.90100 221.68016 220.56933 219.53650 218.64766 217.79583
 217.04500 216.23216 215.33733 214.70850 214.16566 214.02652 213.69777 215.29608
 217.76700 218.87720 220.48135 222.09468 223.50739 225.41275 228.54842 231.61212
 233.96681 235.87071 237.51788 239.70488 243.03786 247.01105 251.04337 254.91444
 258.50287 261.76352 264.68710 267.28122 269.55670 271.65961 273.68445 275.61703
 277.42065 279.00970 280.40271 281.62375 282.72708 283.77200 284.75546 285.63400
 286.29813 286.93921 287.54166 288.34842
 366.78100 356.34225 345.78149 334.65474 323.06499 311.26624 299.14348 286.95373
 274.67298 262.57723 250.59347 239.90172 230.03097 221.14222 213.33146 206.34071
 200.18196 195.12721 191.71645 189.76570 188.80995 188.88119 189.72344 191.03869
 192.77094 194.87318 197.14343 199.50968 201.96193 204.44917 206.54442 208.39367
 210.02692 211.17916 211.41541 211.65066 211.59491 211.30715 210.94740 210.58465
 210.20889 209.92614 209.74139 209.61264 209.54788 209.88613 210.27938 210.67563
 211.47587 212.66112 213.91837 215.70862 217.64386 219.69411 221.79636 223.88661
 225.95385 228.04510 230.14935 232.26259 234.39884 236.57809 238.84134 241.21858
 243.84683 246.10508 248.11433 249.88657 251.31082 252.44107 253.27032 253.59356
 253.63781 253.41906 252.78631 251.74155 250.35480 248.52305 246.43929 244.27954
 242.07779 239.88904 237.71628 235.56253 233.42978 231.30403 229.33727 227.50152
 225.79177 224.27102 222.90826 221.68751 220.57676 219.54401 218.65525 217.80350
 217.05275 216.23999 215.34524 214.71649 214.17374 214.05766 213.78345 215.30385
 217.79585 219.11305 220.68541 222.26303 223.64653 225.51979 228.56061 231.53662
 233.75375 235.51529 237.15150 239.43977 242.86710 246.88620 250.96028 254.86653
 258.46677 261.71686 264.62549 267.20483 269.45679 271.52631 273.52081 275.44455
 277.25629 278.85605 280.26718 281.54694 282.71899 283.76865 284.74606 285.62469
 286.40009 287.07364 287.67273 288.46747
 366.78100 356.34168 345.78036 334.65305 323.06273 311.26341 299.14009 286.94978
 274.66846 262.57214 250.58782 239.89551 230.02419 221.13487 213.32355 206.33224
 200.17292 195.11760 191.70628 189.75497 188.79865 188.86933 189.71101 191.02570
 192.75738 194.85906 197.12874 199.49443 201.94611 204.43279 206.52747 208.37616
 210.00884 211.16052 211.39620 211.63089 211.57457 211.28625 210.92593 210.56262
 210.18630 209.90298 209.71766 209.58835 209.52303 209.86071 210.25339 210.64908
 211.44876 212.63344 213.89012 215.67981 217.61449 219.66417 221.76585 223.85554
 225.92222 228.01290 230.11658 232.22927 234.36495 236.54363 238.80631 241.18300
 243.81068 246.06836 248.07704 249.84873 251.27241 252.40209 253.23077 253.55346
 253.59714 253.37782 252.74450 251.69919 250.31187 248.47955 246.39523 244.23492
 242.03260 239.84328 237.66996 235.51565 233.38233 231.25601 229.28869 227.45238
 225.74206 224.22074 222.85742 221.63611 220.52479 219.49147 218.60215 217.74984
 216.99852 216.18520 215.28988 214.66057 214.11725 214.05258 213.89981 215.35156
 217.75153 219.29025 220.92580 222.43205 223.77182 225.63557 228.60820 231.48413
 233.54906 235.15752 236.77748 239.18344 242.70563 246.76846 250.87823 254.81026
 258.41846 261.66058 264.55368 267.11761 269.34329 271.38098 273.35019 275.26712
 277.07230 278.68820 280.21353 281.57611 282.75833 283.81406 284.79526 285.67871
 286.46252 287.14822 287.74930 288.54251
 366.78100 356.34102 345.77904 334.65107 323.06009 311.26011 299.13613 286.94516
 274.66318 262.56620 250.58122 239.88824 230.01627 221.12629 213.31431 206.32233
 200.16236 195.10638 191.69440 189.74242 188.78544 188.85547 189.69649 191.01051
 192.74153 194.84256 197.11158 199.47660 201.92762 204.41364 206.50767 208.35569
 209.98771 211.13873 211.37376 211.60778 211.55080 211.26182 210.90085 210.53687
 210.15989 209.87591 209.68993 209.55996 209.49398 209.83100 210.22302 210.61805
 211.41707 212.60109 213.85711 215.64613 217.58016 219.62918 221.73020 223.81922
 225.88525 227.97527 230.07829 232.19031 234.32533 236.50336 238.76538 241.14140
 243.76842 246.02545 248.03347 249.80449 251.22751 252.35653 253.18456 253.50658
 253.54960 253.32962 252.69565 251.64967 250.26169 248.42871 246.34373 244.18276
 241.97978 239.78980 237.61582 235.46085 233.32687 231.19989 229.23191 227.39493
 225.68396 224.16198 222.79800 221.57602 220.46405 219.43007 218.54009 217.68711
 216.93513 216.12116 215.22518 214.59520 214.05122 214.04059 214.01546 215.40869
 217.71132 219.42496 221.13617 222.59885 223.91228 225.77982 228.69189 231.44298
 233.34329 234.79033 236.39415 238.92996 242.55421 246.66255 250.79556 254.74232
 258.35510 261.59369 264.48697 267.05621 269.27191 271.27090 273.19427 275.09735
 276.93109 278.60013 280.12378 281.48032 282.65451 283.69742 284.64951 285.53064
 286.34927 287.05826 287.66678 288.47263
 366.78100 356.34033 345.77766 334.64899 323.05732 311.25665 299.13198 286.94031
 274.65764 262.55997 250.57430 239.88063 230.00796 221.11729 213.30462 206.31195
 200.15128 195.09461 191.68194 189.72927 188.77160 188.84093 189.68126 190.99459
 192.72492 194.82525 197.09358 199.45791 201.90824 204.39357 206.48690 208.33423
 209.96556 211.11589 211.35022 211.58355 211.52588 211.23621 210.87454 210.50987
 210.13220 209.84753 209.66086 209.53019 209.46352 209.79985 210.19118 210.58551
 211.38384 212.56717 213.82250 215.61084 217.54417 219.59250 221.69283 223.78116
 225.84649 227.93582 230.03815 232.14948 234.28381 236.46114 238.72247 241.09780
 243.72413 245.98046 247.98779 249.75812 251.18045 252.30878 253.13611 253.45744
 253.49977 253.27910 252.64443 251.59776 250.20909 248.37542 246.28975 244.12808
 241.92441 239.73374 237.55907 235.40340 233.26873 231.14106 229.17239 227.33472
 225.62305 224.10038 222.73571 221.51304 220.40037 219.36570 218.47503 217.62136
 216.86869 216.05402 215.15735 214.52668 213.98201 214.02722 214.13405 215.45871
 217.68239 219.54121 221.30815 222.76671 224.06786 225.93170 228.78827 231.39952
 233.12636 234.42155 236.03072 238.70189 242.42226 246.56709 250.71275 254.66592
 258.27618 261.50842 264.40173 266.97607 269.18030 271.15320 273.06061 274.96872
 276.82248 278.52792 280.07062 281.43439 282.61578 283.66266 284.62064 285.50320
 286.31540 287.03888 287.65051 288.45319
 366.78100 356.33996 345.77692 334.64788 323.05584 311.25480 299.12975 286.93771
 274.65467 262.55663 250.57059 239.87655 230.00351 221.11247 213.29943 206.30639
 200.14534 195.08830 191.67526 189.72222 188.76418 188.83314 189.67310 190.98606
 192.71602 194.81598 197.08393 199.44789 201.89785 204.38281 206.47577 208.32273
 209.95369 211.10365 211.33761 211.57057 211.51252 211.22248 210.86044 210.49540
 210.11736 209.83232 209.64528 209.51424 209.44720 209.78316 210.17411 210.56807
 211.36603 212.54899 213.80395 215.59191 217.52487 219.57283 221.67279 223.76075
 225.82570 227.91466 230.01662 232.12758 234.26154 236.43850 238.69946 241.07442
 243.70038 245.95634 247.96329 249.73325 251.15521 252.28317 253.11013 253.43109
 253.47305 253.25201 252.61697 251.56993 250.18088 248.34684 246.26080 244.09876
 241.89472 239.70368 237.52864 235.37260 233.23756 231.10952 229.14047 227.30243
 225.59039 224.06735 222.70231 221.47927 220.36623 219.33119 218.44015 217.58611
 216.83306 216.01802 215.12098 214.48994 213.94490 214.03291 214.24084 215.50626
 217.66408 219.64641 221.45506 222.93008 224.22832 226.06194 228.86644 231.35838
 232.91418 234.07138 235.70551 238.50984 242.31088 246.48135 250.63612 254.59073
 258.19254 261.41162 264.29922 266.87350 269.07626 271.05359 272.97348 274.88516
 276.73315 278.46548 280.01306 281.37814 282.56229 283.61224 284.57315 285.45441
 286.26193 286.98810 287.60294 288.41562
 366.78100 356.33986 345.77672 334.64758 323.05544 311.25430 299.12916 286.93702
 274.65387 262.55573 250.56959 239.87545 230.00231 221.11117 213.29803 206.30489
 200.14375 195.08661 191.67347 189.72033 188.76219 188.83105 189.67091 190.98377
 192.71362 194.81348 197.08134 199.44520 201.89506 204.37992 206.47278 208.31964
 209.95050 211.10036 211.33422 211.56708 211.50894 211.21880 210.85666 210.49152
 210.11337 209.82823 209.64109 209.50995 209.44281 209.77867 210.16953 210.56339
 211.36125 212.54411 213.79897 215.58683 217.51969 219.56755 221.66741 223.75527
 225.82012 227.90898 230.01084 232.12170 234.25556 236.43242 238.69328 241.06814
 243.69400 245.94986 247.95672 249.72658 251.14844 252.27630 253.10316 253.42401
 253.46587 253.24473 252.60959 251.56245 250.17331 248.33917 246.25303 244.09089
 241.88675 239.69561 237.52047 235.36433 233.22919 231.10105 229.13191 227.29376
 225.58162 224.05848 222.69334 221.47020 220.35706 219.32192 218.43078 217.57664
 216.82350 216.00836 215.11122 214.48008 213.93494 214.05457 214.33719 215.55402
 217.66119 219.74083 221.59036 223.09196 224.39421 226.16342 228.91188 231.31882
 232.71588 233.74199 235.40858 238.34218 242.21149 246.40460 250.56906 254.52254
 258.11191 261.31238 264.18866 266.76498 268.98120 270.95303 272.82541 274.74585
 276.68936 278.42859 279.97556 281.34274 282.52826 283.57974 284.54285 285.42392
 286.22711 286.94788 287.57672 288.38480
 366.78100 356.33957 345.77615 334.64672 323.05430 311.25287 299.12745 286.93502
 274.65159 262.55317 250.56674 239.87232 229.99889 221.10747 213.29404 206.30061
 200.13919 195.08176 191.66834 189.71491 188.75649 188.82506 189.66464 190.97721
 192.70678 194.80636 197.07393 199.43751 201.88708 204.37166 206.46423 208.31080
 209.94138 211.09095 211.32453 211.55710 211.49868 211.20825 210.84582 210.48040
 210.10197 209.81655 209.62912 209.49770 209.43027 209.76584 210.15642 210.54999
 211.34757 212.53014 213.78472 215.57229 217.50487 219.55244 221.65201 223.73959
 225.80416 227.89274 229.99431 232.10489 234.23846 236.41503 238.67561 241.05018
 243.67576 245.93133 247.93791 249.70748 251.12905 252.25663 253.08320 253.40378
 253.44535 253.22393 252.58850 251.54107 250.15165 248.31722 246.23080 244.06837
 241.86395 239.67252 237.49710 235.34067 233.20524 231.07682 229.10739 227.26897
 225.55654 224.03312 222.66769 221.44426 220.33084 219.29541 218.40399 217.54956
 216.79614 215.98071 215.08328 214.45186 213.90643 214.06509 214.43996 215.60649
 217.66481 219.80666 221.71317 223.25629 224.57101 226.25606 228.93857 231.28004
 232.53508 233.43628 235.13379 238.18867 242.11960 246.33235 250.50243 254.45177
 258.02832 261.21558 264.08997 266.66534 268.83768 270.72467 272.77982 274.74228
 276.66364 278.38470 279.93112 281.29919 282.48468 283.53610 284.50000 285.37961
 286.17981 286.89774 287.52722 288.36139
 366.78100 356.33900 345.77500 334.64501 323.05201 311.25001 299.12401 286.93101
 274.64701 262.54802 250.56102 239.86602 229.99202 221.10002 213.28602 206.29203
 200.13003 195.07203 191.65803 189.70403 188.74503 188.81304 189.65204 190.96404
 192.69304 194.79204 197.05904 199.42205 201.87105 204.35505 206.44705 208.29305
 209.92305 211.07206 211.30506 211.53706 211.47806 211.18706 210.82406 210.45807
 210.07907 209.79307 209.60507 209.47307 209.40507 209.74008 210.13008 210.52308
 211.32008 212.50208 213.75608 215.54309 217.47509 219.52209 221.62109 223.70809
 225.77209 227.86010 229.96110 232.07110 234.20410 236.38010 238.64010 241.01411
 243.63911 245.89411 247.90011 249.66911 251.09011 252.21712 253.04312 253.36312
 253.40412 253.18212 252.54612 251.49813 250.10813 248.27313 246.18613 244.02313
 241.81813 239.62614 237.45014 235.29314 233.15714 231.02814 229.05814 227.21915
 225.50615 223.98215 222.61615 221.39215 220.27815 219.24216 218.35016 217.49516
 216.74116 215.92516 215.02716 214.39517 213.84917 214.05936 214.55597 215.67432
 217.66446 219.83324 221.81308 223.40492 224.73511 226.33955 228.95499 231.23450
 232.37256 233.17586 234.90369 238.06085 242.04520 246.27049 250.43771 254.37790
 257.94034 261.11823 263.99295 266.56134 268.69687 270.56976 272.79083 274.64148
 276.63000 278.33649 279.87766 281.24399 282.42889 283.47989 284.44180 285.32358
 286.12311 286.84180 287.47174 288.30957
 366.78100 356.33832 345.77363 334.64295 323.04926 311.24658 299.11990 286.92621
 274.64153 262.54184 250.55416 239.85848 229.98379 221.09111 213.27643 206.28174
 200.11906 195.06037 191.64569 189.69101 188.73132 188.79864 189.63695 190.94827
 192.67659 194.77490 197.04122 199.40353 201.85185 204.33517 206.42648 208.27180
 209.90111 211.04943 211.28175 211.51306 211.45338 211.16170 210.79801 210.43133
 210.05164 209.76496 209.57628 209.44359 209.37491 209.70922 210.09854 210.49086
 211.28717 212.46849 213.72180 215.50812 217.43944 219.48575 221.58407 223.67039
 225.73370 227.82102 229.92133 232.03065 234.16297 236.33828 238.59760 240.97091
 243.59523 245.84955 247.85486 249.62318 251.04349 252.16981 252.99513 253.31444
 253.35476 253.13207 252.49539 251.44671 250.05602 248.22034 246.13266 243.96897
 241.76329 239.57060 237.39392 235.23624 233.09955 230.96987 228.99918 227.15950
 225.44582 223.92113 222.55445 221.32976 220.21508 219.17840 218.28571 217.43003
 216.67534 215.85866 214.95998 214.32729 213.78061 214.04758 214.67833 215.74968
 217.66463 219.84804 221.89807 223.53400 224.88484 226.42123 228.96010 231.16101
 232.19582 232.92616 234.69223 237.94635 241.98515 246.22289 250.38452 254.31381
 257.86758 261.04739 263.93695 266.51419 268.60941 270.40863 272.68741 274.58002
 276.55356 278.28363 279.82809 281.19455 282.37833 283.42816 284.39120 285.27283
 286.07431 286.79559 287.42358 288.24185
 366.78100 356.33725 345.77150 334.63975 323.04500 311.24125 299.11350 286.91875
 274.63300 262.53225 250.54350 239.84675 229.97100 221.07725 213.26150 206.26575
 200.10200 195.04225 191.62650 189.67075 188.71000 188.77625 189.61350 190.92375
 192.65100 194.74825 197.01350 199.37475 201.82200 204.30425 206.39450 208.23875
 209.86700 211.01425 211.24550 211.47575 211.41500 211.12225 210.75750 210.38975
 210.00900 209.72125 209.53150 209.39775 209.32800 209.66125 210.04950 210.44075
 211.23600 212.41625 213.66850 215.45375 217.38400 219.42925 221.52650 223.61175
 225.67400 227.76025 229.85950 231.96775 234.09900 236.27325 238.53150 240.90375
 243.52700 245.78025 247.78450 249.55175 250.97100 252.09625 252.92050 253.23875
 253.27800 253.05425 252.41650 251.36675 249.97500 248.13825 246.04950 243.88475
 241.67800 239.48425 237.30650 235.14775 233.01000 230.87925 228.90750 227.06675
 225.35200 223.82625 222.45850 221.23275 220.11700 219.07925 218.18550 217.32875
 216.57300 215.75525 214.85550 214.22175 213.67400 214.01328 214.81488 215.84875
 217.63785 219.84325 221.99774 223.65063 224.99744 226.48666 228.95740 231.07413
 232.02361 232.71185 234.52336 237.86133 241.94693 246.19052 250.33945 254.25049
 257.78421 260.94943 263.83282 266.40912 268.52609 270.39514 272.67157 274.51953
 276.48053 278.20703 279.74854 281.11240 282.29578 283.34354 284.30341 285.18341
 285.99011 286.71298 287.33267 288.14984
 366.78100 356.33601 345.76903 334.63604 323.04006 311.23507 299.10609 286.91010
 274.62312 262.52113 250.53115 239.83316 229.95618 221.06119 213.24421 206.24722
 200.08224 195.02125 191.60427 189.64728 188.68530 188.75031 189.58632 190.89534
 192.62135 194.71737 196.98138 199.34140 201.78741 204.26843 206.35744 208.20046
 209.82747 210.97349 211.20350 211.43252 211.37053 211.07655 210.71056 210.34158
 209.95959 209.67061 209.47962 209.34463 209.27365 209.60566 209.99268 210.38269
 211.17671 212.35572 213.60674 215.39075 217.31977 219.36378 221.45980 223.54381
 225.60483 227.68984 229.78786 231.89487 234.02489 236.19790 238.45492 240.82593
 243.44794 245.69996 247.70297 249.46899 250.88700 252.01102 252.83403 253.15105
 253.18906 252.96408 252.32509 251.27411 249.88112 248.04314 245.95315 243.78717
 241.57918 239.38420 237.20521 235.04523 232.90624 230.77425 228.80127 226.95928
 225.24330 223.71631 222.34733 221.12034 220.00336 218.96437 218.06939 217.21140
 216.45442 215.63543 214.73445 214.09946 213.55048 213.96611 214.94807 215.96483
 217.63750 219.82948 222.02318 223.71146 225.10451 226.57239 228.95898 230.98093
 231.85745 232.52431 234.38544 237.79880 241.92422 246.16953 250.30382 254.19592
 257.70889 260.86084 263.74173 266.31873 268.43597 270.36002 272.66275 274.44467
 276.43546 278.12683 279.66229 281.02563 282.20657 283.25378 284.21204 285.09381
 285.90405 286.63266 287.24835 288.06638
 366.78100 356.33491 345.76681 334.63272 323.03563 311.22953 299.09944 286.90235
 274.61425 262.51116 250.52007 239.82097 229.94288 221.04678 213.22869 206.23060
 200.06450 195.00241 191.58432 189.62622 188.66313 188.72704 189.56194 190.86985
 192.59476 194.68966 196.95257 199.31148 201.75638 204.23629 206.32420 208.16610
 209.79201 210.93691 211.16582 211.39373 211.33063 211.03554 210.66845 210.29835
 209.91526 209.62517 209.43307 209.29698 209.22489 209.55579 209.94170 210.33061
 211.12351 212.30142 213.55133 215.33423 217.26214 219.30505 221.39995 223.48286
 225.54276 227.62667 229.72358 231.82948 233.95839 236.13030 238.38620 240.75611
 243.37702 245.62792 247.62983 249.39474 250.81164 251.93455 252.75646 253.07236
 253.10927 252.88318 252.24308 251.19099 249.79690 247.95780 245.86671 243.69961
 241.49052 239.29443 237.11433 234.95324 232.81315 230.68005 228.70596 226.86287
 225.14577 223.61768 222.24759 221.01949 219.90140 218.86131 217.96521 217.10612
 216.34803 215.52793 214.62584 213.98974 213.43965 213.92323 215.06575 216.10469
 217.68265 219.80376 221.98454 223.72211 225.18507 226.65221 228.96674 230.87929
 231.67734 232.34302 234.27258 237.75957 241.91972 246.16595 250.28479 254.15619
 257.64780 260.78680 263.66861 266.25198 268.37143 270.32587 272.59204 274.38226
 276.37473 278.05750 279.58432 280.94025 282.11319 283.15634 284.10968 284.98853
 285.80997 286.53201 287.14584 287.96533
 366.78100 356.33376 345.76452 334.62928 323.03103 311.22379 299.09255 286.89431
 274.60507 262.50083 250.50858 239.80834 229.92910 221.03186 213.21262 206.21338
 200.04614 194.98289 191.56365 189.60441 188.64017 188.70293 189.53669 190.84344
 192.56720 194.66096 196.92272 199.28048 201.72424 204.20299 206.28975 208.13051
 209.75527 210.89903 211.12679 211.35355 211.28930 210.99306 210.62482 210.25358
 209.86934 209.57810 209.38485 209.24761 209.17437 209.50413 209.88889 210.27665
 211.06841 212.24516 213.49392 215.27568 217.20244 219.24420 221.33796 223.41971
 225.47847 227.56123 229.65699 231.76175 233.88951 236.06027 238.31502 240.68378
 243.30354 245.55330 247.55406 249.31782 250.73357 251.85533 252.67609 252.99085
 253.02661 252.79937 252.15812 251.10488 249.70964 247.86940 245.77716 243.60892
 241.39868 239.20143 237.02019 234.85795 232.71671 230.58247 228.60723 226.76298
 225.04474 223.51550 222.14426 220.91502 219.79578 218.75454 217.85729 216.99705
 216.23781 215.41657 214.51333 213.87609 213.32484 213.87631 215.17923 216.26091
 217.73534 219.78748 221.97604 223.72948 225.21552 226.68875 228.93858 230.73985
 231.47945 232.17632 234.18661 237.74251 241.93431 246.18071 250.28476 254.13583
 257.60434 260.72186 263.59570 266.19086 268.33069 270.24896 272.55737 274.33984
 276.31985 277.99625 279.52512 280.88577 282.06552 283.11459 284.08707 284.97363
 285.77252 286.46954 287.08041 287.89105
 366.78100 356.33290 345.76280 334.62671 323.02761 311.21951 299.08741 286.88831
 274.59821 262.49312 250.50002 239.79892 229.91882 221.02072 213.20063 206.20053
 200.03243 194.96833 191.54823 189.58813 188.62304 188.68494 189.51784 190.82374
 192.54664 194.63955 196.90045 199.25735 201.70025 204.17815 206.26405 208.10396
 209.72786 210.87076 211.09766 211.32356 211.25847 210.96137 210.59227 210.22017
 209.83507 209.54297 209.34888 209.21078 209.13668 209.46558 209.84948 210.23639
 211.02729 212.20319 213.45109 215.23199 217.15789 219.19880 221.29170 223.37260
 225.43050 227.51240 229.60731 231.71121 233.83811 236.00801 238.26191 240.62981
 243.24872 245.49762 247.49752 249.26042 250.67532 251.79623 252.61613 252.93003
 252.96493 252.73683 252.09473 251.04064 249.64454 247.80344 245.71034 243.54124
 241.33015 239.13205 236.94995 234.78685 232.64475 230.50965 228.53356 226.68846
 224.96936 223.43926 222.06716 220.83707 219.71697 218.67487 217.77677 216.91567
 216.15557 215.33348 214.42938 213.79128 213.23918 213.84238 215.26747 216.41800
 217.81128 219.79774 221.99919 223.75403 225.22147 226.68047 228.90437 230.58876
 231.23988 231.97899 234.10046 237.73323 241.95663 246.20377 250.29265 254.12457
 257.57764 260.68732 263.57013 266.18982 268.32111 270.18918 272.37408 274.31979
 276.24237 277.92029 279.43353 280.77866 281.94998 282.99579 283.96564 284.84909
 285.64075 286.33545 286.94315 287.76019
 366.78100 356.33186 345.76071 334.62357 323.02342 311.21428 299.08114 286.88099
 274.58985 262.48370 250.48956 239.78742 229.90627 221.00713 213.18598 206.18484
 200.01570 194.95055 191.52941 189.56826 188.60212 188.66298 189.49483 190.79969
 192.52154 194.61340 196.87326 199.22911 201.67097 204.14782 206.23268 208.07154
 209.69439 210.83625 211.06210 211.28696 211.22082 210.92267 210.55253 210.17938
 209.79324 209.50010 209.30495 209.16581 209.09066 209.41852 209.80137 210.18723
 210.97709 212.15194 213.39880 215.17865 217.10351 219.14337 221.23522 223.31508
 225.37193 227.45279 229.54665 231.64950 233.77536 235.94421 238.19707 240.56393
 243.18178 245.42964 247.42849 249.19035 250.60421 251.72406 252.54292 252.85577
 252.88963 252.66049 252.01734 250.96220 249.56505 247.72291 245.62877 243.45862
 241.24648 239.04733 236.86419 234.70005 232.55690 230.42076 228.44361 226.59747
 224.87733 223.34618 221.97304 220.74189 219.62075 218.57761 217.67846 216.81632
 216.05517 215.23203 214.32689 213.68774 213.13460 213.80112 215.37584 216.52649
 217.84798 219.91124 222.08006 223.78079 225.21931 226.68727 228.82497 230.32971
 230.95027 231.78827 234.02058 237.73450 241.98853 246.23404 250.30727 254.11868
 257.55319 260.65088 263.53439 266.14780 268.25034 270.27209 272.36362 274.27417
 276.18069 277.85211 279.36014 280.70450 281.87317 282.91959 283.89194 284.77499
 285.55267 286.24545 286.85568 287.66138
 366.78100 356.33060 345.75820 334.61980 323.01840 311.20800 299.07360 286.87220
 274.57980 262.47240 250.47700 239.77360 229.89120 220.99080 213.16840 206.16600
 199.99561 194.92921 191.50681 189.54441 188.57701 188.63661 189.46721 190.77081
 192.49141 194.58201 196.84061 199.19521 201.63581 204.11141 206.19501 208.03261
 209.65421 210.79481 211.01941 211.24301 211.17561 210.87621 210.50481 210.13041
 209.74301 209.44861 209.25221 209.11181 209.03541 209.36201 209.74362 210.12822
 210.91682 212.09042 213.33602 215.11462 217.03822 219.07682 221.16742 223.24602
 225.30162 227.38122 229.47382 231.57542 233.70002 235.86762 238.11922 240.48482
 243.10142 245.34802 247.34562 249.10622 250.51882 251.63742 252.45502 252.76662
 252.79922 252.56882 251.92442 250.86802 249.46963 247.62623 245.53083 243.35943
 241.14603 238.94563 236.76123 234.59583 232.45143 230.31403 228.33563 226.48823
 224.76683 223.23443 221.86003 220.62763 219.50523 218.46083 217.56043 216.69703
 215.93463 215.11023 214.20383 213.56343 213.00903 213.74458 215.48241 216.65994
 217.90204 219.96852 222.14804 223.80281 225.20097 226.69565 228.72820 230.08014
 230.67648 231.60785 233.95468 237.74896 242.03174 246.27348 250.32916 254.12076
 257.53799 260.62198 263.50348 266.15060 268.30142 270.18378 272.32675 274.24869
 276.10834 277.78143 279.28690 280.62149 281.78024 282.82324 283.79318 284.65723
 285.39816 286.08875 286.70319 287.51120
 366.78100 356.32932 345.75564 334.61595 323.01327 311.20159 299.06591 286.86322
 274.56954 262.46086 250.46418 239.75949 229.87581 220.97413 213.15045 206.14676
 199.97508 194.90740 191.48372 189.52003 188.55135 188.60967 189.43899 190.74130
 192.46062 194.54994 196.80726 199.16057 201.59989 204.07421 206.15653 207.99284
 209.61316 210.75248 210.97580 211.19811 211.12943 210.82875 210.45607 210.08038
 209.69170 209.39602 209.19834 209.05665 208.97897 209.30429 209.68461 210.06792
 210.85524 212.02756 213.27188 215.04919 216.97151 219.00883 221.09815 223.17546
 225.22978 227.30810 229.39942 231.49973 233.62305 235.78937 238.03969 240.40400
 243.01932 245.26464 247.26096 249.02027 250.43159 251.54891 252.36523 252.67554
 252.70686 252.47518 251.82950 250.77181 249.37213 247.52745 245.43077 243.25808
 241.04340 238.84172 236.65604 234.48935 232.34367 230.20499 228.22531 226.37662
 224.65394 223.12026 221.74458 220.51089 219.38721 218.34153 217.43985 216.57516
 215.81148 214.98580 214.07812 213.43644 212.88075 213.68228 215.57596 216.81065
 217.99834 220.02232 222.17850 223.79437 225.16144 226.68303 228.62926 229.84282
 230.40564 231.44844 233.91946 237.77672 242.08324 246.31932 250.35245 254.11798
 257.51343 260.58243 263.46027 266.14502 268.36890 270.27231 272.22952 274.19199
 276.03125 277.70306 279.20734 280.53049 281.66888 282.70541 283.66748 284.51401
 285.23843 285.92862 286.54340 287.36002
 366.78100 356.32857 345.75414 334.61372 323.01029 311.19786 299.06143 286.85800
 274.56358 262.45415 250.45672 239.75129 229.86686 220.96444 213.14001 206.13558
 199.96315 194.89472 191.47030 189.50587 188.53644 188.59401 189.42258 190.72416
 192.44273 194.53130 196.78787 199.14044 201.57902 204.05259 206.13416 207.96973
 209.58930 210.72788 210.95045 211.17202 211.10259 210.80116 210.42774 210.05131
 209.66188 209.36545 209.16702 209.02460 208.94617 209.27074 209.65031 210.03288
 210.81946 211.99103 213.23460 215.01117 216.93274 218.96932 221.05789 223.13446
 225.18803 227.26560 229.35617 231.45575 233.57832 235.74389 237.99346 240.35703
 242.97161 245.21618 247.21175 248.97032 250.38089 251.49747 252.31304 252.62261
 252.65318 252.42075 251.77433 250.71590 249.31547 247.47004 245.37261 243.19919
 240.98376 238.78133 236.59490 234.42747 232.28105 230.14162 228.16119 226.31176
 224.58833 223.05391 221.67748 220.44305 219.31862 218.27219 217.36977 216.50434
 215.73991 214.91348 214.00505 213.36263 212.80620 213.64748 215.63507 216.97334
 218.13156 220.09325 222.19463 223.76401 225.10216 226.64622 228.52594 229.60152
 230.12527 231.28714 233.89247 237.81261 242.13902 246.37189 250.38904 254.13095
 257.50491 260.55637 263.42584 266.13412 268.39050 270.31274 272.21072 274.16324
 275.98044 277.64725 279.13507 280.42715 281.52585 282.55823 283.52341 284.33252
 285.04956 285.73856 286.35504 287.17395
 366.78100 356.32837 345.75373 334.61310 323.00946 311.19683 299.06019 286.85656
 274.56192 262.45229 250.45465 239.74902 229.86438 220.96175 213.13712 206.13248
 199.95985 194.89121 191.46658 189.50194 188.53231 188.58967 189.41804 190.71940
 192.43777 194.52613 196.78250 199.13487 201.57323 204.04660 206.12796 207.96333
 209.58269 210.72106 210.94342 211.16479 211.09515 210.79352 210.41988 210.04325
 209.65362 209.35698 209.15835 209.01571 208.93708 209.26144 209.64081 210.02317
 210.80954 211.98090 213.22427 215.00063 216.92200 218.95836 221.04673 223.12310
 225.17646 227.25383 229.34419 231.44356 233.56592 235.73129 237.98065 240.34402
 242.95838 245.20275 247.19811 248.95648 250.36685 251.48321 252.29858 252.60794
 252.63831 252.40567 251.75904 250.70040 249.29977 247.45413 245.35650 243.18286
 240.96723 238.76460 236.57796 234.41033 232.26369 230.12406 228.14342 226.29379
 224.57015 223.03552 221.65888 220.42425 219.29961 218.25298 217.35035 216.48471
 215.72008 214.89344 213.98481 213.34217 212.78554 213.64015 215.65930 217.14781
 218.28459 220.17949 222.22948 223.74258 225.03082 226.57281 228.40321 229.34218
 229.82092 231.10637 233.85870 237.84668 242.19925 246.43657 250.44144 254.16177
 257.51678 260.55002 263.40613 266.12433 268.40524 270.34799 272.24365 274.13773
 275.92148 277.58398 279.06436 280.32346 281.36420 282.39325 283.36081 284.19171
 284.90411 285.58911 286.20609 287.03290
 366.78100 356.32913 345.75525 334.61538 323.01250 311.20063 299.06475 286.86188
 274.56800 262.45913 250.46225 239.75738 229.87350 220.97163 213.14775 206.14388
 199.97200 194.90413 191.48025 189.51638 188.54751 188.60563 189.43476 190.73688
 192.45601 194.54513 196.80226 199.15538 201.59451 204.06863 206.15076 207.98688
 209.60701 210.74613 210.96926 211.19138 211.12251 210.82163 210.44876 210.07289
 209.68401 209.38814 209.19026 209.04839 208.97051 209.29564 209.67576 210.05889
 210.84601 212.01814 213.26226 215.03939 216.96151 218.99864 221.08776 223.16489
 225.21901 227.29714 229.38827 231.48839 233.61152 235.77764 238.02777 240.39189
 243.00702 245.25214 247.24827 249.00739 250.41852 251.53564 252.35177 252.66189
 252.69302 252.46114 251.81527 250.75739 249.35752 247.51265 245.41577 243.24290
 241.02802 238.82615 236.64027 234.47340 232.32752 230.18865 228.20877 226.35990
 224.63702 223.10315 221.72727 220.49340 219.36952 218.32365 217.42177 216.55690
 215.79303 214.96715 214.05928 213.41740 212.86153 213.67848 215.60863 217.32086
 218.51372 220.30750 222.27420 223.72002 224.93690 226.45982 228.25455 229.09230
 229.53854 230.93721 233.82458 237.87651 242.25124 246.49442 250.48874 254.18948
 257.52405 260.54578 263.38885 266.10120 268.38843 270.37341 272.27011 274.13321
 275.91864 277.52371 278.99323 280.24588 281.32605 282.36090 283.29327 284.01825
 284.67065 285.35349 285.97433 286.81805
 366.78100 356.33140 345.75980 334.62220 323.02160 311.21200 299.07840 286.87780
 274.58621 262.47961 250.48501 239.78241 229.90081 221.00121 213.17961 206.17801
 200.00841 194.94281 191.52121 189.55961 188.59301 188.65341 189.48481 190.78922
 192.51062 194.60202 196.86142 199.21682 201.65822 204.13462 206.21902 208.05742
 209.67982 210.82122 211.04662 211.27102 211.20442 210.90582 210.53522 210.16163
 209.77503 209.48143 209.28583 209.14623 209.07063 209.39803 209.78043 210.16583
 210.95523 212.12963 213.37603 215.15543 217.07983 219.11923 221.21064 223.29004
 225.34644 227.42684 229.52024 231.62264 233.74804 235.91644 238.16884 240.53524
 243.15264 245.40004 247.39844 249.15984 250.57324 251.69265 252.51105 252.82345
 252.85685 252.62725 251.98365 250.92805 249.53045 247.68785 245.59325 243.42265
 241.21005 239.01045 236.82685 234.66225 232.51866 230.38206 228.40446 226.55786
 224.83726 223.30566 221.93206 220.70046 219.57886 218.53526 217.63566 216.77306
 216.01146 215.18786 214.28226 213.64266 213.08907 213.80356 215.49162 217.39877
 218.84978 220.58026 222.41344 223.73976 224.83014 226.29663 227.99849 228.61458
 229.06793 230.71237 233.82155 237.94482 242.34250 246.60866 250.62306 254.31322
 257.62103 260.60425 263.40448 266.10681 268.39972 270.32278 272.23627 274.00076
 275.85141 277.52261 278.93713 280.25787 281.39450 282.42679 283.25806 283.96317
 284.71011 285.40558 286.03387 286.86963
 366.78100 356.33166 345.76032 334.62297 323.02263 311.21329 299.07995 286.87961
 274.58827 262.48192 250.48758 239.78524 229.90390 221.00456 213.18322 206.18187
 200.01253 194.94719 191.52585 189.56451 188.59816 188.65882 189.49048 190.79514
 192.51680 194.60846 196.86811 199.22377 201.66543 204.14209 206.22675 208.06540
 209.68806 210.82972 211.05538 211.28004 211.21370 210.91535 210.54501 210.17167
 209.78533 209.49199 209.29665 209.15730 209.08196 209.40962 209.79228 210.17794
 210.96759 212.14225 213.38891 215.16857 217.09323 219.13289 221.22454 223.30420
 225.36086 227.44152 229.53518 231.63784 233.76349 235.93215 238.18481 240.55147
 243.16913 245.41678 247.41544 249.17710 250.59076 251.71042 252.52908 252.84173
 252.87539 252.64605 252.00271 250.94737 249.55003 247.70768 245.61334 243.44300
 241.23066 239.03132 236.84797 234.68363 232.54029 230.40395 228.42661 226.58027
 224.85992 223.32858 221.95524 220.72390 219.60256 218.55921 217.65987 216.79753
 216.03619 215.21285 214.30751 213.66816 213.11482 213.83463 215.54375 217.33212
 218.94894 220.73549 222.53807 223.81917 224.81425 226.26276 227.82954 228.38309
 228.47014 230.22771 233.55313 237.90108 242.40514 246.78064 250.83620 254.52481
 257.81470 260.75522 263.50464 266.12039 268.38474 270.26215 272.14127 273.99997
 275.61310 277.23279 278.55298 279.76477 280.79538 281.68982 282.52936 283.34973
 284.12463 284.81808 285.42386 286.19586
 366.78100 356.33087 345.75874 334.62062 323.01949 311.20936 299.07523 286.87410
 274.58198 262.47485 250.47972 239.77659 229.89446 220.99434 213.17221 206.17008
 199.99995 194.93382 191.51169 189.54957 188.58244 188.64231 189.47318 190.77705
 192.49793 194.58880 196.84767 199.20254 201.64341 204.11929 206.20316 208.04103
 209.66290 210.80377 211.02865 211.25252 211.18539 210.88626 210.51513 210.14101
 209.75388 209.45975 209.26362 209.12349 209.04737 209.37424 209.75611 210.14098
 210.92985 212.10372 213.34960 215.12847 217.05234 219.09121 221.18208 223.26096
 225.31683 227.39670 229.48957 231.59144 233.71632 235.88419 238.13606 240.50193
 243.11880 245.36568 247.36355 249.12442 250.53729 251.65616 252.47404 252.78591
 252.81878 252.58865 251.94452 250.88840 249.49027 247.64714 245.55201 243.38088
 241.16776 238.96763 236.78350 234.61837 232.47424 230.33711 228.35899 226.51186
 224.79073 223.25860 221.88447 220.65235 219.53022 218.48609 217.58596 216.72283
 215.96071 215.13658 214.23045 213.59032 213.03619 213.80482 215.65175 217.42180
 218.92265 220.54257 222.46782 223.96252 225.07899 226.42815 227.80978 228.59068
 228.45686 230.15027 233.49742 237.80583 242.37048 246.79039 250.85980 254.54530
 257.82407 260.73657 263.43588 266.01343 268.21255 270.12891 272.17264 273.91336
 275.42285 276.82385 278.12277 279.30286 280.40186 281.46854 282.46179 283.36166
 284.17096 284.89166 285.52124 286.32358
 366.78100 356.33222 345.76143 334.62465 323.02487 311.21608 299.08330 286.88352
 274.59273 262.48695 250.49317 239.79138 229.91060 221.01182 213.19103 206.19025
 200.02146 194.95668 191.53590 189.57511 188.60933 188.67055 189.50276 190.80798
 192.53020 194.62241 196.88263 199.23885 201.68106 204.15828 206.24350 208.08271
 209.70593 210.84815 211.07436 211.29958 211.23380 210.93601 210.56623 210.19345
 209.80766 209.51488 209.32009 209.18131 209.10653 209.43474 209.81796 210.20418
 210.99439 212.16961 213.41683 215.19704 217.12226 219.16248 221.25469 223.33491
 225.39213 227.47334 229.56756 231.67078 233.79699 235.96621 238.21943 240.58664
 243.20486 245.45308 247.45229 249.21451 250.62872 251.74894 252.56816 252.88137
 252.91559 252.68681 252.04402 250.98924 249.59246 247.75067 245.65689 243.48711
 241.27532 239.07654 236.89376 234.72997 232.58719 230.45141 228.47462 226.62884
 224.90906 223.37827 222.00549 220.77471 219.65392 218.61114 217.71236 216.85057
 216.08979 215.26700 214.36222 213.72344 213.17065 213.87843 215.63452 217.53665
 219.08784 220.75160 222.69334 224.08960 225.22675 226.43835 227.83864 228.30495
 228.42114 230.17155 233.54994 237.83136 242.36427 246.79420 250.89639 254.59631
 257.88647 260.83572 263.58441 266.13962 268.29117 270.09442 272.13718 273.80292
 275.29095 276.69211 278.10944 279.56137 280.87302 282.03348 283.09222 284.05139
 284.91406 285.68225 286.35333 287.20856
 366.78100 356.33399 345.76499 334.62998 323.03197 311.22497 299.09396 286.89596
 274.60695 262.50294 250.51094 239.81093 229.93192 221.03492 213.21591 206.21691
 200.04990 194.98689 191.56789 189.60888 188.64487 188.70787 189.54186 190.84886
 192.57285 194.66684 196.92884 199.28683 201.73082 204.20982 206.29681 208.13781
 209.76280 210.90679 211.13479 211.36178 211.29777 211.00177 210.63376 210.26276
 209.87875 209.58774 209.39474 209.25773 209.18472 209.51472 209.89971 210.28771
 211.07970 212.25669 213.50569 215.28768 217.21467 219.25667 221.35066 223.43266
 225.49165 227.57464 229.67064 231.77563 233.90362 236.07462 238.32961 240.69861
 243.31860 245.56859 247.56959 249.33358 250.74957 251.87157 252.69256 253.00756
 253.04355 252.81654 252.17554 251.12253 249.72752 247.88752 245.79551 243.62750
 241.41750 239.22049 237.03949 234.87748 232.73647 230.60247 228.62746 226.78345
 225.06545 223.53644 222.16544 220.93643 219.81742 218.77642 217.87941 217.01940
 216.26040 215.43939 214.53639 213.89938 213.34837 213.97693 215.59129 217.59201
 219.36963 221.13148 222.80757 224.01653 225.12791 226.33824 227.69756 227.87917
 228.03419 229.90265 233.46281 237.82248 242.40741 246.85188 250.96873 254.70270
 258.04440 261.07587 263.84067 266.36447 268.56171 270.31683 271.93805 273.86765
 275.50070 277.18445 278.89713 280.54443 281.97006 283.23135 284.38211 285.42462
 286.36224 287.19717 287.92657 288.85611
 366.78100 356.33463 345.76625 334.63188 323.03450 311.22813 299.09775 286.90038
 274.61200 262.50863 250.51725 239.81788 229.93950 221.04313 213.22475 206.22638
 200.06000 194.99763 191.57925 189.62088 188.65750 188.72113 189.55575 190.86338
 192.58800 194.68263 196.94525 199.30388 201.74850 204.22813 206.31575 208.15738
 209.78300 210.92763 211.15625 211.38388 211.32051 211.02513 210.65776 210.28738
 209.90401 209.61363 209.42126 209.28488 209.21251 209.54313 209.92876 210.31738
 211.11001 212.28763 213.53726 215.31988 217.24751 219.29013 221.38476 223.46738
 225.52701 227.61063 229.70726 231.81288 233.94151 236.11313 238.36876 240.73838
 243.35901 245.60963 247.61126 249.37588 250.79251 251.91513 252.73676 253.05239
 253.08901 252.86264 252.22226 251.16989 249.77551 247.93614 245.84476 243.67739
 241.46801 239.27164 237.09126 234.92989 232.78951 230.65614 228.68176 226.83839
 225.12101 223.59264 222.22226 220.99389 219.87551 218.83514 217.93876 217.07939
 216.32101 215.50064 214.59826 213.96189 213.41151 214.01938 215.58269 217.61333
 219.56871 221.41260 222.95857 224.08466 225.11586 226.30424 227.43863 227.52003
 227.64914 229.61269 233.33899 237.77237 242.34926 246.79485 250.92432 254.68213
 258.04907 261.08667 263.85004 266.39752 268.64731 270.46887 272.14114 274.06033
 275.83243 277.53632 279.19962 280.90103 282.37344 283.67618 284.86469 285.94144
 286.90982 287.77219 288.52551 289.48557
 366.78100 356.33228 345.76155 334.62483 323.02511 311.21638 299.08366 286.88394
 274.59321 262.48749 250.49377 239.79204 229.91132 221.01260 213.19187 206.19115
 200.02243 194.95770 191.53698 189.57626 188.61053 188.67181 189.50409 190.80936
 192.53164 194.62392 196.88419 199.24047 201.68275 204.16002 206.24530 208.08458
 209.70785 210.85013 211.07641 211.30168 211.23596 210.93824 210.56851 210.19579
 209.81007 209.51734 209.32262 209.18390 209.10917 209.43745 209.82073 210.20700
 210.99728 212.17256 213.41983 215.20011 217.12539 219.16566 221.25794 223.33822
 225.39549 227.47677 229.57105 231.67432 233.80060 235.96988 238.22315 240.59043
 243.20871 245.45698 247.45626 249.21854 250.63281 251.75309 252.57237 252.88564
 252.91992 252.69120 252.04847 250.99375 249.59703 247.75530 245.66158 243.49186
 241.28013 239.08141 236.89869 234.73496 232.59224 230.45652 228.47979 226.63407
 224.91435 223.38362 222.01090 220.78018 219.65945 218.61673 217.71801 216.85628
 216.09556 215.27284 214.36811 213.72939 213.17667 213.90829 215.71451 217.63660
 219.57251 221.41812 223.03482 224.27351 225.32771 226.42145 227.41347 227.38499
 227.44864 229.40352 233.22813 237.72623 242.29796 246.73956 250.85638 254.59528
 257.96347 261.00195 263.75333 266.29694 268.54584 270.43097 272.12930 273.98502
 275.72565 277.38968 279.02158 280.69626 282.16461 283.46378 284.64905 285.72281
 286.68854 287.54855 288.29980 289.25723
 366.78100 356.32998 345.75695 334.61793 323.01590 311.20488 299.06985 286.86783
 274.57480 262.46678 250.47075 239.76673 229.88370 220.98268 213.15965 206.15663
 199.98560 194.91858 191.49555 189.53253 188.56450 188.62348 189.45345 190.75643
 192.47640 194.56638 196.82435 199.17833 201.61830 204.09328 206.17625 208.01323
 209.63420 210.77418 210.99815 211.22113 211.15310 210.85308 210.48105 210.10603
 209.71800 209.42298 209.22595 209.08493 209.00790 209.33388 209.71485 210.09883
 210.88680 212.05978 213.30475 215.08273 217.00570 219.04368 221.13365 223.21163
 225.26660 227.34558 229.43755 231.53853 233.66250 235.82948 238.08045 240.44543
 243.06140 245.30738 247.30435 249.06433 250.47630 251.59428 252.41125 252.72223
 252.75420 252.52318 251.87815 250.82113 249.42210 247.57808 245.48205 243.31003
 241.09600 238.89498 236.70995 234.54393 232.39890 230.26088 228.28185 226.43383
 224.71180 223.17878 221.80375 220.57073 219.44770 218.40268 217.50165 216.63763
 215.87460 215.04958 214.14255 213.50153 212.94650 213.78889 215.83238 217.73154
 219.55899 221.37799 222.99129 224.26888 225.37047 226.46500 227.48685 227.41272
 227.49992 229.48250 233.24380 237.73608 242.27934 246.70203 250.83125 254.54718
 257.88593 260.89075 263.62460 266.19058 268.46045 270.37204 272.14587 273.96878
 275.69699 277.32162 278.95264 280.57846 282.00528 283.26761 284.41931 285.46268
 286.40106 287.23672 287.96671 288.89700
 366.78100 356.33204 345.76108 334.62411 323.02415 311.21519 299.08223 286.88227
 274.59131 262.48534 250.49138 239.78942 229.90846 221.00950 213.18854 206.18757
 200.01861 194.95365 191.53269 189.57173 188.60577 188.66680 189.49884 190.80388
 192.52592 194.61796 196.87800 199.23403 201.67607 204.15311 206.23815 208.07719
 209.70023 210.84226 211.06830 211.29334 211.22738 210.92942 210.55946 210.18649
 209.80053 209.50757 209.31261 209.17365 209.09869 209.42672 209.80976 210.19580
 210.98584 212.16088 213.40792 215.18795 217.11299 219.15303 221.24507 223.32511
 225.38215 227.46318 229.55722 231.66026 233.78630 235.95534 238.20838 240.57541
 243.19345 245.44149 247.44053 249.20257 250.61661 251.73664 252.55568 252.86872
 252.90276 252.67380 252.03084 250.97587 249.57891 247.73695 245.64299 243.47303
 241.26107 239.06210 236.87914 234.71518 232.57222 230.43626 228.45930 226.61333
 224.89337 223.36241 221.98945 220.75849 219.63753 218.59456 217.69560 216.83364
 216.07268 215.24972 214.34476 213.70579 213.15283 213.88281 215.71919 217.90471
 219.75461 221.42636 222.92857 224.10208 225.19659 226.34618 227.42685 227.40425
 227.50426 229.54619 233.31210 237.78271 242.33830 246.71579 250.85907 254.60304
 257.95584 260.95319 263.65823 266.17575 268.40256 270.33990 272.17780 274.00140
 275.68857 277.39786 278.99423 280.55460 281.98145 283.24387 284.39560 285.43903
 286.37744 287.21310 287.94315 288.87347
 366.78100 356.33495 345.76690 334.63285 323.03580 311.22976 299.09971 286.90266
 274.61461 262.51156 250.52051 239.82146 229.94341 221.04737 213.22932 206.23127
 200.06522 195.00317 191.58512 189.62707 188.66402 188.72798 189.56293 190.87088
 192.59583 194.69078 196.95373 199.31268 201.75763 204.23759 206.32554 208.16749
 209.79344 210.93839 211.16734 211.39529 211.33224 211.03720 210.67015 210.30010
 209.91705 209.62700 209.43495 209.29890 209.22685 209.55781 209.94376 210.33271
 211.12566 212.30361 213.55356 215.33651 217.26446 219.30741 221.40237 223.48532
 225.54527 227.62922 229.72617 231.83212 233.96107 236.13302 238.38898 240.75893
 243.37988 245.63083 247.63278 249.39773 250.81468 251.93763 252.75959 253.07554
 253.11249 252.88644 252.24639 251.19434 249.80029 247.96124 245.87020 243.70315
 241.49410 239.29805 237.11800 234.95695 232.81690 230.68385 228.70981 226.86676
 225.14971 223.62166 222.25161 221.02356 219.90551 218.86546 217.96941 217.11037
 216.35232 215.53227 214.63022 213.99417 213.44412 214.03600 215.57896 217.94693
 220.05615 221.59891 223.02003 224.13248 225.10349 226.14156 227.09651 227.04604
 227.26688 229.46849 233.33397 237.83055 242.40987 246.81065 250.96671 254.73694
 258.08081 261.16663 263.84302 266.27399 268.46008 270.33307 272.07806 273.92569
 275.62796 277.25168 278.82236 280.29129 281.69141 282.93018 284.06033 285.08420
 286.00507 286.82507 287.54144 288.45435
 366.78100 356.33549 345.76798 334.63447 323.03796 311.23244 299.10293 286.90642
 274.61891 262.51640 250.52589 239.82738 229.94987 221.05436 213.23685 206.23933
 200.07382 195.01231 191.59480 189.63729 188.67478 188.73927 189.57476 190.88325
 192.60873 194.70422 196.96771 199.32720 201.77269 204.25318 206.34167 208.18416
 209.81065 210.95614 211.18562 211.41411 211.35160 211.05709 210.69058 210.32107
 209.93856 209.64905 209.45754 209.32202 209.25051 209.58200 209.96849 210.35798
 211.15147 212.32996 213.58045 215.36394 217.29243 219.33591 221.43140 223.51489
 225.57538 227.65987 229.75736 231.86385 233.99334 236.16583 238.42231 240.79280
 243.41429 245.66578 247.66827 249.43376 250.85125 251.97474 252.79723 253.11371
 253.15120 252.92569 252.28618 251.23467 249.84116 248.00265 245.91214 243.74563
 241.53712 239.34160 237.16209 235.00158 232.86207 230.72956 228.75605 226.91354
 225.19703 223.66952 222.30000 221.07249 219.95498 218.91547 218.01996 217.16145
 216.40394 215.58443 214.68292 214.04741 213.49789 214.09055 215.61121 217.79701
 220.21648 221.91801 223.34323 224.39447 225.20428 226.02722 226.70532 226.52443
 226.87868 229.30869 233.30487 237.85167 242.45738 246.90501 251.08241 254.87073
 258.24838 261.28348 264.04706 266.48276 268.65039 270.45850 272.07803 273.82437
 275.53915 277.21988 278.82260 280.42084 281.89432 283.19797 284.38736 285.46484
 286.43396 287.29694 288.05081 289.01154
 366.78100 356.33562 345.76825 334.63487 323.03849 311.23312 299.10374 286.90736
 274.61999 262.51761 250.52723 239.82886 229.95148 221.05610 213.23873 206.24135
 200.07597 195.01460 191.59722 189.63984 188.67747 188.74209 189.57771 190.88634
 192.61196 194.70758 196.97121 199.33083 201.77645 204.25708 206.34570 208.18832
 209.81495 210.96057 211.19019 211.41882 211.35644 211.06206 210.69569 210.32631
 209.94393 209.65456 209.46318 209.32781 209.25643 209.58805 209.97468 210.36430
 211.15792 212.33655 213.58717 215.37079 217.29942 219.34304 221.43866 223.52229
 225.58291 227.66753 229.76516 231.87178 234.00140 236.17403 238.43065 240.80127
 243.42290 245.67452 247.67714 249.44277 250.86039 251.98401 252.80664 253.12326
 253.16088 252.93551 252.29613 251.24475 249.85138 248.01300 245.92262 243.75625
 241.54787 239.35249 237.17312 235.01274 232.87336 230.74099 228.76761 226.92523
 225.20886 223.68148 222.31210 221.08473 219.96735 218.92797 218.03260 217.17422
 216.41684 215.59747 214.69609 214.06071 213.51134 214.12074 215.65938 217.71376
 220.21408 222.21724 223.57843 224.48657 225.27643 226.06940 226.59877 226.26805
 226.60571 229.10921 233.19896 237.78606 242.40256 246.86298 251.03433 254.83995
 258.25644 261.33777 264.16895 266.67612 268.92355 270.72046 272.28406 273.98080
 275.66373 277.38678 278.98886 280.57043 282.03278 283.32657 284.50696 285.57632
 286.53812 287.39456 288.14276 289.09622
 366.78100 356.33760 345.77221 334.64081 323.04642 311.24302 299.11563 286.92123
 274.63584 262.53544 250.54705 239.85065 229.97526 221.08186 213.26647 206.27107
 200.10768 195.04828 191.63289 189.67749 188.71710 188.78370 189.62131 190.93191
 192.65952 194.75712 197.02273 199.38433 201.83194 204.31454 206.40515 208.24975
 209.87836 211.02596 211.25757 211.48817 211.42778 211.13538 210.77099 210.40359
 210.02320 209.73580 209.54640 209.41301 209.34361 209.67722 210.06582 210.45743
 211.25303 212.43364 213.68624 215.47185 217.40245 219.44806 221.54566 223.63127
 225.69387 227.78048 229.88008 231.98869 234.12029 236.29490 238.55350 240.92611
 243.54971 245.80332 247.80792 249.57553 250.99513 252.12074 252.94534 253.26395
 253.30355 253.08016 252.44276 251.39337 250.00197 248.16558 246.07718 243.91279
 241.70639 239.51300 237.33560 235.17720 233.03981 230.90941 228.93802 227.09762
 225.38323 223.85783 222.49044 221.26504 220.14965 219.11225 218.21886 217.36246
 216.60707 215.78967 214.89028 214.25688 213.70949 214.23228 215.57954 217.75101
 220.27748 222.32776 223.57086 224.39711 225.24495 226.09880 226.60110 226.18416
 226.54147 228.99004 233.11743 237.71382 242.32170 246.75829 250.91039 254.72386
 258.15677 261.27429 264.08539 266.63986 268.90195 270.79199 272.47244 274.19809
 275.88696 277.56607 279.13788 280.56168 281.95184 283.22610 284.38867 285.44189
 286.38913 287.23267 287.96954 288.90863
 366.78100 356.33921 345.77542 334.64563 323.05285 311.25106 299.12527 286.93248
 274.64869 262.54990 250.56312 239.86833 229.99454 221.10275 213.28896 206.29517
 200.13339 195.07560 191.66181 189.70802 188.74923 188.81744 189.65666 190.96887
 192.69808 194.79729 197.06450 199.42771 201.87693 204.36114 206.45335 208.29956
 209.92977 211.07898 211.31220 211.54441 211.48562 211.19483 210.83204 210.46625
 210.08747 209.80168 209.61389 209.48210 209.41431 209.74952 210.13973 210.53295
 211.33016 212.51237 213.76658 215.55379 217.48600 219.53322 221.63243 223.71964
 225.78385 227.87206 229.97327 232.08349 234.21670 236.39291 238.65312 241.02733
 243.65254 245.90776 247.91397 249.68318 251.10439 252.23160 253.05781 253.37803
 253.41924 253.19745 252.56166 251.51387 250.12408 248.28930 246.20251 244.03972
 241.83493 239.64314 237.46735 235.31057 233.17478 231.04599 229.07620 227.23741
 225.52462 224.00084 222.63505 221.41126 220.29747 219.26168 218.36989 217.51510
 216.76132 215.94553 215.04774 214.41595 213.87016 214.33176 215.52652 217.73305
 220.35332 222.39861 223.58769 224.36237 225.20721 226.10176 226.59665 225.98985
 226.40831 228.87526 233.06773 237.68878 242.30426 246.74980 250.90857 254.72261
 258.18152 261.30777 264.06665 266.61133 268.88834 270.80676 272.49362 274.24402
 275.96152 277.62234 279.17630 280.56812 281.81738 283.07382 284.22012 285.25864
 286.19263 287.02435 287.75095 288.67688
 366.78100 356.33786 345.77271 334.64157 323.04742 311.24428 299.11713 286.92299
 274.63784 262.53770 250.54955 239.85341 229.97826 221.08512 213.26997 206.27483
 200.11168 195.05254 191.63739 189.68225 188.72211 188.78896 189.62682 190.93767
 192.66553 194.76338 197.02924 199.39109 201.83895 204.32180 206.41266 208.25751
 209.88637 211.03422 211.26608 211.49693 211.43679 211.14465 210.78050 210.41336
 210.03321 209.74607 209.55692 209.42378 209.35463 209.68849 210.07734 210.46920
 211.26505 212.44591 213.69876 215.48462 217.41547 219.46133 221.55918 223.64504
 225.70790 227.79475 229.89461 232.00346 234.13532 236.31017 238.56903 240.94188
 243.56574 245.81959 247.82445 249.59230 251.01216 252.13801 252.96287 253.28172
 253.32158 253.09844 252.46129 251.41215 250.02100 248.18486 246.09671 243.93257
 241.72642 239.53328 237.35613 235.19799 233.06084 230.93070 228.95955 227.11941
 225.40526 223.88012 222.51297 221.28783 220.17269 219.13554 218.24240 217.38625
 216.63111 215.81396 214.91482 214.28167 213.73453 214.27896 215.62599 217.72728
 220.18987 222.37999 223.67157 224.39163 225.21530 226.18033 226.75890 225.71259
 226.14572 228.66998 232.97520 237.61571 242.23523 246.68488 250.85858 254.68237
 258.16312 261.29492 264.08578 266.65604 269.00381 271.00241 272.71765 274.36105
 276.04752 277.65604 279.17157 280.54468 281.75351 282.85251 283.94614 284.94580
 285.84485 286.64548 287.34488 288.23621
 366.78100 356.33626 345.76951 334.63677 323.04102 311.23628 299.10754 286.91179
 274.62505 262.52330 250.53356 239.83581 229.95907 221.06433 213.24758 206.25084
 200.08609 195.02535 191.60861 189.65186 188.69012 188.75537 189.59163 190.90088
 192.62714 194.72340 196.98765 199.34791 201.79416 204.27542 206.36468 208.20793
 209.83519 210.98144 211.21170 211.44095 211.37921 211.08547 210.71972 210.35098
 209.96923 209.68049 209.48975 209.35500 209.28426 209.61651 210.00377 210.39402
 211.18828 212.36754 213.61879 215.40305 217.33230 219.37656 221.47282 223.55707
 225.61833 227.70358 229.80184 231.90910 234.03935 236.21261 238.46986 240.84112
 243.46337 245.71563 247.71889 249.48514 250.90340 252.02765 252.85091 253.16817
 253.20642 252.98168 252.34293 251.29219 249.89944 248.06170 245.97196 243.80621
 241.59847 239.40372 237.22498 235.06524 232.92649 230.79475 228.82200 226.98026
 225.26451 223.73777 222.36903 221.14228 220.02554 218.98679 218.09205 217.23431
 216.47756 215.65882 214.75807 214.12333 213.57458 214.20528 215.73064 217.84370
 220.08069 222.32506 223.77299 224.48831 225.31313 226.29089 226.87413 225.52464
 225.89186 228.47058 232.87288 237.51418 242.12526 246.56555 250.74524 254.57120
 258.05664 261.19388 264.00677 266.59021 268.95901 271.03598 272.82257 274.48145
 276.11639 277.68774 279.17896 280.54465 281.74399 282.82339 283.82315 284.81393
 285.71472 286.51688 287.21762 288.11066
 366.78100 356.33572 345.76844 334.63515 323.03887 311.23359 299.10431 286.90803
 274.62075 262.51846 250.52818 239.82990 229.95262 221.05734 213.24005 206.24277
 200.07749 195.01621 191.59893 189.64164 188.67936 188.74408 189.57980 190.88852
 192.61424 194.70995 196.97367 199.33339 201.77911 204.25983 206.34854 208.19126
 209.81798 210.96370 211.19342 211.42213 211.35985 211.06557 210.69929 210.33001
 209.94773 209.65844 209.46716 209.33188 209.26060 209.59232 209.97903 210.36875
 211.16247 212.34119 213.59191 215.37562 217.30434 219.34806 221.44378 223.52750
 225.58822 227.67293 229.77065 231.87737 234.00709 236.17981 238.43652 240.80724
 243.42896 245.68068 247.68340 249.44911 250.86683 251.99055 252.81327 253.12999
 253.16771 252.94242 252.30314 251.25186 249.85858 248.02030 245.93001 243.76373
 241.55545 239.36017 237.18089 235.02060 232.88132 230.74904 228.77576 226.93348
 225.21720 223.68991 222.32063 221.09335 219.97607 218.93679 218.04150 217.18322
 216.42594 215.60666 214.70538 214.07009 213.52081 214.18893 215.79372 217.91412
 220.05862 222.27036 223.78134 224.56906 225.45880 226.39864 226.87541 225.47151
 225.80682 228.39586 232.80890 237.44109 242.04553 246.48764 250.68129 254.53203
 258.04260 261.19742 264.01395 266.58597 268.94495 271.03659 272.86124 274.52802
 276.15515 277.71545 279.20792 280.57629 281.77554 282.84909 283.83975 284.78458
 285.67410 286.46622 287.15817 288.04001
 366.78100 356.33615 345.76930 334.63645 323.04060 311.23576 299.10691 286.91106
 274.62421 262.52236 250.53251 239.83466 229.95781 221.06297 213.24612 206.24927
 200.08442 195.02357 191.60672 189.64987 188.68802 188.75317 189.58933 190.89848
 192.62463 194.72078 196.98493 199.34508 201.79123 204.27238 206.36154 208.20469
 209.83184 210.97799 211.20814 211.43729 211.37544 211.08159 210.71574 210.34690
 209.96505 209.67620 209.48535 209.35050 209.27965 209.61180 209.99895 210.38911
 211.18326 212.36241 213.61356 215.39771 217.32686 219.37101 221.46716 223.55131
 225.61247 227.69762 229.79577 231.90292 234.03307 236.20622 238.46337 240.83452
 243.45668 245.70883 247.71198 249.47813 250.89628 252.02043 252.84358 253.16073
 253.19888 252.97404 252.33519 251.28434 249.89149 248.05364 245.96379 243.79794
 241.59009 239.39525 237.21640 235.05655 232.91770 230.78585 228.81300 226.97115
 225.25530 223.72845 222.35961 221.13276 220.01591 218.97706 218.08221 217.22436
 216.46751 215.64866 214.74782 214.11297 213.56412 214.22527 215.79823 217.95554
 220.12389 222.27536 223.81598 224.66971 225.52440 226.45596 226.86932 225.42836
 225.73965 228.40985 232.73331 237.35860 241.96059 246.40848 250.61887 254.50664
 258.05978 261.25885 264.10400 266.67975 269.03760 271.14862 273.00247 274.67227
 276.25726 277.74988 279.20956 280.56143 281.74289 282.79901 283.77884 284.66327
 285.50351 286.27887 286.95618 287.81937
 366.78100 356.33716 345.77132 334.63948 323.04464 311.24080 299.11296 286.91811
 274.63227 262.53143 250.54259 239.84575 229.96991 221.07607 213.26023 206.26439
 200.10055 195.04071 191.62487 189.66902 188.70818 188.77434 189.61150 190.92166
 192.64882 194.74598 197.01114 199.37230 201.81946 204.30162 206.39178 208.23593
 209.86409 211.01125 211.24241 211.47257 211.41173 211.11889 210.75405 210.38621
 210.00537 209.71753 209.52769 209.39384 209.32400 209.65716 210.04532 210.43648
 211.23164 212.41180 213.66396 215.44912 217.37928 219.42444 221.52160 223.60675
 225.66891 227.75507 229.85423 231.96239 234.09355 236.26771 238.52587 240.89803
 243.52119 245.77435 247.77851 249.54566 250.96482 252.08998 252.91414 253.23230
 253.27146 253.04762 252.40978 251.35994 249.96810 248.13126 246.04242 243.87757
 241.67073 239.47689 237.29905 235.14021 233.00237 230.87153 228.89969 227.05885
 225.34401 223.81817 222.45033 221.22448 220.10864 219.07080 218.17696 217.32012
 216.56428 215.74644 214.84660 214.21276 213.66492 214.29202 215.77361 218.02147
 220.24323 222.26636 223.74138 224.72127 225.70485 226.58449 226.84964 225.42024
 225.63708 228.36877 232.65639 237.26222 241.84265 246.28523 250.50435 254.42392
 258.01749 261.25607 264.13306 266.73077 269.10318 271.23596 273.11234 274.78375
 276.34851 277.82709 279.22647 280.54819 281.71817 282.76508 283.73453 284.60522
 285.38910 286.13016 286.80875 287.67352
 366.78100 356.33811 345.77323 334.64234 323.04845 311.24556 299.11868 286.92479
 274.63990 262.54002 250.55213 239.85624 229.98136 221.08847 213.27358 206.27869
 200.11581 195.05692 191.64203 189.68715 188.72726 188.79437 189.63249 190.94360
 192.67171 194.76982 197.03594 199.39805 201.84616 204.32928 206.42039 208.26550
 209.89462 211.04273 211.27484 211.50595 211.44607 211.15418 210.79029 210.42341
 210.04352 209.75663 209.56775 209.43486 209.36597 209.70008 210.08920 210.48131
 211.27742 212.45854 213.71165 215.49776 217.42888 219.47499 221.57310 223.65921
 225.72233 227.80944 229.90955 232.01867 234.15078 236.32589 238.58501 240.95812
 243.58223 245.83634 247.84146 249.60957 251.02968 252.15580 252.98091 253.30002
 253.34014 253.11725 252.48036 251.43147 250.04059 248.20470 246.11681 243.95293
 241.74704 239.55415 237.37727 235.21938 233.08249 230.95260 228.98172 227.14183
 225.42794 223.90306 222.53617 221.31128 220.19640 219.15951 218.26662 217.41073
 216.65585 215.83896 214.94007 214.30719 213.76030 214.35498 215.75999 218.09448
 220.32956 222.21684 223.68028 224.70953 225.72397 226.63689 226.92654 225.55609
 225.64342 228.34709 232.59428 237.15891 241.71867 246.15053 250.37225 254.30954
 257.92856 261.19962 264.10794 266.72772 269.12186 271.27591 273.16418 274.82971
 276.38501 277.85831 279.23901 280.53958 281.69925 282.74362 283.70850 284.57224
 285.34125 286.04166 286.69980 287.54129
 366.78100 356.33836 345.77373 334.64309 323.04946 311.24682 299.12019 286.92655
 274.64192 262.54228 250.55465 239.85901 229.98438 221.09174 213.27711 206.28247
 200.11984 195.06120 191.64657 189.69193 188.73230 188.79966 189.63803 190.94939
 192.67776 194.77612 197.04249 199.40485 201.85322 204.33658 206.42795 208.27331
 209.90268 211.05104 211.28341 211.51477 211.45514 211.16350 210.79987 210.43323
 210.05360 209.76696 209.57833 209.44569 209.37706 209.71142 210.10079 210.49315
 211.28952 212.47088 213.72425 215.51061 217.44198 219.48834 221.58671 223.67307
 225.73644 227.82380 229.92417 232.03353 234.16590 236.34126 238.60063 240.97399
 243.59835 245.85272 247.85808 249.62645 251.04681 252.17318 252.99854 253.31791
 253.35827 253.13564 252.49900 251.45037 250.05973 248.22410 246.13646 243.97283
 241.76719 239.57456 237.39792 235.24029 233.10365 230.97402 229.00338 227.16375
 225.45011 223.92548 222.55884 221.33421 220.21957 219.18294 218.29030 217.43467
 216.68003 215.86340 214.96476 214.33213 213.78549 214.37920 215.78189 218.16861
 220.36726 222.14813 223.62009 224.67670 225.64449 226.63849 227.07869 225.83305
 225.74390 228.30939 232.53131 237.07948 241.60382 246.01401 250.23280 254.18323
 257.82391 261.12152 264.06119 266.70370 269.12006 271.30667 273.20950 274.86469
 276.40997 277.87814 279.24774 280.53360 281.69284 282.74033 283.70798 284.57846
 285.34476 286.03787 286.67310 287.50101
 366.78100 356.33853 345.77406 334.64359 323.05013 311.24766 299.12119 286.92772
 274.64325 262.54378 250.55631 239.86085 229.98638 221.09391 213.27944 206.28497
 200.12250 195.06403 191.64957 189.69510 188.73563 188.80316 189.64169 190.95322
 192.68175 194.78028 197.04682 199.40935 201.85788 204.34141 206.43294 208.27847
 209.90800 211.05654 211.28907 211.52060 211.46113 211.16966 210.80619 210.43972
 210.06026 209.77379 209.58532 209.45285 209.38438 209.71891 210.10844 210.50098
 211.29751 212.47904 213.73257 215.51910 217.45063 219.49716 221.59570 223.68223
 225.74576 227.83329 229.93382 232.04335 234.17588 236.35141 238.61095 240.98448
 243.60901 245.86354 247.86907 249.63760 251.05813 252.18467 253.01020 253.32973
 253.37026 253.14779 252.51132 251.46285 250.07239 248.23692 246.14945 243.98598
 241.78051 239.58804 237.41157 235.25411 233.11764 230.98817 229.01770 227.17823
 225.46476 223.94029 222.57383 221.34936 220.23489 219.19842 218.30595 217.45048
 216.69601 215.87955 214.98108 214.34861 213.80214 214.39828 215.80676 218.23558
 220.43988 222.12677 223.48125 224.57458 225.63495 226.72345 227.25240 226.02036
 225.80727 228.34583 232.50407 236.96606 241.45364 245.85771 250.08066 254.04247
 257.69876 261.01065 263.96829 266.62656 269.06018 271.26221 273.16913 274.84955
 276.42886 277.90665 279.26904 280.55511 281.72174 282.77170 283.74969 284.61353
 285.26654 285.95309 286.56787 287.39124
 366.78100 356.33968 345.77636 334.64704 323.05472 311.25341 299.12809 286.93577
 274.65245 262.55413 250.56781 239.87349 230.00017 221.10885 213.29554 206.30222
 200.14090 195.08358 191.67026 189.71694 188.75862 188.82730 189.66699 190.97967
 192.70935 194.80903 197.07671 199.44039 201.89007 204.37475 206.46743 208.31412
 209.94480 211.09448 211.32816 211.56084 211.50252 211.21220 210.84988 210.48456
 210.10625 209.82093 209.63361 209.50229 209.43497 209.77065 210.16133 210.55501
 211.35269 212.53538 213.79006 215.57774 217.51042 219.55810 221.65778 223.74546
 225.81014 227.89883 230.00051 232.11119 234.24487 236.42155 238.68223 241.05691
 243.68259 245.93827 247.94496 249.71464 251.13632 252.26400 253.09068 253.41136
 253.45304 253.23172 252.59640 251.54909 250.15977 248.32545 246.23913 244.07681
 241.87249 239.68117 237.50585 235.34953 233.21422 231.08590 229.11658 227.27826
 225.56594 224.04262 222.67730 221.45398 220.34067 219.30535 218.41403 217.55971
 216.80639 215.99107 215.09375 214.46243 213.91711 214.47922 215.81311 218.19554
 220.51424 222.13866 223.26805 224.30389 225.50618 226.68221 227.30966 226.42633
 226.00652 228.25182 232.42398 236.94194 241.42813 245.80362 250.02612 254.00314
 257.67636 260.99454 263.93274 266.55194 268.94879 271.12405 272.99869 274.65622
 276.23221 277.72769 279.16592 280.51907 281.70432 282.75906 283.72467 284.61270
 285.42453 286.17340 286.82761 287.66132
 366.78100 356.34205 345.78109 334.65414 323.06419 311.26523 299.14228 286.95232
 274.67137 262.57542 250.59146 239.89951 230.02856 221.13960 213.32865 206.33770
 200.17874 195.12379 191.71284 189.76188 188.80593 188.87697 189.71902 191.03407
 192.76611 194.86816 197.13821 199.50425 201.95630 204.44335 206.53839 208.38744
 210.02049 211.17253 211.40858 211.64362 211.58767 211.29972 210.93976 210.57681
 210.20086 209.91790 209.73295 209.60400 209.53904 209.87709 210.27013 210.66618
 211.46623 212.65127 213.90832 215.69837 217.63341 219.68346 221.78551 223.87555
 225.94260 228.03365 230.13769 232.25074 234.38678 236.56583 238.82888 241.20592
 243.83397 246.09202 248.10106 249.87311 251.29716 252.42720 253.25625 253.57929
 253.62334 253.40439 252.77143 251.72648 250.33953 248.50757 246.42362 244.26367
 242.06171 239.87276 237.69981 235.54585 233.41290 231.28694 229.31999 227.48404
 225.77408 224.25313 222.89018 221.66922 220.55827 219.52532 218.63636 217.78441
 217.03346 216.22050 215.32555 214.69659 214.15364 214.63527 215.87093 218.12843
 220.49541 222.09460 223.20523 224.21631 225.42719 226.51276 227.01509 226.74715
 226.29971 228.49496 232.46968 236.96289 241.45950 245.85805 250.10469 254.11435
 257.82233 261.16959 264.11377 266.69269 269.02609 271.11066 272.92249 274.57141
 276.14963 277.70572 279.21802 280.60468 281.83188 283.02112 284.12723 285.12927
 286.03052 286.83307 287.53418 288.42764
 366.78100 356.34288 345.78276 334.65664 323.06752 311.26941 299.14729 286.95817
 274.67805 262.58293 250.59981 239.90869 230.03857 221.15046 213.34034 206.35022
 200.19210 195.13798 191.72786 189.77774 188.82262 188.89451 189.73739 191.05327
 192.78615 194.88903 197.15991 199.52679 201.97967 204.46756 206.56344 208.41332
 210.04720 211.20008 211.43696 211.67284 211.61772 211.33060 210.97149 210.60937
 210.23425 209.95213 209.76801 209.63989 209.57577 209.91465 210.30854 210.70542
 211.50630 212.69218 213.95006 215.74094 217.67682 219.72770 221.83059 223.92147
 225.98935 228.08123 230.18611 232.29999 234.43687 236.61675 238.88064 241.25852
 243.88740 246.14628 248.15616 249.92904 251.35392 252.48480 253.31469 253.63857
 253.68345 253.46533 252.83321 251.78909 250.40297 248.57185 246.48873 244.32962
 242.12850 239.94038 237.76826 235.61514 233.48302 231.35790 229.39178 227.55667
 225.84755 224.32743 222.96531 221.74519 220.63507 219.60295 218.71483 217.86372
 217.11360 216.30148 215.40736 214.77924 214.23712 214.70476 215.91135 218.06987
 220.45464 222.14664 223.39056 224.34378 225.40050 226.40836 226.93649 226.53040
 226.19212 228.41931 232.45216 236.99969 241.51144 245.92479 250.20950 254.28082
 258.08200 261.54962 264.60303 267.23798 269.56610 271.66916 273.49304 275.05627
 276.48093 277.88602 279.31186 280.68460 281.94711 283.19064 284.32516 285.35297
 286.27737 287.10056 287.81967 288.73611
 366.78100 356.34097 345.77893 334.65090 323.05986 311.25983 299.13580 286.94476
 274.66273 262.56569 250.58066 239.88763 230.01559 221.12556 213.31352 206.32149
 200.16145 195.10542 191.69339 189.74135 188.78432 188.85428 189.69525 191.00922
 192.74018 194.84115 197.11011 199.47508 201.92605 204.41201 206.50598 208.35394
 209.98591 211.13688 211.37184 211.60581 211.54877 211.25974 210.89871 210.53467
 210.15764 209.87360 209.68757 209.55754 209.49150 209.82847 210.22043 210.61540
 211.41436 212.59833 213.85430 215.64326 217.57723 219.62619 221.72716 223.81613
 225.88209 227.97206 230.07502 232.18699 234.32196 236.49992 238.76189 241.13785
 243.76482 246.02179 248.02975 249.80072 251.22368 252.35265 253.18062 253.50258
 253.54555 253.32551 252.69148 251.64544 250.25741 248.42438 246.33934 244.17831
 241.97527 239.78524 237.61121 235.45617 233.32214 231.19510 229.22707 227.39004
 225.67900 224.15697 222.79293 221.57090 220.45887 219.42483 218.53480 217.68176
 216.92973 216.11570 215.21966 214.58963 214.04559 214.60957 215.96457 218.14697
 220.33455 222.02464 223.49545 224.53601 225.48560 226.42766 227.03934 226.13670
 226.05048 228.24089 232.29648 236.85378 241.32779 245.73619 250.04384 254.14751
 257.98761 261.52438 264.69165 267.45532 269.90637 272.13474 274.06985 275.69327
 277.11612 278.39975 279.58856 280.74384 281.87253 282.92477 283.90659 284.83585
 285.73367 286.53320 287.23166 288.12177
 366.78100 356.33976 345.77652 334.64727 323.05503 311.25379 299.12855 286.93631
 274.65306 262.55482 250.56858 239.87434 230.00110 221.10985 213.29661 206.30337
 200.14213 195.08489 191.67164 189.71840 188.76016 188.82892 189.66868 190.98144
 192.71119 194.81095 197.07871 199.44247 201.89223 204.37698 206.46974 208.31650
 209.94726 211.09702 211.33077 211.56353 211.50529 211.21505 210.85281 210.48756
 210.10932 209.82408 209.63684 209.50560 209.43835 209.77411 210.16487 210.55863
 211.35639 212.53914 213.79390 215.58166 217.51442 219.56218 221.66193 223.74969
 225.81445 227.90321 230.00497 232.11572 234.24948 236.42624 238.68700 241.06176
 243.68751 245.94327 247.95003 249.71979 251.14155 252.26931 253.09606 253.41682
 253.45858 253.23734 252.60210 251.55485 250.16561 248.33137 246.24513 244.08289
 241.87864 239.68740 237.51216 235.35592 233.22068 231.09243 229.12319 227.28495
 225.57271 224.04947 222.68422 221.46098 220.34774 219.31250 218.42126 217.56701
 216.81377 215.99853 215.10129 214.47005 213.92480 214.54501 216.01035 218.29419
 220.40540 222.03639 223.42441 224.54533 225.52507 226.51492 227.20111 226.35237
 226.17438 228.30087 232.23889 236.74965 241.15451 245.53032 249.82837 253.92238
 257.74634 261.26074 264.41309 267.18848 269.69199 271.98816 273.96320 275.62665
 277.10309 278.45193 279.68109 280.81039 281.87717 282.90329 283.85675 284.73285
 285.53983 286.27490 286.93344 287.82285
 366.78100 356.34100 345.77900 334.65100 323.06000 311.26000 299.13600 286.94500
 274.66300 262.56600 250.58100 239.88800 230.01601 221.12601 213.31401 206.32201
 200.16201 195.10601 191.69401 189.74201 188.78501 188.85501 189.69601 191.01001
 192.74101 194.84201 197.11101 199.47601 201.92701 204.41301 206.50701 208.35501
 209.98701 211.13801 211.37301 211.60701 211.55002 211.26102 210.90002 210.53602
 210.15902 209.87502 209.68902 209.55902 209.49302 209.83002 210.22202 210.61702
 211.41602 212.60002 213.85602 215.64502 217.57902 219.62802 221.72902 223.81802
 225.88402 227.97402 230.07702 232.18902 234.32403 236.50203 238.76403 241.14003
 243.76703 246.02403 248.03203 249.80303 251.22603 252.35503 253.18303 253.50503
 253.54803 253.32803 252.69403 251.64803 250.26003 248.42703 246.34203 244.18103
 241.97803 239.78803 237.61403 235.45903 233.32504 231.19804 229.23004 227.39304
 225.68204 224.16004 222.79604 221.57404 220.46204 219.42804 218.53804 217.68504
 216.93304 216.11904 215.22304 214.59304 214.04904 214.61989 215.96860 218.31908
 220.50401 222.08081 223.30067 224.32245 225.29449 226.41501 227.29831 226.69263
 226.41252 228.34166 232.24243 236.78731 241.15652 245.49211 249.78752 253.87962
 257.69818 261.19342 264.31201 267.04050 269.54074 271.85535 273.77954 275.39090
 276.87796 278.26834 279.54282 280.71078 281.84311 282.88580 283.84494 284.72488
 285.53287 286.27451 286.90982 287.74646
 366.78100 356.34262 345.78224 334.65587 323.06649 311.26811 299.14573 286.95636
 274.67598 262.58060 250.59722 239.90585 230.03547 221.14709 213.33671 206.34634
 200.18796 195.13358 191.72320 189.77283 188.81745 188.88907 189.73169 191.04732
 192.77994 194.88256 197.15318 199.51981 201.97243 204.46005 206.55567 208.40530
 210.03892 211.19154 211.42816 211.66378 211.60841 211.32103 210.96165 210.59927
 210.22390 209.94152 209.75714 209.62876 209.56439 209.90301 210.29663 210.69325
 211.49388 212.67950 213.93712 215.72774 217.66337 219.71399 221.81661 223.90723
 225.97486 228.06648 230.17110 232.28472 234.42135 236.60097 238.86459 241.24221
 243.87084 246.12946 248.13908 249.91170 251.33633 252.46695 253.29657 253.62019
 253.66481 253.44644 252.81406 251.76968 250.38330 248.55193 246.46855 244.30917
 242.10779 239.91942 237.74704 235.59366 233.46128 231.33591 229.36953 227.53415
 225.82477 224.30440 222.94202 221.72164 220.61126 219.57889 218.69051 217.83913
 217.08875 216.27638 215.38200 214.75362 214.21124 214.72157 215.92728 218.28401
 220.59566 222.18475 223.29881 224.15065 225.02422 226.18390 227.23135 226.85625
 226.60635 228.41353 232.26932 236.84361 241.21672 245.52795 249.81538 253.90663
 257.72382 261.21478 264.32568 267.02908 269.52368 271.85095 273.74731 275.32266
 276.80301 278.20407 279.49237 280.68262 281.83826 282.88684 283.84961 284.73251
 285.54321 286.28809 286.91898 287.74692
 366.78100 356.34286 345.78271 334.65657 323.06742 311.26928 299.14714 286.95799
 274.67785 262.58270 250.59956 239.90842 230.03827 221.15013 213.33998 206.34984
 200.19170 195.13755 191.72741 189.77726 188.82212 188.89398 189.73683 191.05269
 192.78554 194.88840 197.15926 199.52611 201.97897 204.46683 206.56268 208.41254
 210.04639 211.19925 211.43611 211.67196 211.61682 211.32967 210.97053 210.60839
 210.23324 209.95110 209.76695 209.63881 209.57467 209.91352 210.30738 210.70423
 211.50509 212.69095 213.94880 215.73966 217.67551 219.72637 221.82923 223.92008
 225.98794 228.07979 230.18465 232.29851 234.43536 236.61522 238.87907 241.25693
 243.88579 246.14464 248.15450 249.92735 251.35221 252.48307 253.31292 253.63678
 253.68163 253.46349 252.83135 251.78720 250.40106 248.56991 246.48677 244.32763
 242.12648 239.93834 237.76620 235.61305 233.48091 231.35576 229.38962 227.55448
 225.84533 224.32519 222.96304 221.74290 220.63276 219.60061 218.71247 217.86132
 217.11118 216.29904 215.40489 214.77675 214.23460 214.74844 215.96243 218.25359
 220.59029 222.24249 223.36902 224.11452 224.87668 226.00110 227.12477 226.88870
 226.68188 228.44638 232.28677 236.88748 241.25867 245.55251 249.83696 253.92343
 257.72961 261.20688 264.30685 267.00214 269.50363 271.83472 273.71228 275.27795
 276.76788 278.17825 279.47296 280.69257 281.85623 282.90851 283.87213 284.75861
 285.57077 286.31012 286.94669 287.78256
 366.78100 356.34237 345.78174 334.65511 323.06547 311.26684 299.14421 286.95458
 274.67395 262.57832 250.59469 239.90305 230.03242 221.14379 213.33316 206.34253
 200.18390 195.12926 191.71863 189.76800 188.81237 188.88374 189.72611 191.04148
 192.77384 194.87621 197.14658 199.51295 201.96532 204.45269 206.54806 208.39742
 210.03079 211.18316 211.41953 211.65490 211.59927 211.31164 210.95200 210.58937
 210.21374 209.93111 209.74648 209.61785 209.55321 209.89158 210.28495 210.68132
 211.48169 212.66706 213.92443 215.71479 217.65016 219.70053 221.80290 223.89327
 225.96064 228.05201 230.15637 232.26974 234.40611 236.58548 238.84885 241.22622
 243.85459 246.11295 248.12232 249.89469 251.31906 252.44943 253.27880 253.60216
 253.64653 253.42790 252.79527 251.75064 250.36401 248.53238 246.44874 244.28911
 242.08748 239.89885 237.72622 235.57259 233.43996 231.31432 229.34769 227.51206
 225.80243 224.28180 222.91917 221.69854 220.58790 219.55527 218.66664 217.81501
 217.06438 216.25175 215.35712 214.72848 214.18585 214.73288 216.02528 218.25562
 220.54192 222.23743 223.40193 224.09404 224.79015 225.87924 227.03778 226.92477
 226.76505 228.47852 232.29790 236.92120 241.29562 245.58345 249.86452 253.94247
 257.73099 261.18906 264.27377 266.96570 269.48007 271.81403 273.67340 275.23221
 276.73694 278.16089 279.45990 280.71597 281.88666 282.93863 283.90457 284.79047
 285.60382 286.34439 286.98654 287.82294
 366.78100 356.34235 345.78169 334.65504 323.06539 311.26674 299.14408 286.95443
 274.67378 262.57813 250.59447 239.90282 230.03217 221.14352 213.33286 206.34221
 200.18356 195.12890 191.71825 189.76760 188.81195 188.88329 189.72564 191.04099
 192.77334 194.87568 197.14603 199.51238 201.96472 204.45207 206.54742 208.39677
 210.03011 211.18246 211.41881 211.65416 211.59850 211.31085 210.95120 210.58855
 210.21289 209.93024 209.74559 209.61693 209.55228 209.89063 210.28398 210.68032
 211.48067 212.66602 213.92337 215.71371 217.64906 219.69941 221.80175 223.89210
 225.95945 228.05080 230.15514 232.26849 234.40484 236.58419 238.84753 241.22488
 243.85323 246.11158 248.12092 249.89327 251.31762 252.44796 253.27731 253.60066
 253.64501 253.42635 252.79370 251.74905 250.36240 248.53074 246.44709 244.28744
 242.08578 239.89713 237.72448 235.57083 233.43817 231.31252 229.34587 227.51022
 225.80056 224.27991 222.91726 221.69661 220.58595 219.55330 218.66465 217.81299
 217.06234 216.24969 215.35504 214.72638 214.18373 214.74136 216.05881 218.26730
 220.51924 222.24200 223.42046 224.04492 224.65143 225.72260 226.95557 226.97202
 226.85109 228.51582 232.31885 236.96132 241.35402 245.63252 249.90755 253.97511
 257.74161 261.17575 264.24234 266.93307 269.46075 271.80020 273.64578 275.19415
 276.70801 278.14215 279.44565 280.74329 281.92126 282.97369 283.94083 284.82962
 285.64175 286.38181 287.02509 287.87061
 366.78100 356.34275 345.78250 334.65626 323.06701 311.26876 299.14651 286.95726
 274.67701 262.58177 250.59852 239.90727 230.03702 221.14877 213.33853 206.34828
 200.19003 195.13578 191.72553 189.77528 188.82004 188.89179 189.73454 191.05029
 192.78304 194.88580 197.15655 199.52330 201.97605 204.46380 206.55955 208.40931
 210.04306 211.19581 211.43256 211.66831 211.61307 211.32582 210.96657 210.60432
 210.22907 209.94682 209.76258 209.63433 209.57008 209.90883 210.30258 210.69934
 211.50009 212.68584 213.94359 215.73434 217.67009 219.72085 221.82360 223.91435
 225.98210 228.07385 230.17861 232.29236 234.42911 236.60886 238.87261 241.25036
 243.87912 246.13787 248.14762 249.92037 251.34512 252.47588 253.30563 253.62938
 253.67413 253.45588 252.82363 251.77939 250.39314 248.56189 246.47864 244.31939
 242.11815 239.92990 237.75765 235.60440 233.47215 231.34690 229.38066 227.54541
 225.83616 224.31591 222.95366 221.73342 220.62317 219.59092 218.70267 217.85142
 217.10117 216.28893 215.39468 214.76643 214.22418 214.77399 216.07295 218.26294
 220.52100 222.26994 223.44090 223.99561 224.51878 225.51999 226.80080 227.01241
 226.98640 228.59085 232.34952 237.00720 241.41154 245.69220 249.96568 254.01723
 257.75946 261.16800 264.21454 266.90289 269.44211 271.78601 273.62283 275.16220
 276.67957 278.12015 279.43579 280.76624 281.94949 283.00510 283.97330 284.86121
 285.67584 286.41364 287.05942 287.90240
 366.78100 356.34305 345.78311 334.65716 323.06822 311.27027 299.14832 286.95938
 274.67943 262.58449 250.60154 239.91059 230.04065 221.15270 213.34276 206.35281
 200.19486 195.14092 191.73097 189.78102 188.82608 188.89813 189.74119 191.05724
 192.79029 194.89335 197.16440 199.53146 201.98451 204.47256 206.56862 208.41867
 210.05273 211.20578 211.44283 211.67889 211.62394 211.33700 210.97805 210.61610
 210.24116 209.95921 209.77527 209.64732 209.58337 209.92243 210.31648 210.71354
 211.51459 212.70064 213.95870 215.74975 217.68581 219.73686 221.83991 223.93097
 225.99902 228.09107 230.19613 232.31018 234.44724 236.62729 238.89134 241.26940
 243.89845 246.15751 248.16756 249.94061 251.36567 252.49672 253.32678 253.65083
 253.69588 253.47794 252.84599 251.80205 250.41610 248.58515 246.50221 244.34326
 242.14232 239.95437 237.78242 235.62948 233.49753 231.37259 229.40664 227.57169
 225.86275 224.34280 222.98086 221.76091 220.65096 219.61902 218.73107 217.88012
 217.13018 216.31823 215.42429 214.79634 214.25439 214.80211 216.09613 218.24368
 220.51740 222.31018 223.47926 223.93579 224.34099 225.33658 226.68816 227.01265
 227.04102 228.62489 232.38414 237.06606 241.49098 245.77995 250.04625 254.07889
 257.79181 261.16794 264.18936 266.87326 269.41974 271.76157 273.59149 275.12781
 276.64841 278.09378 279.44150 280.78299 281.97092 283.02780 283.99792 284.88821
 285.70126 286.44040 287.08340 287.93506
 366.78100 356.34306 345.78312 334.65717 323.06823 311.27029 299.14835 286.95941
 274.67947 262.58452 250.60158 239.91064 230.04070 221.15276 213.34282 206.35287
 200.19493 195.14099 191.73105 189.78111 188.82616 188.89822 189.74128 191.05734
 192.79040 194.89346 197.16451 199.53157 201.98463 204.47269 206.56875 208.41880
 210.05286 211.20592 211.44298 211.67904 211.62410 211.33715 210.97821 210.61627
 210.24133 209.95939 209.77545 209.64750 209.58356 209.92262 210.31668 210.71374
 211.51479 212.70085 213.95891 215.74997 217.68603 219.73709 221.84014 223.93120
 225.99926 228.09132 230.19638 232.31043 234.44749 236.62755 238.89161 241.26967
 243.89873 246.15778 248.16784 249.94090 251.36596 252.49702 253.32708 253.65113
 253.69619 253.47825 252.84631 251.80237 250.41642 248.58548 246.50254 244.34360
 242.14266 239.95472 237.78277 235.62983 233.49789 231.37295 229.40701 227.57206
 225.86312 224.34318 222.98124 221.76130 220.65136 219.61941 218.73147 217.88053
 217.13059 216.31865 215.42471 214.79676 214.25482 214.81436 216.13632 218.22237
 220.48965 222.34560 223.53287 223.93823 224.22121 225.03578 226.45686 227.00436
 227.15198 228.74295 232.45673 237.13626 241.58890 245.89430 250.14600 254.15085
 257.82657 261.16418 264.15726 266.83685 269.38901 271.72363 273.54645 275.08813
 276.61465 278.06702 279.44833 280.79770 281.98560 283.04388 284.01611 284.90775
 285.71936 286.45782 287.10144 287.95535
 366.78100 356.34299 345.78298 334.65697 323.06797 311.26996 299.14795 286.95894
 274.67893 262.58392 250.60092 239.90991 230.03990 221.15189 213.34188 206.35187
 200.19386 195.13986 191.72985 189.77984 188.82483 188.89682 189.73981 191.05581
 192.78880 194.89179 197.16278 199.52977 201.98276 204.47075 206.56675 208.41674
 210.05073 211.20372 211.44071 211.67670 211.62170 211.33469 210.97568 210.61367
 210.23866 209.95665 209.77264 209.64464 209.58063 209.91962 210.31361 210.71060
 211.51159 212.69759 213.95558 215.74657 217.68256 219.73355 221.83654 223.92753
 225.99553 228.08752 230.19251 232.30650 234.44349 236.62348 238.88748 241.26547
 243.89446 246.15345 248.16344 249.93643 251.36142 252.49242 253.32241 253.64640
 253.69139 253.47338 252.84137 251.79737 250.41136 248.58035 246.49734 244.33833
 242.13732 239.94931 237.77731 235.62430 233.49229 231.36728 229.40127 227.56626
 225.85726 224.33725 222.97524 221.75523 220.64522 219.61321 218.72520 217.87420
 217.12419 216.31218 215.41817 214.79016 214.24815 214.82263 216.17992 218.20724
 220.44759 222.36617 223.58755 223.95749 224.13089 224.74446 226.19446 226.96274
 227.26421 228.88724 232.53868 237.20395 241.70389 246.01566 250.24516 254.21919
 257.85571 261.15503 264.12280 266.80106 269.35818 271.68445 273.50092 275.04886
 276.58334 278.04639 279.45398 280.80756 281.99878 283.05792 284.03177 284.92328
 285.73709 286.47388 287.12494 287.99017
 366.78100 356.34306 345.78313 334.65719 323.06825 311.27031 299.14838 286.95944
 274.67950 262.58457 250.60163 239.91069 230.04076 221.15282 213.34288 206.35294
 200.19501 195.14107 191.73113 189.78120 188.82626 188.89832 189.74138 191.05745
 192.79051 194.89357 197.16464 199.53170 201.98476 204.47283 206.56889 208.41895
 210.05301 211.20608 211.44314 211.67920 211.62427 211.33733 210.97839 210.61645
 210.24152 209.95958 209.77564 209.64771 209.58377 209.92283 210.31690 210.71396
 211.51502 212.70108 213.95915 215.75021 217.68627 219.73734 221.84040 223.93146
 225.99953 228.09159 230.19665 232.31071 234.44778 236.62784 238.89190 241.26997
 243.89903 246.15809 248.16815 249.94122 251.36628 252.49734 253.32741 253.65147
 253.69653 253.47860 252.84666 251.80272 250.41678 248.58585 246.50291 244.34397
 242.14304 239.95510 237.78316 235.63022 233.49829 231.37335 229.40741 227.57248
 225.86354 224.34360 222.98167 221.76173 220.65179 219.61985 218.73192 217.88098
 217.13104 216.31911 215.42517 214.79723 214.25529 214.83835 216.21587 218.19788
 220.40596 222.37001 223.63457 223.96736 224.04512 224.50017 225.94688 226.88271
 227.34108 229.02596 232.63388 237.27039 241.81119 246.13440 250.34404 254.28912
 257.88852 261.15259 264.09869 266.77649 269.33536 271.65292 273.46320 275.01453
 276.55908 278.03076 279.45688 280.81528 282.00766 283.06854 284.04306 284.93536
 285.74637 286.48575 287.13272 288.00229
 366.78100 356.34325 345.78351 334.65776 323.06901 311.27126 299.14952 286.96077
 274.68102 262.58628 250.60353 239.91278 230.04304 221.15529 213.34554 206.35579
 200.19805 195.14430 191.73455 189.78481 188.83006 188.90231 189.74556 191.06182
 192.79507 194.89832 197.16958 199.53683 201.99008 204.47833 206.57459 208.42484
 210.05909 211.21235 211.44960 211.68585 211.63111 211.34436 210.98561 210.62386
 210.24912 209.96737 209.78362 209.65588 209.59213 209.93138 210.32563 210.72289
 211.52414 212.71039 213.96865 215.75990 217.69615 219.74740 221.85066 223.94191
 226.01016 228.10242 230.20767 232.32192 234.45918 236.63943 238.90368 241.28193
 243.91119 246.17044 248.18069 249.95395 251.37920 252.51045 253.34070 253.66496
 253.71021 253.49246 252.86072 251.81697 250.43122 248.60047 246.51773 244.35898
 242.15823 239.97049 237.79874 235.64599 233.51425 231.38950 229.42375 227.58900
 225.88026 224.36051 222.99876 221.77902 220.66927 219.63752 218.74977 217.89903
 217.14928 216.33753 215.44379 214.81604 214.27429 214.86145 216.24867 218.18930
 220.36916 222.36198 223.66951 223.96379 223.95805 224.29945 225.72096 226.76762
 227.37625 229.15041 232.72701 237.34906 241.92374 246.26033 250.45190 254.36513
 257.92770 261.15805 264.08408 266.76138 269.31891 271.62714 273.43091 274.98621
 276.53967 278.01837 279.45813 280.81769 282.01160 283.07382 284.04700 284.93915
 285.75165 286.48569 287.13260 287.99869
 366.78100 356.34345 345.78390 334.65835 323.06980 311.27224 299.15069 286.96214
 274.68259 262.58804 250.60549 239.91494 230.04539 221.15784 213.34829 206.35873
 200.20118 195.14763 191.73808 189.78853 188.83398 188.90643 189.74988 191.06633
 192.79978 194.90322 197.17467 199.54212 201.99557 204.48402 206.58047 208.43092
 210.06537 211.21882 211.45627 211.69271 211.63816 211.35161 210.99306 210.63151
 210.25696 209.97541 209.79186 209.66431 209.60076 209.94020 210.33465 210.73210
 211.53355 212.72000 213.97845 215.76990 217.70635 219.75780 221.86125 223.95269
 226.02114 228.11359 230.21904 232.33349 234.47094 236.65139 238.91584 241.29429
 243.92374 246.18318 248.19363 249.96708 251.39253 252.52398 253.35443 253.67888
 253.72433 253.50678 252.87523 251.83167 250.44612 248.61557 246.53302 244.37447
 242.17392 239.98637 237.81482 235.66227 233.53072 231.40616 229.44061 227.60606
 225.89751 224.37796 223.01641 221.79686 220.68731 219.65576 218.76821 217.91765
 217.16810 216.35655 215.46300 214.83545 214.29390 214.88570 216.28389 218.17969
 220.33295 222.34631 223.69070 223.95000 223.86972 224.12907 225.51117 226.62985
 227.38069 229.25722 232.82396 237.43823 242.04283 246.39304 250.56526 254.44724
 257.97375 261.17084 264.07739 266.75299 269.30551 271.60303 273.40039 274.95898
 276.52078 277.97363 279.47000 280.83286 282.02103 283.07935 284.05170 284.93982
 285.74945 286.48294 287.12747 287.99466
 366.78100 356.34361 345.78422 334.65884 323.07045 311.27306 299.15167 286.96328
 274.68390 262.58951 250.60712 239.91673 230.04735 221.15996 213.35057 206.36118
 200.20379 195.15041 191.74102 189.79163 188.83724 188.90985 189.75347 191.07008
 192.80369 194.90730 197.17891 199.54653 202.00014 204.48875 206.58536 208.43598
 210.07059 211.22420 211.46181 211.69842 211.64404 211.35765 210.99926 210.63787
 210.26348 209.98210 209.79871 209.67132 209.60793 209.94755 210.34216 210.73977
 211.54138 212.72799 213.98661 215.77822 217.71483 219.76644 221.87005 223.96167
 226.03028 228.12289 230.22850 232.34311 234.48073 236.66134 238.92595 241.30456
 243.93418 246.19379 248.20440 249.97801 251.40362 252.53524 253.36585 253.69046
 253.73607 253.51868 252.88730 251.84391 250.45852 248.62813 246.54574 244.38736
 242.18697 239.99958 237.82819 235.67581 233.54442 231.42003 229.45464 227.62025
 225.91187 224.39248 223.03109 221.81170 220.70231 219.67093 218.78354 217.93315
 217.18376 216.37237 215.47899 214.85160 214.31021 214.90839 216.32162 218.17181
 220.29483 222.32356 223.69785 223.93094 223.78529 223.98050 225.30988 226.47681
 227.36992 229.35640 232.91922 237.53340 242.16631 246.53046 250.68385 254.53471
 258.02701 261.19180 264.07843 266.74902 269.29520 271.57916 273.36963 274.93237
 276.50043 277.95587 279.46756 280.83661 282.02582 283.08429 284.05511 284.94449
 285.75049 286.48056 287.12280 287.98871
 366.78100 356.34377 345.78454 334.65931 323.07107 311.27384 299.15261 286.96438
 274.68515 262.59092 250.60869 239.91845 230.04922 221.16199 213.35276 206.36353
 200.20630 195.15306 191.74383 189.79460 188.84037 188.91314 189.75691 191.07368
 192.80744 194.91121 197.18298 199.55075 202.00452 204.49329 206.59006 208.44082
 210.07559 211.22936 211.46713 211.70390 211.64967 211.36344 211.00520 210.64397
 210.26974 209.98851 209.80528 209.67805 209.61481 209.95458 210.34935 210.74712
 211.54889 212.73566 213.99443 215.78619 217.72296 219.77473 221.87850 223.97027
 226.03904 228.13181 230.23757 232.35234 234.49011 236.67088 238.93565 241.31442
 243.94418 246.20395 248.21472 249.98849 251.41426 252.54603 253.37680 253.70156
 253.74733 253.53010 252.89887 251.85564 250.47041 248.64018 246.55794 244.39971
 242.19948 240.01225 237.84102 235.68879 233.55756 231.43332 229.46809 227.63386
 225.92563 224.40640 223.04517 221.82593 220.71670 219.68547 218.79824 217.94801
 217.19878 216.38755 215.49431 214.86708 214.32585 214.93050 216.35902 218.16557
 220.25478 222.29333 223.68979 223.90678 223.70798 223.85291 225.11646 226.30360
 227.34032 229.44962 233.01987 237.63618 242.29173 246.66527 250.80147 254.62451
 258.08536 261.22061 264.08792 266.75262 269.28918 271.55945 273.34186 274.90717
 276.47928 277.94681 279.46570 280.83725 282.02820 283.08661 284.05859 284.94385
 285.74963 286.47641 287.11456 287.98148
 366.78100 356.34395 345.78491 334.65986 323.07181 311.27477 299.15372 286.96567
 274.68663 262.59258 250.61053 239.92049 230.05144 221.16439 213.35535 206.36630
 200.20925 195.15621 191.74716 189.79811 188.84407 188.91702 189.76097 191.07793
 192.81188 194.91583 197.18779 199.55574 202.00969 204.49865 206.59560 208.44655
 210.08151 211.23546 211.47341 211.71037 211.65632 211.37027 211.01223 210.65118
 210.27713 209.99609 209.81304 209.68599 209.62295 209.96290 210.35785 210.75581
 211.55776 212.74471 214.00366 215.79562 217.73257 219.78452 221.88848 223.98043
 226.04938 228.14234 230.24829 232.36324 234.50120 236.68215 238.94710 241.32606
 243.95601 246.21596 248.22692 250.00087 251.42682 252.55878 253.38973 253.71468
 253.76064 253.54359 252.91254 251.86950 250.48445 248.65440 246.57236 244.41431
 242.21426 240.02722 237.85617 235.70412 233.57308 231.44903 229.48398 227.64994
 225.94189 224.42284 223.06180 221.84275 220.73370 219.70266 218.81561 217.96556
 217.21652 216.40547 215.51242 214.88538 214.34433 214.95401 216.39445 218.16275
 220.21094 222.25438 223.66788 223.87805 223.63864 223.74596 224.93707 226.11661
 227.29095 229.53531 233.12231 237.73999 242.41486 246.79504 250.91536 254.71411
 258.14606 261.25485 264.10574 266.76462 269.29083 271.54642 273.32278 274.88925
 276.46237 277.94351 279.46680 280.83789 282.03015 283.09042 284.06104 284.94708
 285.75168 286.47617 287.11749 287.97955
 366.78100 356.34414 345.78527 334.66041 323.07255 311.27568 299.15482 286.96696
 274.68809 262.59423 250.61237 239.92251 230.05364 221.16678 213.35792 206.36905
 200.21219 195.15933 191.75046 189.80160 188.84774 188.92087 189.76501 191.08215
 192.81628 194.92042 197.19256 199.56070 202.01483 204.50397 206.60111 208.45224
 210.08738 211.24152 211.47965 211.71679 211.66293 211.37706 211.01920 210.65834
 210.28447 210.00361 209.82075 209.69389 209.63102 209.97116 210.36630 210.76443
 211.56657 212.75371 214.01284 215.80498 217.74212 219.79425 221.89839 223.99053
 226.05966 228.15280 230.25894 232.37407 234.51221 236.69335 238.95849 241.33762
 243.96776 246.22790 248.23903 250.01317 251.43931 252.57144 253.40258 253.72772
 253.77385 253.55699 252.92613 251.88326 250.49840 248.66854 246.58668 244.42881
 242.22895 240.04209 237.87122 235.71936 233.58850 231.46463 229.49977 227.66591
 225.95804 224.43918 223.07832 221.85945 220.75059 219.71973 218.83286 217.98300
 217.23414 216.42328 215.53041 214.90355 214.36269 214.97726 216.42928 218.16258
 220.16290 222.20705 223.63403 223.84140 223.57414 223.65837 224.77664 225.92522
 227.22310 229.61151 233.22768 237.84789 242.53539 246.91924 251.02637 254.80312
 258.20920 261.29373 264.12979 266.78323 269.29605 271.53519 273.30502 274.87430
 276.45068 277.95016 279.47476 280.84787 282.04120 283.10062 284.07358 284.95782
 285.76465 286.49231 287.13239 287.99649
 366.78100 356.34439 345.78578 334.66118 323.07357 311.27696 299.15635 286.96874
 274.69013 262.59653 250.61492 239.92531 230.05670 221.17009 213.36148 206.37288
 200.21627 195.16366 191.75505 189.80644 188.85283 188.92623 189.77062 191.08801
 192.82240 194.92679 197.19918 199.56758 202.02197 204.51136 206.60875 208.46014
 210.09553 211.24993 211.48832 211.72571 211.67210 211.38649 211.02888 210.66828
 210.29467 210.01406 209.83145 209.70484 209.64223 209.98263 210.37802 210.77641
 211.57880 212.76619 214.02558 215.81798 217.75537 219.80776 221.91215 224.00454
 226.07393 228.16733 230.27372 232.38911 234.52750 236.70889 238.97428 241.35368
 243.98407 246.24446 248.25585 250.03024 251.45663 252.58903 253.42042 253.74581
 253.79220 253.57559 252.94498 251.90238 250.51777 248.68816 246.60655 244.44894
 242.24933 240.06273 237.89212 235.74051 233.60990 231.48629 229.52168 227.68808
 225.98047 224.46186 223.10125 221.88264 220.77403 219.74343 218.85682 218.00721
 217.25860 216.44799 215.55538 214.92878 214.38817 215.00504 216.46245 218.16585
 220.11179 222.15002 223.58427 223.79376 223.50797 223.58484 224.63559 225.74649
 227.14969 229.67352 233.33150 237.95778 242.65184 247.03874 251.13510 254.89236
 258.27472 261.33798 264.16135 266.80750 269.30258 271.52097 273.28394 274.85855
 276.44247 277.96555 279.49411 280.86783 282.06195 283.12274 284.09473 284.97961
 285.78482 286.51471 287.15350 288.01517
 366.78100 356.34479 345.78659 334.66238 323.07518 311.27897 299.15877 286.97156
 274.69336 262.60015 250.61895 239.92974 230.06154 221.17533 213.36713 206.37892
 200.22271 195.17051 191.76230 189.81410 188.86089 188.93469 189.77948 191.09728
 192.83207 194.93687 197.20966 199.57846 202.03325 204.52305 206.62084 208.47263
 210.10843 211.26322 211.50202 211.73981 211.68661 211.40140 211.04420 210.68399
 210.31079 210.03058 209.84838 209.72217 209.65997 210.00076 210.39655 210.79535
 211.59814 212.78594 214.04573 215.83853 217.77632 219.82912 221.93391 224.02671
 226.09650 228.19030 230.29709 232.41289 234.55168 236.73347 238.99927 241.37906
 244.00986 246.27065 248.28245 250.05724 251.48404 252.61683 253.44863 253.77442
 253.82122 253.60501 252.97481 251.93260 250.54839 248.71919 246.63798 244.48078
 242.28157 240.09537 237.92516 235.77396 233.64375 231.52055 229.55634 227.72314
 226.01593 224.49773 223.13752 221.91931 220.81111 219.78090 218.89470 218.04549
 217.29729 216.48708 215.59488 214.96867 214.42847 215.04170 216.49057 218.16917
 220.06676 222.08385 223.51765 223.72397 223.43701 223.52408 224.51172 225.57988
 227.07245 229.72421 233.43640 238.07254 242.76712 247.15561 251.24355 254.98320
 258.34470 261.38986 264.20151 266.83932 269.31113 271.50385 273.25772 274.83969
 276.43515 277.98999 279.52310 280.89850 282.09344 283.15488 284.12347 285.00812
 285.81519 286.54471 287.18268 288.03418
 366.78100 356.34520 345.78740 334.66360 323.07679 311.28099 299.16119 286.97439
 274.69659 262.60379 250.62298 239.93418 230.06638 221.18058 213.37278 206.38498
 200.22917 195.17737 191.76957 189.82177 188.86897 188.94317 189.78837 191.10656
 192.84176 194.94696 197.22016 199.58936 202.04456 204.53475 206.63295 208.48515
 210.12135 211.27655 211.51575 211.75394 211.70114 211.41634 211.05954 210.69974
 210.32694 210.04714 209.86533 209.73953 209.67773 210.01893 210.41513 210.81433
 211.61752 212.80572 214.06592 215.85912 217.79732 219.85052 221.95571 224.04891
 226.11911 228.21331 230.32051 232.43671 234.57590 236.75810 239.02430 241.40450
 244.03570 246.29690 248.30910 250.08429 251.51149 252.64469 253.47689 253.80309
 253.85029 253.63448 253.00468 251.96288 250.57908 248.75028 246.66948 244.51267
 242.31387 240.12807 237.95827 235.80747 233.67767 231.55487 229.59106 227.75826
 226.05146 224.53366 223.17386 221.95606 220.84825 219.81845 218.93265 218.08385
 217.33605 216.52625 215.63444 215.00864 214.46884 215.07820 216.51790 218.16750
 220.02586 222.02655 223.44386 223.64188 223.34062 223.45906 224.39304 225.41658
 227.00145 229.77664 233.54532 238.19193 242.88010 247.26685 251.34782 255.07216
 258.41690 261.44812 264.24954 266.87732 269.32333 271.48541 273.23181 274.82468
 276.43436 278.02298 279.56128 280.93707 282.13248 283.19296 284.16165 285.04694
 285.85022 286.58224 287.22311 288.06384
 366.78100 356.34556 345.78812 334.66468 323.07824 311.28280 299.16336 286.97692
 274.69948 262.60704 250.62660 239.93816 230.07072 221.18528 213.37784 206.39041
 200.23497 195.18353 191.77609 189.82865 188.87621 188.95077 189.79633 191.11489
 192.85045 194.95601 197.22957 199.59913 202.05469 204.54525 206.64381 208.49637
 210.13293 211.28849 211.52805 211.76661 211.71417 211.42973 211.07329 210.71385
 210.34141 210.06197 209.88053 209.75510 209.69366 210.03522 210.43178 210.83134
 211.63490 212.82346 214.08402 215.87758 217.81614 219.86970 221.97526 224.06882
 226.13938 228.23394 230.34150 232.45806 234.59762 236.78018 239.04674 241.42730
 244.05886 246.32042 248.33298 250.10854 251.53610 252.66966 253.50222 253.82879
 253.87635 253.66091 253.03147 251.99003 250.60659 248.77815 246.69771 244.54127
 242.34283 240.15739 237.98795 235.83751 233.70807 231.58563 229.62219 227.78975
 226.08331 224.56587 223.20643 221.98899 220.88155 219.85211 218.96667 218.11823
 217.37079 216.56135 215.66991 215.04448 214.50504 215.10976 216.53847 218.16705
 219.98923 221.97519 223.37105 223.54697 223.24690 223.38222 224.26851 225.26477
 226.92599 229.81728 233.65573 238.31512 242.99205 247.37383 251.45049 255.16302
 258.49670 261.51727 264.30948 266.92593 269.34097 271.46759 273.20383 274.80753
 276.43817 278.06076 279.60400 280.98090 282.17798 283.23758 284.20688 285.08810
 285.89203 286.62192 287.25604 288.09784
 366.78100 356.34598 345.78895 334.66593 323.07990 311.28488 299.16585 286.97983
 274.70280 262.61078 250.63076 239.94273 230.07571 221.19068 213.38366 206.39663
 200.24161 195.19058 191.78356 189.83654 188.88451 188.95949 189.80546 191.12444
 192.86041 194.96639 197.24036 199.61034 202.06632 204.55729 206.65627 208.50924
 210.14622 211.30219 211.54217 211.78114 211.72912 211.44510 211.08907 210.73005
 210.35802 210.07900 209.89797 209.77295 209.71192 210.05390 210.45088 210.85085
 211.65483 212.84380 214.10478 215.89875 217.83773 219.89170 221.99768 224.09166
 226.16263 228.25761 230.36558 232.48256 234.62253 236.80551 239.07248 241.45346
 244.08543 246.34741 248.36039 250.13636 251.56434 252.69831 253.53129 253.85826
 253.90624 253.69121 253.06219 252.02117 250.63814 248.81012 246.73009 244.57407
 242.37604 240.19102 238.02199 235.87197 233.74295 231.62092 229.65790 227.82587
 226.11985 224.60282 223.24380 222.02677 220.91975 219.89073 219.00570 218.15768
 217.41065 216.60163 215.71060 215.08558 214.54655 215.14114 216.54594 218.17157
 219.96404 221.92628 223.30940 223.44133 223.10266 223.31607 224.14685 225.06577
 226.83183 229.87199 233.77943 238.44812 243.10913 247.48717 251.56322 255.26768
 258.58621 261.59662 264.37369 266.97238 269.35184 271.43668 273.16431 274.78702
 276.39398 278.11719 279.66858 281.03842 282.23087 283.28735 284.25208 285.13113
 285.93433 286.66336 287.29095 288.12714
 366.78100 356.34641 345.78981 334.66722 323.08162 311.28703 299.16844 286.98284
 274.70625 262.61465 250.63506 239.94747 230.08087 221.19628 213.38968 206.40309
 200.24850 195.19790 191.79131 189.84471 188.89312 188.96853 189.81493 191.13434
 192.87074 194.97715 197.25156 199.62196 202.07837 204.56977 206.66918 208.52259
 210.15999 211.31640 211.55680 211.79621 211.74462 211.46102 211.10543 210.74683
 210.37524 210.09665 209.91605 209.79146 209.73086 210.07327 210.47068 210.87108
 211.67549 212.86489 214.12630 215.92071 217.86011 219.91452 222.02092 224.11533
 226.18674 228.28214 230.39055 232.50795 234.64836 236.83177 239.09917 241.48058
 244.11298 246.37539 248.38880 250.16520 251.59361 252.72801 253.56142 253.88883
 253.93723 253.72264 253.09404 252.05345 250.67086 248.84326 246.76367 244.60807
 242.41048 240.22589 238.05729 235.90770 233.77910 231.65751 229.69492 227.86332
 226.15773 224.64113 223.28254 222.06595 220.95935 219.93076 219.04616 218.19857
 217.45198 216.64338 215.75279 215.12819 214.58960 215.17291 216.55104 218.16945
 219.93721 221.88043 223.25160 223.39095 222.98280 223.11775 223.97891 224.97969
 226.80553 229.92331 233.90170 238.57779 243.22060 247.59158 251.67171 255.37192
 258.68826 261.68088 264.44135 267.02078 269.35913 271.39682 273.11557 274.75745
 276.40085 278.15030 279.70956 281.08411 282.27637 283.33231 284.29407 285.17166
 285.97498 286.70370 287.32739 288.15967
 366.78100 356.34680 345.79060 334.66840 323.08320 311.28899 299.17079 286.98559
 274.70939 262.61819 250.63899 239.95179 230.08559 221.20138 213.39518 206.40898
 200.25478 195.20458 191.79838 189.85218 188.90098 188.97677 189.82357 191.14337
 192.88017 194.98697 197.26177 199.63257 202.08937 204.58116 206.68096 208.53476
 210.17256 211.32936 211.57016 211.80996 211.75876 211.47555 211.12035 210.76215
 210.39095 210.11275 209.93255 209.80835 209.74815 210.09094 210.48874 210.88954
 211.69434 212.88414 214.14594 215.94074 217.88054 219.93533 222.04213 224.13693
 226.20873 228.30453 230.41333 232.53113 234.67193 236.85572 239.12352 241.50532
 244.13812 246.40092 248.41472 250.19152 251.62032 252.75511 253.58891 253.91671
 253.96551 253.75131 253.12311 252.08291 250.70071 248.87350 246.79430 244.63910
 242.44190 240.25770 238.08950 235.94030 233.81210 231.69089 229.72869 227.89749
 226.19229 224.67609 223.31789 222.10169 220.99549 219.96728 219.08308 218.23588
 217.48968 216.68148 215.79128 215.16708 214.62888 215.20448 216.56442 218.15700
 219.89784 221.83409 223.18692 223.35306 222.89064 222.91193 223.80640 224.91878
 226.78462 229.96303 234.01570 238.70314 243.32013 247.68925 251.77785 255.47665
 258.77164 261.76456 264.50897 267.06607 269.36261 271.34940 273.05908 274.72910
 276.41599 278.17236 279.73706 281.11694 282.31073 283.36795 284.32785 285.20526
 286.00537 286.73282 287.35422 288.18140
 366.78100 356.34723 345.79145 334.66968 323.08491 311.29114 299.17336 286.98859
 274.71282 262.62205 250.64327 239.95650 230.09073 221.20696 213.40118 206.41541
 200.26164 195.21187 191.80609 189.86032 188.90955 188.98577 189.83300 191.15323
 192.89046 194.99768 197.27291 199.64414 202.10137 204.59359 206.69382 208.54805
 210.18628 211.34350 211.58473 211.82496 211.77419 211.49141 211.13664 210.77887
 210.40810 210.13032 209.95055 209.82678 209.76700 210.11023 210.50846 210.90969
 211.71491 212.90514 214.16737 215.96260 217.90282 219.95805 222.06528 224.16051
 226.23273 228.32896 230.43819 232.55642 234.69764 236.88187 239.15010 241.53232
 244.16555 246.42878 248.44301 250.22023 251.64946 252.78469 253.61892 253.94714
 253.99637 253.78260 253.15483 252.11505 250.73328 248.90651 246.82774 244.67296
 242.47619 240.29242 238.12464 235.97587 233.84810 231.72733 229.76555 227.93478
 226.23001 224.71424 223.35646 222.14069 221.03492 220.00715 219.12337 218.27660
 217.53083 216.72306 215.83328 215.20951 214.67174 215.23679 216.57178 218.14546
 219.85847 221.78462 223.11258 223.29132 222.80162 222.73882 223.64787 224.84354
 226.74371 229.99225 234.12904 238.82213 243.42058 247.78322 251.87396 255.57146
 258.87366 261.84467 264.57077 267.10941 269.36539 271.30661 273.01697 274.71817
 276.43362 278.19235 279.75821 281.13763 282.32977 283.38495 284.34125 285.21588
 286.01416 286.73773 287.35284 288.17841
 366.78100 356.34772 345.79243 334.67115 323.08686 311.29358 299.17630 286.99201
 274.71673 262.62644 250.64816 239.96188 230.09659 221.21331 213.40802 206.42274
 200.26946 195.22017 191.81489 189.86960 188.91932 188.99604 189.84375 191.16447
 192.90218 195.00990 197.28562 199.65733 202.11505 204.60776 206.70848 208.56319
 210.20191 211.35963 211.60134 211.84206 211.79177 211.50949 211.15521 210.79792
 210.42764 210.15035 209.97107 209.84779 209.78850 210.13222 210.53093 210.93265
 211.73837 212.92908 214.19180 215.98751 217.92823 219.98395 222.09166 224.18738
 226.26009 228.35681 230.46653 232.58524 234.72696 236.91167 239.18039 241.56311
 244.19682 246.46054 248.47525 250.25297 251.68269 252.81840 253.65312 253.98183
 254.03155 253.81827 253.19098 252.15170 250.77041 248.94413 246.86585 244.71156
 242.51528 240.33199 238.16471 236.01642 233.88914 231.76886 229.80757 227.97729
 226.27300 224.75772 223.40044 222.18515 221.07987 220.05258 219.16930 218.32302
 217.57773 216.77045 215.88116 215.25788 214.72060 215.27168 216.57368 218.12733
 219.82196 221.71899 223.01570 223.19733 222.71289 222.59425 223.49854 224.74217
 226.69450 230.01576 234.23755 238.94441 243.51237 247.87602 251.99124 255.69427
 258.99255 261.95187 264.65359 267.16107 269.36142 271.22513 272.88861 274.48138
 276.49652 278.27200 279.82327 281.19122 282.38058 283.43405 284.40137 285.27710
 286.06372 286.76254 287.38242 288.19461
 366.78100 356.34808 345.79315 334.67223 323.08831 311.29539 299.17846 286.99454
 274.71962 262.62969 250.65177 239.96585 230.10093 221.21800 213.41308 206.42816
 200.27523 195.22631 191.82139 189.87647 188.92654 189.00362 189.85170 191.17277
 192.91085 195.01893 197.29501 199.66708 202.12516 204.61824 206.71931 208.57439
 210.21347 211.37155 211.61362 211.85470 211.80478 211.52285 211.16893 210.81201
 210.44209 210.16516 209.98624 209.86332 209.80439 210.14847 210.54755 210.94963
 211.75570 212.94678 214.20986 216.00593 217.94701 220.00309 222.11117 224.20724
 226.28032 228.37740 230.48747 232.60655 234.74863 236.93371 239.20278 241.58586
 244.21994 246.48401 248.49909 250.27717 251.70725 252.84332 253.67840 254.00748
 254.05755 253.84463 253.21771 252.17879 250.79786 248.97194 246.89402 244.74009
 242.54417 240.36125 238.19433 236.04640 233.91948 231.79956 229.83863 228.00871
 226.30479 224.78987 223.43294 222.21802 221.11310 220.08617 219.20325 218.35733
 217.61241 216.80548 215.91656 215.29364 214.75671 215.29906 216.58038 218.09398
 219.78038 221.63950 222.90714 223.08156 222.60854 222.45752 223.35881 224.63225
 226.64857 230.05290 234.34924 239.04887 243.58408 247.97874 252.11264 255.82846
 258.97025 262.11905 264.82864 267.29950 269.44250 271.23944 272.86221 274.52805
 276.48029 278.22485 279.74200 281.06253 282.21426 283.24756 284.19699 285.05011
 285.79672 286.41153 286.92825 287.58676
 366.78100 356.34796 345.79291 334.67187 323.08782 311.29478 299.17773 286.99369
 274.71864 262.62860 250.65055 239.96451 230.09946 221.21642 213.41138 206.42633
 200.27329 195.22424 191.81920 189.87415 188.92411 189.00106 189.84902 191.16997
 192.90793 195.01588 197.29184 199.66380 202.12175 204.61471 206.71566 208.57062
 210.20957 211.36753 211.60948 211.85044 211.80039 211.51835 211.16430 210.80726
 210.43721 210.16017 209.98113 209.85808 209.79904 210.14299 210.54195 210.94390
 211.74986 212.94081 214.20377 215.99972 217.94068 219.99663 222.10459 224.20055
 226.27350 228.37046 230.48041 232.59937 234.74132 236.92628 239.19523 241.57819
 244.21214 246.47610 248.49105 250.26901 251.69897 252.83492 253.66988 253.99883
 254.04879 253.83574 253.20870 252.16965 250.78861 248.96256 246.88452 244.73047
 242.53443 240.35139 238.18434 236.03630 233.90925 231.78921 229.82816 227.99812
 226.29407 224.77903 223.42198 222.20694 221.10189 220.07485 219.19181 218.34576
 217.60072 216.79367 215.90463 215.28158 214.74454 215.30096 216.61560 218.04379
 219.72124 221.57176 222.80548 222.94304 222.48326 222.30847 223.19809 224.50626
 226.56853 230.11005 234.44440 239.15222 243.67815 248.09032 252.23436 255.93631
 259.12961 262.22437 264.93936 267.38693 269.49976 271.26733 272.88211 274.59219
 276.41650 278.12582 279.59561 280.86716 282.00562 283.01599 283.94943 284.79861
 285.54803 286.16974 286.71286 287.40500
 366.78100 356.34773 345.79245 334.67118 323.08691 311.29363 299.17636 286.99208
 274.71681 262.62654 250.64826 239.96199 230.09672 221.21344 213.40817 206.42290
 200.26962 195.22035 191.81507 189.86980 188.91953 188.99625 189.84398 191.16471
 192.90243 195.01016 197.28588 199.65761 202.11534 204.60806 206.70879 208.56352
 210.20224 211.35997 211.60170 211.84242 211.79215 211.50987 211.15560 210.79833
 210.42805 210.15078 209.97151 209.84823 209.78896 210.13269 210.53141 210.93314
 211.73886 212.92959 214.19232 215.98804 217.92877 219.98450 222.09222 224.18795
 226.26067 228.35740 230.46713 232.58585 234.72758 236.91231 239.18103 241.56376
 244.19749 246.46121 248.47594 250.25366 251.68339 252.81912 253.65384 253.98257
 254.03230 253.81902 253.19175 252.15248 250.77120 248.94493 246.86665 244.71238
 242.51611 240.33283 238.16556 236.01729 233.89001 231.76974 229.80847 227.97819
 226.27392 224.75864 223.40137 222.18610 221.08082 220.05355 219.17028 218.32400
 217.57873 216.77145 215.88218 215.25891 214.72163 215.29646 216.65921 218.01314
 219.62134 221.41898 222.69568 222.85765 222.37744 222.13365 222.99309 224.39297
 226.44409 230.15773 234.59097 239.24100 243.78029 248.16780 252.31265 256.00439
 259.25040 262.27438 265.00726 267.45370 269.54608 271.30688 272.94363 274.64319
 276.41913 278.07385 279.49945 280.77243 281.90073 282.91772 283.86816 284.75146
 285.56628 286.29187 286.92572 287.73352
 366.78100 356.34820 345.79339 334.67259 323.08879 311.29598 299.17918 286.99537
 274.72057 262.63077 250.65296 239.96716 230.10236 221.21955 213.41475 206.42994
 200.27714 195.22834 191.82353 189.87873 188.92893 189.00612 189.85432 191.17552
 192.91371 195.02191 197.29810 199.67030 202.12850 204.62169 206.72289 208.57809
 210.21728 211.37548 211.61767 211.85887 211.80907 211.52726 211.17346 210.81666
 210.44685 210.17005 209.99125 209.86844 209.80964 210.15383 210.55303 210.95523
 211.76142 212.95262 214.21582 216.01201 217.95321 220.00940 222.11760 224.21380
 226.28699 228.38419 230.49439 232.61358 234.75578 236.94097 239.21017 241.59337
 244.22756 246.49176 248.50696 250.28515 251.71535 252.85155 253.68674 254.01594
 254.06613 253.85333 253.22653 252.18772 250.80692 248.98112 246.90331 244.74951
 242.55370 240.37090 238.20410 236.05629 233.92949 231.80969 229.84888 228.01908
 226.31528 224.80047 223.44367 222.22886 221.12406 220.09726 219.21445 218.36865
 217.62385 216.81704 215.92824 215.30543 214.76863 215.32193 216.63803 218.04840
 219.56685 221.30350 222.63545 222.72810 222.21094 221.96446 222.84882 224.27724
 226.44409 230.25594 234.75269 239.34781 243.85535 248.24158 252.36597 256.04605
 259.32169 262.33948 265.05411 267.50943 269.61542 271.37637 273.03564 274.74097
 276.46747 278.06772 279.45993 280.72937 281.84317 282.85593 283.79611 284.65359
 285.42297 286.10815 286.70670 287.46945
 366.78100 356.34748 345.79195 334.67043 323.08590 311.29238 299.17486 286.99033
 274.71481 262.62428 250.64576 239.95924 230.09371 221.21019 213.40467 206.41914
 200.26562 195.21609 191.81057 189.86505 188.91452 188.99100 189.83847 191.15895
 192.89643 195.00390 197.27938 199.65085 202.10833 204.60081 206.70128 208.55576
 210.19424 211.35171 211.59319 211.83366 211.78314 211.50062 211.14609 210.78857
 210.41804 210.14052 209.96100 209.83747 209.77795 210.12142 210.51990 210.92138
 211.72685 212.91733 214.17980 215.97528 217.91576 219.97123 222.07871 224.17419
 226.24666 228.34314 230.45261 232.57109 234.71257 236.89704 239.16552 241.54799
 244.18147 246.44495 248.45942 250.23690 251.66637 252.80185 253.63633 253.96480
 254.01428 253.80075 253.17323 252.13371 250.75218 248.92566 246.84714 244.69261
 242.49609 240.31256 238.14504 235.99652 233.86899 231.74847 229.78694 227.95642
 226.25190 224.73637 223.37885 222.16332 221.05780 220.03028 219.14675 218.30023
 217.55471 216.74718 215.85766 215.23413 214.69661 215.28400 216.67839 218.01105
 219.57680 221.25591 222.54878 222.62367 222.03554 221.79207 222.69409 224.11380
 226.40050 230.34496 234.93988 239.50430 243.96947 248.31386 252.42143 256.07056
 259.32489 262.34570 265.08917 267.55573 269.63339 271.37778 273.02319 274.73392
 276.42325 277.97659 279.29733 280.56082 281.66928 282.67511 283.62589 284.52597
 285.34091 286.06659 286.70053 287.50842
 366.78100 356.34718 345.79136 334.66955 323.08473 311.29091 299.17309 286.98828
 274.71246 262.62164 250.64282 239.95601 230.09019 221.20637 213.40055 206.41474
 200.26092 195.21110 191.80528 189.85946 188.90865 188.98483 189.83201 191.15219
 192.88938 194.99656 197.27174 199.64292 202.10011 204.59229 206.69247 208.54665
 210.18484 211.34202 211.58320 211.82338 211.77257 211.48975 211.13493 210.77711
 210.40629 210.12848 209.94866 209.82484 209.76502 210.10821 210.50639 210.90757
 211.71275 212.90294 214.16512 215.96030 217.90048 219.95567 222.06285 224.15803
 226.23021 228.32639 230.43558 232.55376 234.69494 236.87912 239.14731 241.52949
 244.16267 246.42585 248.44004 250.21722 251.64640 252.78158 253.61577 253.94395
 253.99313 253.77931 253.15149 252.11168 250.72986 248.90304 246.82422 244.66941
 242.47259 240.28877 238.12095 235.97214 233.84432 231.72350 229.76168 227.93087
 226.22605 224.71023 223.35241 222.13660 221.03078 220.00296 219.11914 218.27232
 217.52651 216.71869 215.82887 215.20505 214.66724 215.27748 216.72972 217.98672
 219.58008 221.17007 222.54352 222.67955 221.99283 221.64154 222.46373 224.11378
 226.49713 230.46622 235.07330 239.68222 244.14433 248.47281 252.55522 256.17825
 259.27704 262.34009 265.09369 267.55444 269.60263 271.29575 272.93710 274.67700
 276.34216 277.76117 279.03641 280.31970 281.52960 282.68231 283.73398 284.68671
 285.54361 286.30667 286.97327 287.82275
 366.78100 356.34731 345.79161 334.66992 323.08522 311.29153 299.17383 286.98914
 274.71345 262.62275 250.64406 239.95736 230.09167 221.20798 213.40228 206.41659
 200.26289 195.21320 191.80750 189.86181 188.91112 188.98742 189.83473 191.15503
 192.89234 194.99965 197.27495 199.64626 202.10356 204.59587 206.69617 208.55048
 210.18879 211.34609 211.58740 211.82770 211.77701 211.49431 211.13962 210.78193
 210.41123 210.13354 209.95384 209.83015 209.77046 210.11376 210.51207 210.91337
 211.71868 212.90898 214.17129 215.96660 217.90690 219.96221 222.06951 224.16482
 226.23713 228.33343 230.44274 232.56104 234.70235 236.88665 239.15496 241.53727
 244.17057 246.43388 248.44818 250.22549 251.65479 252.79010 253.62441 253.95271
 254.00202 253.78832 253.16063 252.12094 250.73924 248.91255 246.83385 244.67916
 242.48246 240.29877 238.13108 235.98238 233.85469 231.73399 229.77230 227.94161
 226.23691 224.72122 223.36352 222.14783 221.04213 220.01444 219.13075 218.28405
 217.53836 216.73066 215.84097 215.21727 214.67958 215.29263 216.74611 217.95831
 219.59430 221.28581 222.61244 222.59229 221.81186 221.46991 222.31105 223.90459
 226.49196 230.57196 235.23532 239.89244 244.34227 248.65010 252.72908 256.33453
 259.47961 262.42804 265.13620 267.41745 269.58075 271.30890 272.94012 274.64032
 276.19345 277.50690 278.99902 280.48001 281.80112 282.96994 284.03632 285.00238
 285.87125 286.64499 287.32089 288.18228
 366.78100 356.34738 345.79175 334.67013 323.08550 311.29188 299.17426 286.98963
 274.71401 262.62338 250.64476 239.95814 230.09251 221.20889 213.40326 206.41764
 200.26402 195.21439 191.80877 189.86314 188.91252 188.98890 189.83627 191.15665
 192.89402 195.00140 197.27678 199.64815 202.10553 204.59790 206.69828 208.55266
 210.19103 211.34841 211.58978 211.83016 211.77954 211.49691 211.14229 210.78466
 210.41404 210.13642 209.95679 209.83317 209.77354 210.11692 210.51530 210.91667
 211.72205 212.91242 214.17480 215.97018 217.91055 219.96593 222.07330 224.16868
 226.24106 228.33743 230.44681 232.56518 234.70656 236.89094 239.15931 241.54169
 244.17506 246.43844 248.45282 250.23019 251.65957 252.79494 253.62932 253.95770
 254.00707 253.79345 253.16582 252.12620 250.74458 248.91795 246.83933 244.68470
 242.48808 240.30446 238.13683 235.98821 233.86058 231.73996 229.77834 227.94771
 226.24309 224.72746 223.36984 222.15422 221.04859 220.02097 219.13734 218.29072
 217.54510 216.73747 215.84785 215.22422 214.68660 215.29378 216.73492 217.93492
 219.53873 221.32750 222.57350 222.39047 221.50659 221.22223 222.12254 223.81332
 226.53314 230.67166 235.38382 240.06671 244.51331 248.78583 252.85846 256.48932
 259.65604 262.53064 265.21555 267.52191 269.68118 271.40356 273.03149 274.70877
 276.23236 277.58539 279.06430 280.50034 281.82227 282.99182 284.05890 285.02557
 285.89499 286.66922 287.34558 288.20749
 366.78100 356.34728 345.79155 334.66983 323.08511 311.29139 299.17366 286.98894
 274.71322 262.62250 250.64377 239.95705 230.09133 221.20760 213.40188 206.41616
 200.26244 195.21271 191.80699 189.86127 188.91055 188.98682 189.83410 191.15438
 192.89165 194.99893 197.27421 199.64549 202.10276 204.59504 206.69532 208.54960
 210.18787 211.34515 211.58643 211.82670 211.77598 211.49326 211.13854 210.78081
 210.41009 210.13237 209.95265 209.82892 209.76920 210.11248 210.51075 210.91203
 211.71731 212.90759 214.16986 215.96514 217.90542 219.96070 222.06797 224.16325
 226.23553 228.33180 230.44108 232.55936 234.70064 236.88491 239.15319 241.53547
 244.16875 246.43202 248.44630 250.22358 251.65285 252.78813 253.62241 253.95069
 253.99996 253.78624 253.15852 252.11880 250.73707 248.91035 246.83163 244.67690
 242.48018 240.29646 238.12874 235.98001 233.85229 231.73157 229.76985 227.93912
 226.23440 224.71868 223.36095 222.14523 221.03951 220.01179 219.12806 218.28134
 217.53562 216.72790 215.83817 215.21445 214.67673 215.28572 216.73283 217.93808
 219.49168 221.32732 222.63028 222.36406 221.27019 220.96584 221.88074 223.55762
 226.49307 230.74065 235.50716 240.22708 244.70045 248.94524 252.95389 256.57306
 259.75824 262.59238 265.24567 267.55948 269.64246 271.36774 273.03958 274.74109
 276.24258 277.66718 279.14999 280.57788 281.85516 282.98526 284.01630 284.95035
 285.79041 286.53848 287.19202 288.02484
 366.78100 356.34739 345.79178 334.67017 323.08556 311.29195 299.17434 286.98973
 274.71413 262.62352 250.64491 239.95830 230.09269 221.20908 213.40347 206.41786
 200.26425 195.21464 191.80903 189.86342 188.91281 188.98920 189.83659 191.15698
 192.89438 195.00177 197.27716 199.64855 202.10594 204.59833 206.69872 208.55311
 210.19150 211.34889 211.59028 211.83067 211.78006 211.49745 211.14284 210.78524
 210.41463 210.13702 209.95741 209.83380 209.77419 210.11758 210.51597 210.91736
 211.72275 212.91314 214.17553 215.97092 217.91131 219.96670 222.07409 224.16949
 226.24188 228.33827 230.44766 232.56605 234.70744 236.89183 239.16022 241.54261
 244.17600 246.43939 248.45378 250.23117 251.66056 252.79595 253.63035 253.95874
 254.00813 253.79452 253.16691 252.12730 250.74569 248.91908 246.84047 244.68586
 242.48925 240.30564 238.13803 235.98942 233.86181 231.74120 229.77960 227.94899
 226.24438 224.72877 223.37116 222.15555 221.04994 220.02233 219.13872 218.29211
 217.54650 216.73889 215.84928 215.22567 214.68806 215.28914 216.72244 217.94540
 219.46762 221.30830 222.66058 222.39354 221.18028 220.71605 221.52515 223.43326
 226.50766 230.82065 235.64050 240.39449 244.89958 249.12939 253.06136 256.63043
 259.81686 262.65610 265.28537 267.59106 269.59763 271.32129 273.03833 274.72910
 276.21140 277.74414 279.27475 280.78003 282.08273 283.23529 284.28680 285.23941
 286.09619 286.85913 287.52563 288.37503
 366.78100 356.34753 345.79205 334.67058 323.08611 311.29263 299.17516 286.99069
 274.71521 262.62474 250.64627 239.95979 230.09432 221.21085 213.40537 206.41990
 200.26643 195.21695 191.81148 189.86601 188.91553 188.99206 189.83959 191.16011
 192.89764 195.00517 197.28069 199.65222 202.10974 204.60227 206.70280 208.55732
 210.19585 211.35338 211.59490 211.83543 211.78496 211.50248 211.14801 210.79054
 210.42006 210.14259 209.96312 209.83964 209.78017 210.12370 210.52222 210.92375
 211.72928 212.91980 214.18233 215.97786 217.91838 219.97391 222.08144 224.17696
 226.24949 228.34602 230.45554 232.57407 234.71560 236.90012 239.16865 241.55118
 244.18470 246.44823 248.46276 250.24028 251.66981 252.80534 253.63986 253.96839
 254.01792 253.80444 253.17697 252.13750 250.75602 248.92955 246.85107 244.69660
 242.50013 240.31665 238.14918 236.00071 233.87323 231.75276 229.79129 227.96081
 226.25634 224.74087 223.38339 222.16792 221.06245 220.03497 219.15150 218.30503
 217.55955 216.75208 215.86261 215.23913 214.70166 215.29041 216.70241 217.95413
 219.44167 221.25287 222.60799 222.33751 221.04959 220.46465 221.26514 223.41890
 226.57974 230.92882 235.77582 240.55432 245.08534 249.32051 253.19894 256.68866
 259.84332 262.67715 265.26883 267.57303 269.57288 271.34317 273.08646 274.75079
 276.22037 277.69760 279.18811 280.61749 281.85452 282.94894 283.94748 284.85205
 285.66562 286.39011 287.02301 287.82956
 366.78100 356.34731 345.79162 334.66993 323.08524 311.29154 299.17385 286.98916
 274.71347 262.62278 250.64409 239.95740 230.09171 221.20802 213.40232 206.41663
 200.26294 195.21325 191.80756 189.86187 188.91118 188.98749 189.83479 191.15510
 192.89241 194.99972 197.27503 199.64634 202.10365 204.59596 206.69627 208.55057
 210.18888 211.34619 211.58750 211.82781 211.77712 211.49443 211.13974 210.78205
 210.41135 210.13366 209.95397 209.83028 209.77059 210.11390 210.51221 210.91352
 211.71883 212.90913 214.17144 215.96675 217.90706 219.96237 222.06968 224.16499
 226.23730 228.33360 230.44291 232.56122 234.70253 236.88684 239.15515 241.53746
 244.17077 246.43408 248.44838 250.22569 251.65500 252.79031 253.62462 253.95293
 254.00224 253.78855 253.16086 252.12116 250.73947 248.91278 246.83409 244.67940
 242.48271 240.29902 238.13133 235.98264 233.85494 231.73425 229.77256 227.94187
 226.23718 224.72149 223.36380 222.14811 221.04241 220.01472 219.13103 218.28434
 217.53865 216.73096 215.84127 215.21758 214.67989 215.27702 216.70488 217.94490
 219.44324 221.21349 222.56862 222.27704 220.88580 220.18839 220.98230 223.35335
 226.62738 231.03325 235.90862 240.71410 245.26456 249.51520 253.39064 256.82925
 259.91153 262.71606 265.26190 267.51929 269.49509 271.27844 273.01743 274.64209
 276.06293 277.40753 278.92575 280.36792 281.61603 282.72028 283.72772 284.64041
 285.46127 286.19226 286.83081 287.64459
 366.78100 356.34674 345.79047 334.66821 323.08294 311.28868 299.17041 286.98515
 274.70888 262.61762 250.63835 239.95109 230.08482 221.20056 213.39429 206.40803
 200.25376 195.20350 191.79724 189.85097 188.89971 188.97544 189.82218 191.14191
 192.87865 194.98538 197.26012 199.63085 202.08759 204.57932 206.67906 208.53279
 210.17053 211.32726 211.56800 211.80773 211.75647 211.47321 211.11794 210.75968
 210.38841 210.11015 209.92988 209.80562 209.74535 210.08809 210.48582 210.88656
 211.69129 212.88103 214.14276 215.93750 217.87723 219.93197 222.03871 224.13344
 226.20518 228.30091 230.40965 232.52738 234.66812 236.85185 239.11959 241.50132
 244.13406 246.39679 248.41053 250.18726 251.61600 252.75073 253.58447 253.91220
 253.96094 253.74668 253.11841 252.07815 250.69588 248.86862 246.78935 244.63409
 242.43682 240.25256 238.08429 235.93503 233.80676 231.68550 229.72323 227.89197
 226.18670 224.67044 223.31218 222.09591 220.98965 219.96138 219.07712 218.22985
 217.48359 216.67532 215.78506 215.16079 214.62253 215.24551 216.72133 217.91580
 219.43629 221.21045 222.45728 222.11551 220.70525 219.96982 220.73315 223.30128
 226.69400 231.14383 236.03580 240.86687 245.43008 249.69084 253.58131 257.01547
 260.05008 262.81686 265.33954 267.58170 269.54135 271.32190 273.09515 274.65479
 275.44412 276.31400 277.66589 279.10529 280.35095 281.45306 282.45856 283.36948
 284.18872 284.91827 285.55560 286.36783
 366.78100 356.34629 345.78958 334.66687 323.08117 311.28646 299.16775 286.98204
 274.70533 262.61362 250.63391 239.94621 230.07950 221.19479 213.38808 206.40137
 200.24666 195.19595 191.78925 189.84254 188.89083 188.96612 189.81241 191.13170
 192.86799 194.97429 197.24858 199.61887 202.07516 204.56645 206.66574 208.51903
 210.15632 211.31262 211.55291 211.79220 211.74049 211.45678 211.10107 210.74236
 210.37066 210.09195 209.91124 209.78653 209.72582 210.06811 210.46540 210.86570
 211.66999 212.85928 214.12057 215.91486 217.85415 219.90844 222.01474 224.10903
 226.18032 228.27561 230.38390 232.50119 234.64148 236.82478 239.09207 241.47336
 244.10565 246.36794 248.38123 250.15752 251.58582 252.72011 253.55340 253.88069
 253.92898 253.71427 253.08556 252.04486 250.66215 248.83444 246.75473 244.59902
 242.40131 240.21660 238.04790 235.89819 233.76948 231.64777 229.68506 227.85335
 226.14764 224.63093 223.27223 222.05552 220.94881 219.92010 219.03539 218.18768
 217.44097 216.63227 215.74156 215.11685 214.57814 215.20647 216.70088 217.91867
 219.32227 221.16570 222.27908 221.82162 220.45413 219.76033 220.67194 223.33951
 226.84473 231.27254 236.14571 240.99675 245.58063 249.85016 253.74942 257.18896
 260.18634 262.88983 265.38583 267.62918 269.62314 271.43918 273.16568 274.55997
 275.24930 275.93402 276.76755 277.49588 278.07925 278.59540 279.06631 279.49289
 279.87659 280.21826 280.51672 280.89709
 366.78100 356.34655 345.79010 334.66765 323.08219 311.28774 299.16929 286.98384
 274.70739 262.61594 250.63648 239.94903 230.08258 221.19813 213.39168 206.40523
 200.25077 195.20032 191.79387 189.84742 188.89597 188.97152 189.81806 191.13761
 192.87416 194.98071 197.25526 199.62581 202.08235 204.57390 206.67345 208.52700
 210.16455 211.32110 211.56164 211.80119 211.74974 211.46629 211.11084 210.75239
 210.38093 210.10248 209.92203 209.79758 209.73713 210.07968 210.47722 210.87777
 211.68232 212.87187 214.13342 215.92797 217.86751 219.92206 222.02861 224.12316
 226.19471 228.29026 230.39880 232.51635 234.65690 236.84045 239.10800 241.48955
 244.12210 246.38464 248.39819 250.17474 251.60329 252.73784 253.57139 253.89893
 253.94748 253.73303 253.10458 252.06413 250.68168 248.85422 246.77477 244.61932
 242.42187 240.23742 238.06897 235.91951 233.79106 231.66961 229.70716 227.87571
 226.17026 224.65380 223.29535 222.07890 220.97245 219.94400 219.05955 218.21209
 217.46564 216.65719 215.76674 215.14229 214.60384 215.19627 216.61520 218.00435
 219.16991 220.91603 222.21774 221.65157 220.16074 219.35188 220.52435 223.21550
 226.94370 231.36597 236.25839 241.12961 245.72087 249.98183 253.88533 257.36224
 260.39169 263.03363 265.40634 267.60336 269.61777 271.46814 273.16605 274.54898
 275.26804 275.82639 276.54797 277.31973 277.98880 278.74286 279.69037 280.54874
 281.32074 282.00824 282.60880 283.37415
 354.97500 345.04800 334.58700 324.11500 313.32600 302.53700 291.65000 280.76700
 269.93100 259.19300 248.62200 238.61700 229.08700 220.35500 212.54000 205.53500
 199.46400 194.49300 191.14300 189.19000 188.08900 188.01400 188.72400 189.90600
 191.46900 193.38200 195.40300 197.55600 199.80700 202.06000 204.28800 206.47900
 208.55200 210.37800 212.02500 213.65900 214.99800 216.11800 217.17200 218.25900
 219.49400 220.64500 221.67900 222.61400 223.54500 224.98200 226.57100 228.19000
 229.79700 231.81100 233.86500 235.97200 238.24200 240.55300 242.89900 245.25300
 247.48800 249.53500 251.36600 252.84800 254.09800 255.16700 256.02700 256.25300
 256.09500 255.54300 253.93500 252.56600 251.38400 250.24500 249.05200 247.70100
 246.01600 243.99600 241.78400 239.39300 236.81300 234.22300 231.65800 229.14400
 226.74000 224.47300 222.33500 220.32500 218.44000 216.67700 214.96200 213.47200
 212.20000 211.10800 210.26000 209.63900 209.24400 209.03100 209.05800 209.33300
 209.78400 210.62600 211.33100 212.39100 213.62500 214.84668 217.72949 219.47640
 220.32566 220.86828 220.88710 220.27371 219.43733 218.84250 219.04934 220.86203
 222.60583 225.72206 229.03064 232.61777 236.12270 239.51333 242.70767 245.68587
 248.41061 250.90679 253.19353 254.91714 256.48655 257.94920 259.39966 260.69384
 261.81714 262.77997 263.71679 264.54570 265.26305 265.89772 266.47676 267.00133
 267.47312 267.89325 268.26027 268.72800
