|-------------------------------------------------------------------------|
|   File Name : in_temp.dat
|   Subject   : temperature profiles used for initial guess atmosphere
|   File Type : input of gmtr
|   Data Type : atmospherical data
|   Author/s  : WRF-Chem
|   Date      : Fri Jul 26 15:39:24 2024
|-------------------------------------------------------------------------|

 WRF-Chem temperature
#
 values of T (K)    (8f10.5)
#
 354.97500 345.04800 334.58700 324.11500 313.32600 302.53700 291.65000 280.76700
 269.93100 259.19300 248.62200 238.61700 229.08700 220.35500 212.54000 205.53500
 199.46400 194.49300 191.14300 189.19000 188.08900 188.01400 188.72400 189.90600
 191.46900 193.38200 195.40300 197.55600 199.80700 202.06000 204.28800 206.47900
 208.55200 210.37800 212.02500 213.65900 214.99800 216.11800 217.17200 218.25900
 219.49400 220.64500 221.67900 222.61400 223.54500 224.98200 226.57100 228.19000
 229.79700 231.81100 233.86500 235.97200 238.24200 240.55300 242.89900 245.25300
 247.48800 249.53500 251.36600 252.84800 254.09800 255.16700 256.02700 256.25300
 256.09500 255.54300 253.93500 252.56600 251.38400 250.24500 249.05200 247.70100
 246.01600 243.99600 241.78400 239.39300 236.81300 234.22300 231.65800 229.14400
 226.74000 224.47300 222.33500 220.32500 218.44000 216.67700 214.96200 213.47200
 212.20000 211.10800 210.26000 209.63900 209.24400 209.03100 209.05800 209.33300
 209.78400 210.62600 211.33100 212.39100 213.62500 214.84668 217.72949 219.47640
 220.32566 220.86828 220.88710 220.27371 219.43733 218.84250 219.04934 220.86203
 222.60583 225.72206 229.03064 232.61777 236.12270 239.51333 242.70767 245.68587
 248.41061 250.90679 253.19353 254.91714 256.48655 257.94920 259.39966 260.69384
 261.81714 262.77997 263.71679 264.54570 265.26305 265.89772 266.47676 267.00133
 267.47312 267.89325 268.26027 268.72800
 366.78100 356.33500 345.76700 334.63300 323.03600 311.23000 299.10000 286.90300
 274.61500 262.51200 250.52100 239.82200 229.94400 221.04800 213.23000 206.23200
 200.06600 195.00400 191.58600 189.62800 188.66500 188.72900 189.56400 190.87200
 192.59700 194.69200 196.95500 199.31400 201.75900 204.23900 206.32700 208.16900
 209.79500 210.94000 211.16900 211.39700 211.33400 211.03900 210.67200 210.30200
 209.91900 209.62900 209.43700 209.30100 209.22900 209.56000 209.94600 210.33500
 211.12800 212.30600 213.55600 215.33900 217.26700 219.31000 221.40500 223.48800
 225.54800 227.63200 229.72900 231.83500 233.96400 236.13600 238.39200 240.76200
 243.38300 245.63400 247.63600 249.40100 250.81800 251.94100 252.76300 253.07900
 253.11600 252.89000 252.25000 251.19800 249.80400 247.96500 245.87400 243.70700
 241.49800 239.30200 237.12200 234.96100 232.82100 230.68800 228.71400 226.87100
 225.15400 223.62600 222.25600 221.02800 219.91000 218.87000 217.97400 217.11500
 216.35700 215.53700 214.63500 213.99900 213.44900 212.85855 212.01316 212.61654
 214.26826 216.08686 218.14273 220.53346 223.40855 226.78828 231.49734 235.90155
 239.42278 243.28576 247.23140 251.11907 254.80144 258.23331 261.38913 264.27520
 266.89312 269.26852 271.44504 273.08845 274.58484 275.98591 277.39845 278.65879
 279.75272 280.69038 281.56708 282.34086 283.01050 283.60295 284.14348 284.63317
 285.07358 285.46577 285.80838 286.24500
 381.81900 372.39900 361.20600 349.77600 337.62200 324.85300 311.81000 298.35300
 284.86000 271.32400 258.56100 246.30400 236.08700 226.79600 218.44800 211.29000
 205.52200 200.89400 197.38100 194.84800 193.01500 192.31500 192.25000 192.43100
 192.91200 193.53700 194.13600 194.71200 195.26200 195.83100 196.39300 196.97600
 197.60400 198.14900 198.58400 199.05700 199.69500 200.37800 201.05400 201.70800
 202.31300 202.85700 203.35500 203.86200 204.56900 205.29700 206.02600 206.98700
 208.19300 209.44100 210.96900 212.57600 214.46200 216.51300 218.63000 220.85300
 223.34100 225.96200 228.73900 231.69700 234.70600 237.70600 240.69200 243.65700
 246.73700 249.69900 252.52100 255.06300 257.29000 259.23300 260.63300 261.68000
 262.46100 262.79800 262.69100 262.22400 261.06900 259.52500 257.70700 255.50700
 253.00100 250.30200 247.39800 244.45200 241.65400 239.05400 236.73300 234.59000
 232.59500 230.72500 228.83400 226.82600 224.66600 222.38700 220.10400 217.71500
 215.45900 213.06600 210.54600 208.09300 205.35400 202.08130 196.05959 200.71215
 209.01611 216.90438 223.84126 229.78593 235.00632 240.20838 245.98943 250.68668
 254.32982 257.93487 261.55666 264.96801 268.15192 271.06452 273.76717 276.25691
 278.57680 280.74479 282.77456 284.60533 286.27232 287.81705 289.31715 290.65561
 291.81734 292.81312 293.70701 294.49387 295.17482 295.77730 296.32696 296.82492
 297.27278 297.67160 298.02000 298.46400
 399.33000 389.90700 379.81300 368.66800 357.52200 345.30100 333.07400 320.22700
 307.21600 293.84800 280.37600 267.29600 254.61000 242.98700 232.15100 221.97700
 212.67200 204.28600 197.66900 192.82100 189.48600 187.45200 186.81400 187.08900
 187.78100 189.05400 190.64800 192.54200 194.63000 196.75200 198.67100 200.15800
 201.53500 202.48700 202.97500 203.34000 203.53900 203.49700 203.38500 203.24700
 203.00500 202.78600 202.60300 202.43700 202.42600 202.88800 203.42000 203.95100
 204.89500 205.99200 207.30100 208.95800 210.73800 213.10000 215.56400 218.18000
 220.96600 223.91800 226.96100 230.09200 233.29300 236.55700 239.95500 243.53700
 246.84500 249.39000 251.54200 253.47400 255.19500 256.48400 257.43100 258.05900
 258.21200 258.04000 257.58200 256.64300 255.23900 253.50700 251.40800 249.05600
 246.57600 243.99400 241.38900 238.83000 236.34400 233.98600 231.96900 230.11800
 228.42300 226.89900 225.54800 224.29700 223.10500 221.96500 220.95800 220.11300
 219.49000 218.92000 218.32500 217.88100 217.42300 216.96366 216.35568 216.80261
 217.73415 218.28582 218.64258 219.10077 220.44626 222.53987 226.38451 230.35736
 233.59734 237.39164 241.29814 245.22796 248.98002 252.51130 255.78595 258.80109
 261.54781 264.05210 266.34239 268.04198 269.58951 271.01303 272.35754 273.55718
 274.59842 275.49092 276.28989 276.99307 277.60161 278.14001 278.63122 279.07623
 279.47646 279.83287 280.14422 280.54100
 399.73800 389.78500 379.66200 368.15100 356.64100 344.35000 331.79200 318.88800
 305.72600 292.49300 279.20900 266.73800 254.69600 244.21100 234.45700 225.43300
 217.56900 210.45100 204.30000 199.30600 195.45800 192.57600 191.02700 190.38600
 190.23900 190.53400 191.16600 191.92500 192.79500 193.76600 194.73200 195.31200
 195.80000 196.05200 196.11500 196.11500 196.03900 195.72300 195.34000 194.98900
 194.75100 194.79200 195.13300 195.59800 196.50600 198.13600 199.85800 201.56600
 204.17900 206.82300 209.89300 213.28400 216.82800 220.60500 224.38700 228.20900
 232.03200 235.82500 239.56000 243.25800 246.84500 250.20100 253.70900 257.46800
 261.53000 264.22100 266.60100 268.68100 270.32900 271.74100 272.83600 273.47400
 273.89800 274.00200 273.75700 273.28800 272.37100 271.10000 269.58900 267.77900
 265.81600 263.72100 261.39300 258.91600 256.29800 253.42300 250.33100 247.11400
 243.83700 240.52900 237.24900 233.99900 230.72800 227.51500 224.25400 220.95200
 217.62700 213.65600 210.12100 206.78900 204.01000 201.99491 199.07309 198.76551
 199.40006 200.48994 201.46112 202.31912 203.45100 204.96110 207.47502 210.85391
 213.70530 217.29629 220.99574 224.72316 228.28753 231.64854 234.68024 237.40893
 239.70644 241.60899 243.46854 245.67368 247.68154 249.52395 251.24767 252.78566
 254.12057 255.26479 256.23740 257.09036 257.82852 258.48160 259.07744 259.61723
 260.10271 260.53504 260.91270 261.39400
 399.73800 389.78500 379.66200 368.15100 356.64100 344.35000 331.79200 318.88800
 305.72600 292.49300 279.20900 266.73800 254.69600 244.21100 234.45700 225.43300
 217.56900 210.45100 204.30000 199.30600 195.45800 192.57600 191.02700 190.38600
 190.23900 190.53400 191.16600 191.92500 192.79500 193.76600 194.73200 195.31200
 195.80000 196.05200 196.11500 196.11500 196.03900 195.72300 195.34000 194.98900
 194.75100 194.79200 195.13300 195.59800 196.50600 198.13600 199.85800 201.56600
 204.17900 206.82300 209.89300 213.28400 216.82800 220.60500 224.38700 228.20900
 232.03200 235.82500 239.56000 243.25800 246.84500 250.20100 253.70900 257.46800
 261.53000 264.22100 266.60100 268.68100 270.32900 271.74100 272.83600 273.47400
 273.89800 274.00200 273.75700 273.28800 272.37100 271.10000 269.58900 267.77900
 265.81600 263.72100 261.39300 258.91600 256.29800 253.42300 250.33100 247.11400
 243.83700 240.52900 237.24900 233.99900 230.72800 227.51500 224.25400 220.95200
 217.62700 213.65600 210.12100 206.78900 204.01000 201.99491 199.07309 198.76551
 199.40006 200.48994 201.46112 202.31912 203.45100 204.96110 207.47502 210.85391
 213.70530 217.29629 220.99574 224.72316 228.28753 231.64854 234.68024 237.40893
 239.70644 241.60899 243.46854 245.67368 247.68154 249.52395 251.24767 252.78566
 254.12057 255.26479 256.23740 257.09036 257.82852 258.48160 259.07744 259.61723
 260.10271 260.53504 260.91270 261.39400
 399.33000 389.90700 379.81300 368.66800 357.52200 345.30100 333.07400 320.22700
 307.21600 293.84800 280.37600 267.29600 254.61000 242.98700 232.15100 221.97700
 212.67200 204.28600 197.66900 192.82100 189.48600 187.45200 186.81400 187.08900
 187.78100 189.05400 190.64800 192.54200 194.63000 196.75200 198.67100 200.15800
 201.53500 202.48700 202.97500 203.34000 203.53900 203.49700 203.38500 203.24700
 203.00500 202.78600 202.60300 202.43700 202.42600 202.88800 203.42000 203.95100
 204.89500 205.99200 207.30100 208.95800 210.73800 213.10000 215.56400 218.18000
 220.96600 223.91800 226.96100 230.09200 233.29300 236.55700 239.95500 243.53700
 246.84500 249.39000 251.54200 253.47400 255.19500 256.48400 257.43100 258.05900
 258.21200 258.04000 257.58200 256.64300 255.23900 253.50700 251.40800 249.05600
 246.57600 243.99400 241.38900 238.83000 236.34400 233.98600 231.96900 230.11800
 228.42300 226.89900 225.54800 224.29700 223.10500 221.96500 220.95800 220.11300
 219.49000 218.92000 218.32500 217.88100 217.42300 216.96366 216.35568 216.80261
 217.73415 218.28582 218.64258 219.10077 220.44626 222.53987 226.38451 230.35736
 233.59734 237.39164 241.29814 245.22796 248.98002 252.51130 255.78595 258.80109
 261.54781 264.05210 266.34239 268.04198 269.58951 271.01303 272.35754 273.55718
 274.59842 275.49092 276.28989 276.99307 277.60161 278.14001 278.63122 279.07623
 279.47646 279.83287 280.14422 280.54100
 381.81900 372.39900 361.20600 349.77600 337.62200 324.85300 311.81000 298.35300
 284.86000 271.32400 258.56100 246.30400 236.08700 226.79600 218.44800 211.29000
 205.52200 200.89400 197.38100 194.84800 193.01500 192.31500 192.25000 192.43100
 192.91200 193.53700 194.13600 194.71200 195.26200 195.83100 196.39300 196.97600
 197.60400 198.14900 198.58400 199.05700 199.69500 200.37800 201.05400 201.70800
 202.31300 202.85700 203.35500 203.86200 204.56900 205.29700 206.02600 206.98700
 208.19300 209.44100 210.96900 212.57600 214.46200 216.51300 218.63000 220.85300
 223.34100 225.96200 228.73900 231.69700 234.70600 237.70600 240.69200 243.65700
 246.73700 249.69900 252.52100 255.06300 257.29000 259.23300 260.63300 261.68000
 262.46100 262.79800 262.69100 262.22400 261.06900 259.52500 257.70700 255.50700
 253.00100 250.30200 247.39800 244.45200 241.65400 239.05400 236.73300 234.59000
 232.59500 230.72500 228.83400 226.82600 224.66600 222.38700 220.10400 217.71500
 215.45900 213.06600 210.54600 208.09300 205.35400 202.08130 196.05959 200.71215
 209.01611 216.90438 223.84126 229.78593 235.00632 240.20838 245.98943 250.68668
 254.32982 257.93487 261.55666 264.96801 268.15192 271.06452 273.76717 276.25691
 278.57680 280.74479 282.77456 284.60533 286.27232 287.81705 289.31715 290.65561
 291.81734 292.81312 293.70701 294.49387 295.17482 295.77730 296.32696 296.82492
 297.27278 297.67160 298.02000 298.46400
 366.78100 356.33829 345.77357 334.64286 323.04914 311.24643 299.11971 286.92600
 274.64128 262.54157 250.55385 239.85814 229.98342 221.09071 213.27599 206.28128
 200.11856 195.05985 191.64513 189.69042 188.73070 188.79799 189.63627 190.94756
 192.67584 194.77413 197.04041 199.40270 201.85098 204.33427 206.42555 208.27084
 209.90012 211.04841 211.28069 211.51198 211.45226 211.16055 210.79683 210.43012
 210.05040 209.76369 209.57497 209.44226 209.37355 209.70783 210.09712 210.48940
 211.28569 212.46697 213.72026 215.50654 217.43783 219.48411 221.58240 223.66868
 225.73197 227.81925 229.91954 232.02882 234.16111 236.33639 238.59568 240.96896
 243.59325 245.84753 247.85282 249.62110 251.04139 252.16767 252.99296 253.31224
 253.35253 253.12981 252.49310 251.44438 250.05367 248.21795 246.13024 243.96652
 241.76081 239.56809 237.39138 235.23366 233.09695 230.96723 228.99652 227.15681
 225.44309 223.91838 222.55166 221.32695 220.21223 219.17552 218.28280 217.42709
 216.67237 215.85566 214.95694 214.32423 213.77751 212.88438 210.78233 210.28091
 210.61980 211.40691 212.93094 215.38953 219.15660 223.90543 229.64980 234.78252
 238.68346 242.62486 246.76987 250.93280 254.74500 258.50211 261.33978 263.11469
 265.76099 268.58820 271.05682 272.97440 274.97250 276.94617 278.43997 279.91556
 281.55719 283.10376 284.57623 285.93594 287.11502 288.16049 289.11420 289.98209
 290.76575 291.46848 292.08643 292.90683
 366.78100 356.33858 345.77415 334.64373 323.05031 311.24789 299.12146 286.92804
 274.64362 262.54420 250.55677 239.86135 229.98693 221.09451 213.28008 206.28566
 200.12324 195.06482 191.65039 189.69597 188.73655 188.80413 189.64270 190.95428
 192.68286 194.78144 197.04801 199.41059 201.85917 204.34275 206.43432 208.27990
 209.90948 211.05806 211.29063 211.52221 211.46279 211.17137 210.80794 210.44152
 210.06210 209.77568 209.58725 209.45483 209.38641 209.72099 210.11056 210.50314
 211.29972 212.48130 213.73487 215.52145 217.45303 219.49961 221.59818 223.68476
 225.74834 227.83592 229.93649 232.04607 234.17865 236.35423 238.61380 240.98738
 243.61196 245.86654 247.87211 249.64069 251.06127 252.18785 253.01342 253.33300
 253.37358 253.15116 252.51473 251.46631 250.07589 248.24047 246.15304 243.98962
 241.78420 239.59178 237.41535 235.25793 233.12151 230.99209 229.02166 227.18224
 225.46882 223.94440 222.57797 221.35355 220.23913 219.20271 218.31028 217.45486
 216.70044 215.88402 214.98559 214.35317 213.80675 212.93149 210.87099 210.39803
 210.62183 211.46059 212.99278 215.37178 219.04250 223.82596 229.59552 234.72229
 238.61296 242.54086 246.68423 250.86087 254.69035 258.45132 261.29492 263.08386
 265.73392 268.56842 271.03085 272.89972 274.89069 276.89114 278.36703 279.81854
 281.46658 283.02063 284.49536 285.85538 287.03424 288.07919 289.03345 289.90182
 290.68417 291.38934 292.00803 292.82904
 366.78100 356.33855 345.77410 334.64364 323.05019 311.24774 299.12129 286.92784
 274.64339 262.54393 250.55648 239.86103 229.98658 221.09413 213.27967 206.28522
 200.12277 195.06432 191.64987 189.69542 188.73596 188.80351 189.64206 190.95361
 192.68216 194.78070 197.04725 199.40980 201.85835 204.34190 206.43345 208.27899
 209.90854 211.05709 211.28964 211.52119 211.46173 211.17028 210.80683 210.44038
 210.06093 209.77448 209.58602 209.45357 209.38512 209.71967 210.10922 210.50176
 211.29831 212.47986 213.73341 215.51996 217.45151 219.49805 221.59660 223.68315
 225.74670 227.83425 229.93479 232.04434 234.17689 236.35244 238.61199 240.98554
 243.61008 245.86463 247.87018 249.63873 251.05928 252.18582 253.01137 253.33092
 253.37147 253.14902 252.51257 251.46411 250.07366 248.23821 246.15076 243.98731
 241.78185 239.58940 237.41295 235.25550 233.11905 230.98960 229.01914 227.17969
 225.46624 223.94179 222.57534 221.35088 220.23643 219.19998 218.30753 217.45208
 216.69763 215.88117 214.98272 214.35027 213.80382 212.96164 210.97824 210.50113
 210.63435 211.51799 213.03200 215.35077 218.94812 223.73999 229.54602 234.66325
 238.54268 242.45712 246.59900 250.78865 254.63850 258.40173 261.24930 263.05020
 265.70175 268.54114 270.99814 272.82440 274.80914 276.83591 278.29843 279.72699
 281.37857 282.93842 284.41574 285.77350 286.95291 287.99896 288.95206 289.82056
 290.60464 291.30991 291.92972 292.75452
 366.78100 356.33830 345.77360 334.64289 323.04919 311.24649 299.11979 286.92609
 274.64138 262.54168 250.55398 239.85828 229.98358 221.09088 213.27617 206.28147
 200.11877 195.06007 191.64537 189.69066 188.73096 188.79826 189.63656 190.94786
 192.67615 194.77445 197.04075 199.40305 201.85135 204.33464 206.42594 208.27124
 209.90054 211.04884 211.28113 211.51243 211.45273 211.16103 210.79733 210.43063
 210.05092 209.76422 209.57552 209.44282 209.37412 209.70841 210.09771 210.49001
 211.28631 212.46761 213.72090 215.50720 217.43850 219.48480 221.58310 223.66939
 225.73269 227.81999 229.92029 232.02959 234.16189 236.33718 238.59648 240.96978
 243.59408 245.84838 247.85367 249.62197 251.04227 252.16857 252.99387 253.31316
 253.35346 253.13076 252.49406 251.44536 250.05465 248.21895 246.13125 243.96755
 241.76185 239.56914 237.39244 235.23474 233.09804 230.96834 228.99764 227.15793
 225.44423 223.91953 222.55283 221.32813 220.21342 219.17672 218.28402 217.42832
 216.67362 215.85691 214.95821 214.32551 213.77881 212.97980 211.09723 210.59792
 210.66241 211.56868 213.05759 215.33456 218.86902 223.65276 229.49419 234.60223
 238.47099 242.37482 246.51448 250.71724 254.58847 258.35318 261.20340 263.01385
 265.66315 268.50488 270.96057 272.74936 274.72928 276.77887 278.23477 279.64160
 281.29312 282.85876 284.33661 285.69385 286.87448 287.92068 288.87354 289.74170
 290.52719 291.23203 291.85364 292.67682
 366.78100 356.33797 345.77294 334.64190 323.04787 311.24484 299.11781 286.92378
 274.63874 262.53871 250.55068 239.85465 229.97962 221.08658 213.27155 206.27652
 200.11349 195.05446 191.63942 189.68439 188.72436 188.79133 189.62930 190.94026
 192.66823 194.76620 197.03217 199.39414 201.84211 204.32507 206.41604 208.26101
 209.88998 211.03795 211.26991 211.50088 211.44085 211.14882 210.78479 210.41775
 210.03772 209.75069 209.56166 209.42863 209.35959 209.69356 210.08253 210.47450
 211.27047 212.45143 213.70440 215.49037 217.42134 219.46731 221.56527 223.65124
 225.71421 227.80118 229.90115 232.01011 234.14208 236.31705 238.57602 240.94899
 243.57295 245.82692 247.83189 249.59986 251.01983 252.14579 252.97076 253.28973
 253.32970 253.10667 252.46963 251.42060 250.02957 248.19354 246.10551 243.94148
 241.73544 239.54241 237.36538 235.20735 233.07032 230.94028 228.96925 227.12922
 225.41519 223.89016 222.52312 221.29809 220.18306 219.14603 218.25300 217.39696
 216.64193 215.82490 214.92587 214.29284 213.74580 212.99304 211.21864 210.69595
 210.70465 211.60283 213.07944 215.32834 218.79785 223.56429 229.43903 234.53610
 238.39738 242.29297 246.43144 250.64668 254.54135 258.30719 261.15796 262.97772
 265.61899 268.46045 270.91461 272.67249 274.64783 276.72076 278.17386 279.56271
 281.21262 282.77890 284.25885 285.61676 286.79688 287.84204 288.79657 289.66290
 290.45020 291.15512 291.77417 292.60321
 366.78100 356.33765 345.77230 334.64095 323.04660 311.24325 299.11590 286.92155
 274.63620 262.53585 250.54750 239.85115 229.97580 221.08245 213.26710 206.27175
 200.10840 195.04905 191.63370 189.67835 188.71800 188.78465 189.62230 190.93295
 192.66060 194.75825 197.02390 199.38555 201.83320 204.31585 206.40650 208.25115
 209.87980 211.02745 211.25910 211.48975 211.42940 211.13705 210.77270 210.40535
 210.02500 209.73765 209.54830 209.41495 209.34560 209.67925 210.06790 210.45955
 211.25520 212.43585 213.68850 215.47415 217.40480 219.45045 221.54810 223.63375
 225.69640 227.78305 229.88270 231.99135 234.12300 236.29765 238.55630 240.92895
 243.55260 245.80625 247.81090 249.57855 250.99820 252.12385 252.94850 253.26715
 253.30680 253.08345 252.44610 251.39675 250.00540 248.16905 246.08070 243.91635
 241.71000 239.51665 237.33930 235.18095 233.04360 230.91325 228.94190 227.10155
 225.38720 223.86185 222.49450 221.26915 220.15380 219.11645 218.22310 217.36675
 216.61140 215.79405 214.89470 214.26135 213.71400 213.00647 211.33801 210.79985
 210.75450 211.62669 213.09740 215.32791 218.73398 223.47568 229.38040 234.46800
 238.32271 242.21169 246.34854 250.57593 254.49678 258.26312 261.11310 262.94159
 265.56818 268.40524 270.85858 272.59195 274.56470 276.65765 278.11505 279.49203
 281.13599 282.69876 284.18219 285.54086 286.71933 287.76572 288.71893 289.58939
 290.37442 291.07956 291.69998 292.52896
 366.78100 356.33731 345.77163 334.63994 323.04525 311.24156 299.11388 286.91919
 274.63350 262.53282 250.54413 239.84744 229.97176 221.07807 213.26238 206.26669
 200.10301 195.04332 191.62763 189.67195 188.71126 188.77757 189.61489 190.92520
 192.65251 194.74982 197.01514 199.37645 201.82376 204.30608 206.39639 208.24070
 209.86902 211.01633 211.24764 211.47795 211.41727 211.12458 210.75989 210.39221
 210.01152 209.72383 209.53415 209.40046 209.33077 209.66408 210.05240 210.44371
 211.23902 212.41934 213.67165 215.45696 217.38727 219.43259 221.52990 223.61521
 225.67753 227.76384 229.86315 231.97147 234.10278 236.27709 238.53540 240.90772
 243.53103 245.78434 247.78866 249.55597 250.97528 252.10060 252.92491 253.24322
 253.28253 253.05885 252.42116 251.37147 249.97979 248.14310 246.05441 243.88973
 241.68304 239.48935 237.31166 235.15298 233.01529 230.88460 228.91292 227.07223
 225.35754 223.83186 222.46417 221.23848 220.12279 219.08511 218.19142 217.33473
 216.57905 215.76136 214.86167 214.22798 213.68030 213.01768 211.45464 210.91069
 210.81154 211.63766 213.11230 215.33215 218.67734 223.39009 229.32140 234.39737
 238.24425 242.12666 246.26231 250.50233 254.45436 258.22324 261.07321 262.91074
 265.51459 268.34082 270.79288 272.50742 274.47849 276.58856 278.05652 279.42847
 281.06448 282.62415 284.10596 285.46277 286.64352 287.68713 288.64362 289.51089
 290.29755 291.00394 291.62338 292.45642
 366.78100 356.33675 345.77051 334.63826 323.04302 311.23877 299.11053 286.91528
 274.62903 262.52779 250.53854 239.84130 229.96505 221.07081 213.25456 206.25832
 200.09407 195.03382 191.61758 189.66133 188.70009 188.76584 189.60260 190.91235
 192.63910 194.73586 197.00061 199.36137 201.80812 204.28988 206.37963 208.22338
 209.85114 210.99789 211.22865 211.45840 211.39716 211.10391 210.73867 210.37042
 209.98917 209.70093 209.51068 209.37644 209.30619 209.63895 210.02670 210.41745
 211.21221 212.39196 213.64372 215.42847 217.35823 219.40298 221.49974 223.58449
 225.64624 227.73200 229.83075 231.93851 234.06926 236.24302 238.50077 240.87252
 243.49528 245.74803 247.75179 249.51854 250.93730 252.06205 252.88580 253.20356
 253.24231 253.01807 252.37982 251.32958 249.93733 248.10009 246.01084 243.84559
 241.63835 239.44410 237.26586 235.10661 232.96837 230.83712 228.86487 227.02363
 225.30838 223.78214 222.41389 221.18765 220.07140 219.03315 218.13891 217.28166
 216.52542 215.70717 214.80693 214.17268 213.62444 213.01601 211.58028 211.02710
 210.87065 211.65646 213.11835 215.33081 218.62260 223.30420 229.25719 234.32129
 238.16174 242.03981 246.17482 250.42911 254.41676 258.18921 261.03903 262.88593
 265.45801 268.26788 270.71793 272.41888 274.39047 276.51517 278.00076 279.37503
 280.99966 282.55240 284.02704 285.38239 286.56314 287.60971 288.56354 289.43192
 290.21741 290.92441 291.54581 292.37637
 366.78100 356.33644 345.76988 334.63731 323.04175 311.23719 299.10863 286.91306
 274.62650 262.52494 250.53538 239.83781 229.96125 221.06669 213.25013 206.25356
 200.08900 195.02844 191.61188 189.65531 188.69375 188.75919 189.59563 190.90506
 192.63150 194.72794 196.99238 199.35281 201.79925 204.28069 206.37013 208.21357
 209.84100 210.98744 211.21788 211.44732 211.38575 211.09219 210.72663 210.35807
 209.97650 209.68794 209.49738 209.36282 209.29225 209.62469 210.01213 210.40257
 211.19700 212.37644 213.62788 215.41232 217.34175 219.38619 221.48263 223.56707
 225.62850 227.71394 229.81238 231.91982 234.05025 236.22369 238.48113 240.85257
 243.47501 245.72744 247.73088 249.49732 250.91576 252.04019 252.86363 253.18107
 253.21951 252.99494 252.35638 251.30582 249.91326 248.07569 245.98613 243.82057
 241.61301 239.41844 237.23988 235.08032 232.94176 230.81019 228.83763 226.99607
 225.28051 223.75394 222.38538 221.15882 220.04226 219.00370 218.10913 217.25157
 216.49501 215.67645 214.77588 214.14132 213.59276 213.02489 211.68462 211.17146
 210.94199 211.65654 213.12672 215.32129 218.55421 223.22687 229.19496 234.24744
 238.08005 241.95210 246.08464 250.35272 254.38042 258.15500 261.00235 262.86136
 265.39929 268.18814 270.64008 272.33334 274.30417 276.44156 277.95413 279.33621
 280.94376 282.48361 283.94754 285.30252 286.48322 287.52893 288.48416 289.35254
 290.14105 290.84543 291.46921 292.29962
 366.78100 356.33594 345.76887 334.63581 323.03975 311.23468 299.10562 286.90956
 274.62249 262.52043 250.53037 239.83230 229.95524 221.06018 213.24311 206.24605
 200.08099 195.01992 191.60286 189.64580 188.68373 188.74867 189.58461 190.89354
 192.61948 194.71542 196.97935 199.33929 201.78523 204.26616 206.35510 208.19804
 209.82497 210.97091 211.20085 211.42978 211.36772 211.07366 210.70759 210.33853
 209.95647 209.66740 209.47634 209.34128 209.27021 209.60215 209.98909 210.37902
 211.17296 212.35190 213.60283 215.38677 217.31571 219.35964 221.45558 223.53951
 225.60045 227.68539 229.78332 231.89026 234.02020 236.19313 238.45007 240.82101
 243.44294 245.69488 247.69782 249.46375 250.88169 252.00563 252.82856 253.14550
 253.18344 252.95837 252.31931 251.26825 249.87518 248.03712 245.94706 243.78099
 241.57293 239.37787 237.19880 235.03874 232.89968 230.76761 228.79455 226.95249
 225.23642 223.70936 222.34030 221.11323 219.99617 218.95711 218.06204 217.20398
 216.44692 215.62785 214.72679 214.09173 213.54266 213.02457 211.80145 211.29349
 211.03798 211.66722 213.11514 215.32726 218.49960 223.14832 229.13087 234.16084
 237.98145 241.84975 245.98439 250.27071 254.34515 258.12424 260.97141 262.84811
 265.34418 268.10645 270.56000 272.25064 274.21915 276.36475 277.91003 279.30435
 280.89185 282.41437 283.86826 285.22348 286.40344 287.44958 288.40488 289.27405
 290.06171 290.76831 291.39276 292.22278
 366.78100 356.33628 345.76956 334.63684 323.04112 311.23641 299.10769 286.91197
 274.62525 262.52353 250.53381 239.83609 229.95937 221.06466 213.24794 206.25122
 200.08650 195.02578 191.60906 189.65234 188.69062 188.75590 189.59219 190.90147
 192.62775 194.72403 196.98831 199.34859 201.79487 204.27615 206.36544 208.20872
 209.83600 210.98228 211.21256 211.44184 211.38012 211.08640 210.72068 210.35197
 209.97025 209.68153 209.49081 209.35609 209.28537 209.61765 210.00493 210.39522
 211.18950 212.36878 213.62006 215.40434 217.33362 219.37790 221.47418 223.55846
 225.61975 227.70503 229.80331 231.91059 234.04087 236.21415 238.47143 240.84271
 243.46500 245.71728 247.72056 249.48684 250.90512 252.02940 252.85268 253.16996
 253.20824 252.98353 252.34481 251.29409 249.90137 248.06365 245.97393 243.80821
 241.60049 239.40578 237.22706 235.06734 232.92862 230.79690 228.82418 226.98246
 225.26674 223.74002 222.37131 221.14459 220.02787 218.98915 218.09443 217.23671
 216.47999 215.66127 214.76056 214.12584 213.57712 213.06708 211.86295 211.44672
 211.13126 211.71077 213.12917 215.28961 218.43399 223.06296 229.05342 234.05801
 237.87257 241.74480 245.88802 250.19695 254.32336 258.10834 260.95724 262.85400
 265.29324 268.01962 270.46957 272.15677 274.12494 276.27661 277.85236 279.26678
 280.83939 282.34674 283.78802 285.14429 286.32388 287.36963 288.32669 289.19476
 289.98227 290.69058 291.31332 292.14783
 366.78100 356.33681 345.77061 334.63842 323.04323 311.23904 299.11084 286.91565
 274.62946 262.52826 250.53907 239.84188 229.96569 221.07149 213.25530 206.25911
 200.09491 195.03472 191.61853 189.66234 188.70114 188.76695 189.60376 190.91356
 192.64037 194.73718 197.00199 199.36279 201.80960 204.29141 206.38121 208.22502
 209.85283 210.99964 211.23044 211.46025 211.39906 211.10586 210.74067 210.37248
 209.99129 209.70309 209.51290 209.37871 209.30851 209.64132 210.02913 210.41994
 211.21474 212.39455 213.64636 215.43116 217.36097 219.40578 221.50259 223.58739
 225.64920 227.73501 229.83381 231.94162 234.07243 236.24624 238.50404 240.87585
 243.49866 245.75146 247.75527 249.52208 250.94089 252.06569 252.88950 253.20731
 253.24611 253.02192 252.38373 251.33354 249.94134 248.10415 246.01496 243.84976
 241.64257 239.44838 237.27019 235.11099 232.97280 230.84161 228.86941 227.02822
 225.31303 223.78684 222.41864 221.19245 220.07626 219.03806 218.14387 217.28668
 216.53049 215.71229 214.81210 214.17791 213.62971 213.12131 211.92082 211.54163
 211.34206 211.76906 213.10988 215.20187 218.28157 222.96385 228.98741 233.97897
 237.79295 241.66699 245.81007 250.13551 254.31348 258.10056 260.94409 262.85599
 265.23499 267.92111 270.36523 272.05035 274.02228 276.18063 277.78720 279.22769
 280.78775 282.28198 283.70929 285.06454 286.24554 287.29111 288.24744 289.11783
 289.90491 290.61346 291.23639 292.07465
 366.78100 356.33617 345.76933 334.63650 323.04066 311.23583 299.10699 286.91116
 274.62432 262.52249 250.53265 239.83482 229.95798 221.06315 213.24631 206.24948
 200.08464 195.02381 191.60697 189.65014 188.68830 188.75347 189.58963 190.89880
 192.62497 194.72113 196.98530 199.34546 201.79163 204.27279 206.36196 208.20512
 209.83229 210.97845 211.20862 211.43778 211.37595 211.08211 210.71628 210.34744
 209.96561 209.67677 209.48594 209.35110 209.28027 209.61243 209.99960 210.38976
 211.18393 212.36310 213.61426 215.39843 217.32759 219.37176 221.46792 223.55209
 225.61325 227.69842 229.79658 231.90375 234.03391 236.20708 238.46424 240.83541
 243.45757 245.70974 247.71290 249.47907 250.89723 252.02140 252.84456 253.16173
 253.19990 252.97506 252.33623 251.28539 249.89256 248.05472 245.96489 243.79905
 241.59122 239.39638 237.21755 235.05771 232.91888 230.78704 228.81421 226.97237
 225.25654 223.72970 222.36087 221.13403 220.01720 218.97836 218.08353 217.22570
 216.46886 215.65003 214.74919 214.11436 213.56552 213.11928 212.06520 211.56381
 211.44875 211.87187 213.08458 215.13239 218.19864 222.91475 228.95560 233.93483
 237.73463 241.59923 245.73262 250.07085 254.29857 258.08228 260.91190 262.83783
 265.16495 267.81384 270.25525 271.94360 273.92203 276.08673 277.72961 279.19675
 280.74213 282.22049 283.63303 284.98648 286.16861 287.21405 288.17114 289.04102
 289.83087 290.53937 291.16171 291.99768
 366.78100 356.33569 345.76837 334.63506 323.03874 311.23343 299.10412 286.90780
 274.62049 262.51818 250.52786 239.82955 229.95223 221.05692 213.23961 206.24229
 200.07698 195.01567 191.59835 189.64104 188.67872 188.74341 189.57910 190.88778
 192.61347 194.70916 196.97284 199.33253 201.77821 204.25890 206.34759 208.19027
 209.81696 210.96265 211.19233 211.42102 211.35870 211.06439 210.69808 210.32876
 209.94645 209.65714 209.46582 209.33051 209.25919 209.59088 209.97757 210.36725
 211.16094 212.33963 213.59031 215.37400 217.30268 219.34637 221.44206 223.52574
 225.58643 227.67112 229.76880 231.87549 234.00517 236.17786 238.43455 240.80523
 243.42692 245.67861 247.68129 249.44698 250.86466 251.98835 252.81104 253.12772
 253.16541 252.94010 252.30078 251.24947 249.85615 248.01784 245.92753 243.76121
 241.55290 239.35759 237.17827 235.01796 232.87864 230.74633 228.77302 226.93070
 225.21439 223.68708 222.31776 221.09045 219.97313 218.93382 218.03851 217.18019
 216.42288 215.60357 214.70225 214.06694 213.51762 213.12398 212.19400 211.64134
 211.48341 211.93179 213.05708 215.13821 218.21677 222.88440 228.92096 233.87129
 237.65111 241.50867 245.64085 249.99667 254.27652 258.05380 260.86569 262.81052
 265.09232 267.70694 270.14651 271.84409 273.82803 275.99683 277.67834 279.17343
 280.70395 282.16434 283.55917 284.91309 286.09256 287.14127 288.09772 288.96814
 289.75790 290.46585 291.09094 291.92886
 366.78100 356.33570 345.76841 334.63511 323.03882 311.23352 299.10423 286.90793
 274.62064 262.51834 250.52804 239.82975 229.95245 221.05716 213.23986 206.24257
 200.07727 195.01597 191.59868 189.64138 188.67909 188.74379 189.57950 190.88820
 192.61391 194.70961 196.97331 199.33302 201.77872 204.25943 206.34813 208.19084
 209.81754 210.96325 211.19295 211.42165 211.35936 211.06506 210.69877 210.32947
 209.94718 209.65788 209.46658 209.33129 209.25999 209.59170 209.97840 210.36811
 211.16181 212.34052 213.59122 215.37492 217.30363 219.34733 221.44304 223.52674
 225.58745 227.67215 229.76986 231.87656 234.00626 236.17897 238.43567 240.80638
 243.42808 245.67979 247.68249 249.44819 250.86590 251.98960 252.81231 253.12901
 253.16672 252.94142 252.30213 251.25083 249.85753 248.01924 245.92894 243.76265
 241.55435 239.35906 237.17976 235.01946 232.88017 230.74787 228.77458 226.93228
 225.21599 223.68869 222.31940 221.09210 219.97480 218.93551 218.04021 217.18192
 216.42462 215.60533 214.70403 214.06874 213.51944 213.15282 212.28665 211.75842
 211.49539 211.97203 213.06798 215.16847 218.25314 222.83734 228.86905 233.78522
 237.55028 241.40918 245.54636 249.92361 254.25639 258.02567 260.81931 262.78378
 265.02081 267.60071 270.03934 271.74982 273.73758 275.90991 277.62799 279.15042
 280.66599 282.10901 283.48987 284.84338 286.02432 287.07053 288.02783 288.90027
 289.68997 290.39801 291.02335 291.86084
 366.78100 356.33578 345.76856 334.63534 323.03912 311.23390 299.10468 286.90846
 274.62124 262.51902 250.52880 239.83058 229.95336 221.05814 213.24092 206.24370
 200.07848 195.01726 191.60004 189.64282 188.68060 188.74538 189.58116 190.88994
 192.61572 194.71150 196.97528 199.33506 201.78084 204.26162 206.35040 208.19318
 209.81996 210.96574 211.19552 211.42430 211.36208 211.06786 210.70164 210.33242
 209.95020 209.66098 209.46976 209.33454 209.26332 209.59510 209.98188 210.37166
 211.16544 212.34422 213.59500 215.37878 217.30756 219.35134 221.44712 223.53090
 225.59168 227.67646 229.77424 231.88102 234.01080 236.18358 238.44036 240.81115
 243.43293 245.68471 247.68749 249.45327 250.87105 251.99483 252.81761 253.13439
 253.17217 252.94695 252.30773 251.25651 249.86329 248.02507 245.93485 243.76863
 241.56041 239.36519 237.18597 235.02575 232.88653 230.75431 228.78109 226.93887
 225.22265 223.69543 222.32621 221.09899 219.98177 218.94255 218.04733 217.18911
 216.43189 215.61267 214.71145 214.07623 213.52701 213.18497 212.37685 211.87408
 211.50827 212.00572 213.11581 215.20667 218.26915 222.77785 228.80795 233.69992
 237.45471 241.31535 245.45724 249.85529 254.23813 257.99530 260.76837 262.75064
 264.94693 267.49243 269.93121 271.65683 273.64981 275.82425 277.57498 279.12439
 280.62830 282.05508 283.42395 284.77872 285.95853 287.00623 287.96512 288.83481
 289.62601 290.33423 290.96030 291.79837
 366.78100 356.33579 345.76859 334.63538 323.03917 311.23397 299.10476 286.90855
 274.62135 262.51914 250.52894 239.83073 229.95352 221.05832 213.24111 206.24390
 200.07870 195.01749 191.60028 189.64308 188.68087 188.74566 189.58146 190.89025
 192.61604 194.71184 196.97563 199.33542 201.78122 204.26201 206.35081 208.19360
 209.82039 210.96619 211.19598 211.42477 211.36257 211.06836 210.70215 210.33295
 209.95074 209.66153 209.47033 209.33512 209.26391 209.59571 209.98250 210.37229
 211.16609 212.34488 213.59568 215.37947 217.30826 219.35206 221.44785 223.53164
 225.59244 227.67723 229.77502 231.88182 234.01161 236.18440 238.44120 240.81199
 243.43378 245.68558 247.68837 249.45417 250.87196 251.99575 252.81855 253.13534
 253.17313 252.94793 252.30872 251.25751 249.86431 248.02610 245.93589 243.76969
 241.56148 239.36627 237.18707 235.02686 232.88765 230.75545 228.78224 226.94004
 225.22383 223.69662 222.32742 221.10021 219.98300 218.94380 218.04859 217.19038
 216.43318 215.61397 214.71276 214.07756 213.52835 213.21413 212.47174 211.97841
 211.52927 212.03183 213.17996 215.25690 218.27122 222.72119 228.74501 233.62012
 237.36398 241.22412 245.37022 249.78813 254.21635 257.95691 260.70715 262.70654
 264.86926 267.38501 269.82428 271.56689 273.56625 275.74149 277.52243 279.09631
 280.59143 282.00351 283.36331 284.71765 285.89905 286.94513 287.90460 288.77710
 289.56619 290.27594 290.90033 291.74216
 366.78100 356.33593 345.76885 334.63578 323.03970 311.23463 299.10555 286.90948
 274.62240 262.52033 250.53025 239.83218 229.95510 221.06003 213.24295 206.24588
 200.08080 195.01973 191.60265 189.64558 188.68350 188.74843 189.58435 190.89328
 192.61920 194.71513 196.97905 199.33898 201.78491 204.26583 206.35476 208.19768
 209.82461 210.97053 211.20046 211.42938 211.36731 211.07323 210.70716 210.33808
 209.95601 209.66693 209.47586 209.34078 209.26971 209.60163 209.98856 210.37848
 211.17241 212.35133 213.60226 215.38618 217.31511 219.35904 221.45496 223.53889
 225.59981 227.68474 229.78266 231.88959 234.01951 236.19244 238.44936 240.82029
 243.44221 245.69414 247.69706 249.46299 250.88091 252.00484 252.82776 253.14469
 253.18261 252.95754 252.31846 251.26739 249.87431 248.03624 245.94616 243.78009
 241.57202 239.37694 237.19787 235.03779 232.89872 230.76664 228.79357 226.95149
 225.23542 223.70834 222.33927 221.11219 219.99512 218.95604 218.06097 217.20289
 216.44582 215.62674 214.72567 214.09059 213.54152 213.24947 212.55946 212.07523
 211.56992 212.05225 213.24135 215.31194 218.26785 222.67336 228.68607 233.54036
 237.27048 241.13007 245.28386 249.72304 254.19243 257.91132 260.63626 262.65240
 264.78946 267.27921 269.71863 271.48123 273.48767 275.66385 277.47040 279.06552
 280.55704 281.95810 283.30942 284.66339 285.84479 286.89236 287.85239 288.72372
 289.51477 290.22247 290.85233 291.68811
 366.78100 356.33624 345.76948 334.63672 323.04096 311.23620 299.10744 286.91168
 274.62492 262.52316 250.53340 239.83564 229.95888 221.06412 213.24736 206.25060
 200.08584 195.02508 191.60833 189.65157 188.68981 188.75505 189.59129 190.90053
 192.62677 194.72301 196.98725 199.34749 201.79373 204.27497 206.36421 208.20745
 209.83469 210.98093 211.21117 211.44041 211.37865 211.08489 210.71913 210.35037
 209.96861 209.67985 209.48909 209.35433 209.28357 209.61581 210.00305 210.39329
 211.18753 212.36677 213.61801 215.40225 217.33149 219.37574 221.47198 223.55622
 225.61746 227.70270 229.80094 231.90818 234.03842 236.21166 238.46890 240.84014
 243.46238 245.71462 247.71786 249.48410 250.90234 252.02658 252.84982 253.16706
 253.20530 252.98054 252.34178 251.29102 249.89826 248.06050 245.97074 243.80498
 241.59722 239.40246 237.22370 235.06394 232.92518 230.79342 228.82066 226.97890
 225.26315 223.73639 222.36763 221.14087 220.02411 218.98535 218.09059 217.23283
 216.47607 215.65731 214.75655 214.12179 213.57303 213.29411 212.63513 212.16878
 211.62585 212.07132 213.29753 215.36639 218.26871 222.63307 228.63235 233.45818
 237.17320 241.03415 245.19968 249.66177 254.16493 257.85828 260.55472 262.58517
 264.70535 267.17636 269.61603 271.40042 273.41672 275.59271 277.41821 279.03156
 280.52234 281.91724 283.26373 284.61765 285.79913 286.84714 287.80594 288.67801
 289.46964 290.17905 290.80524 291.64447
 366.78100 356.33669 345.77037 334.63806 323.04275 311.23844 299.11012 286.91481
 274.62850 262.52718 250.53787 239.84056 229.96425 221.06993 213.25362 206.25731
 200.09300 195.03268 191.61637 189.66006 188.69874 188.76443 189.60112 190.91081
 192.63749 194.73418 196.99887 199.35955 201.80624 204.28793 206.37762 208.22130
 209.84899 210.99568 211.22637 211.45605 211.39474 211.10143 210.73611 210.36780
 209.98649 209.69818 209.50786 209.37355 209.30324 209.63592 210.02361 210.41430
 211.20899 212.38867 213.64036 215.42505 217.35474 219.39942 221.49611 223.58080
 225.64248 227.72817 229.82686 231.93455 234.06523 236.23892 238.49661 240.86829
 243.49098 245.74367 247.74736 249.51404 250.93273 252.05742 252.88111 253.19879
 253.23748 253.01317 252.37485 251.32454 249.93223 248.09492 246.00560 243.84029
 241.63298 239.43866 237.26035 235.10104 232.96273 230.83141 228.85910 227.01779
 225.30247 223.77616 222.40785 221.18154 220.06522 219.02691 218.13260 217.27529
 216.51897 215.70066 214.80035 214.16603 213.61772 213.34534 212.70178 212.25977
 211.69083 212.09135 213.35092 215.42232 218.27901 222.59637 228.57982 233.37424
 237.07310 240.93918 245.12021 249.60622 254.13333 257.79684 260.46194 262.50229
 264.61475 267.07477 269.51462 271.32327 273.35138 275.52979 277.36746 278.99338
 280.48657 281.87860 283.22623 284.57974 285.76273 286.80966 287.76929 288.64432
 289.43359 290.14322 290.77005 291.61053
 366.78100 356.33721 345.77141 334.63962 323.04483 311.24103 299.11324 286.91845
 274.63265 262.53186 250.54307 239.84627 229.97048 221.07669 213.26089 206.26510
 200.10131 195.04151 191.62572 189.66993 188.70913 188.77534 189.61255 190.92275
 192.64996 194.74717 197.01237 199.37358 201.82079 204.30299 206.39320 208.23741
 209.86561 211.01282 211.24403 211.47423 211.41344 211.12065 210.75585 210.38806
 210.00726 209.71947 209.52968 209.39588 209.32609 209.65930 210.04750 210.43871
 211.23392 212.41412 213.66633 215.45154 217.38174 219.42695 221.52416 223.60936
 225.67157 227.75778 229.85698 231.96519 234.09640 236.27060 238.52881 240.90102
 243.52422 245.77743 247.78164 249.54884 250.96805 252.09326 252.91746 253.23567
 253.27488 253.05108 252.41329 251.36350 249.97170 248.13491 246.04612 243.88132
 241.67453 239.48074 237.30294 235.14415 233.00636 230.87556 228.90377 227.06298
 225.34818 223.82239 222.45460 221.22880 220.11301 219.07522 218.18142 217.32463
 216.56884 215.75104 214.85125 214.21746 213.66966 213.39996 212.76277 212.34630
 211.76399 212.11400 213.39977 215.48051 218.30013 222.56236 228.52548 233.29111
 236.97523 240.84714 245.04619 249.55585 254.09869 257.72794 260.35641 262.40079
 264.51703 266.97348 269.41385 271.24915 273.29324 275.47345 277.31763 278.95224
 280.45282 281.84476 283.19928 284.55347 285.73495 286.78366 287.74210 288.61661
 289.40726 290.11743 290.74530 291.58551
 366.78100 356.33790 345.77280 334.64170 323.04760 311.24450 299.11740 286.92329
 274.63819 262.53809 250.54999 239.85389 229.97879 221.08569 213.27059 206.27549
 200.11239 195.05329 191.63819 189.68309 188.72298 188.78988 189.62778 190.93868
 192.66658 194.76448 197.03038 199.39228 201.84018 204.32308 206.41398 208.25888
 209.88778 211.03567 211.26757 211.49847 211.43837 211.14627 210.78217 210.41507
 210.03497 209.74787 209.55877 209.42567 209.35657 209.69046 210.07936 210.47126
 211.26716 212.44806 213.70096 215.48686 217.41776 219.46366 221.56156 223.64746
 225.71036 227.79726 229.89715 232.00605 234.13795 236.31285 238.57175 240.94465
 243.56855 245.82245 247.82735 249.59525 251.01515 252.14105 252.96595 253.28484
 253.32474 253.10164 252.46454 251.41544 250.02434 248.18824 246.10014 243.93604
 241.72994 239.53684 237.35974 235.20164 233.06453 230.93443 228.96333 227.12323
 225.40913 223.88403 222.51693 221.29183 220.17673 219.13963 218.24653 217.39043
 216.63533 215.81822 214.91912 214.28602 213.73892 213.46312 212.81148 212.43275
 211.84558 212.13913 213.44333 215.54767 218.33023 222.52795 228.46561 233.20650
 236.87819 240.75673 244.97713 249.51126 254.06174 257.65134 260.23865 262.28217
 264.41428 266.87317 269.31339 271.17801 273.24005 275.42322 277.26868 278.90839
 280.42157 281.82074 283.18103 284.53635 285.71747 286.76596 287.72589 288.60059
 289.38995 290.10016 290.72745 291.56979
 366.78100 356.33863 345.77427 334.64390 323.05053 311.24816 299.12180 286.92843
 274.64406 262.54470 250.55733 239.86196 229.98759 221.09523 213.28086 206.28649
 200.12413 195.06576 191.65139 189.69702 188.73766 188.80529 189.64392 190.95556
 192.68419 194.78282 197.04945 199.41209 201.86072 204.34435 206.43599 208.28162
 209.91125 211.05988 211.29252 211.52415 211.46478 211.17342 210.81005 210.44368
 210.06431 209.77795 209.58958 209.45721 209.38885 209.72348 210.11311 210.50574
 211.30238 212.48401 213.73764 215.52428 217.45591 219.50254 221.60117 223.68781
 225.75144 227.83907 229.93971 232.04934 234.18197 236.35760 238.61724 240.99087
 243.61550 245.87014 247.87577 249.64440 251.06503 252.19167 253.01730 253.33693
 253.37757 253.15520 252.51883 251.47046 250.08010 248.24473 246.15736 243.99400
 241.78863 239.59626 237.41989 235.26253 233.12616 230.99679 229.02643 227.18706
 225.47369 223.94932 222.58296 221.35859 220.24422 219.20786 218.31549 217.46012
 216.70575 215.88939 214.99102 214.35865 213.81229 213.52820 212.85701 212.50731
 211.94260 212.16983 213.49535 215.61057 218.34720 222.49403 228.40654 233.12048
 236.78186 240.66826 244.91362 249.47218 254.02202 257.56845 260.11127 262.14905
 264.30850 266.77536 269.21277 271.11014 273.19348 275.37881 277.22015 278.86310
 280.39282 281.80557 283.17215 284.52829 285.71005 286.75739 287.71857 288.59061
 289.38406 290.09277 290.71982 291.56299
 366.78100 356.33973 345.77647 334.64720 323.05494 311.25367 299.12841 286.93614
 274.65288 262.55461 250.56835 239.87408 230.00082 221.10955 213.29629 206.30302
 200.14176 195.08449 191.67123 189.71796 188.75970 188.82843 189.66817 190.98090
 192.71064 194.81037 197.07811 199.44184 201.89158 204.37631 206.46905 208.31578
 209.94652 211.09625 211.32999 211.56272 211.50445 211.21419 210.85192 210.48666
 210.10839 209.82313 209.63586 209.50460 209.43733 209.77307 210.16380 210.55754
 211.35527 212.53801 213.79274 215.58048 217.51321 219.56095 221.66068 223.74842
 225.81315 227.90189 230.00362 232.11436 234.24809 236.42483 238.68556 241.06030
 243.68603 245.94177 247.94850 249.71824 251.13997 252.26770 253.09444 253.41517
 253.45691 253.23564 252.60038 251.55311 250.16385 248.32958 246.24332 244.08105
 241.87679 239.68552 237.51026 235.35399 233.21873 231.09046 229.12120 227.28293
 225.57067 224.04740 222.68214 221.45887 220.34561 219.31034 218.41908 217.56481
 216.81155 215.99628 215.09902 214.46775 213.92249 213.61128 212.87604 212.59450
 212.05634 212.20412 213.50848 215.67458 218.39502 222.46327 228.34189 233.02982
 236.68233 240.57997 244.85373 249.43784 253.97832 257.47711 259.97290 262.00171
 264.19946 266.68024 269.11481 271.04813 273.15479 275.34238 277.17624 278.81781
 280.36911 281.79938 283.17242 284.52847 285.70987 286.75751 287.71780 288.59241
 289.38229 290.09256 290.71957 291.55966
 366.78100 356.34134 345.77968 334.65202 323.06136 311.26170 299.13803 286.94737
 274.66571 262.56905 250.58439 239.89173 230.02007 221.13041 213.31875 206.32709
 200.16743 195.11177 191.70010 189.74844 188.79178 188.86212 189.70346 191.01780
 192.74914 194.85048 197.11982 199.48516 201.93650 204.42284 206.51717 208.36551
 209.99785 211.14919 211.38453 211.61887 211.56221 211.27355 210.91289 210.54923
 210.17257 209.88891 209.70324 209.57358 209.50792 209.84526 210.23760 210.63294
 211.43228 212.61662 213.87296 215.66230 217.59664 219.64598 221.74731 223.83665
 225.90299 227.99333 230.09667 232.20901 234.34435 236.52269 238.78503 241.16137
 243.78871 246.04605 248.05438 249.82572 251.24906 252.37840 253.20674 253.52908
 253.57242 253.35276 252.71910 251.67344 250.28578 248.45312 246.36845 244.20779
 242.00513 239.81547 237.64181 235.48715 233.35349 231.22683 229.25917 227.42251
 225.71185 224.19019 222.82652 221.60486 220.49320 219.45954 218.56988 217.71722
 216.96556 216.15190 215.25624 214.62658 214.08292 213.72075 212.86511 212.67148
 212.20502 212.24008 213.57013 215.73026 218.37906 222.42682 228.27747 232.93413
 236.58011 240.49057 244.79785 249.40707 253.93091 257.37912 259.82693 261.84616
 264.09213 266.59076 269.02127 270.99390 273.12463 275.31274 277.13538 278.77377
 280.34845 281.79871 283.17953 284.53531 285.71695 286.76523 287.72339 288.59689
 289.38889 290.09882 290.72574 291.56796
 366.78100 356.34229 345.78157 334.65486 323.06514 311.26643 299.14371 286.95400
 274.67328 262.57757 250.59385 239.90214 230.03142 221.14271 213.33200 206.34128
 200.18257 195.12785 191.71714 189.76642 188.81071 188.88199 189.72428 191.03956
 192.77185 194.87413 197.14442 199.51070 201.96299 204.45028 206.54556 208.39485
 210.02813 211.18042 211.41670 211.65199 211.59627 211.30856 210.94884 210.58613
 210.21041 209.92770 209.74299 209.61427 209.54956 209.88784 210.28113 210.67741
 211.47770 212.66298 213.92027 215.71055 217.64584 219.69612 221.79841 223.88869
 225.95598 228.04727 230.15155 232.26484 234.40112 236.58041 238.84369 241.22098
 243.84926 246.10755 248.11683 249.88912 251.31340 252.44369 253.27298 253.59626
 253.64055 253.42183 252.78912 251.74440 250.35769 248.52597 246.44226 244.28254
 242.08083 239.89211 237.71940 235.56568 233.43297 231.30726 229.34054 227.50483
 225.79511 224.27440 222.91168 221.69097 220.58025 219.54754 218.65882 217.80711
 217.05639 216.24368 215.34897 214.72025 214.17754 213.79918 212.90527 212.66199
 212.37381 212.43158 213.57703 215.71359 218.38544 222.34953 228.20923 232.83878
 236.47639 240.40372 244.74751 249.38097 253.88208 257.28043 259.68158 261.68909
 263.98730 266.50461 268.92831 270.94067 273.09540 275.28427 277.09167 278.72321
 280.32581 281.80090 283.19116 284.54779 285.72928 286.77713 287.73651 288.60977
 289.39957 290.11047 290.73904 291.57846
 366.78100 356.34259 345.78219 334.65578 323.06637 311.26796 299.14556 286.95615
 274.67574 262.58033 250.59693 239.90552 230.03511 221.14670 213.33630 206.34589
 200.18748 195.13308 191.72267 189.77226 188.81685 188.88845 189.73104 191.04663
 192.77922 194.88182 197.15241 199.51900 201.97159 204.45919 206.55478 208.40437
 210.03797 211.19056 211.42715 211.66274 211.60734 211.31993 210.96052 210.59811
 210.22271 209.94030 209.75589 209.62748 209.56308 209.90167 210.29526 210.69186
 211.49245 212.67804 213.93563 215.72623 217.66182 219.71241 221.81500 223.90560
 225.97319 228.06478 230.16937 232.28297 234.41956 236.59915 238.86275 241.24034
 243.86893 246.12752 248.13712 249.90971 251.33430 252.46489 253.29449 253.61808
 253.66267 253.44427 252.81186 251.76745 250.38104 248.54964 246.46623 244.30682
 242.10541 239.91701 237.74460 235.59119 233.45878 231.33338 229.36697 227.53156
 225.82216 224.30175 222.93934 221.71893 220.60853 219.57612 218.68771 217.83630
 217.08590 216.27349 215.37908 214.75067 214.20827 213.84573 212.98921 212.64255
 212.46700 212.58969 213.58453 215.73814 218.46370 222.29895 228.14314 232.74945
 236.37862 240.32352 244.70418 249.35869 253.83206 257.18030 259.53375 261.52658
 263.88037 266.41733 268.83121 270.88422 273.06445 275.25266 277.04117 278.66913
 280.30118 281.80411 283.20612 284.56415 285.74594 286.79254 287.75317 288.62402
 289.41568 290.12561 290.75211 291.59387
 366.78100 356.34340 345.78380 334.65819 323.06959 311.27199 299.15039 286.96179
 274.68218 262.58758 250.60498 239.91438 230.04478 221.15717 213.34757 206.35797
 200.20037 195.14677 191.73716 189.78756 188.83296 188.90536 189.74876 191.06515
 192.79855 194.90195 197.17335 199.54075 201.99414 204.48254 206.57894 208.42934
 210.06374 211.21714 211.45453 211.69093 211.63633 211.34973 210.99113 210.62952
 210.25492 209.97332 209.78972 209.66212 209.59851 209.93791 210.33231 210.72971
 211.53111 212.71750 213.97590 215.76730 217.70370 219.75510 221.85849 223.94989
 226.01829 228.11069 230.21609 232.33048 234.46788 236.64828 238.91268 241.29108
 243.92047 246.17987 248.19027 249.96367 251.38907 252.52046 253.35086 253.67526
 253.72066 253.50306 252.87145 251.82785 250.44225 248.61165 246.52905 244.37044
 242.16984 239.98224 237.81064 235.65804 233.52643 231.40183 229.43623 227.60163
 225.89303 224.37342 223.01182 221.79222 220.68262 219.65102 218.76341 217.91281
 217.16321 216.35161 215.45801 214.83041 214.28880 213.91570 213.03418 212.68042
 212.50189 212.70894 213.63425 215.80676 218.54709 222.26035 228.07202 232.65503
 236.27960 240.24570 244.66307 249.33623 253.77589 257.07205 259.37830 261.35721
 263.77106 266.32889 268.73291 270.82733 273.03516 275.22327 276.99164 278.61481
 280.27850 281.80945 283.22433 284.58167 285.76334 286.81018 287.77072 288.64203
 289.43329 290.14203 290.76910 291.60754
 366.78100 356.34460 345.78620 334.66180 323.07440 311.27799 299.15759 286.97019
 274.69179 262.59839 250.61699 239.92759 230.05919 221.17279 213.36438 206.37598
 200.21958 195.16718 191.75878 189.81038 188.85698 188.93058 189.77518 191.09277
 192.82737 194.93197 197.20457 199.57317 202.02777 204.51737 206.61497 208.46657
 210.10216 211.25676 211.49536 211.73296 211.67956 211.39416 211.03676 210.67636
 210.30296 210.02255 209.84015 209.71375 209.65135 209.99195 210.38755 210.78615
 211.58875 212.77635 214.03594 215.82854 217.76614 219.81874 221.92334 224.01594
 226.08554 228.17914 230.28574 232.40133 234.53993 236.72153 238.98713 241.36673
 243.99733 246.25793 248.26953 250.04413 251.47073 252.60332 253.43492 253.76052
 253.80712 253.59072 252.96032 251.91792 250.53352 248.70412 246.62271 244.46531
 242.26591 240.07951 237.90911 235.75771 233.62731 231.50391 229.53951 227.70610
 225.99870 224.48030 223.11990 221.90150 220.79310 219.76270 218.87630 218.02690
 217.27849 216.46809 215.57569 214.94929 214.40889 214.00412 213.04784 212.75050
 212.52304 212.80679 213.72688 215.88403 218.59962 222.21960 227.99693 232.55435
 236.18073 240.17067 244.62572 249.31380 253.71506 256.95831 259.21936 261.18768
 263.66382 266.24399 268.63852 270.77533 273.01080 275.19788 276.94687 278.56387
 280.25784 281.81418 283.24170 284.60001 285.78110 286.82950 287.78836 288.66003
 289.45148 290.15973 290.78751 291.62506
 366.78100 356.34560 345.78821 334.66481 323.07842 311.28302 299.16363 286.97723
 274.69984 262.60744 250.62705 239.93865 230.07126 221.18586 213.37847 206.39107
 200.23568 195.18428 191.77689 189.82949 188.87710 188.95170 189.79730 191.11591
 192.85151 194.95712 197.23072 199.60033 202.05593 204.54654 206.64514 208.49775
 210.13435 211.28996 211.52956 211.76817 211.71577 211.43138 211.07498 210.71559
 210.34319 210.06380 209.88240 209.75700 209.69561 210.03721 210.43382 210.83342
 211.63703 212.82563 214.08624 215.87984 217.81845 219.87205 221.97766 224.07126
 226.14187 228.23647 230.34408 232.46068 234.60029 236.78289 239.04949 241.43010
 244.06170 246.32331 248.33591 250.11152 251.53912 252.67273 253.50533 253.83194
 253.87954 253.66415 253.03475 251.99336 250.60996 248.78157 246.70117 244.54478
 242.34638 240.16099 237.99159 235.84119 233.71180 231.58940 229.62601 227.79361
 226.08722 224.56982 223.21043 221.99303 220.88564 219.85624 218.97085 218.12245
 217.37506 216.56566 215.67427 215.04887 214.50948 214.08151 213.07042 212.80916
 212.55934 212.88840 213.84618 215.95337 218.63208 222.17662 227.92088 232.45462
 236.08652 240.10231 244.59245 249.29106 253.64941 256.84003 259.05804 261.02002
 263.55972 266.16220 268.54852 270.72729 272.98932 275.17484 276.90393 278.51492
 280.23727 281.81702 283.25812 284.61679 285.79926 286.84595 287.80389 288.67575
 289.46631 290.17505 290.80060 291.64014
 366.78100 356.34628 345.78956 334.66684 323.08112 311.28640 299.16768 286.98195
 274.70523 262.61351 250.63379 239.94607 230.07935 221.19463 213.38791 206.40119
 200.24647 195.19575 191.78903 189.84230 188.89058 188.96586 189.81214 191.13142
 192.86770 194.97398 197.24826 199.61854 202.07482 204.56610 206.66538 208.51866
 210.15593 211.31221 211.55249 211.79177 211.74005 211.45633 211.10061 210.74189
 210.37017 210.09145 209.91073 209.78601 209.72528 210.06756 210.46484 210.86512
 211.66940 212.85868 214.11996 215.91424 217.85352 219.90780 222.01408 224.10836
 226.17963 228.27491 230.38319 232.50047 234.64075 236.82403 239.09131 241.47259
 244.10487 246.36715 248.38043 250.15671 251.58499 252.71926 253.55254 253.87982
 253.92810 253.71338 253.08466 252.04394 250.66122 248.83350 246.75378 244.59806
 242.40034 240.21561 238.04689 235.89717 233.76845 231.64673 229.68401 227.85229
 226.14657 224.62985 223.27113 222.05441 220.94769 219.91897 219.03424 218.18652
 217.43980 216.63108 215.74036 215.11564 214.57692 214.14093 213.11086 212.84908
 212.61397 212.96130 213.96918 216.01714 218.65689 222.13156 227.84482 232.36050
 236.00038 240.04088 244.56277 249.26648 253.57764 256.71475 258.89368 260.85657
 263.45895 266.08334 268.46378 270.68256 272.96951 275.15335 276.86322 278.46921
 280.21729 281.81528 283.27237 284.63010 285.81219 286.86044 287.81818 288.68900
 289.47855 290.18930 290.81299 291.64896
 366.78100 356.34675 345.79051 334.66826 323.08301 311.28877 299.17052 286.98528
 274.70903 262.61778 250.63854 239.95129 230.08504 221.20080 213.39455 206.40830
 200.25406 195.20381 191.79756 189.85132 188.90007 188.97583 189.82258 191.14233
 192.87909 194.98584 197.26059 199.63135 202.08810 204.57985 206.67961 208.53336
 210.17111 211.32787 211.56862 211.80838 211.75713 211.47388 211.11864 210.76039
 210.38914 210.11090 209.93065 209.80640 209.74616 210.08891 210.48667 210.88742
 211.69217 212.88193 214.14368 215.93843 217.87819 219.93294 222.03969 224.13445
 226.20620 228.30195 230.41071 232.52846 234.66922 236.85297 239.12072 241.50248
 244.13523 246.39798 248.41174 250.18849 251.61724 252.75200 253.58575 253.91350
 253.96226 253.74801 253.11977 252.07952 250.69727 248.87003 246.79078 244.63553
 242.43829 240.25404 238.08579 235.93655 233.80830 231.68706 229.72481 227.89356
 226.18832 224.67207 223.31382 222.09758 220.99133 219.96308 219.07884 218.23159
 217.48534 216.67710 215.78685 215.16261 214.62436 214.18852 213.15881 212.88353
 212.67209 213.03336 214.09198 216.08406 218.66533 222.08554 227.77255 232.27444
 235.92148 239.98595 244.53540 249.23817 253.49760 256.58218 258.72849 260.70071
 263.36276 266.00903 268.38492 270.64218 272.95245 275.13318 276.82535 278.42566
 280.19513 281.80685 283.28180 284.63950 285.82135 286.86853 287.82559 288.69736
 289.48602 290.19449 290.82074 291.65689
 366.78100 356.34717 345.79134 334.66951 323.08468 311.29086 299.17303 286.98820
 274.71237 262.62154 250.64271 239.95588 230.09005 221.20622 213.40040 206.41457
 200.26074 195.21091 191.80508 189.85925 188.90842 188.98459 189.83176 191.15193
 192.88911 194.99628 197.27145 199.64262 202.09979 204.59196 206.69213 208.54630
 210.18447 211.34165 211.58282 211.82299 211.77216 211.48933 211.13450 210.77667
 210.40584 210.12801 209.94819 209.82436 209.76453 210.10770 210.50587 210.90704
 211.71221 212.90238 214.16455 215.95972 217.89990 219.95507 222.06224 224.15741
 226.22958 228.32575 230.43492 232.55309 234.69426 236.87844 239.14661 241.52878
 244.16195 246.42512 248.43929 250.21646 251.64563 252.78080 253.61498 253.94315
 253.99232 253.77849 253.15066 252.11083 250.72900 248.90217 246.82334 244.66851
 242.47169 240.28786 238.12003 235.97120 233.84337 231.72254 229.76071 227.92988
 226.22505 224.70923 223.35140 222.13557 221.02974 220.00191 219.11808 218.27125
 217.52542 216.71759 215.82777 215.20394 214.66611 214.23117 213.20358 212.92049
 212.73538 213.11008 214.20410 216.15097 218.67006 222.04387 227.69875 232.18889
 235.84625 239.93645 244.50916 249.20352 253.40761 256.44196 258.56387 260.55426
 263.27173 265.93774 268.31308 270.60690 272.93582 275.11514 276.79059 278.38599
 280.17108 281.78992 283.28397 284.64371 285.82571 286.87100 287.83011 288.70148
 289.49426 290.20401 290.83130 291.66858
 366.78100 356.34758 345.79217 334.67075 323.08634 311.29292 299.17551 286.99109
 274.71567 262.62526 250.64684 239.96043 230.09501 221.21160 213.40618 206.42076
 200.26735 195.21793 191.81252 189.86710 188.91669 188.99327 189.84085 191.16144
 192.89902 195.00661 197.28219 199.65378 202.11136 204.60394 206.70453 208.55911
 210.19770 211.35528 211.59687 211.83745 211.78703 211.50462 211.15020 210.79279
 210.42237 210.14496 209.96554 209.84212 209.78271 210.12629 210.52488 210.92646
 211.73205 212.92263 214.18521 215.98080 217.92138 219.97697 222.08455 224.18014
 226.25272 228.34930 230.45889 232.57747 234.71906 236.90364 239.17223 241.55481
 244.18839 246.45198 248.46656 250.24415 251.67373 252.80932 253.64390 253.97248
 254.02207 253.80865 253.18124 252.14182 250.76041 248.93399 246.85557 244.70116
 242.50474 240.32133 238.15391 236.00550 233.87808 231.75766 229.79625 227.96583
 226.26142 224.74600 223.38859 222.17317 221.06775 220.04034 219.15692 218.31051
 217.56509 216.75768 215.86826 215.24484 214.70743 214.27173 213.24232 212.96262
 212.80624 213.18535 214.30750 216.21581 218.66556 222.00621 227.62650 232.10034
 235.77261 239.89015 244.48248 249.16183 253.30779 256.29410 258.40103 260.42020
 263.18680 265.87155 268.24957 270.57776 272.92340 275.10330 276.76447 278.35275
 280.14526 281.76898 283.27802 284.63797 285.81924 286.86444 287.82220 288.69431
 289.48441 290.19119 290.81601 291.65320
 366.78100 356.34795 345.79290 334.67185 323.08781 311.29476 299.17771 286.99366
 274.71861 262.62856 250.65051 239.96447 230.09942 221.21637 213.41132 206.42627
 200.27322 195.22417 191.81913 189.87408 188.92403 189.00098 189.84893 191.16988
 192.90783 195.01579 197.29174 199.66369 202.12164 204.61459 206.71554 208.57049
 210.20944 211.36740 211.60935 211.85030 211.80025 211.51820 211.16415 210.80710
 210.43706 210.16001 209.98096 209.85791 209.79886 210.14281 210.54176 210.94372
 211.74967 212.94062 214.20357 215.99952 217.94047 219.99642 222.10438 224.20033
 226.27328 228.37023 230.48018 232.59913 234.74108 236.92604 239.19499 241.57794
 244.21189 246.47584 248.49079 250.26874 251.69870 252.83465 253.66960 253.99855
 254.04850 253.83545 253.20840 252.16936 250.78831 248.96226 246.88421 244.73016
 242.53411 240.35106 238.18402 236.03597 233.90892 231.78887 229.82782 227.99777
 226.29372 224.77868 223.42163 222.20658 221.10153 220.07448 219.19143 218.34538
 217.60034 216.79329 215.90424 215.28119 214.74414 214.30835 213.27875 213.00780
 212.88811 213.25867 214.40092 216.27370 218.66061 221.96902 227.54915 232.00896
 235.70308 239.85057 244.45692 249.11295 253.19798 256.13809 258.23782 260.29614
 263.10617 265.80869 268.19583 270.55472 272.91763 275.09906 276.74841 278.32669
 280.11917 281.74042 283.26367 284.62460 285.80542 286.84976 287.80878 288.67853
 289.46826 290.17545 290.79977 291.63483
 366.78100 356.34832 345.79364 334.67295 323.08927 311.29659 299.17991 286.99622
 274.72154 262.63186 250.65418 239.96849 230.10381 221.22113 213.41645 206.43176
 200.27908 195.23040 191.82572 189.88103 188.93135 189.00867 189.85699 191.17831
 192.91662 195.02494 197.30126 199.67358 202.13189 204.62521 206.72653 208.58185
 210.22116 211.37948 211.62180 211.86312 211.81343 211.53175 211.17807 210.82139
 210.45170 210.17502 209.99634 209.87366 209.81498 210.15929 210.55861 210.96093
 211.76725 212.95856 214.22188 216.01820 217.95952 220.01583 222.12415 224.22047
 226.29379 228.39110 230.50142 232.62074 234.76306 236.94837 239.21769 241.60101
 244.23533 246.49965 248.51496 250.29328 251.72360 252.85992 253.69523 254.02455
 254.07487 253.86219 253.23550 252.19682 250.81614 248.99046 246.91277 244.75909
 242.56341 240.38073 238.21404 236.06636 233.93968 231.82000 229.85932 228.02963
 226.32595 224.81127 223.45459 222.23990 221.13522 220.10854 219.22586 218.38017
 217.63549 216.82881 215.94013 215.31744 214.78076 214.34354 213.31052 213.06165
 212.97305 213.32979 214.49432 216.32372 218.63812 221.93071 227.47603 231.92265
 235.64009 239.81784 244.43172 249.05577 253.07642 255.97043 258.07159 260.18057
 263.02905 265.74911 268.15219 270.53949 272.91867 275.10373 276.74380 278.30798
 280.09155 281.70706 283.24088 284.60300 285.78351 286.82877 287.78659 288.65714
 289.44559 290.15570 290.77765 291.61917
 366.78100 356.34860 345.79421 334.67381 323.09041 311.29802 299.18162 286.99822
 274.72383 262.63443 250.65703 239.97164 230.10724 221.22484 213.42045 206.43605
 200.28365 195.23526 191.83086 189.88646 188.93707 189.01467 189.86327 191.18488
 192.92348 195.03208 197.30868 199.68129 202.13989 204.63349 206.73510 208.59070
 210.23030 211.38891 211.63151 211.87311 211.82372 211.54232 211.18892 210.83253
 210.46313 210.18673 210.00834 209.88594 209.82754 210.17215 210.57175 210.97435
 211.78096 212.97256 214.23616 216.03277 217.97437 220.03097 222.13958 224.23618
 226.30978 228.40739 230.51799 232.63759 234.78020 236.96580 239.23540 241.61901
 244.25361 246.51821 248.53382 250.31242 251.74302 252.87963 253.71523 254.04483
 254.09543 253.88304 253.25664 252.21824 250.83785 249.01245 246.93505 244.78166
 242.58626 240.40386 238.23747 236.09007 233.96367 231.84428 229.88388 228.05448
 226.35109 224.83669 223.48029 222.26590 221.16150 220.13510 219.25271 218.40731
 217.66291 216.85652 215.96812 215.34572 214.80933 214.37326 213.34303 213.11661
 213.08087 213.38693 214.56326 216.36934 218.63847 221.89865 227.39124 231.83138
 235.58165 239.79095 244.40710 248.99066 252.94516 255.79552 257.90613 260.07486
 262.95566 265.69376 268.11655 270.53070 272.92517 275.11566 276.74777 278.29376
 280.06021 281.67068 283.21054 284.57343 285.75464 286.80161 287.75812 288.63058
 289.41998 290.12830 290.75241 291.58926
 366.78100 356.34884 345.79469 334.67453 323.09138 311.29922 299.18307 286.99991
 274.72576 262.63660 250.65945 239.97429 230.11013 221.22798 213.42382 206.43967
 200.28751 195.23936 191.83520 189.89105 188.94189 189.01973 189.86858 191.19042
 192.92927 195.03811 197.31496 199.68780 202.14665 204.64049 206.74234 208.59818
 210.23802 211.39687 211.63971 211.88156 211.83240 211.55125 211.19809 210.84194
 210.47278 210.19662 210.01847 209.89631 209.83816 210.18300 210.58285 210.98569
 211.79254 212.98438 214.24823 216.04507 217.98691 220.04376 222.15260 224.24945
 226.32329 228.42114 230.53198 232.65183 234.79467 236.98051 239.25036 241.63420
 244.26905 246.53389 248.54974 250.32858 251.75943 252.89627 253.73212 254.06196
 254.11280 253.90065 253.27449 252.23634 250.85618 249.03103 246.95387 244.80072
 242.60556 240.42340 238.25725 236.11009 233.98394 231.86478 229.90463 228.07547
 226.37232 224.85816 223.50201 222.28785 221.18369 220.15754 219.27538 218.43023
 217.68607 216.87992 215.99176 215.36961 214.83345 214.39874 213.37173 213.18907
 213.16777 213.46046 214.65105 216.39627 218.59079 221.84831 227.31728 231.75604
 235.53558 239.77443 244.38416 248.91922 252.80470 255.61119 257.73767 259.97607
 262.88406 265.63943 268.08884 270.52802 272.93799 275.13800 276.76248 278.28531
 280.02890 281.63226 283.17334 284.53732 285.71896 286.76724 287.72565 288.59854
 289.38623 290.09610 290.72086 291.55740
 366.78100 356.34911 345.79523 334.67534 323.09246 311.30057 299.18469 287.00180
 274.72792 262.63903 250.66215 239.97726 230.11338 221.23149 213.42760 206.44372
 200.29183 195.24395 191.84006 189.89618 188.94729 189.02541 189.87452 191.19664
 192.93575 195.04486 197.32198 199.69509 202.15421 204.64832 206.75044 208.60655
 210.24667 211.40578 211.64890 211.89101 211.84213 211.56124 211.20835 210.85247
 210.48358 210.20770 210.02981 209.90793 209.85004 210.19516 210.59527 210.99839
 211.80550 212.99761 214.26173 216.05884 218.00096 220.05807 222.16719 224.26430
 226.33842 228.43653 230.54765 232.66776 234.81088 236.99699 239.26710 241.65122
 244.28633 246.55145 248.56756 250.34668 251.77779 252.91491 253.75102 254.08114
 254.13225 253.92036 253.29448 252.25659 250.87671 249.05182 246.97494 244.82205
 242.62717 240.44528 238.27940 236.13251 234.00663 231.88774 229.92785 228.09897
 226.39608 224.88220 223.52631 222.31243 221.20854 220.18266 219.30077 218.45589
 217.71200 216.90611 216.01823 215.39634 214.86046 214.42204 213.38622 213.29187
 213.33064 213.40942 214.65752 216.48247 218.61394 221.83049 227.22612 231.66719
 235.48805 239.75685 244.35490 248.83357 252.64629 255.41013 257.56400 259.88336
 262.81628 265.59146 268.07422 270.53619 272.96191 275.17566 276.79871 278.29276
 280.00153 281.59058 283.13184 284.49783 285.67905 286.72867 287.68741 288.55981
 289.34937 290.06058 290.68216 291.52377
 366.78100 356.34868 345.79437 334.67405 323.09074 311.29842 299.18211 286.99879
 274.72447 262.63516 250.65784 239.97253 230.10821 221.22590 213.42158 206.43726
 200.28495 195.23663 191.83232 189.88800 188.93869 189.01637 189.86505 191.18674
 192.92542 195.03411 197.31079 199.68348 202.14216 204.63584 206.73753 208.59321
 210.23290 211.39158 211.63427 211.87595 211.82663 211.54532 211.19200 210.83569
 210.46637 210.19006 210.01174 209.88942 209.83111 210.17579 210.57548 210.97816
 211.78485 212.97653 214.24021 216.03690 217.97858 220.03527 222.14395 224.24064
 226.31432 228.41200 230.52269 232.64237 234.78506 236.97074 239.24043 241.62411
 244.25879 246.52348 248.53916 250.31785 251.74853 252.88522 253.72090 254.05058
 254.10127 253.88895 253.26264 252.22432 250.84401 249.01869 246.94137 244.78806
 242.59274 240.41043 238.24411 236.09680 233.97048 231.85116 229.89085 228.06153
 226.35822 224.84390 223.48759 222.27327 221.16895 220.14264 219.26032 218.41501
 217.67069 216.86438 215.97606 215.35374 214.81743 214.41104 213.45091 213.31718
 213.44643 213.50624 214.70412 216.53011 218.61426 221.74277 227.12967 231.58679
 235.44547 239.74414 244.32417 248.74121 252.48476 255.21367 257.40393 259.80667
 262.75760 265.55344 268.07248 270.55350 272.99304 275.22208 276.84772 278.31256
 279.97687 281.54770 283.08725 284.45349 285.63681 286.68567 287.64554 288.51974
 289.30981 290.01886 290.64322 291.48038
 366.78100 356.34814 345.79328 334.67242 323.08856 311.29570 299.17884 286.99498
 274.72012 262.63026 250.65240 239.96655 230.10169 221.21883 213.41397 206.42911
 200.27625 195.22739 191.82253 189.87767 188.92781 189.00495 189.85309 191.17423
 192.91237 195.02051 197.29665 199.66879 202.12693 204.62007 206.72121 208.57635
 210.21549 211.37364 211.61578 211.85692 211.80706 211.52520 211.17134 210.81448
 210.44462 210.16776 209.98890 209.86604 209.80718 210.15132 210.55046 210.95260
 211.75874 212.94988 214.21302 216.00916 217.95030 220.00644 222.11458 224.21073
 226.28387 228.38101 230.49115 232.61029 234.75243 236.93757 239.20671 241.58985
 244.22399 246.48813 248.50327 250.28141 251.71155 252.84769 253.68283 254.01197
 254.06211 253.84925 253.22239 252.18353 250.80268 248.97682 246.89896 244.74510
 242.54924 240.36638 238.19952 236.05166 233.92480 231.80494 229.84408 228.01422
 226.31036 224.79550 223.43864 222.22378 221.11892 220.09206 219.20920 218.36334
 217.61848 216.81162 215.92277 215.29991 214.76305 214.39354 213.52054 213.35159
 213.55473 213.57123 214.73470 216.60612 218.59785 221.65210 227.03918 231.51828
 235.41547 239.73940 244.29472 248.64828 252.32735 255.02567 257.25488 259.73904
 262.70050 265.51321 268.06903 270.56775 273.02118 275.26364 276.89233 278.33282
 279.95380 281.50232 283.04108 284.40787 285.59085 286.64035 287.60242 288.47699
 289.26572 289.97632 290.60089 291.43976
 366.78100 356.34795 345.79291 334.67186 323.08782 311.29477 299.17772 286.99368
 274.71863 262.62858 250.65054 239.96449 230.09945 221.21640 213.41135 206.42631
 200.27326 195.22422 191.81917 189.87412 188.92408 189.00103 189.84898 191.16994
 192.90789 195.01585 197.29180 199.66375 202.12171 204.61466 206.71562 208.57057
 210.20952 211.36748 211.60943 211.85038 211.80034 211.51829 211.16425 210.80720
 210.43715 210.16011 209.98106 209.85802 209.79897 210.14292 210.54188 210.94383
 211.74978 212.94074 214.20369 215.99965 217.94060 219.99655 222.10451 224.20046
 226.27342 228.37037 230.48032 232.59928 234.74123 236.92618 239.19514 241.57809
 244.21205 246.47600 248.49095 250.26891 251.69886 252.83482 253.66977 253.99872
 254.04868 253.83563 253.20858 252.16954 250.78849 248.96245 246.88440 244.73035
 242.53431 240.35126 238.18422 236.03617 233.90912 231.78908 229.82803 227.99798
 226.29394 224.77889 223.42185 222.20680 221.10175 220.07471 219.19166 218.34562
 217.60057 216.79352 215.90448 215.28143 214.74438 214.39261 213.56151 213.42033
 213.65179 213.62825 214.74559 216.67653 218.59117 221.57642 226.95590 231.46295
 235.39690 239.74150 244.26628 248.55246 252.16812 254.83562 257.10370 259.66992
 262.63727 265.46494 268.05817 270.57507 273.04294 275.29935 276.93039 278.35260
 279.93317 281.45789 282.99536 284.36298 285.54639 286.59515 287.55710 288.43158
 289.22379 289.93405 290.55594 291.39691
 366.78100 356.34801 345.79303 334.67204 323.08806 311.29507 299.17808 286.99410
 274.71911 262.62913 250.65114 239.96516 230.10017 221.21718 213.41220 206.42721
 200.27423 195.22524 191.82025 189.87527 188.92528 189.00230 189.85031 191.17132
 192.90934 195.01735 197.29337 199.66538 202.12340 204.61641 206.71742 208.57244
 210.21145 211.36947 211.61148 211.85249 211.80251 211.52052 211.16654 210.80955
 210.43956 210.16258 209.98359 209.86061 209.80162 210.14564 210.54465 210.94666
 211.75268 212.94369 214.20671 216.00272 217.94373 219.99975 222.10776 224.20378
 226.27679 228.37380 230.48382 232.60283 234.74485 236.92986 239.19888 241.58189
 244.21590 246.47992 248.49493 250.27295 251.70296 252.83897 253.67399 254.00300
 254.05302 253.84003 253.21304 252.17406 250.79307 248.96709 246.88910 244.73512
 242.53913 240.35614 238.18916 236.04117 233.91419 231.79420 229.83321 228.00323
 226.29924 224.78426 223.42727 222.21228 221.10730 220.08031 219.19733 218.35134
 217.60636 216.79937 215.91038 215.28740 214.75041 214.40280 213.58156 213.51183
 213.73145 213.69734 214.75000 216.72572 218.59459 221.51198 226.87958 231.41914
 235.38519 239.74556 244.23396 248.44878 251.99986 254.63705 256.94766 259.59775
 262.56940 265.41119 268.04401 270.57812 273.06207 275.33243 276.96945 278.37549
 279.91910 281.41537 282.95032 284.31720 285.50192 286.55139 287.51447 288.38736
 289.18015 289.88980 290.51437 291.35501
 366.78100 356.34809 345.79318 334.67227 323.08836 311.29545 299.17854 286.99463
 274.71972 262.62981 250.65190 239.96599 230.10108 221.21817 213.41326 206.42835
 200.27544 195.22653 191.82162 189.87671 188.92680 189.00389 189.85198 191.17307
 192.91116 195.01925 197.29534 199.66743 202.12552 204.61861 206.71970 208.57479
 210.21388 211.37197 211.61406 211.85515 211.80524 211.52333 211.16942 210.81251
 210.44260 210.16569 209.98678 209.86387 209.80496 210.14905 210.54814 210.95023
 211.75632 212.94741 214.21050 216.00659 217.94768 220.00377 222.11186 224.20795
 226.28104 228.37813 230.48822 232.60731 234.74940 236.93449 239.20358 241.58667
 244.22076 246.48485 248.49994 250.27803 251.70812 252.84421 253.67930 254.00839
 254.05848 253.84557 253.21866 252.17975 250.79884 248.97293 246.89502 244.74111
 242.54520 240.36229 238.19538 236.04747 233.92056 231.80065 229.83974 228.00983
 226.30592 224.79101 223.43410 222.21919 221.11428 220.08737 219.20446 218.35855
 217.61364 216.80673 215.91782 215.29491 214.75800 214.41281 213.59729 213.60690
 213.80634 213.77299 214.76694 216.76038 218.58833 221.45511 226.81238 231.38353
 235.37746 239.74805 244.19450 248.33514 251.82213 254.43207 256.79053 259.52402
 262.49860 265.35516 268.02731 270.57904 273.07867 275.36337 277.00650 278.40146
 279.90768 281.37622 282.90826 284.27573 285.46024 286.51013 287.47067 288.34613
 289.13651 289.84784 290.47192 291.31088
 366.78100 356.34808 345.79315 334.67223 323.08831 311.29539 299.17846 286.99454
 274.71962 262.62970 250.65177 239.96585 230.10093 221.21800 213.41308 206.42816
 200.27524 195.22631 191.82139 189.87647 188.92655 189.00362 189.85170 191.17278
 192.91085 195.01893 197.29501 199.66709 202.12516 204.61824 206.71932 208.57440
 210.21347 211.37155 211.61363 211.85471 211.80478 211.52286 211.16894 210.81201
 210.44209 210.16517 209.98625 209.86332 209.80440 210.14848 210.54756 210.94963
 211.75571 212.94679 214.20986 216.00594 217.94702 220.00310 222.11117 224.20725
 226.28033 228.37741 230.48748 232.60656 234.74864 236.93371 239.20279 241.58587
 244.21995 246.48402 248.49910 250.27718 251.70726 252.84333 253.67841 254.00749
 254.05756 253.84464 253.21772 252.17880 250.79787 248.97195 246.89403 244.74011
 242.54418 240.36126 238.19434 236.04642 233.91949 231.79957 229.83865 228.00872
 226.30480 224.78988 223.43296 222.21803 221.11311 220.08619 219.20327 218.35734
 217.61242 216.80550 215.91657 215.29365 214.75673 214.41733 213.61546 213.69353
 213.89011 213.84671 214.79710 216.78828 218.56818 221.41013 226.75754 231.35326
 235.37042 239.74629 244.14653 248.21228 251.63687 254.22548 256.63647 259.44968
 262.42612 265.29678 268.00574 270.57480 273.08981 275.38788 277.03818 278.42572
 279.90204 281.34213 282.86932 284.23682 285.41989 286.47076 287.43146 288.30530
 289.09561 289.80753 290.42862 291.27109
 366.78100 356.34799 345.79297 334.67196 323.08794 311.29493 299.17792 286.99390
 274.71889 262.62887 250.65086 239.96485 230.09983 221.21682 213.41180 206.42679
 200.27378 195.22476 191.81975 189.87473 188.92472 189.00171 189.84969 191.17068
 192.90867 195.01665 197.29264 199.66462 202.12261 204.61560 206.71658 208.57157
 210.21055 211.36854 211.61053 211.85151 211.80150 211.51948 211.16547 210.80846
 210.43844 210.16143 209.98241 209.85940 209.80039 210.14437 210.54336 210.94534
 211.75133 212.94232 214.20530 216.00129 217.94227 219.99826 222.10625 224.20223
 226.27522 228.37220 230.48219 232.60118 234.74316 236.92815 239.19713 241.58012
 244.21411 246.47809 248.49308 250.27106 251.70105 252.83704 253.67202 254.00101
 254.05100 253.83798 253.21097 252.17195 250.79094 248.96493 246.88691 244.73290
 242.53688 240.35387 238.18686 236.03884 233.91183 231.79181 229.83080 228.00079
 226.29677 224.78176 223.42474 222.20973 221.10472 220.07770 219.19469 218.34867
 217.60366 216.79665 215.90763 215.28462 214.74760 214.41718 213.63649 213.77432
 213.97920 213.91934 214.84282 216.81267 218.54211 221.37389 226.70767 231.32396
 235.36229 239.73915 244.09038 248.08214 251.44908 254.02249 256.48785 259.37418
 262.35184 265.23523 267.97791 270.56305 273.09320 275.40302 277.05829 278.44382
 279.89542 281.31271 282.83453 284.20078 285.38321 286.43433 287.39374 288.26688
 289.05890 289.76978 290.39139 291.22690
 366.78100 356.34796 345.79291 334.67187 323.08782 311.29478 299.17774 286.99369
 274.71865 262.62860 250.65056 239.96452 230.09947 221.21643 213.41138 206.42634
 200.27330 195.22425 191.81921 189.87416 188.92412 189.00108 189.84903 191.16999
 192.90794 195.01590 197.29186 199.66381 202.12177 204.61472 206.71568 208.57064
 210.20959 211.36755 211.60950 211.85046 211.80042 211.51837 211.16433 210.80728
 210.43724 210.16020 209.98115 209.85811 209.79906 210.14302 210.54198 210.94393
 211.74989 212.94084 214.20380 215.99976 217.94071 219.99667 222.10462 224.20058
 226.27354 228.37049 230.48045 232.59940 234.74136 236.92632 239.19527 241.57823
 244.21218 246.47614 248.49109 250.26905 251.69901 252.83496 253.66992 253.99887
 254.04883 253.83579 253.20874 252.16970 250.78865 248.96261 246.88457 244.73052
 242.53448 240.35143 238.18439 236.03635 233.90930 231.78926 229.82821 227.99817
 226.29413 224.77908 223.42204 222.20699 221.10195 220.07491 219.19186 218.34582
 217.60077 216.79373 215.90469 215.28164 214.74460 214.41989 213.65277 213.84578
 214.07988 213.99854 214.89227 216.83289 218.52045 221.34898 226.66245 231.29622
 235.35294 239.72560 244.02513 247.94492 251.25952 253.82393 256.34512 259.29666
 262.27567 265.17090 267.94235 270.54230 273.08740 275.40536 277.06635 278.45575
 279.89258 281.29315 282.80020 284.16394 285.34631 286.39371 287.35355 288.22598
 289.01538 289.72418 290.35031 291.18216
 366.78100 356.34802 345.79305 334.67207 323.08810 311.29512 299.17814 286.99417
 274.71919 262.62921 250.65124 239.96526 230.10029 221.21731 213.41233 206.42736
 200.27438 195.22541 191.82043 189.87545 188.92548 189.00250 189.85053 191.17155
 192.90957 195.01760 197.29362 199.66564 202.12367 204.61669 206.71772 208.57274
 210.21176 211.36979 211.61181 211.85284 211.80286 211.52088 211.16691 210.80993
 210.43996 210.16298 209.98400 209.86103 209.80205 210.14607 210.54510 210.94712
 211.75315 212.94417 214.20719 216.00322 217.94424 220.00027 222.10829 224.20431
 226.27734 228.37436 230.48439 232.60341 234.74543 236.93046 239.19948 241.58250
 244.21653 246.48055 248.49558 250.27360 251.70362 252.83965 253.67467 254.00370
 254.05372 253.84074 253.21377 252.17479 250.79382 248.96784 246.88986 244.73589
 242.53991 240.35693 238.18996 236.04198 233.91501 231.79503 229.83405 228.00408
 226.30010 224.78513 223.42815 222.21317 221.10820 220.08122 219.19825 218.35227
 217.60729 216.80032 215.91134 215.28836 214.75139 214.42819 213.66461 213.90742
 214.18974 214.08960 214.92838 216.84654 218.51453 221.33360 226.62085 231.27194
 235.34302 239.70609 243.95140 247.80070 251.06747 253.63031 256.20828 259.21649
 262.19751 265.10446 267.89920 270.51425 273.07239 275.39560 277.06137 278.45889
 279.88947 281.28183 282.77454 284.13788 285.32047 286.36813 287.32797 288.20459
 289.00110 289.71899 290.34894 291.18661
 366.78100 356.34822 345.79344 334.67266 323.08888 311.29611 299.17933 286.99555
 274.72077 262.63099 250.65321 239.96743 230.10265 221.21988 213.41510 206.43032
 200.27754 195.22876 191.82398 189.87920 188.92942 189.00664 189.85487 191.17609
 192.91431 195.02253 197.29875 199.67097 202.12919 204.62241 206.72364 208.57886
 210.21808 211.37630 211.61852 211.85974 211.80996 211.52818 211.17440 210.81763
 210.44785 210.17107 209.99229 209.86951 209.81073 210.15495 210.55417 210.95640
 211.76262 212.95384 214.21706 216.01328 217.95450 220.01072 222.11894 224.21516
 226.28839 228.38561 230.49583 232.61505 234.75727 236.94249 239.21171 241.59493
 244.22916 246.49338 248.50860 250.28682 251.71704 252.85326 253.68848 254.01770
 254.06793 253.85515 253.22837 252.18959 250.80881 248.98303 246.90525 244.75147
 242.55569 240.37292 238.20614 236.05836 233.93158 231.81180 229.85102 228.02124
 226.31746 224.80269 223.44591 222.23113 221.12635 220.09957 219.21679 218.37101
 217.62623 216.81945 215.93068 215.30790 214.77112 214.44359 213.66975 213.96495
 214.29654 214.18637 214.97662 216.86472 218.50839 221.32178 226.58322 231.25310
 235.33383 239.67976 243.86797 247.64825 250.87158 253.44031 256.07690 259.13458
 262.11884 265.03616 267.84991 270.47794 273.04767 275.36890 277.04077 278.45105
 279.88318 281.27051 282.76215 284.12454 285.30618 286.35458 287.31454 288.19189
 288.99261 289.71207 290.34515 291.18100
 366.78100 356.34841 345.79382 334.67324 323.08965 311.29706 299.18047 286.99688
 274.72230 262.63271 250.65512 239.96953 230.10494 221.22235 213.41777 206.43318
 200.28059 195.23200 191.82741 189.88283 188.93324 189.01065 189.85906 191.18047
 192.91889 195.02730 197.30371 199.67612 202.13453 204.62795 206.72936 208.58477
 210.22418 211.38259 211.62501 211.86642 211.81683 211.53524 211.18165 210.82506
 210.45548 210.17889 210.00030 209.87771 209.81912 210.16354 210.56295 210.96536
 211.77177 212.96318 214.22660 216.02301 217.96442 220.02083 222.12924 224.22566
 226.29907 228.39648 230.50689 232.62630 234.76871 236.95413 239.22354 241.60695
 244.24136 246.50577 248.52119 250.29960 251.73001 252.86642 253.70183 254.03125
 254.08166 253.86907 253.24248 252.20389 250.82331 248.99772 246.92013 244.76654
 242.57095 240.38837 238.22178 236.07419 233.94760 231.82801 229.86742 228.03784
 226.33425 224.81966 223.46307 222.24848 221.14390 220.11731 219.23472 218.38913
 217.64454 216.83796 215.94937 215.32678 214.79019 214.45901 213.67656 214.00620
 214.40840 214.29103 215.02773 216.89197 218.52075 221.31467 226.54453 231.23573
 235.32199 239.64554 243.77364 247.48798 250.67334 253.25780 255.95454 259.05289
 262.04202 264.96875 267.79517 270.43692 273.01483 275.33087 277.00909 278.43567
 279.87341 281.26288 282.75134 284.11185 285.29318 286.33984 287.29840 288.17557
 288.97595 289.69800 290.33167 291.16418
 366.78100 356.34867 345.79434 334.67401 323.09068 311.29836 299.18203 286.99870
 274.72437 262.63504 250.65771 239.97238 230.10805 221.22573 213.42140 206.43707
 200.28474 195.23641 191.83208 189.88775 188.93842 189.01609 189.86477 191.18644
 192.92511 195.03378 197.31045 199.68312 202.14179 204.63546 206.73713 208.59281
 210.23248 211.39115 211.63382 211.87549 211.82616 211.54483 211.19150 210.83518
 210.46585 210.18952 210.01119 209.88886 209.83053 210.17520 210.57487 210.97754
 211.78422 212.97589 214.23956 216.03623 217.97790 220.03457 222.14324 224.23991
 226.31359 228.41126 230.52193 232.64160 234.78427 236.96994 239.23961 241.62328
 244.25795 246.52263 248.53830 250.31697 251.74764 252.88431 253.71998 254.04965
 254.10032 253.88799 253.26167 252.22334 250.84301 249.01768 246.94035 244.78702
 242.59169 240.40936 238.24304 236.09571 233.96938 231.85005 229.88972 228.06039
 226.35706 224.84273 223.48640 222.27208 221.16775 220.14142 219.25909 218.41376
 217.66943 216.86310 215.97477 215.35245 214.81612 214.47684 213.67526 214.04379
 214.50317 214.40488 215.12358 216.93526 218.51825 221.29979 226.50548 231.22211
 235.31248 239.60794 243.67503 247.32645 250.48085 253.08794 255.84151 258.97278
 261.96677 264.90079 267.73407 270.38593 272.96994 275.27225 276.95630 278.40762
 279.86023 281.26050 282.74142 284.10068 285.28006 286.32645 287.28387 288.16025
 288.96335 289.68741 290.32184 291.15326
 366.78100 356.34898 345.79495 334.67493 323.09190 311.29988 299.18385 287.00083
 274.72680 262.63778 250.66076 239.97573 230.11171 221.22968 213.42566 206.44163
 200.28961 195.24158 191.83756 189.89354 188.94451 189.02249 189.87146 191.19344
 192.93241 195.04139 197.31836 199.69134 202.15032 204.64429 206.74627 208.60224
 210.24222 211.40119 211.64417 211.88615 211.83712 211.55610 211.20307 210.84705
 210.47802 210.20200 210.02397 209.90195 209.84393 210.18890 210.58888 210.99185
 211.79883 212.99080 214.25478 216.05175 217.99373 220.05071 222.15968 224.25666
 226.33063 228.42861 230.53958 232.65956 234.80253 236.98851 239.25849 241.64246
 244.27744 246.54241 248.55839 250.33736 251.76834 252.90531 253.74129 254.07127
 254.12224 253.91022 253.28419 252.24617 250.86614 249.04112 246.96409 244.81107
 242.61605 240.43402 238.26800 236.12097 233.99495 231.87592 229.91590 228.08688
 226.38385 224.86983 223.51380 222.29978 221.19575 220.16973 219.28770 218.44268
 217.69866 216.89263 216.00461 215.38258 214.84656 214.49640 213.66910 214.06767
 214.62770 214.51845 215.17352 216.97990 218.55486 221.31754 226.48338 231.21468
 235.30017 239.56007 243.56216 247.15199 250.27744 252.91714 255.73186 258.88998
 261.89072 264.83170 267.67047 270.33484 272.92032 275.20590 276.89679 278.37311
 279.83667 281.25793 282.72601 284.08301 285.26010 286.30338 287.25763 288.13095
 288.93082 289.64966 290.27054 291.08163
 366.78100 356.34895 345.79490 334.67486 323.09181 311.29976 299.18371 287.00067
 274.72662 262.63757 250.66052 239.97548 230.11143 221.22938 213.42533 206.44129
 200.28924 195.24119 191.83714 189.89310 188.94405 189.02200 189.87095 191.19290
 192.93186 195.04081 197.31776 199.69071 202.14967 204.64362 206.74557 208.60152
 210.24148 211.40043 211.64338 211.88533 211.83629 211.55524 211.20219 210.84614
 210.47710 210.20105 210.02300 209.90095 209.84290 210.18786 210.58781 210.99076
 211.79771 212.98967 214.25362 216.05057 217.99252 220.04948 222.15843 224.25538
 226.32933 228.42729 230.53824 232.65819 234.80114 236.98710 239.25705 241.64100
 244.27595 246.54090 248.55686 250.33581 251.76676 252.90371 253.73967 254.06962
 254.12057 253.90852 253.28248 252.24443 250.86438 249.03933 246.96229 244.80924
 242.61419 240.43214 238.26610 236.11905 233.99300 231.87395 229.91390 228.08486
 226.38181 224.86776 223.51171 222.29767 221.19362 220.16757 219.28552 218.44048
 217.69643 216.89038 216.00233 215.38029 214.84424 214.49976 213.68588 214.05089
 214.72626 214.69481 215.31741 217.06157 218.56992 221.26779 226.42578 231.18474
 235.27211 239.49400 243.43196 246.96353 250.07283 252.75441 255.62761 258.81030
 261.82086 264.76941 267.61002 270.28326 272.87146 275.14941 276.86121 278.36853
 279.85190 281.27676 282.71240 284.05273 285.21466 286.25253 287.20212 288.07254
 288.86978 289.58868 290.20407 291.01059
 366.78100 356.34886 345.79473 334.67459 323.09146 311.29932 299.18319 287.00005
 274.72591 262.63678 250.65964 239.97451 230.11037 221.22824 213.42410 206.43997
 200.28783 195.23969 191.83556 189.89142 188.94229 189.02015 189.86902 191.19088
 192.92974 195.03861 197.31547 199.68834 202.14720 204.64107 206.74293 208.59879
 210.23866 211.39752 211.64039 211.88225 211.83312 211.55198 211.19884 210.84271
 210.47357 210.19744 210.01930 209.89717 209.83903 210.18390 210.58376 210.98662
 211.79349 212.98535 214.24922 216.04608 217.98795 220.04481 222.15367 224.25054
 226.32440 228.42227 230.53313 232.65300 234.79586 236.98172 239.25159 241.63545
 244.27032 246.53518 248.55105 250.32991 251.76078 252.89764 253.73350 254.06337
 254.11423 253.90210 253.27596 252.23783 250.85769 249.03255 246.95542 244.80228
 242.60715 240.42501 238.25888 236.11174 233.98560 231.86647 229.90633 228.07720
 226.37406 224.85993 223.50379 222.28965 221.18552 220.15938 219.27725 218.43211
 217.68798 216.88184 215.99371 215.37157 214.83543 214.49962 213.70624 214.03868
 214.78966 214.88237 215.50455 217.08902 218.54161 221.20673 226.37482 231.16270
 235.24739 239.42749 243.30623 246.79811 249.90033 252.63562 255.56288 258.75882
 261.77753 264.72589 267.56189 270.23715 272.81281 275.05841 276.77301 278.31497
 279.81076 281.26874 282.70102 284.03119 285.18460 286.21982 287.16714 288.03705
 288.83401 289.55054 290.15955 290.97165
 366.78100 356.34816 345.79331 334.67247 323.08863 311.29579 299.17894 286.99510
 274.72026 262.63041 250.65257 239.96673 230.10189 221.21904 213.41420 206.42936
 200.27651 195.22767 191.82283 189.87798 188.92814 189.00530 189.85346 191.17461
 192.91277 195.02093 197.29708 199.66924 202.12740 204.62056 206.72171 208.57687
 210.21603 211.37418 211.61634 211.85750 211.80766 211.52581 211.17197 210.81513
 210.44528 210.16844 209.98960 209.86676 209.80791 210.15207 210.55123 210.95338
 211.75954 212.95070 214.21385 216.01001 217.95117 220.00733 222.11548 224.21164
 226.28480 228.38195 230.49211 232.61127 234.75343 236.93858 239.20774 241.59090
 244.22505 246.48921 248.50437 250.28253 251.71268 252.84884 253.68400 254.01315
 254.06331 253.85047 253.22363 252.18478 250.80394 248.97810 246.90025 244.74641
 242.55057 240.36772 238.20088 236.05304 233.92620 231.80635 229.84551 228.01567
 226.31182 224.79698 223.44014 222.22530 221.12045 220.09361 219.21077 218.36492
 217.62008 216.81324 215.92440 215.30155 214.76471 214.46355 213.75200 214.06441
 214.80186 215.00485 215.64653 217.09694 218.52493 221.16908 226.34946 231.15874
 235.23692 239.37656 243.19725 246.64212 249.76025 252.54469 255.51318 258.72351
 261.74695 264.69592 267.52136 270.18900 272.75601 274.99026 276.71640 278.26395
 279.79797 281.25546 282.67358 283.97830 285.10681 286.13501 287.07990 287.94705
 288.74362 289.45236 290.06546 290.87082
 366.78100 356.34658 345.79017 334.66775 323.08234 311.28792 299.16950 286.98409
 274.70767 262.61626 250.63684 239.94942 230.08301 221.19859 213.39217 206.40576
 200.25134 195.20093 191.79451 189.84809 188.89668 188.97226 189.81885 191.13843
 192.87501 194.98160 197.25618 199.62677 202.08335 204.57493 206.67452 208.52810
 210.16569 211.32227 211.56285 211.80244 211.75102 211.46760 211.11219 210.75377
 210.38236 210.10394 209.92352 209.79911 209.73869 210.08128 210.47886 210.87944
 211.68403 212.87361 214.13520 215.92978 217.86936 219.92395 222.03053 224.12512
 226.19670 228.29228 230.40087 232.51845 234.65903 236.84262 239.11020 241.49179
 244.12437 246.38695 248.40054 250.17712 251.60571 252.74029 253.57387 253.90146
 253.95004 253.73563 253.10721 252.06679 250.68438 248.85696 246.77755 244.62213
 242.42471 240.24030 238.07188 235.92246 233.79405 231.67263 229.71022 227.87880
 226.17338 224.65697 223.29855 222.08214 220.97572 219.94730 219.06289 218.21547
 217.46906 216.66064 215.77022 215.14581 214.60739 214.37552 213.82770 214.14497
 214.78687 215.04071 215.69537 217.07462 218.49448 221.14212 226.33633 231.16812
 235.23514 239.34480 243.12306 246.54556 249.67436 252.51103 255.51089 258.72342
 261.74731 264.68826 267.50299 270.16095 272.71725 274.93771 276.66809 278.27933
 279.78229 281.25021 282.65393 283.94537 285.06042 286.05215 286.97040 287.84180
 288.64191 289.35056 289.96909 290.77698
 366.78100 356.34543 345.78786 334.66429 323.07773 311.28216 299.16259 286.97602
 274.69845 262.60588 250.62532 239.93675 230.06918 221.18361 213.37604 206.38847
 200.23291 195.18134 191.77377 189.82620 188.87363 188.94806 189.79349 191.11193
 192.84736 194.95279 197.22622 199.59565 202.05108 204.54152 206.63995 208.49238
 210.12881 211.28424 211.52367 211.76210 211.70954 211.42497 211.06840 210.70883
 210.33626 210.05669 209.87513 209.74956 209.68799 210.02942 210.42585 210.82528
 211.62872 212.81715 214.07758 215.87101 217.80944 219.86287 221.96830 224.06174
 226.13217 228.22660 230.33403 232.45046 234.58989 236.77233 239.03876 241.41919
 244.05062 246.31205 248.32448 250.09992 251.52735 252.66078 253.49321 253.81964
 253.86707 253.65150 253.02194 251.98037 250.59680 248.76823 246.68766 244.53109
 242.33253 240.14696 237.97739 235.82682 233.69725 231.57468 229.61112 227.77855
 226.07198 224.55441 223.19484 221.97727 220.86970 219.84014 218.95457 218.10600
 217.35843 216.54886 215.65729 215.03173 214.49216 214.30467 213.86168 214.28384
 214.84418 215.07814 215.71866 217.02766 218.43713 221.12199 226.32019 231.16496
 235.22031 239.29581 243.04568 246.46786 249.60895 252.54138 255.56949 258.75247
 261.76175 264.67352 267.45850 270.09296 272.60547 274.77206 276.51868 278.09436
 279.71909 281.20767 282.63208 283.89804 284.99057 286.00479 286.95282 287.81351
 288.58661 289.27231 289.87695 290.67249
 366.78100 356.34600 345.78899 334.66599 323.07999 311.28498 299.16598 286.97997
 274.70297 262.61097 250.63096 239.94296 230.07596 221.19095 213.38395 206.39694
 200.24194 195.19094 191.78393 189.83693 188.88493 188.95992 189.80592 191.12491
 192.86091 194.96691 197.24090 199.61090 202.06690 204.55789 206.65689 208.50989
 210.14688 211.30288 211.54287 211.78187 211.72987 211.44586 211.08986 210.73086
 210.35885 210.07985 209.89884 209.77384 209.71284 210.05483 210.45183 210.85183
 211.65582 212.84482 214.10581 215.89981 217.83881 219.89280 221.99880 224.09280
 226.16379 228.25879 230.36679 232.48378 234.62378 236.80677 239.07377 241.45477
 244.08676 246.34876 248.36176 250.13775 251.56575 252.69974 253.53274 253.85974
 253.90773 253.69273 253.06373 252.02272 250.63972 248.81171 246.73171 244.57571
 242.37770 240.19270 238.02370 235.87369 233.74469 231.62269 229.65968 227.82768
 226.12167 224.60467 223.24567 222.02866 220.92166 219.89266 219.00765 218.15965
 217.41264 216.60364 215.71264 215.08763 214.54863 214.31973 213.77896 214.40875
 215.06055 215.23175 215.80194 217.00752 218.37633 221.07924 226.26912 231.11932
 235.15231 239.16899 242.86818 246.27919 249.49673 252.47951 255.54408 258.71774
 261.71207 264.60468 267.36237 269.98691 272.46359 274.55295 276.22769 278.04947
 279.58151 281.17593 282.54074 283.77859 284.86407 285.88599 286.83221 287.68750
 288.43253 289.09552 289.69928 290.49835
 366.78100 356.34578 345.78856 334.66534 323.07911 311.28389 299.16467 286.97845
 274.70123 262.60901 250.62878 239.94056 230.07334 221.18812 213.38090 206.39368
 200.23845 195.18723 191.78001 189.83279 188.88057 188.95535 189.80112 191.11990
 192.85568 194.96146 197.23524 199.60502 202.06080 204.55157 206.65035 208.50313
 210.13991 211.29569 211.53547 211.77424 211.72202 211.43780 211.08158 210.72236
 210.35014 210.07091 209.88969 209.76447 209.70325 210.04503 210.44181 210.84158
 211.64536 212.83414 214.09492 215.88870 217.82748 219.88126 221.98703 224.08081
 226.15159 228.24637 230.35415 232.47093 234.61070 236.79348 239.06026 241.44104
 244.07282 246.33460 248.34737 250.12315 251.55093 252.68471 253.51749 253.84427
 253.89204 253.67682 253.04760 252.00638 250.62316 248.79494 246.71472 244.55849
 242.36027 240.17505 238.00583 235.85561 233.72639 231.60416 229.64094 227.80872
 226.10250 224.58528 223.22606 222.00883 220.90161 219.87239 218.98717 218.13895
 217.39173 216.58251 215.69128 215.06606 214.52684 214.30511 213.78125 214.41826
 215.17755 215.39960 215.93921 217.06473 218.39406 221.08206 226.24568 231.09586
 235.10161 239.05887 242.70383 246.09444 249.27159 252.38437 255.49501 258.64413
 261.64307 264.52252 267.26077 269.86505 272.27374 274.30099 276.35568 278.21170
 279.71619 281.00073 282.42859 283.67111 284.77463 285.78351 286.71939 287.53204
 288.24591 288.92221 289.52719 290.33310
 366.78100 356.34365 345.78430 334.65895 323.07060 311.27326 299.15191 286.96356
 274.68421 262.58986 250.60751 239.91716 230.04781 221.16047 213.35112 206.36177
 200.20442 195.15107 191.74172 189.79237 188.83802 188.91067 189.75433 191.07098
 192.80463 194.90828 197.17993 199.54758 202.00123 204.48988 206.58654 208.43719
 210.07184 211.22549 211.46314 211.69979 211.64544 211.35909 211.00074 210.63940
 210.26505 209.98370 209.80035 209.67300 209.60965 209.94930 210.34395 210.74161
 211.54326 212.72991 213.98856 215.78021 217.71686 219.76851 221.87216 223.96381
 226.03247 228.12512 230.23077 232.34542 234.48307 236.66372 238.92837 241.30702
 243.93668 246.19633 248.20698 249.98063 251.40628 252.53793 253.36858 253.69323
 253.73888 253.52154 252.89019 251.84684 250.46149 248.63114 246.54879 244.39044
 242.19009 240.00275 237.83140 235.67905 233.54770 231.42335 229.45800 227.62365
 225.91530 224.39595 223.03461 221.81526 220.70591 219.67456 218.78721 217.93686
 217.18751 216.37616 215.48282 214.85547 214.31412 214.18456 213.87843 214.56581
 215.18121 215.36592 215.91608 217.02487 218.38290 221.09534 226.24229 231.09152
 235.07901 238.99852 242.61765 246.00966 249.44073 252.56277 255.63275 258.79843
 261.78479 264.62814 267.29724 269.85242 272.16251 274.10605 276.54443 278.29080
 279.72137 280.81433 282.08820 283.21921 284.21143 285.15411 286.03867 286.79056
 287.47928 288.16388 288.77417 289.55560
 366.78100 356.34590 345.78881 334.66571 323.07961 311.28451 299.16542 286.97932
 274.70222 262.61012 250.63003 239.94193 230.07483 221.18973 213.38264 206.39554
 200.24044 195.18934 191.78225 189.83515 188.88305 188.95795 189.80386 191.12276
 192.85866 194.96457 197.23847 199.60837 202.06427 204.55518 206.65408 208.50698
 210.14388 211.29979 211.53969 211.77859 211.72649 211.44240 211.08630 210.72720
 210.35510 210.07601 209.89491 209.76981 209.70871 210.05062 210.44752 210.84742
 211.65133 212.84023 214.10113 215.89503 217.83394 219.88784 221.99374 224.08764
 226.15855 228.25345 230.36135 232.47825 234.61816 236.80106 239.06796 241.44886
 244.08077 246.34267 248.35557 250.13147 251.55938 252.69328 253.52618 253.85309
 253.90099 253.68589 253.05679 252.01570 250.63260 248.80450 246.72440 244.56831
 242.37021 240.18511 238.01601 235.86592 233.73682 231.61472 229.65162 227.81953
 226.11343 224.59633 223.23723 222.02014 220.91304 219.88394 218.99885 218.15075
 217.40365 216.59455 215.70346 215.07836 214.53926 214.29236 213.71666 214.73700
 215.63968 215.63251 215.86902 216.76459 218.03282 220.80424 226.06535 230.97992
 234.91945 238.75433 242.29253 245.68933 249.39793 252.76407 255.81694 258.85028
 261.83423 264.67966 267.28159 269.73380 271.99750 274.32074 276.50555 278.17966
 279.53265 280.55304 281.56815 282.63165 283.58572 284.39340 285.12039 285.95862
 286.75330 287.48087 288.11951 288.93341
 366.78100 356.35233 345.80165 334.68498 323.10531 311.31663 299.20396 287.02428
 274.75361 262.66794 250.69426 240.01259 230.15192 221.27324 213.47257 206.49189
 200.34322 195.29855 191.89787 189.95720 189.01153 189.09285 189.94518 191.27050
 193.01283 195.12516 197.40548 199.78181 202.24414 204.74146 206.84679 208.70611
 210.34944 211.51177 211.75809 212.00342 211.95775 211.68007 211.33040 210.97772
 210.61205 210.33938 210.16470 210.04603 209.99136 210.33968 210.74301 211.14933
 211.95966 213.15499 214.42231 216.22264 218.16797 220.22829 222.34062 224.44094
 226.51827 228.61960 230.73392 232.85725 235.00358 237.19290 239.46623 241.85355
 244.49188 246.76021 248.77953 250.56186 251.99619 253.13651 253.97584 254.30916
 254.36349 254.15482 253.53214 252.49747 251.12080 249.29912 247.22545 245.07577
 242.88410 240.70543 238.54275 236.39908 234.27641 232.16073 230.20406 228.37838
 226.67871 225.16804 223.81536 222.60469 221.50402 220.48134 219.60267 218.76099
 218.02032 217.21765 216.33297 215.71430 215.18163 214.65536 213.56470 214.58319
 215.94803 216.03189 216.22372 216.93741 218.22566 221.01466 225.96883 230.85977
 234.63197 238.36269 241.85735 245.39499 249.00258 252.46808 255.76767 258.85153
 261.85773 264.66162 267.27127 269.60248 271.99603 274.52670 276.40350 278.00699
 279.26031 280.31076 281.40659 282.38574 283.16479 284.04544 284.84888 285.57675
 286.23138 286.81436 287.32361 287.97263
 366.78100 356.35105 345.79910 334.68116 323.10021 311.31026 299.19631 287.01537
 274.74342 262.65647 250.68152 239.99858 230.13663 221.25668 213.45473 206.47278
 200.32284 195.27689 191.87494 189.93299 188.98605 189.06610 189.91715 191.24120
 192.98226 195.09331 197.37236 199.74741 202.20846 204.70452 206.80857 208.66662
 210.30867 211.46973 211.71478 211.95883 211.91188 211.63294 211.28199 210.92804
 210.56109 210.28714 210.11120 209.99125 209.93530 210.28235 210.68441 211.08946
 211.89851 213.09256 214.35861 216.15767 218.10172 220.16077 222.27182 224.37088
 226.44693 228.54698 230.66003 232.78209 234.92714 237.11519 239.38724 241.77329
 244.41035 246.67740 248.69545 250.47650 251.90956 253.04861 253.88666 254.21871
 254.27177 254.06182 253.43787 252.40192 251.02397 249.20103 247.12608 244.97513
 242.78218 240.60224 238.43829 236.29334 234.16939 232.05245 230.09450 228.26755
 226.56660 225.05465 223.70071 222.48876 221.38681 220.36286 219.48292 218.63997
 217.89802 217.09407 216.20813 215.58818 215.05423 214.62598 213.73415 214.30832
 215.81673 216.33649 216.72208 217.42780 218.60855 221.26660 226.06125 230.90118
 234.67130 238.37090 241.83301 245.28757 248.96628 252.48094 255.77058 258.89743
 261.90649 264.71735 267.37408 269.47702 272.07059 274.40991 276.28076 277.89139
 279.13040 280.31082 281.28604 282.35904 283.44290 284.40182 285.27670 286.06927
 286.78214 287.41693 287.97147 288.67816
 366.78100 356.34737 345.79174 334.67012 323.08549 311.29186 299.17423 286.98961
 274.71398 262.62335 250.64472 239.95809 230.09247 221.20884 213.40321 206.41758
 200.26395 195.21433 191.80870 189.86307 188.91244 188.98882 189.83619 191.15656
 192.89393 195.00130 197.27668 199.64805 202.10542 204.59779 206.69817 208.55254
 210.19091 211.34828 211.58965 211.83003 211.77940 211.49677 211.14214 210.78452
 210.41389 210.13626 209.95663 209.83300 209.77338 210.11675 210.51512 210.91649
 211.72186 212.91224 214.17461 215.96998 217.91035 219.96573 222.07310 224.16847
 226.24084 228.33721 230.44659 232.56496 234.70633 236.89070 239.15908 241.54145
 244.17482 246.43819 248.45256 250.22994 251.65931 252.79468 253.62905 253.95742
 254.00680 253.79317 253.16554 252.12591 250.74429 248.91766 246.83903 244.68440
 242.48777 240.30415 238.13652 235.98789 233.86026 231.73964 229.77801 227.94738
 226.24275 224.72712 223.36950 222.15387 221.04824 220.02061 219.13699 218.29036
 217.54473 216.73710 215.84747 215.22385 214.68622 214.42563 213.88589 214.36432
 215.60127 216.29277 216.77602 217.44006 218.63879 221.30588 226.07941 230.90683
 234.62936 238.28314 241.72656 245.19208 248.81975 252.33667 255.83183 258.96582
 262.00745 264.86703 267.48672 269.69467 271.95236 274.15765 276.11575 277.80612
 279.34872 280.63159 281.67120 282.55988 283.55865 284.45047 285.26413 286.00125
 286.66422 287.25458 287.77029 288.42755
 366.78100 356.34836 345.79372 334.67308 323.08945 311.29681 299.18017 286.99653
 274.72189 262.63225 250.65462 239.96898 230.10434 221.22170 213.41706 206.43242
 200.27979 195.23115 191.82651 189.88187 188.93223 189.00959 189.85795 191.17932
 192.91768 195.02604 197.30240 199.67476 202.13312 204.62649 206.72785 208.58321
 210.22257 211.38093 211.62329 211.86465 211.81502 211.53338 211.17974 210.82310
 210.45346 210.17682 209.99819 209.87555 209.81691 210.16127 210.56063 210.96299
 211.76935 212.96072 214.22408 216.02044 217.96180 220.01816 222.12652 224.22289
 226.29625 228.39361 230.50397 232.62333 234.76569 236.95106 239.22042 241.60378
 244.23814 246.50250 248.51786 250.29622 251.72659 252.86295 253.69831 254.02767
 254.07803 253.86539 253.23876 252.20012 250.81948 248.99384 246.91620 244.76256
 242.56692 240.38429 238.21765 236.07001 233.94337 231.82373 229.86309 228.03346
 226.32982 224.81518 223.45854 222.24390 221.13926 220.11263 219.22999 218.38435
 217.63971 216.83307 215.94443 215.32179 214.78516 214.45078 213.74161 214.48236
 215.77725 216.26120 216.72023 217.30437 218.49474 221.18590 226.02255 230.80182
 234.47095 238.06602 241.49590 244.97571 248.57942 252.19128 255.65662 258.77643
 261.79950 264.67435 267.32791 269.66394 271.79230 274.10513 276.14169 277.94531
 279.52539 280.95599 282.13635 283.07166 283.82867 284.59702 285.25760 285.85605
 286.39426 286.87357 287.29227 287.82587
 366.78100 356.34811 345.79322 334.67233 323.08845 311.29556 299.17867 286.99478
 274.71989 262.63000 250.65212 239.96623 230.10134 221.21845 213.41356 206.42867
 200.27579 195.22690 191.82201 189.87712 188.92723 189.00434 189.85246 191.17357
 192.91168 195.01979 197.29590 199.66801 202.12613 204.61924 206.72035 208.57546
 210.21457 211.37268 211.61480 211.85591 211.80602 211.52413 211.17024 210.81335
 210.44346 210.16658 209.98769 209.86480 209.80591 210.15002 210.54913 210.95125
 211.75736 212.94847 214.21158 216.00769 217.94880 220.00492 222.11303 224.20914
 226.28225 228.37936 230.48947 232.60859 234.75070 236.93581 239.20492 241.58803
 244.22214 246.48626 248.50137 250.27948 251.70959 252.84570 253.68081 254.00993
 254.06004 253.84715 253.22026 252.18137 250.80048 248.97460 246.89671 244.74282
 242.54693 240.36404 238.19715 236.04926 233.92238 231.80249 229.84160 228.01171
 226.30782 224.79293 223.43605 222.22116 221.11627 220.08938 219.20649 218.36060
 217.61572 216.80883 215.91994 215.29705 214.76016 214.42621 213.66725 214.42641
 216.06096 216.57549 216.94330 217.44498 218.49220 221.05026 226.00681 230.71933
 234.39931 237.94278 241.34474 244.82619 248.45126 252.11446 255.60672 258.64423
 261.56360 264.44754 267.10428 269.47913 271.77707 273.99615 275.99115 277.83939
 279.39670 280.79938 282.00723 283.02090 283.84903 284.56808 285.22418 285.76572
 286.03003 286.25925 286.45947 286.71463
 366.78100 356.34657 345.79014 334.66771 323.08228 311.28785 299.16942 286.98399
 274.70756 262.61613 250.63670 239.94927 230.08284 221.19841 213.39198 206.40555
 200.25112 195.20069 191.79426 189.84783 188.89640 188.97197 189.81854 191.13811
 192.87468 194.98125 197.25582 199.62639 202.08297 204.57454 206.67411 208.52768
 210.16525 211.32182 211.56239 211.80196 211.75053 211.46710 211.11167 210.75324
 210.38181 210.10338 209.92295 209.79852 209.73809 210.08066 210.47823 210.87880
 211.68337 212.87294 214.13451 215.92908 217.86865 219.92322 222.02979 224.12436
 226.19593 228.29150 230.40007 232.51764 234.65821 236.84178 239.10935 241.49092
 244.12349 246.38606 248.39963 250.17620 251.60477 252.73934 253.57291 253.90048
 253.94905 253.73462 253.10619 252.06576 250.68333 248.85590 246.77647 244.62104
 242.42361 240.23918 238.07075 235.92132 233.79290 231.67147 229.70904 227.87761
 226.17218 224.65575 223.29732 222.08089 220.97446 219.94603 219.06160 218.21417
 217.46774 216.65931 215.76888 215.14445 214.60602 214.34332 213.73459 214.40376
 216.18394 216.84059 217.12520 217.60800 218.50543 220.97322 225.95441 230.63121
 234.29826 237.76976 241.15997 244.68167 248.36386 252.16789 255.66566 258.57275
 261.41046 264.29260 266.94519 269.37415 271.78030 274.06857 275.93619 277.56476
 279.05643 280.42432 281.58298 282.54254 283.35062 284.07101 284.75479 285.37033
 285.74893 285.75421 285.75885 285.76477
 366.78100 356.34726 345.79151 334.66977 323.08502 311.29128 299.17354 286.98879
 274.71305 262.62230 250.64356 239.95682 230.09107 221.20733 213.40158 206.41584
 200.26209 195.21235 191.80661 189.86086 188.91012 188.98637 189.83363 191.15389
 192.89114 194.99840 197.27365 199.64491 202.10217 204.59442 206.69468 208.54893
 210.18719 211.34445 211.58570 211.82596 211.77521 211.49247 211.13772 210.77998
 210.40924 210.13149 209.95175 209.82800 209.76826 210.11152 210.50977 210.91103
 211.71628 212.90654 214.16880 215.96405 217.90431 219.95956 222.06682 224.16208
 226.23433 228.33059 230.43984 232.55810 234.69935 236.88361 239.15187 241.53412
 244.16738 246.43063 248.44489 250.22215 251.65140 252.78666 253.62091 253.94917
 253.99843 253.78468 253.15694 252.11719 250.73545 248.90871 246.82996 244.67522
 242.47847 240.29473 238.12698 235.97824 233.85050 231.72975 229.76801 227.93726
 226.23252 224.71678 223.35903 222.14329 221.03754 220.00980 219.12606 218.27931
 217.53357 216.72582 215.83608 215.21234 214.67459 214.38515 213.72693 214.38300
 216.20476 216.96144 217.23929 217.67601 218.52974 220.99951 225.89510 230.55290
 234.13969 237.58138 240.99364 244.56685 248.31248 252.24332 255.72026 258.60779
 261.40915 264.28268 266.96246 269.34552 271.75894 274.02255 275.90866 277.49789
 278.94275 280.26923 281.39346 282.33984 283.14090 283.85107 284.52527 285.09314
 285.30331 285.49048 285.65399 285.86237
 366.78100 356.34805 345.79310 334.67214 323.08819 311.29524 299.17829 286.99433
 274.71938 262.62943 250.65148 239.96552 230.10057 221.21762 213.41267 206.42771
 200.27476 195.22581 191.82086 189.87590 188.92595 189.00300 189.85105 191.17209
 192.91014 195.01819 197.29424 199.66628 202.12433 204.61738 206.71843 208.57347
 210.21252 211.37057 211.61262 211.85366 211.80371 211.52176 211.16781 210.81085
 210.44090 210.16395 209.98500 209.86204 209.80309 210.14714 210.54619 210.94823
 211.75428 212.94533 214.20838 216.00442 217.94547 220.00152 222.10957 224.20561
 226.27866 228.37571 230.48576 232.60480 234.74685 236.93190 239.20095 241.58399
 244.21804 246.48209 248.49714 250.27518 251.70523 252.84128 253.67633 254.00538
 254.05542 253.84247 253.21552 252.17657 250.79561 248.96966 246.89171 244.73776
 242.54180 240.35885 238.19190 236.04395 233.91699 231.79704 229.83609 228.00614
 226.30218 224.78723 223.43028 222.21533 221.11037 220.08342 219.20047 218.35452
 217.60956 216.80261 215.91366 215.29071 214.75375 214.42830 213.67790 214.36363
 216.27415 217.09148 217.36856 217.70354 218.46317 220.98106 225.90254 230.52930
 234.08865 237.48041 240.90555 244.51688 248.30795 252.30605 255.76346 258.60776
 261.39734 264.27792 266.97891 269.37939 271.69489 273.95071 275.84094 277.46042
 278.93811 280.27414 281.39594 282.33047 283.12131 283.82983 284.52618 285.10455
 285.44296 285.66757 285.86380 286.11386
 366.78100 356.34794 345.79288 334.67182 323.08776 311.29470 299.17764 286.99358
 274.71852 262.62846 250.65040 239.96434 230.09928 221.21622 213.41116 206.42610
 200.27304 195.22398 191.81892 189.87386 188.92380 189.00074 189.84868 191.16962
 192.90756 195.01550 197.29144 199.66338 202.12132 204.61426 206.71520 208.57014
 210.20908 211.36702 211.60896 211.84990 211.79984 211.51778 211.16372 210.80666
 210.43660 210.15954 209.98048 209.85742 209.79836 210.14230 210.54124 210.94318
 211.74912 212.94006 214.20300 215.99894 217.93988 219.99582 222.10376 224.19970
 226.27264 228.36958 230.47952 232.59846 234.74040 236.92534 239.19428 241.57722
 244.21116 246.47510 248.49004 250.26798 251.69792 252.83386 253.66880 253.99774
 254.04768 253.83462 253.20756 252.16850 250.78744 248.96138 246.88332 244.72926
 242.53320 240.35014 238.18308 236.03502 233.90796 231.78790 229.82684 227.99678
 226.29272 224.77766 223.42060 222.20554 221.10048 220.07342 219.19036 218.34430
 217.59924 216.79218 215.90312 215.28006 214.74300 214.41643 213.64488 214.43478
 216.40164 217.26361 217.51485 217.70908 218.41043 220.99892 225.93336 230.46754
 233.98151 237.32307 240.76338 244.41371 248.28993 252.34122 255.81702 258.62552
 261.40717 264.27133 266.97754 269.43167 271.65887 273.90063 275.75113 277.30426
 278.73859 280.04025 281.12979 282.03976 282.81793 283.52609 284.19409 284.79211
 285.26901 285.63004 285.75638 285.89941
 366.78100 356.34737 345.79175 334.67012 323.08549 311.29186 299.17424 286.98961
 274.71398 262.62336 250.64473 239.95810 230.09248 221.20885 213.40322 206.41759
 200.26397 195.21434 191.80871 189.86309 188.91246 188.98883 189.83620 191.15658
 192.89395 195.00132 197.27670 199.64807 202.10544 204.59782 206.69819 208.55256
 210.19093 211.34831 211.58968 211.83005 211.77943 211.49680 211.14217 210.78454
 210.41392 210.13629 209.95666 209.83304 209.77341 210.11678 210.51516 210.91653
 211.72190 212.91227 214.17465 215.97002 217.91039 219.96577 222.07314 224.16851
 226.24088 228.33726 230.44663 232.56500 234.70638 236.89075 239.15912 241.54150
 244.17487 246.43824 248.45261 250.22999 251.65936 252.79473 253.62911 253.95748
 254.00685 253.79323 253.16560 252.12597 250.74434 248.91772 246.83909 244.68446
 242.48784 240.30421 238.13658 235.98795 233.86033 231.73970 229.77807 227.94745
 226.24282 224.72719 223.36957 222.15394 221.04831 220.02068 219.13706 218.29043
 217.54480 216.73718 215.84755 215.22392 214.68629 214.38312 213.66682 214.49231
 216.48470 217.43904 217.70752 217.78560 218.40872 221.01138 225.92688 230.38185
 233.81331 237.10930 240.56241 244.25110 248.28052 252.31119 255.76083 258.57742
 261.37250 264.21628 266.93686 269.42578 271.66211 273.81842 275.68732 277.21042
 278.60196 279.87036 280.90823 281.75171 282.45587 283.11389 283.76874 284.36237
 284.80295 285.15997 285.42612 285.62006
 366.78100 356.34683 345.79065 334.66848 323.08330 311.28913 299.17095 286.98578
 274.70960 262.61843 250.63925 239.95208 230.08590 221.20173 213.39555 206.40938
 200.25520 195.20503 191.79885 189.85268 188.90150 188.97733 189.82415 191.14398
 192.88080 194.98763 197.26245 199.63328 202.09010 204.58193 206.68175 208.53558
 210.17340 211.33023 211.57105 211.81088 211.75970 211.47653 211.12135 210.76318
 210.39200 210.11383 209.93365 209.80948 209.74930 210.09213 210.48995 210.89078
 211.69560 212.88543 214.14725 215.94208 217.88190 219.93673 222.04355 224.13838
 226.21020 228.30603 230.41485 232.53268 234.67350 236.85733 239.12515 241.50698
 244.13980 246.40263 248.41645 250.19328 251.62210 252.75693 253.59075 253.91858
 253.96740 253.75323 253.12505 252.08488 250.70270 248.87553 246.79635 244.64118
 242.44400 240.25983 238.09165 235.94248 233.81430 231.69313 229.73095 227.89978
 226.19460 224.67843 223.32025 222.10408 220.99790 219.96973 219.08555 218.23838
 217.49220 216.68403 215.79385 215.16968 214.63150 214.35966 213.71742 214.47858
 216.48785 217.55516 217.88875 217.89154 218.42535 221.00569 225.91176 230.32689
 233.69217 236.92247 240.38277 244.10887 248.27617 252.31349 255.72855 258.50418
 261.30881 264.15350 266.90045 269.36481 271.59998 273.78564 275.66373 277.21664
 278.58530 279.79575 280.79916 281.61432 282.28381 282.88318 283.48071 284.02335
 284.45224 284.78741 285.10507 285.52759
 366.78100 356.34669 345.79037 334.66806 323.08274 311.28843 299.17011 286.98480
 274.70848 262.61717 250.63785 239.95054 230.08422 221.19991 213.39359 206.40728
 200.25296 195.20265 191.79633 189.85002 188.89870 188.97439 189.82107 191.14076
 192.87744 194.98413 197.25881 199.62950 202.08618 204.57787 206.67755 208.53124
 210.16892 211.32561 211.56629 211.80598 211.75466 211.47135 211.11603 210.75772
 210.38640 210.10809 209.92777 209.80346 209.74314 210.08583 210.48351 210.88420
 211.68888 212.87857 214.14025 215.93494 217.87462 219.92931 222.03599 224.13068
 226.20236 228.29805 230.40673 232.52442 234.66510 236.84879 239.11647 241.49816
 244.13085 246.39353 248.40722 250.18390 251.61259 252.74727 253.58096 253.90864
 253.95733 253.74301 253.11470 252.07438 250.69207 248.86475 246.78544 244.63012
 242.43281 240.24849 238.08018 235.93086 233.80255 231.68123 229.71892 227.88760
 226.18229 224.66597 223.30766 222.09134 220.98503 219.95671 219.07240 218.22508
 217.47877 216.67045 215.78014 215.15582 214.61751 214.36346 213.76323 214.47148
 216.47614 217.63467 218.02660 217.97862 218.45891 221.01466 225.90355 230.27884
 233.58769 236.76920 240.24582 244.01263 248.29175 252.31677 255.66061 258.37680
 261.28308 264.13760 266.89554 269.33353 271.56369 273.76700 275.63065 277.18680
 278.54425 279.70798 280.69733 281.49347 282.12708 282.67807 283.23358 283.75723
 284.14502 284.47818 284.95178 285.55536
 366.78100 356.34686 345.79073 334.66859 323.08345 311.28931 299.17118 286.98604
 274.70990 262.61876 250.63963 239.95249 230.08635 221.20221 213.39608 206.40994
 200.25580 195.20567 191.79953 189.85339 188.90225 188.97812 189.82498 191.14484
 192.88170 194.98857 197.26343 199.63429 202.09116 204.58302 206.68288 208.53674
 210.17461 211.33147 211.57233 211.81219 211.76106 211.47792 211.12278 210.76464
 210.39351 210.11537 209.93523 209.81110 209.75096 210.09382 210.49168 210.89255
 211.69741 212.88727 214.14913 215.94400 217.88386 219.93872 222.04559 224.14045
 226.21231 228.30817 230.41704 232.53490 234.67576 236.85962 239.12749 241.50935
 244.14221 246.40507 248.41894 250.19580 251.62466 252.75953 253.59339 253.92125
 253.97011 253.75598 253.12784 252.08770 250.70556 248.87843 246.79929 244.64415
 242.44702 240.26288 238.09474 235.94560 233.81747 231.69633 229.73419 227.90305
 226.19792 224.68178 223.32364 222.10750 221.00137 219.97323 219.08909 218.24196
 217.49582 216.68768 215.79754 215.17341 214.63527 214.39038 213.81819 214.45866
 216.49245 217.71791 218.12364 218.02377 218.44781 220.97823 225.86626 230.22318
 233.45685 236.59804 240.08469 243.92973 248.28551 252.26285 255.56216 258.40625
 261.27274 264.11502 266.86908 269.28662 271.56232 273.68573 275.46793 277.02399
 278.38574 279.56628 280.56329 281.36523 281.98288 282.52863 283.06625 283.51678
 283.82947 284.43265 284.95956 285.63104
 366.78100 356.34623 345.78946 334.66670 323.08093 311.28616 299.16739 286.98163
 274.70486 262.61309 250.63332 239.94556 230.07879 221.19402 213.38725 206.40049
 200.24572 195.19495 191.78818 189.84141 188.88965 188.96488 189.81111 191.13034
 192.86658 194.97281 197.24704 199.61727 202.07351 204.56474 206.66397 208.51720
 210.15444 211.31067 211.55090 211.79013 211.73836 211.45460 211.09883 210.74006
 210.36829 210.08953 209.90876 209.78399 209.72322 210.06546 210.46269 210.86292
 211.66715 212.85639 214.11762 215.91185 217.85108 219.90531 222.01155 224.10578
 226.17701 228.27224 230.38048 232.49771 234.63794 236.82117 239.08841 241.46964
 244.10187 246.36410 248.37734 250.15357 251.58180 252.71603 253.54926 253.87650
 253.92473 253.70996 253.08119 252.04043 250.65766 248.82989 246.75012 244.59436
 242.39659 240.21182 238.04305 235.89329 233.76452 231.64275 229.67998 227.84821
 226.14245 224.62568 223.26691 222.05014 220.94338 219.91461 219.02984 218.18207
 217.43531 216.62654 215.73577 215.11100 214.57224 214.38179 213.95044 214.40784
 216.43318 217.71989 218.14502 218.06737 218.56694 221.07695 225.84547 230.17831
 233.32533 236.49666 239.99269 243.93857 248.29686 252.21973 255.53885 258.46930
 261.17111 263.94510 266.64734 269.18640 271.57126 273.63440 275.37579 276.95694
 278.36203 279.58102 280.58237 281.36829 281.97961 282.50891 282.95020 283.40753
 284.07816 284.67538 285.19708 285.86194
 366.78100 356.34437 345.78574 334.66112 323.07349 311.27686 299.15623 286.96860
 274.68997 262.59635 250.61472 239.92509 230.05646 221.16983 213.36120 206.37258
 200.21595 195.16332 191.75469 189.80606 188.85243 188.92581 189.77018 191.08755
 192.82192 194.92629 197.19866 199.56704 202.02141 204.51078 206.60815 208.45952
 210.09489 211.24927 211.48764 211.72501 211.67138 211.38575 211.02812 210.66750
 210.29387 210.01324 209.83061 209.70398 209.64135 209.98173 210.37710 210.77547
 211.57784 212.76521 214.02458 215.81696 217.75433 219.80670 221.91107 224.00344
 226.07281 228.16619 230.27256 232.38793 234.52630 236.70767 238.97305 241.35242
 243.98279 246.24316 248.25453 250.02890 251.45528 252.58765 253.41902 253.74439
 253.79076 253.57413 252.94351 251.90088 250.51625 248.68662 246.60499 244.44736
 242.24774 240.06111 237.89048 235.73885 233.60822 231.48459 229.51997 227.68634
 225.97871 224.46008 223.09945 221.88082 220.77220 219.74157 218.85494 218.00531
 217.25668 216.44605 215.55343 214.92680 214.38617 214.30000 214.10643 214.41081
 216.26886 217.68559 218.20232 218.12805 218.62447 221.13176 225.88017 230.18784
 233.30615 236.45073 239.95686 243.97528 248.34082 252.24118 255.56100 258.49011
 261.14587 263.88824 266.60410 269.17819 271.54831 273.57602 275.37225 276.95923
 278.39688 279.61298 280.60144 281.38260 281.96210 282.42288 282.87100 283.54242
 284.22461 284.83209 285.36279 286.03909
 366.78100 356.34260 345.78221 334.65581 323.06641 311.26802 299.14562 286.95622
 274.67583 262.58043 250.59703 239.90564 230.03524 221.14684 213.33644 206.34605
 200.18765 195.13325 191.72286 189.77246 188.81706 188.88867 189.73127 191.04687
 192.77948 194.88208 197.15268 199.51929 201.97189 204.45949 206.55510 208.40470
 210.03830 211.19091 211.42751 211.66311 211.60772 211.32032 210.96092 210.59852
 210.22313 209.94073 209.75633 209.62794 209.56354 209.90214 210.29575 210.69235
 211.49295 212.67856 213.93616 215.72676 217.66237 219.71297 221.81557 223.90618
 225.97378 228.06538 230.16999 232.28359 234.42019 236.59980 238.86340 241.24100
 243.86960 246.12821 248.13781 249.91041 251.33502 252.46562 253.29522 253.61883
 253.66343 253.44503 252.81264 251.76824 250.38184 248.55045 246.46705 244.30765
 242.10626 239.91786 237.74546 235.59207 233.45967 231.33427 229.36788 227.53248
 225.82308 224.30268 222.94029 221.71989 220.60949 219.57710 218.68870 217.83730
 217.08691 216.27451 215.38011 214.75172 214.20932 214.20886 214.21072 214.53523
 216.17291 217.65582 218.26474 218.17168 218.59740 221.11488 225.91586 230.16293
 233.26817 236.36497 239.88123 243.96765 248.36089 252.24435 255.52734 258.47720
 261.14529 263.87836 266.59366 269.16046 271.48730 273.51755 275.26978 276.88620
 278.31378 279.52103 280.50906 281.29877 281.92404 282.47037 283.04419 283.57507
 284.20239 284.81543 285.35098 286.03351
 366.78100 356.34212 345.78123 334.65435 323.06446 311.26558 299.14269 286.95281
 274.67192 262.57604 250.59216 239.90027 230.02939 221.14050 213.32962 206.33873
 200.17985 195.12496 191.71408 189.76320 188.80731 188.87843 189.72054 191.03566
 192.76777 194.86989 197.14000 199.50612 201.95823 204.44535 206.54047 208.38958
 210.02270 211.17481 211.41093 211.64604 211.59016 211.30227 210.94239 210.57951
 210.20362 209.92074 209.73585 209.60697 209.54208 209.88020 210.27331 210.66943
 211.46955 212.65466 213.91178 215.70189 217.63701 219.68712 221.78924 223.87935
 225.94647 228.03759 230.14170 232.25482 234.39093 236.57005 238.83316 241.21028
 243.83839 246.09651 248.10562 249.87774 251.30186 252.43197 253.26109 253.58420
 253.62832 253.40943 252.77655 251.73166 250.34478 248.51290 246.42901 244.26913
 242.06724 239.87836 237.70547 235.55159 233.41870 231.29282 229.32594 227.49005
 225.78017 224.25928 222.89640 221.67551 220.56463 219.53174 218.64286 217.79098
 217.04009 216.22721 215.33232 214.70344 214.16055 214.18246 214.23422 214.68665
 216.23032 217.65271 218.25557 218.17720 218.64656 221.14809 225.91212 230.06355
 233.15486 236.21658 239.75833 243.95383 248.35895 252.21158 255.48053 258.45740
 261.14380 263.87564 266.56918 269.15479 271.45654 273.42004 275.13754 276.80930
 278.23651 279.42175 280.39899 281.21146 281.87738 282.49530 283.16730 283.71762
 284.25168 284.80539 285.31158 285.95670
 366.78100 356.34241 345.78182 334.65523 323.06564 311.26706 299.14447 286.95488
 274.67429 262.57870 250.59511 239.90352 230.03293 221.14435 213.33376 206.34317
 200.18458 195.12999 191.71940 189.76881 188.81322 188.88464 189.72705 191.04246
 192.77487 194.87728 197.14769 199.51410 201.96651 204.45393 206.54934 208.39875
 210.03216 211.18457 211.42098 211.65639 211.60080 211.31322 210.95363 210.59104
 210.21545 209.93286 209.74827 209.61968 209.55509 209.89351 210.28692 210.68333
 211.48374 212.66915 213.92656 215.71697 217.65238 219.70280 221.80521 223.89562
 225.96303 228.05444 230.15885 232.27226 234.40867 236.58809 238.85150 241.22891
 243.85732 246.11573 248.12514 249.89755 251.32196 252.45238 253.28179 253.60520
 253.64961 253.43102 252.79843 251.75384 250.36725 248.53567 246.45208 244.29249
 242.09090 239.90231 237.72972 235.57613 233.44354 231.31796 229.35137 227.51578
 225.80619 224.28560 222.92301 221.70242 220.59183 219.55925 218.67066 217.81907
 217.06848 216.25589 215.36130 214.73271 214.19012 214.20879 214.25641 214.74197
 216.36974 217.73151 218.22046 218.06125 218.53998 221.09381 225.86732 229.98775
 232.99722 236.07329 239.66203 243.93996 248.34805 252.17239 255.43707 258.43054
 261.15295 263.87347 266.56671 269.16644 271.49893 273.40237 275.03558 276.71118
 278.18820 279.39111 280.36890 281.17978 281.83728 282.51175 283.20486 283.71106
 284.23688 284.83368 285.35501 286.01941
 366.78100 356.34378 345.78456 334.65934 323.07112 311.27390 299.15268 286.96446
 274.68524 262.59102 250.60880 239.91858 230.04936 221.16214 213.35292 206.36370
 200.20648 195.15326 191.74404 189.79483 188.84061 188.91339 189.75717 191.07395
 192.80773 194.91151 197.18329 199.55107 202.00485 204.49363 206.59041 208.44119
 210.07597 211.22975 211.46753 211.70431 211.65009 211.36387 211.00565 210.64443
 210.27021 209.98899 209.80577 209.67855 209.61533 209.95511 210.34989 210.74767
 211.54945 212.73623 213.99501 215.78679 217.72357 219.77535 221.87913 223.97091
 226.03969 228.13248 230.23826 232.35304 234.49082 236.67160 238.93638 241.31516
 243.94494 246.20472 248.21550 249.98928 251.41506 252.54684 253.37762 253.70240
 253.74818 253.53096 252.89974 251.85652 250.47130 248.64108 246.55886 244.40064
 242.20042 240.01320 237.84198 235.68976 233.55854 231.43432 229.46910 227.63488
 225.92666 224.40744 223.04622 221.82700 220.71778 219.68656 218.79934 217.94913
 217.19991 216.38869 215.49547 214.86825 214.32703 214.30664 214.28046 214.79756
 216.36714 217.55151 218.04002 217.99121 218.61952 221.15582 225.77434 229.91225
 232.85280 236.02310 239.69467 243.98451 248.30580 252.09271 255.39641 258.37213
 261.15363 263.88062 266.58408 269.17673 271.53299 273.38193 274.99658 276.66910
 278.16675 279.36780 280.34006 281.12912 281.83420 282.47595 283.30823 284.12885
 284.86691 285.52414 286.09833 286.83002
 366.78100 356.34551 345.78802 334.66454 323.07805 311.28256 299.16307 286.97658
 274.69910 262.60661 250.62612 239.93763 230.07014 221.18466 213.37717 206.38968
 200.23419 195.18270 191.77522 189.82773 188.87524 188.94975 189.79526 191.11378
 192.84929 194.95480 197.22831 199.59782 202.05334 204.54385 206.64236 208.49487
 210.13138 211.28690 211.52641 211.76492 211.71243 211.42794 211.07146 210.71197
 210.33948 210.05999 209.87850 209.75302 209.69153 210.03304 210.42955 210.82906
 211.63258 212.82109 214.08160 215.87511 217.81362 219.86714 221.97265 224.06616
 226.13667 228.23118 230.33870 232.45521 234.59472 236.77723 239.04374 241.42425
 244.05577 246.31728 248.32979 250.10530 251.53281 252.66633 253.49884 253.82535
 253.87286 253.65737 253.02789 251.98640 250.60291 248.77442 246.69393 244.53745
 242.33896 240.15347 237.98398 235.83349 233.70401 231.58152 229.61803 227.78554
 226.07905 224.56157 223.20208 221.98459 220.87710 219.84761 218.96213 218.11364
 217.36615 216.55666 215.66517 215.03969 214.50020 214.42641 214.28989 214.80200
 216.43832 217.59735 218.06641 218.02914 218.74686 221.28517 225.79065 229.85703
 232.80032 236.01718 239.74033 244.06462 248.35661 252.08113 255.36597 258.32291
 261.12778 263.89185 266.61212 269.17633 271.45013 273.28537 274.90631 276.64053
 278.18542 279.39203 280.28043 281.07666 282.13281 283.17758 284.13077 284.99429
 285.77094 286.46252 287.06671 287.83664
 366.78100 356.34445 345.78590 334.66135 323.07381 311.27726 299.15671 286.96916
 274.69061 262.59706 250.61551 239.92597 230.05742 221.17087 213.36232 206.37377
 200.21722 195.16468 191.75613 189.80758 188.85403 188.92748 189.77193 191.08938
 192.82384 194.92829 197.20074 199.56919 202.02364 204.51309 206.61054 208.46200
 210.09745 211.25190 211.49035 211.72780 211.67425 211.38871 211.03116 210.67061
 210.29706 210.01651 209.83396 209.70741 209.64487 209.98532 210.38077 210.77922
 211.58167 212.76912 214.02857 215.82103 217.75848 219.81093 221.91538 224.00783
 226.07728 228.17074 230.27719 232.39264 234.53109 236.71254 238.97799 241.35744
 243.98790 246.24835 248.25980 250.03425 251.46070 252.59315 253.42460 253.75006
 253.79651 253.57996 252.94941 251.90686 250.52231 248.69277 246.61122 244.45367
 242.25412 240.06757 237.89702 235.74547 233.61493 231.49138 229.52683 227.69328
 225.98573 224.46718 223.10663 221.88809 220.77954 219.74899 218.86244 218.01289
 217.26434 216.45380 215.56125 214.93470 214.39415 214.38673 214.38800 214.79066
 216.27278 217.50566 218.06940 218.02763 218.75027 221.32433 225.83115 229.89177
 232.83878 236.07864 239.80496 244.09422 248.34601 252.04060 255.29128 258.26157
 261.10556 263.88693 266.59177 269.13007 271.35486 273.13730 274.78845 276.62292
 278.14215 279.30530 280.19357 280.96362 281.86862 282.86249 283.81229 284.67273
 285.44659 286.13574 286.73776 287.50494
 366.78100 356.34215 345.78129 334.65444 323.06459 311.26573 299.14288 286.95303
 274.67217 262.57632 250.59247 239.90061 230.02976 221.14090 213.33005 206.33920
 200.18034 195.12549 191.71464 189.76378 188.80793 188.87908 189.72122 191.03637
 192.76852 194.87066 197.14081 199.50696 201.95910 204.44625 206.54140 208.39054
 210.02369 211.17583 211.41198 211.64713 211.59127 211.30342 210.94357 210.58071
 210.20486 209.92201 209.73715 209.60830 209.54345 209.88159 210.27474 210.67089
 211.47103 212.65618 213.91333 215.70347 217.63862 219.68876 221.79091 223.88106
 225.94820 228.03935 230.14350 232.25664 234.39279 236.57194 238.83508 241.21223
 243.84038 246.09852 248.10767 249.87982 251.30396 252.43411 253.26326 253.58640
 253.63055 253.41169 252.77884 251.73399 250.34713 248.51528 246.43143 244.27157
 242.06972 239.88087 237.70801 235.55416 233.42131 231.29545 229.32860 227.49275
 225.78289 224.26204 222.89919 221.67833 220.56748 219.53462 218.64577 217.79392
 217.04306 216.23021 215.33536 214.70650 214.16365 214.26807 214.52049 214.91563
 216.18407 217.41302 218.01047 217.92799 218.60077 221.24629 225.83226 229.84193
 232.78056 236.02133 239.75356 244.02202 248.26137 251.94736 255.19981 258.22693
 261.10825 263.89273 266.56860 269.07077 271.27216 273.05328 274.59543 276.48862
 278.02438 279.20804 280.14178 280.91995 281.54910 282.08063 282.58517 283.44086
 284.22485 284.92300 285.53290 286.31015
 366.78100 356.34093 345.77885 334.65078 323.05971 311.25964 299.13556 286.94449
 274.66242 262.56535 250.58027 239.88720 230.01513 221.12506 213.31298 206.32091
 200.16084 195.10476 191.69269 189.74062 188.78355 188.85347 189.69440 191.00833
 192.73926 194.84018 197.10911 199.47404 201.92497 204.41089 206.50482 208.35275
 209.98467 211.13560 211.37053 211.60446 211.54738 211.25831 210.89724 210.53317
 210.15609 209.87202 209.68595 209.55588 209.48980 209.82673 210.21866 210.61358
 211.41251 212.59644 213.85237 215.64129 217.57522 219.62415 221.72508 223.81400
 225.87993 227.96986 230.07279 232.18471 234.31964 236.49757 238.75949 241.13542
 243.76235 246.01928 248.02720 249.79813 251.22106 252.34999 253.17791 253.49984
 253.54277 253.32269 252.68862 251.64255 250.25448 248.42140 246.33633 244.17526
 241.97219 239.78211 237.60804 235.45297 233.31890 231.19182 229.22375 227.38668
 225.67560 224.15353 222.78946 221.56739 220.45531 219.42124 218.53117 217.67810
 216.92602 216.11195 215.21588 214.58581 214.04173 214.21735 214.63243 214.98257
 216.15726 217.46686 218.06139 217.91615 218.52647 221.19418 225.79596 229.74716
 232.63783 235.86192 239.64542 243.97672 248.19774 251.86476 255.14537 258.20901
 261.10663 263.90005 266.57202 269.06332 271.26974 273.02707 274.49719 276.36508
 277.94644 279.12021 280.01898 280.75375 281.40430 281.93024 282.32312 283.05896
 283.83774 284.53122 285.13705 285.90912
 366.78100 356.34072 345.77844 334.65016 323.05888 311.25860 299.13432 286.94305
 274.66077 262.56349 250.57821 239.88493 230.01265 221.12237 213.31009 206.31781
 200.15753 195.10125 191.68897 189.73669 188.77941 188.84914 189.68986 191.00358
 192.73430 194.83502 197.10374 199.46846 201.91918 204.40490 206.49862 208.34634
 209.97806 211.12878 211.36350 211.59723 211.53995 211.25067 210.88939 210.52511
 210.14783 209.86355 209.67727 209.54699 209.48071 209.81743 210.20915 210.60387
 211.40259 212.58632 213.84204 215.63076 217.56448 219.61320 221.71392 223.80264
 225.86836 227.95808 230.06080 232.17252 234.30724 236.48496 238.74668 241.12241
 243.74913 246.00585 248.01357 249.78429 251.20701 252.33573 253.16345 253.48517
 253.52789 253.30761 252.67333 251.62705 250.23878 248.40550 246.32022 244.15894
 241.95566 239.76538 237.59110 235.43582 233.30154 231.17426 229.20598 227.36870
 225.65742 224.13514 222.77087 221.54859 220.43631 219.40203 218.51175 217.65847
 216.90619 216.09191 215.19563 214.56535 214.02107 214.23341 214.72968 215.04559
 216.04736 217.38599 218.03157 217.90855 218.56340 221.21481 225.75743 229.70053
 232.53398 235.76393 239.60217 243.98488 248.18291 251.84105 255.14131 258.22021
 261.13284 263.90961 266.55786 269.02576 271.24121 273.07153 274.62582 276.36197
 277.90326 279.08301 279.96927 280.65805 281.24127 281.72372 282.59479 283.47180
 284.26059 284.96301 285.57663 286.35858
 366.78100 356.34127 345.77955 334.65182 323.06109 311.26136 299.13764 286.94691
 274.66518 262.56846 250.58373 239.89100 230.01927 221.12955 213.31782 206.32609
 200.16636 195.11064 191.69891 189.74718 188.79046 188.86073 189.70200 191.01627
 192.74755 194.84882 197.11809 199.48337 201.93464 204.42091 206.51518 208.36346
 209.99573 211.14700 211.38227 211.61655 211.55982 211.27109 210.91037 210.54664
 210.16991 209.88618 209.70046 209.57073 209.50500 209.84228 210.23455 210.62982
 211.42909 212.61337 213.86964 215.65891 217.59318 219.64246 221.74373 223.83300
 225.89928 227.98955 230.09282 232.20509 234.34037 236.51864 238.78091 241.15719
 243.78446 246.04173 248.05000 249.82128 251.24455 252.37382 253.20210 253.52437
 253.56764 253.34791 252.71419 251.66846 250.28073 248.44800 246.36328 244.20255
 241.99982 239.81010 237.63637 235.48164 233.34791 231.22119 229.25346 227.41673
 225.70601 224.18428 222.82055 221.59882 220.48710 219.45337 218.56364 217.71091
 216.95919 216.14546 215.24973 214.62001 214.07628 214.29852 214.80435 215.09343
 216.12297 217.41217 218.01477 217.91270 218.65149 221.27396 225.73915 229.61374
 232.44926 235.69659 239.64037 244.05231 248.19740 251.82361 255.13232 258.22360
 261.14459 263.91241 266.53473 268.96835 271.16690 273.02432 274.68488 276.45306
 277.92346 279.04480 279.86691 280.51096 281.56186 282.64157 283.62662 284.51901
 285.32159 286.03632 286.66071 287.45639
 366.78100 356.34032 345.77765 334.64897 323.05729 311.25662 299.13194 286.94027
 274.65759 262.55991 250.57424 239.88056 230.00788 221.11721 213.30453 206.31186
 200.15118 195.09450 191.68183 189.72915 188.77147 188.84080 189.68112 190.99444
 192.72477 194.82509 197.09342 199.45774 201.90806 204.39339 206.48671 208.33403
 209.96536 211.11568 211.35001 211.58333 211.52565 211.23598 210.87430 210.50962
 210.13195 209.84727 209.66059 209.52992 209.46324 209.79957 210.19089 210.58521
 211.38354 212.56686 213.82218 215.61051 217.54383 219.59216 221.69248 223.78080
 225.84613 227.93545 230.03777 232.14910 234.28342 236.46075 238.72207 241.09739
 243.72372 245.98004 247.98736 249.75769 251.18001 252.30833 253.13566 253.45698
 253.49931 253.27863 252.64395 251.59728 250.20860 248.37492 246.28925 244.12757
 241.92390 239.73322 237.55854 235.40287 233.26819 231.14051 229.17184 227.33416
 225.62248 224.09981 222.73513 221.51246 220.39978 219.36510 218.47443 217.62075
 216.86807 216.05340 215.15672 214.52605 213.98137 214.28252 214.93666 215.06815
 215.99854 217.33278 218.02692 217.97563 218.73097 221.33179 225.78064 229.61154
 232.44795 235.68127 239.67973 244.13766 248.25754 251.83780 255.12854 258.23184
 261.15558 263.91003 266.49683 268.90622 271.10220 272.95486 274.58051 276.48419
 278.00793 279.11310 279.88266 281.01340 282.23651 283.31863 284.30591 285.20032
 286.00473 286.72107 287.34683 288.14432
 366.78100 356.33840 345.77381 334.64321 323.04962 311.24702 299.12043 286.92683
 274.64224 262.54264 250.55505 239.85945 229.98486 221.09226 213.27766 206.28307
 200.12047 195.06188 191.64728 189.69269 188.73309 188.80050 189.63890 190.95031
 192.67871 194.77711 197.04352 199.40592 201.85433 204.33773 206.42914 208.27454
 209.90395 211.05235 211.28476 211.51616 211.45657 211.16497 210.80137 210.43478
 210.05518 209.76859 209.57999 209.44740 209.37880 209.71321 210.10261 210.49502
 211.29142 212.47283 213.72623 215.51263 217.44404 219.49044 221.58885 223.67525
 225.73866 227.82606 229.92647 232.03587 234.16828 236.34368 238.60308 240.97649
 243.60089 245.85530 247.86070 249.62911 251.04951 252.17592 253.00132 253.32073
 253.36113 253.13854 252.50194 251.45334 250.06275 248.22715 246.13956 243.97596
 241.77037 239.57777 237.40118 235.24358 233.10699 230.97739 229.00679 227.16720
 225.45360 223.92901 222.56241 221.33782 220.22322 219.18663 218.29403 217.43844
 216.68384 215.86725 214.96865 214.33605 213.78946 214.20160 215.10669 215.13635
 215.73521 217.04369 217.93527 218.04300 218.81183 221.39384 225.80779 229.64471
 232.46129 235.72766 239.72688 244.14632 248.22656 251.79491 255.08867 258.21106
 261.14633 263.89590 266.47342 268.85913 271.00122 272.81860 274.45352 276.33051
 277.82056 278.94058 279.81836 280.84750 282.04602 283.12506 284.10953 285.00137
 285.80350 286.51782 287.14182 287.93701
 366.78100 356.33802 345.77304 334.64206 323.04807 311.24509 299.11811 286.92413
 274.63915 262.53917 250.55118 239.85520 229.98022 221.08724 213.27226 206.27728
 200.11429 195.05531 191.64033 189.68535 188.72537 188.79239 189.63040 190.94142
 192.66944 194.76746 197.03348 199.39550 201.84351 204.32653 206.41755 208.26257
 209.89159 211.03961 211.27163 211.50264 211.44266 211.15068 210.78670 210.41972
 210.03974 209.75275 209.56377 209.43079 209.36181 209.69583 210.08485 210.47686
 211.27288 212.45390 213.70692 215.49294 217.42396 219.46997 221.56799 223.65401
 225.71703 227.80405 229.90407 232.01309 234.14510 236.32012 238.57914 240.95216
 243.57618 245.83020 247.83521 249.60323 251.02325 252.14927 252.97429 253.29331
 253.33332 253.11034 252.47336 251.42438 250.03340 248.19742 246.10943 243.94545
 241.73947 239.54649 237.36951 235.21153 233.07454 230.94456 228.97358 227.13360
 225.41962 223.89464 222.52766 221.30267 220.18769 219.15071 218.25773 217.40175
 216.64677 215.82978 214.93080 214.29782 213.75084 214.19788 215.19095 215.30260
 215.63046 216.81322 217.81131 218.06602 218.87163 221.43329 225.80484 229.58839
 232.37430 235.64830 239.69759 244.12370 248.16103 251.72263 255.04776 258.19141
 261.13278 263.88840 266.47360 268.84781 270.96805 272.71341 274.16187 276.20514
 277.67816 278.62292 279.50159 280.62610 281.82385 282.89435 283.87097 284.75574
 285.55148 286.26010 286.87915 287.66803
 366.78100 356.33890 345.77479 334.64469 323.05159 311.24948 299.12338 286.93028
 274.64617 262.54707 250.55997 239.86487 229.99076 221.09866 213.28456 206.29045
 200.12835 195.07025 191.65614 189.70204 188.74294 188.81083 189.64973 190.96163
 192.69052 194.78942 197.05632 199.41921 201.86811 204.35201 206.44391 208.28980
 209.91970 211.06860 211.30149 211.53339 211.47429 211.18318 210.82008 210.45398
 210.07487 209.78877 209.60067 209.46856 209.40046 209.73536 210.12525 210.51815
 211.31505 212.49695 213.75084 215.53774 217.46964 219.51653 221.61543 223.70233
 225.76622 227.85412 229.95502 232.06491 234.19781 236.37371 238.63360 241.00750
 243.63240 245.88729 247.89319 249.66209 251.08299 252.20988 253.03578 253.35568
 253.39657 253.17447 252.53837 251.49026 250.10016 248.26506 246.17795 244.01485
 241.80975 239.61764 237.44154 235.28444 233.14833 231.01923 229.04913 227.21003
 225.49692 223.97282 222.60672 221.38261 220.26851 219.23241 218.34030 217.48520
 216.73110 215.91499 215.01689 214.38479 213.83868 214.27637 215.22684 215.36079
 215.69797 216.84093 217.84021 218.09192 218.89363 221.44913 225.86819 229.51846
 232.25314 235.47600 239.62979 244.12453 248.13301 251.67357 255.00063 258.16547
 261.11996 263.88821 266.47519 268.82199 270.90393 272.59515 274.05783 275.87476
 277.35672 278.39841 279.72488 281.13431 282.35403 283.43317 284.41772 285.30966
 286.11188 286.82623 287.45029 288.24557
 366.78100 356.33851 345.77403 334.64354 323.05005 311.24756 299.12108 286.92759
 274.64310 262.54361 250.55613 239.86064 229.98615 221.09366 213.27918 206.28469
 200.12220 195.06371 191.64923 189.69474 188.73525 188.80277 189.64128 190.95279
 192.68130 194.77982 197.04633 199.40884 201.85735 204.34087 206.43238 208.27789
 209.90740 211.05592 211.28843 211.51994 211.46045 211.16897 210.80548 210.43899
 210.05950 209.77302 209.58453 209.45204 209.38356 209.71807 210.10758 210.50009
 211.29661 212.47812 213.73163 215.51814 217.44966 219.49617 221.59468 223.68119
 225.74471 227.83222 229.93273 232.04224 234.17476 236.35027 238.60978 240.98330
 243.60781 245.86232 247.86783 249.63635 251.05686 252.18337 253.00888 253.32840
 253.36891 253.14642 252.50993 251.46145 250.07096 248.23547 246.14798 243.98450
 241.77901 239.58652 237.41004 235.25255 233.11606 230.98657 229.01609 227.17660
 225.46311 223.93862 222.57214 221.34765 220.23316 219.19667 218.30419 217.44870
 216.69421 215.87772 214.97924 214.34675 213.80026 214.31552 215.33565 215.30672
 215.71625 216.99020 217.98395 218.11269 218.72029 221.15660 225.80638 229.41531
 232.20639 235.55666 239.66920 244.08018 248.11836 251.69662 254.99719 258.12714
 261.07153 263.84433 266.41766 268.74493 270.80771 272.54907 274.07916 275.69412
 277.64551 279.57761 281.24951 282.71756 283.98804 285.11209 286.13763 287.06668
 287.90225 288.64633 289.29636 290.12476
 366.78100 356.33689 345.77078 334.63867 323.04356 311.23946 299.11135 286.91624
 274.63013 262.52902 250.53991 239.84280 229.96669 221.07258 213.25648 206.26037
 200.09626 195.03615 191.62004 189.66393 188.70282 188.76871 189.60560 190.91549
 192.64239 194.73928 197.00417 199.36506 201.81195 204.29384 206.38373 208.22762
 209.85551 211.00241 211.23330 211.46319 211.40208 211.10897 210.74386 210.37575
 209.99464 209.70653 209.51643 209.38232 209.31221 209.64510 210.03299 210.42388
 211.21877 212.39866 213.65055 215.43544 217.36534 219.41023 221.50712 223.59201
 225.65390 227.73979 229.83868 231.94657 234.07746 236.25136 238.50925 240.88114
 243.50403 245.75692 247.76081 249.52770 250.94659 252.07148 252.89538 253.21327
 253.25216 253.02805 252.38994 251.33983 249.94772 248.11061 246.02150 243.85639
 241.64929 239.45518 237.27707 235.11796 232.97985 230.84874 228.87663 227.03552
 225.32041 223.79431 222.42620 221.20009 220.08398 219.04587 218.15176 217.29465
 216.53854 215.72043 214.82033 214.18622 213.63811 214.29048 215.49168 215.22928
 215.39005 216.80394 217.86324 218.14888 218.95271 221.43340 225.75504 229.39546
 232.19820 235.60576 239.73775 244.09991 248.11267 251.73549 255.08936 258.23294
 261.17886 263.94226 266.50610 268.78485 270.73853 272.47479 274.16418 275.52341
 276.70312 277.71432 278.58936 279.35770 280.02264 280.61093 281.14767 281.63391
 282.07123 282.46066 282.80087 283.23441
 366.78100 356.33757 345.77213 334.64070 323.04627 311.24284 299.11540 286.92097
 274.63554 262.53511 250.54667 239.85024 229.97481 221.08138 213.26594 206.27051
 200.10708 195.04764 191.63221 189.67678 188.71635 188.78291 189.62048 190.93105
 192.65862 194.75618 197.02175 199.38332 201.83089 204.31345 206.40402 208.24859
 209.87715 211.02472 211.25629 211.48686 211.42642 211.13399 210.76956 210.40213
 210.02169 209.73426 209.54483 209.41140 209.34196 209.67553 210.06410 210.45567
 211.25123 212.43180 213.68437 215.46993 217.40050 219.44607 221.54364 223.62920
 225.69177 227.77834 229.87791 231.98647 234.11804 236.29261 238.55118 240.92374
 243.54731 245.80088 247.80544 249.57301 250.99258 252.11815 252.94271 253.26128
 253.30085 253.07742 252.43998 251.39055 249.99912 248.16269 246.07425 243.90982
 241.70339 239.50995 237.33252 235.17409 233.03666 230.90622 228.93479 227.09436
 225.37993 223.85449 222.48706 221.26163 220.14620 219.10876 218.21533 217.35890
 216.60346 215.78603 214.88660 214.25317 213.70573 214.33844 215.58681 215.34886
 214.98055 216.29163 217.64548 218.11354 219.01393 221.58743 225.90506 229.54135
 232.33482 235.72063 239.84349 244.24294 248.28426 251.87352 255.24548 258.41003
 261.36551 264.13666 266.72144 269.03052 270.91980 272.80170 274.15277 275.21780
 276.14218 276.93454 277.62018 278.22223 278.74326 279.20422 279.62479 280.00580
 280.34845 280.65363 280.92020 281.25989
 366.78100 356.33993 345.77686 334.64779 323.05572 311.25465 299.12958 286.93751
 274.65444 262.55637 250.57030 239.87623 230.00316 221.11209 213.29902 206.30595
 200.14488 195.08781 191.67473 189.72166 188.76359 188.83252 189.67245 190.98538
 192.71531 194.81524 197.08317 199.44710 201.89703 204.38196 206.47489 208.32182
 209.95275 211.10268 211.33661 211.56954 211.51147 211.22140 210.85933 210.49426
 210.11619 209.83112 209.64405 209.51298 209.44591 209.78184 210.17277 210.56670
 211.36463 212.54756 213.80249 215.59042 217.52334 219.57127 221.67120 223.75913
 225.82406 227.91299 230.01492 232.12585 234.25978 236.43671 238.69764 241.07257
 243.69850 245.95443 247.96136 249.73129 251.15322 252.28115 253.10808 253.42901
 253.47094 253.24987 252.61480 251.56773 250.17866 248.34459 246.25852 244.09645
 241.89238 239.70131 237.52624 235.37017 233.23510 231.10703 229.13795 227.29988
 225.58781 224.06474 222.69967 221.47660 220.36353 219.32846 218.43739 217.58332
 216.83025 216.01518 215.11811 214.48704 213.94197 214.45592 215.56750 215.57800
 215.08380 216.09547 217.37355 217.87280 219.00438 221.62016 225.95609 229.59247
 232.36102 235.72452 239.84404 244.25612 248.28485 251.86632 255.23911 258.41336
 261.37863 264.17413 266.78400 269.12988 271.15311 272.98776 274.46829 277.13068
 279.73334 281.96420 283.89465 285.58972 287.05667 288.35455 289.53867 290.61139
 291.57617 292.43533 293.18588 294.14233
 366.78100 356.34163 345.78026 334.65289 323.06252 311.26315 299.13979 286.94942
 274.66805 262.57168 250.58731 239.89494 230.02357 221.13420 213.32283 206.33146
 200.17209 195.11673 191.70536 189.75399 188.79762 188.86825 189.70988 191.02451
 192.75614 194.85777 197.12740 199.49303 201.94467 204.43130 206.52593 208.37456
 210.00719 211.15882 211.39445 211.62908 211.57271 211.28434 210.92397 210.56061
 210.18424 209.90087 209.71550 209.58613 209.52076 209.85839 210.25102 210.64665
 211.44628 212.63091 213.88755 215.67718 217.61181 219.66144 221.76307 223.85270
 225.91933 228.00996 230.11359 232.22622 234.36185 236.54049 238.80312 241.17975
 243.80738 246.06501 248.07364 249.84527 251.26890 252.39853 253.22716 253.54979
 253.59343 253.37406 252.74069 251.69532 250.30795 248.47558 246.39121 244.23084
 242.02847 239.83910 237.66573 235.51137 233.37800 231.25163 229.28426 227.44789
 225.73752 224.21615 222.85278 221.63141 220.52004 219.48667 218.59731 217.74494
 216.99357 216.18020 215.28483 214.65546 214.11209 214.55675 215.56392 215.65877
 215.14696 216.09851 217.28963 217.62782 218.81581 221.59682 225.90253 229.52196
 232.31822 235.73468 239.86159 244.28270 248.29134 251.85115 255.22235 258.39706
 261.34589 264.12042 266.71451 269.03223 271.09476 272.99405 274.54169 276.99280
 279.73853 282.09204 284.12863 285.91687 287.46448 288.83368 290.08289 291.21460
 292.23242 293.13879 293.93060 294.93967
 366.78100 356.34152 345.78003 334.65255 323.06207 311.26258 299.13910 286.94862
 274.66713 262.57065 250.58617 239.89368 230.02220 221.13272 213.32123 206.32975
 200.17027 195.11479 191.70330 189.75182 188.79534 188.86585 189.70737 191.02189
 192.75340 194.85492 197.12444 199.48995 201.94147 204.42799 206.52250 208.37102
 210.00354 211.15505 211.39057 211.62509 211.56860 211.28012 210.91964 210.55615
 210.17967 209.89619 209.71070 209.58122 209.51574 209.85325 210.24577 210.64129
 211.44081 212.62532 213.88184 215.67136 217.60587 219.65539 221.75691 223.84642
 225.91294 228.00346 230.10697 232.21949 234.35501 236.53352 238.79604 241.17256
 243.80007 246.05759 248.06611 249.83762 251.26114 252.39066 253.21917 253.54169
 253.58521 253.36572 252.73224 251.68676 250.29927 248.46679 246.38231 244.22183
 242.01934 239.82986 237.65638 235.50189 233.36841 231.24193 229.27444 227.43796
 225.72748 224.20599 222.84251 221.62103 220.50954 219.47606 218.58658 217.73409
 216.98261 216.16913 215.27364 214.64416 214.10068 214.58202 215.65068 215.68513
 215.04161 215.92839 217.12628 217.47810 218.73154 221.60974 225.93445 229.53740
 232.33534 235.77298 239.91679 244.34918 248.39043 251.97955 255.36658 258.54715
 261.48648 264.22705 266.79932 269.10107 271.15073 273.06482 274.66373 277.13773
 279.75558 281.99948 283.94122 285.64621 287.12173 288.42719 289.61819 290.69720
 291.66763 292.53180 293.28671 294.24878
 366.78100 356.34011 345.77722 334.64832 323.05643 311.25554 299.13065 286.93876
 274.65587 262.55797 250.57208 239.87819 230.00530 221.11441 213.30152 206.30862
 200.14773 195.09084 191.67795 189.72506 188.76716 188.83627 189.67638 190.98949
 192.71960 194.81971 197.08781 199.45192 201.90203 204.38714 206.48025 208.32736
 209.95846 211.10857 211.34268 211.57579 211.51790 211.22800 210.86611 210.50122
 210.12333 209.83844 209.65155 209.52065 209.45376 209.78987 210.18098 210.57509
 211.37320 212.55630 213.81141 215.59952 217.53263 219.58074 221.68084 223.76895
 225.83406 227.92317 230.02528 232.13639 234.27049 236.44760 238.70871 241.08382
 243.70993 245.96604 247.97314 249.74325 251.16536 252.29347 253.12058 253.44168
 253.48379 253.26290 252.62801 251.58112 250.19223 248.35833 246.27244 244.11055
 241.90666 239.71577 237.54088 235.38498 233.25009 231.12220 229.15331 227.31542
 225.60352 224.08063 222.71574 221.49285 220.37996 219.34507 218.45417 217.60028
 216.84739 216.03250 215.13561 214.50472 213.95982 214.54411 215.77539 215.70511
 215.04417 215.74763 216.83383 217.17336 218.55702 221.64742 225.96651 229.58646
 232.40138 235.86549 240.01443 244.42461 248.48318 252.07265 255.45549 258.62753
 261.55859 264.30753 266.89233 269.21970 271.33011 273.32343 275.14258 277.40237
 279.78909 281.98987 283.89429 285.56653 287.01367 288.29407 289.46219 290.52045
 291.47223 292.31979 293.06021 294.00381
 366.78100 356.33932 345.77564 334.64595 323.05327 311.25159 299.12591 286.93322
 274.64954 262.55086 250.56418 239.86949 229.99581 221.10413 213.29045 206.29677
 200.13508 195.07740 191.66372 189.71004 188.75135 188.81967 189.65899 190.97131
 192.70062 194.79994 197.06726 199.43058 201.87989 204.36421 206.45653 208.30285
 209.93317 211.08248 211.31580 211.54812 211.48944 211.19875 210.83607 210.47039
 210.09171 209.80602 209.61834 209.48666 209.41898 209.75430 210.14461 210.53793
 211.33525 212.51757 213.77188 215.55920 217.49152 219.53884 221.63815 223.72547
 225.78979 227.87811 229.97943 232.08974 234.22306 236.39938 238.65970 241.03401
 243.65933 245.91465 247.92097 249.69028 251.11160 252.23892 253.06524 253.38556
 253.42687 253.20519 252.56951 251.52183 250.13214 248.29746 246.21078 244.04810
 241.84341 239.65173 237.47605 235.31937 233.18368 231.05500 229.08532 227.24664
 225.53396 224.01027 222.64459 221.42091 220.30723 219.27154 218.37986 217.52518
 216.77150 215.95581 215.05813 214.42645 213.88077 214.52304 215.88409 215.76546
 215.03940 215.58078 216.57515 216.99571 218.51801 221.76753 225.94945 229.63100
 232.44122 235.91765 240.05074 244.41576 248.45819 252.06354 255.42555 258.58099
 261.50031 264.23505 266.81241 269.17654 271.37939 273.50809 275.54434 277.49316
 279.41354 281.27292 282.99689 284.51065 285.82068 286.97974 288.03720 288.99518
 289.85678 290.62402 291.29428 292.14847
 366.78100 356.33976 345.77653 334.64729 323.05505 311.25382 299.12858 286.93635
 274.65311 262.55487 250.56864 239.87440 230.00116 221.10993 213.29669 206.30346
 200.14222 195.08498 191.67175 189.71851 188.76027 188.82904 189.66880 190.98156
 192.71133 194.81109 197.07886 199.44262 201.89238 204.37715 206.46991 208.31667
 209.94744 211.09720 211.33097 211.56373 211.50549 211.21526 210.85302 210.48778
 210.10955 209.82431 209.63708 209.50584 209.43860 209.77437 210.16513 210.55889
 211.35666 212.53942 213.79418 215.58195 217.51471 219.56248 221.66224 223.75000
 225.81477 227.90353 230.00529 232.11606 234.24982 236.42659 238.68735 241.06211
 243.68788 245.94364 247.95040 249.72017 251.14193 252.26969 253.09646 253.41722
 253.45899 253.23775 252.60251 251.55528 250.16604 248.33180 246.24557 244.08333
 241.87910 239.68786 237.51262 235.35639 233.22115 231.09291 229.12368 227.28544
 225.57320 224.04997 222.68473 221.46150 220.34826 219.31302 218.42179 217.56755
 216.81431 215.99908 215.10184 214.47061 213.92537 214.55675 215.93741 215.92558
 214.97327 215.36681 216.38716 216.85591 218.46460 221.75941 225.95718 229.62852
 232.39108 235.90862 240.07280 244.44548 248.48779 252.09634 255.46599 258.62582
 261.53363 264.24170 266.78650 269.10516 271.28668 273.47070 275.57248 277.50684
 279.20032 280.85974 282.55057 284.05511 285.35718 286.50916 287.56018 288.51233
 289.36868 290.13129 290.79745 291.64642
 366.78100 356.34003 345.77706 334.64808 323.05611 311.25514 299.13017 286.93819
 274.65522 262.55725 250.57128 239.87731 230.00433 221.11336 213.30039 206.30742
 200.14645 195.08947 191.67650 189.72353 188.76556 188.83458 189.67461 190.98764
 192.71767 194.81770 197.08572 199.44975 201.89978 204.38481 206.47783 208.32486
 209.95589 211.10592 211.33995 211.57297 211.51500 211.22503 210.86306 210.49809
 210.12011 209.83514 209.64817 209.51720 209.45022 209.78625 210.17728 210.57131
 211.36934 212.55236 213.80739 215.59542 217.52845 219.57647 221.67650 223.76453
 225.82956 227.91859 230.02061 232.13164 234.26567 236.44270 238.70372 241.07875
 243.70478 245.96081 247.96784 249.73786 251.15989 252.28792 253.11495 253.43598
 253.47800 253.25703 252.62206 251.57509 250.18611 248.35214 246.26617 244.10420
 241.90023 239.70925 237.53428 235.37831 233.24334 231.11536 229.14639 227.30842
 225.59645 224.07348 222.70850 221.48553 220.37256 219.33759 218.44662 217.59264
 216.83967 216.02470 215.12773 214.49675 213.95178 214.59169 215.98660 215.98682
 214.99944 215.24762 216.22707 216.69815 218.35565 221.71344 226.00554 229.56429
 232.38199 235.93614 240.11159 244.47180 248.52148 252.17018 255.57683 258.75037
 261.65356 264.35397 266.87915 269.14944 271.30698 273.45056 275.52942 277.44183
 279.31049 281.23471 283.05963 284.66205 286.04880 287.27573 288.39508 289.40918
 290.32123 291.13342 291.84293 292.74710
 366.78100 356.33963 345.77626 334.64689 323.05452 311.25315 299.12778 286.93541
 274.65204 262.55367 250.56730 239.87293 229.99956 221.10819 213.29482 206.30145
 200.14008 195.08271 191.66934 189.71597 188.75760 188.82623 189.66586 190.97849
 192.70812 194.80775 197.07538 199.43901 201.88864 204.37328 206.46591 208.31254
 209.94317 211.09280 211.32643 211.55906 211.50069 211.21032 210.84795 210.48258
 210.10421 209.81884 209.63147 209.50010 209.43273 209.76836 210.15899 210.55262
 211.35025 212.53288 213.78751 215.57514 217.50777 219.55540 221.65503 223.74266
 225.80729 227.89592 229.99755 232.10818 234.24181 236.41844 238.67907 241.05370
 243.67933 245.93496 247.94159 249.71122 251.13285 252.26048 253.08711 253.40774
 253.44937 253.22800 252.59263 251.54526 250.15589 248.32152 246.23515 244.07278
 241.86841 239.67704 237.50167 235.34530 233.20993 231.08157 229.11220 227.27383
 225.56146 224.03809 222.67272 221.44935 220.33598 219.30061 218.40924 217.55487
 216.80150 215.98613 215.08876 214.45739 213.91202 214.60056 216.05447 215.95232
 215.02483 215.21851 216.12411 216.55452 218.20586 221.63684 226.05449 229.52660
 232.39482 235.97005 240.15450 244.51881 248.57712 252.25128 255.66266 258.81125
 261.70105 264.41461 266.94940 269.17877 271.29050 273.43478 275.49054 277.52777
 279.69595 281.79919 283.61917 285.21725 286.60028 287.82388 288.94025 289.95160
 290.86118 291.67117 292.37878 293.28052
 366.78100 356.34058 345.77815 334.64973 323.05831 311.25789 299.13346 286.94204
 274.65962 262.56220 250.57677 239.88335 230.01093 221.12050 213.30808 206.31566
 200.15524 195.09881 191.68639 189.73397 188.77655 188.84612 189.68670 191.00028
 192.73085 194.83143 197.10001 199.46459 201.91516 204.40074 206.49432 208.34190
 209.97347 211.12405 211.35863 211.59221 211.53478 211.24536 210.88394 210.51951
 210.14209 209.85767 209.67125 209.54082 209.47440 209.81098 210.20256 210.59713
 211.39571 212.57929 213.83486 215.62344 217.55702 219.60560 221.70617 223.79475
 225.86033 227.94991 230.05248 232.16406 234.29864 236.47621 238.73779 241.11337
 243.73995 245.99652 248.00410 249.77468 251.19726 252.32583 253.15341 253.47499
 253.51756 253.29714 252.66272 251.61630 250.22787 248.39445 246.30903 244.14761
 241.94418 239.75376 237.57934 235.42392 233.28949 231.16207 229.19365 227.35622
 225.64480 224.12238 222.75796 221.53553 220.42311 219.38869 218.49827 217.64484
 216.89242 216.07800 215.18157 214.55115 214.00673 214.66740 216.06668 215.99097
 215.01001 215.12314 215.98448 216.48460 218.22653 221.54895 226.03235 229.48953
 232.38161 235.98088 240.18839 244.58278 248.66222 252.34770 255.75983 258.89035
 261.76178 264.47256 266.98438 269.19058 271.29523 273.42990 275.51862 277.92096
 280.38354 282.56305 284.44904 286.10507 287.53824 288.80624 289.96307 291.01111
 291.95367 292.79306 293.52631 294.46075
 366.78100 356.34267 345.78233 334.65600 323.06667 311.26833 299.14600 286.95667
 274.67634 262.58100 250.59767 239.90634 230.03600 221.14767 213.33734 206.34700
 200.18867 195.13434 191.72401 189.77367 188.81834 188.89001 189.73267 191.04834
 192.78101 194.88367 197.15434 199.52101 201.97368 204.46134 206.55701 208.40668
 210.04034 211.19301 211.42968 211.66534 211.61001 211.32268 210.96335 210.60101
 210.22568 209.94335 209.75901 209.63068 209.56635 209.90501 210.29868 210.69535
 211.49602 212.68168 213.93935 215.73002 217.66568 219.71635 221.81902 223.90968
 225.97735 228.06902 230.17368 232.28735 234.42402 236.60369 238.86735 241.24502
 243.87369 246.13235 248.14202 249.91469 251.33935 252.47002 253.29969 253.62336
 253.66802 253.44969 252.81736 251.77302 250.38669 248.55536 246.47202 244.31269
 242.11136 239.92303 237.75069 235.59736 233.46503 231.33969 229.37336 227.53803
 225.82869 224.30836 222.94603 221.72570 220.61536 219.58303 218.69470 217.84336
 217.09303 216.28070 215.38636 214.75803 214.21570 214.77818 216.03290 216.11041
 215.02650 214.95332 215.74059 216.31313 218.14641 221.52505 226.03316 229.49277
 232.37926 235.99698 240.24045 244.67322 248.77119 252.48682 255.91446 259.04825
 261.90640 264.60587 267.12219 269.30978 271.39780 273.47092 275.79773 278.27911
 280.89963 283.18661 285.16565 286.90338 288.40723 289.73776 290.95166 292.05136
 293.04044 293.92120 294.69061 295.67117
 366.78100 356.34348 345.78396 334.65844 323.06992 311.27239 299.15087 286.96235
 274.68283 262.58831 250.60579 239.91527 230.04575 221.15823 213.34870 206.35918
 200.20166 195.14814 191.73862 189.78910 188.83458 188.90706 189.75054 191.06701
 192.80049 194.90397 197.17545 199.54293 201.99641 204.48489 206.58137 208.43185
 210.06632 211.21980 211.45728 211.69376 211.63924 211.35272 210.99420 210.63268
 210.25816 209.97664 209.79311 209.66559 209.60207 209.94155 210.33603 210.73351
 211.53499 212.72147 213.97995 215.77142 217.70790 219.75938 221.86286 223.95434
 226.02282 228.11530 230.22078 232.33526 234.47273 236.65321 238.91769 241.29617
 243.92565 246.18513 248.19561 249.96909 251.39457 252.52604 253.35652 253.68100
 253.72648 253.50896 252.87744 251.83392 250.44840 248.61788 246.53535 244.37683
 242.17631 239.98879 237.81727 235.66475 233.53323 231.40871 229.44319 227.60866
 225.90014 224.38062 223.01910 221.79958 220.69006 219.65854 218.77102 217.92050
 217.17097 216.35945 215.46593 214.83841 214.29689 214.82449 216.02811 216.22728
 215.16777 214.84338 215.40625 215.98677 217.94829 221.48296 225.97684 229.48196
 232.39233 236.03636 240.29971 244.73399 248.85947 252.60600 256.04175 259.19101
 262.06091 264.75757 267.28891 269.50046 271.58926 273.62582 275.76801 278.16110
 280.55771 282.83154 284.79913 286.52686 288.02203 289.34488 290.55179 291.64514
 292.62851 293.50421 294.26920 295.24408
 366.78100 356.34429 345.78559 334.66088 323.07317 311.27647 299.15576 286.96805
 274.68935 262.59564 250.61393 239.92423 230.05552 221.16881 213.36011 206.37140
 200.21469 195.16199 191.75328 189.80457 188.85087 188.92416 189.76845 191.08575
 192.82004 194.92433 197.19662 199.56492 202.01921 204.50850 206.60580 208.45709
 210.09238 211.24668 211.48497 211.72226 211.66856 211.38285 211.02514 210.66444
 210.29073 210.01002 209.82732 209.70061 209.63790 209.97820 210.37349 210.77178
 211.57408 212.76137 214.02066 215.81296 217.75025 219.80254 221.90684 223.99913
 226.06842 228.16172 230.26801 232.38330 234.52160 236.70289 238.96818 241.34748
 243.97777 246.23806 248.24936 250.02365 251.44994 252.58224 253.41353 253.73882
 253.78512 253.56841 252.93770 251.89499 250.51029 248.68058 246.59887 244.44117
 242.24146 240.05475 237.88405 235.73234 233.60163 231.47793 229.51322 227.67951
 225.97181 224.45310 223.09239 221.87369 220.76498 219.73427 218.84757 217.99786
 217.24915 216.43845 215.54574 214.91903 214.37833 214.87082 216.01331 216.31866
 215.33591 214.83604 215.18855 215.68755 217.70996 221.38081 225.83041 229.37231
 232.31712 236.02083 240.33351 244.79378 248.94124 252.71605 256.16833 259.33466
 262.21167 264.90439 267.45334 269.70154 271.79016 273.83316 275.68585 277.83389
 280.03284 282.15854 283.99799 285.61316 287.01096 288.24765 289.37592 290.39807
 291.31738 292.13605 292.85120 293.76260
 366.78100 356.34593 345.78887 334.66580 323.07974 311.28467 299.16561 286.97954
 274.70247 262.61041 250.63034 239.94228 230.07521 221.19014 213.38308 206.39601
 200.24095 195.18988 191.78282 189.83575 188.88368 188.95862 189.80455 191.12349
 192.85942 194.96535 197.23929 199.60922 202.06516 204.55609 206.65503 208.50796
 210.14489 211.30083 211.54076 211.77970 211.72763 211.44357 211.08750 210.72843
 210.35637 210.07730 209.89624 209.77117 209.71010 210.05204 210.44897 210.84891
 211.65284 212.84178 214.10271 215.89664 217.83558 219.88951 221.99545 224.08938
 226.16031 228.25525 230.36318 232.48012 234.62005 236.80299 239.06992 241.45085
 244.08279 246.34472 248.35766 250.13359 251.56153 252.69546 253.52839 253.85533
 253.90326 253.68820 253.05913 252.01806 250.63500 248.80693 246.72687 244.57080
 242.37274 240.18767 238.01860 235.86854 233.73947 231.61741 229.65434 227.82227
 226.11621 224.59914 223.24008 222.02301 220.91595 219.88688 219.00181 218.15375
 217.40668 216.59762 215.70655 215.08149 214.54242 214.96013 215.95593 216.36311
 215.51598 214.88026 215.05692 215.51051 217.55637 221.23796 225.64995 229.20876
 232.20866 235.99489 240.37018 244.86684 249.03586 252.83395 256.30182 259.46381
 262.33578 265.02905 267.59784 269.89706 272.00980 274.03577 275.76364 277.65164
 279.88498 282.06522 283.95187 285.60846 287.04211 288.31052 289.46777 290.51614
 291.45905 292.29868 293.03220 293.96695
 366.78100 356.34639 345.78978 334.66717 323.08156 311.28695 299.16833 286.98272
 274.70611 262.61450 250.63489 239.94728 230.08067 221.19606 213.38945 206.40284
 200.24822 195.19761 191.79100 189.84439 188.89278 188.96817 189.81456 191.13395
 192.87034 194.97673 197.25112 199.62150 202.07789 204.56928 206.66867 208.52206
 210.15945 211.31584 211.55623 211.79562 211.74401 211.46040 211.10478 210.74617
 210.37456 210.09595 209.91534 209.79073 209.73012 210.07251 210.46990 210.87029
 211.67467 212.86406 214.12545 215.91984 217.85923 219.91362 222.02001 224.11440
 226.18579 228.28118 230.38957 232.50695 234.64734 236.83073 239.09812 241.47951
 244.11190 246.37429 248.38768 250.16407 251.59246 252.72685 253.56023 253.88762
 253.93601 253.72140 253.09279 252.05218 250.66957 248.84196 246.76235 244.60674
 242.40912 240.22451 238.05590 235.90629 233.77768 231.65607 229.69346 227.86185
 226.15624 224.63963 223.28102 222.06440 220.95779 219.92918 219.04457 218.19696
 217.45035 216.64174 215.75113 215.12652 214.58791 214.99550 215.93808 216.32309
 215.68855 215.03539 215.07318 215.34019 217.38550 221.09146 225.46797 229.06277
 232.10567 235.96407 240.39703 244.91652 249.09065 252.88869 256.34622 259.49606
 262.36649 265.08139 267.70163 270.07175 272.22437 274.25540 275.97656 277.66376
 279.89047 282.11957 284.04846 285.74219 287.20795 288.50476 289.68793 290.75980
 291.72382 292.58228 293.33221 294.28793
 366.78100 356.34534 345.78768 334.66403 323.07737 311.28171 299.16205 286.97540
 274.69774 262.60508 250.62442 239.93577 230.06811 221.18245 213.37479 206.38713
 200.23148 195.17982 191.77216 189.82450 188.87185 188.94619 189.79153 191.10987
 192.84522 194.95056 197.22390 199.59324 202.04858 204.53893 206.63727 208.48961
 210.12595 211.28130 211.52064 211.75898 211.70632 211.42167 211.06501 210.70535
 210.33269 210.05303 209.87138 209.74572 209.68406 210.02540 210.42175 210.82109
 211.62443 212.81277 214.07312 215.86646 217.80480 219.85814 221.96348 224.05683
 226.12717 228.22151 230.32885 232.44520 234.58454 236.76688 239.03322 241.41357
 244.04491 246.30625 248.31859 250.09393 251.52128 252.65462 253.48696 253.81330
 253.86065 253.64499 253.01533 251.97367 250.59002 248.76136 246.68070 244.52404
 242.32538 240.13973 237.97007 235.81941 233.68975 231.56710 229.60344 227.77078
 226.06412 224.54647 223.18681 221.96915 220.86149 219.83183 218.94618 218.09752
 217.34986 216.54020 215.64855 215.02289 214.48323 214.95073 215.97498 216.22565
 215.81406 215.21655 215.12720 215.29112 217.33163 221.00684 225.30135 228.95410
 232.00761 235.93250 240.41982 244.94580 249.11072 252.87224 256.29947 259.44183
 262.32254 265.08398 267.77039 270.23032 272.45593 274.51465 276.26611 277.72830
 279.73495 281.73807 283.56537 285.16989 286.55847 287.78699 288.90784 289.92325
 290.83652 291.64975 292.36020 293.26556
 366.78100 356.34481 345.78662 334.66243 323.07523 311.27904 299.15885 286.97166
 274.69347 262.60028 250.61909 239.92989 230.06170 221.17551 213.36732 206.37913
 200.22294 195.17075 191.76255 189.81436 188.86117 188.93498 189.77979 191.09760
 192.83241 194.93721 197.21002 199.57883 202.03364 204.52345 206.62126 208.47307
 210.10887 211.26368 211.50249 211.74030 211.68711 211.40192 211.04473 210.68453
 210.31134 210.03115 209.84896 209.72277 209.66058 210.00138 210.39719 210.79600
 211.59881 212.78662 214.04643 215.83924 217.77704 219.82985 221.93466 224.02747
 226.09728 228.19109 230.29790 232.41370 234.55251 236.73432 239.00013 241.37994
 244.01075 246.27156 248.28336 250.05817 251.48498 252.61779 253.44960 253.77541
 253.82222 253.60602 252.97583 251.93364 250.54945 248.72026 246.63907 244.48188
 242.28268 240.09649 237.92630 235.77511 233.64492 231.52173 229.55754 227.72434
 226.01715 224.49896 223.13877 221.92058 220.81239 219.78220 218.89600 218.04681
 217.29862 216.48843 215.59624 214.97005 214.42986 214.91710 215.98882 216.16690
 215.88441 215.32890 215.08859 215.28911 217.28568 220.90450 225.15268 228.85696
 231.87904 235.89760 240.46428 245.01122 249.16354 252.87863 256.26123 259.37436
 262.27069 265.05157 267.78098 270.30914 272.58099 274.63068 276.38440 277.82416
 279.35175 281.03683 282.64407 284.16702 285.48502 286.65109 287.71497 288.67877
 289.54559 290.31750 290.99185 291.85120
 366.78100 356.34526 345.78752 334.66379 323.07705 311.28131 299.16157 286.97483
 274.69710 262.60436 250.62362 239.93488 230.06714 221.18141 213.37367 206.38593
 200.23019 195.17845 191.77072 189.82298 188.87024 188.94450 189.78976 191.10803
 192.84329 194.94855 197.22181 199.59108 202.04634 204.53660 206.63486 208.48712
 210.12339 211.27865 211.51791 211.75617 211.70343 211.41870 211.06196 210.70222
 210.32948 210.04974 209.86801 209.74227 209.68053 210.02179 210.41805 210.81732
 211.62058 212.80884 214.06910 215.86236 217.80063 219.85389 221.95915 224.05241
 226.12267 228.21694 230.32420 232.44046 234.57972 236.76198 239.02825 241.40851
 244.03977 246.30103 248.31329 250.08856 251.51582 252.64908 253.48134 253.80761
 253.85487 253.63913 253.00939 251.96765 250.58392 248.75518 246.67444 244.51770
 242.31896 240.13323 237.96349 235.81275 233.68301 231.56027 229.59654 227.76380
 226.05706 224.53932 223.17958 221.96185 220.85411 219.82437 218.93863 218.08989
 217.34216 216.53242 215.64068 215.01494 214.47520 214.92664 215.94885 216.18439
 215.90120 215.39018 215.03038 215.18115 217.10114 220.74873 225.04427 228.72188
 231.90131 235.94667 240.52272 245.08307 249.24358 252.94783 256.29199 259.37457
 262.25992 265.04642 267.78613 270.35410 272.66217 274.69614 276.41971 277.82776
 279.07123 280.39804 281.76224 283.11392 284.38599 285.51736 286.54959 287.48471
 288.32574 289.07468 289.72894 290.56274
 366.78100 356.34565 345.78830 334.66495 323.07860 311.28325 299.16390 286.97755
 274.70020 262.60785 250.62750 239.93915 230.07180 221.18645 213.37910 206.39175
 200.23640 195.18505 191.77770 189.83035 188.87800 188.95265 189.79829 191.11694
 192.85259 194.95824 197.23189 199.60154 202.05719 204.54784 206.64649 208.49914
 210.13579 211.29144 211.53109 211.76974 211.71739 211.43304 211.07669 210.71734
 210.34499 210.06564 209.88429 209.75894 209.69759 210.03924 210.43589 210.83554
 211.63919 212.82784 214.08849 215.88214 217.82079 219.87444 221.98009 224.07374
 226.14439 228.23904 230.34669 232.46334 234.60299 236.78564 239.05229 241.43294
 244.06459 246.32624 248.33888 250.11453 251.54218 252.67583 253.50848 253.83513
 253.88278 253.66743 253.03808 251.99673 250.61338 248.78503 246.70468 244.54833
 242.34998 240.16463 237.99528 235.84493 233.71558 231.59323 229.62988 227.79753
 226.09118 224.57383 223.21448 221.99713 220.88978 219.86043 218.97508 218.12673
 217.37938 216.57003 215.67868 215.05333 214.51398 214.93228 215.90004 216.23747
 215.88591 215.38622 214.96654 215.03346 216.90700 220.61182 224.98944 228.59900
 231.89317 235.96710 240.57678 245.14433 249.30553 252.99593 256.32379 259.38916
 262.26059 265.04132 267.79984 270.40268 272.72644 274.75174 276.45563 277.83618
 279.01889 280.17618 281.33832 282.45908 283.59268 284.69601 285.71783 286.64349
 287.47604 288.21744 288.86508 289.69046
 366.78100 356.34584 345.78868 334.66552 323.07936 311.28420 299.16503 286.97887
 274.70171 262.60955 250.62939 239.94123 230.07407 221.18891 213.38175 206.39459
 200.23943 195.18827 191.78110 189.83394 188.88178 188.95662 189.80246 191.12130
 192.85714 194.96298 197.23682 199.60666 202.06250 204.55333 206.65217 208.50501
 210.14185 211.29769 211.53753 211.77637 211.72421 211.44005 211.08389 210.72473
 210.35257 210.07340 209.89224 209.76708 209.70592 210.04776 210.44460 210.84444
 211.64828 212.83712 214.09796 215.89180 217.83063 219.88447 221.99031 224.08415
 226.15499 228.24983 230.35767 232.47451 234.61435 236.79719 239.06403 241.44487
 244.07670 246.33854 248.35138 250.12722 251.55506 252.68890 253.52174 253.84858
 253.89642 253.68126 253.05210 252.01093 250.62777 248.79961 246.71945 244.56329
 242.36513 240.17997 238.01081 235.86065 233.73149 231.60933 229.64617 227.81400
 226.10784 224.59068 223.23152 222.01436 220.90720 219.87804 218.99288 218.14472
 217.39756 216.58840 215.69723 215.07207 214.53291 214.93225 215.86319 216.27000
 215.94952 215.37386 214.89920 214.90804 216.78758 220.53441 224.92525 228.51169
 231.86398 235.98489 240.63435 245.21761 249.38113 253.04936 256.34723 259.39862
 262.25516 265.04257 267.81860 270.46588 272.81073 274.80923 276.45325 277.79486
 278.96280 280.07285 281.13895 282.16296 283.30386 284.38828 285.41553 286.34613
 287.18311 287.92844 288.57956 289.40933
 366.78100 356.34741 345.79182 334.67022 323.08563 311.29204 299.17445 286.98985
 274.71426 262.62367 250.64508 239.95849 230.09289 221.20930 213.40371 206.41812
 200.26452 195.21493 191.80934 189.86375 188.91315 188.98956 189.83697 191.15738
 192.89479 195.00219 197.27760 199.64901 202.10642 204.59882 206.69923 208.55364
 210.19205 211.34946 211.59086 211.83127 211.78068 211.49809 211.14349 210.78590
 210.41531 210.13772 209.95812 209.83453 209.77494 210.11835 210.51676 210.91816
 211.72357 212.91398 214.17639 215.97179 217.91220 219.96761 222.07502 224.17043
 226.24283 228.33924 230.44865 232.56706 234.70846 236.89287 239.16128 241.54369
 244.17710 246.44050 248.45491 250.23232 251.66173 252.79713 253.63154 253.95995
 254.00936 253.79576 253.16817 252.12858 250.74699 248.92040 246.84180 244.68721
 242.49062 240.30703 238.13943 235.99084 233.86325 231.74266 229.78107 227.95047
 226.24588 224.73029 223.37270 222.15710 221.05151 220.02392 219.14033 218.29373
 217.54814 216.74055 215.85096 215.22737 214.68977 215.00781 215.76401 216.29839
 216.08870 215.39944 214.85846 214.87320 216.77460 220.48279 224.85567 228.48242
 231.81396 236.01884 240.70189 245.31013 249.47281 253.12457 256.39398 259.42865
 262.26459 265.05679 267.84863 270.52661 272.89972 274.88489 276.45782 277.73459
 278.87512 279.97580 280.95197 282.11404 283.32996 284.49350 285.55502 286.51672
 287.38165 288.15189 288.82474 289.68219
 366.78100 356.34935 345.79570 334.67605 323.09340 311.30175 299.18609 287.00344
 274.72979 262.64114 250.66449 239.97984 230.11619 221.23454 213.43089 206.44724
 200.29559 195.24793 191.84428 189.90063 188.95198 189.03033 189.87968 191.20203
 192.94138 195.05073 197.32808 199.70143 202.16078 204.65512 206.75747 208.61382
 210.25417 211.41352 211.65687 211.89922 211.85057 211.56992 211.21727 210.86162
 210.49296 210.21731 210.03966 209.91801 209.86036 210.20571 210.60606 211.00941
 211.81676 213.00911 214.27346 216.07080 218.01315 220.07050 222.17985 224.27720
 226.35155 228.44990 230.56125 232.68160 234.82495 237.01130 239.28164 241.66599
 244.30134 246.56669 248.58304 250.36239 251.79374 252.93109 253.76744 254.09779
 254.14914 253.93749 253.31183 252.27418 250.89453 249.06988 246.99323 244.84058
 242.64593 240.46428 238.29863 236.15198 234.02633 231.90767 229.94802 228.11937
 226.41672 224.90307 223.54742 222.33377 221.23012 220.20447 219.32282 218.47817
 217.73451 216.92886 216.04121 215.41956 214.88391 215.10811 215.66850 216.27721
 216.22470 215.52266 214.87181 214.84453 216.77422 220.40712 224.74736 228.38879
 231.73848 236.02896 240.74861 245.39191 249.56335 253.21634 256.49152 259.53787
 262.38260 265.16553 267.95367 270.64590 273.02563 274.94760 276.44052 277.65253
 278.78510 279.80594 280.85416 282.27594 283.61703 284.80356 285.88608 286.86676
 287.74878 288.53421 289.22037 290.09479
 366.78100 356.34756 345.79212 334.67067 323.08623 311.29279 299.17535 286.99090
 274.71546 262.62502 250.64658 239.96014 230.09469 221.21125 213.40581 206.42037
 200.26692 195.21748 191.81204 189.86660 188.91615 188.99271 189.84027 191.16083
 192.89839 195.00594 197.28150 199.65306 202.11062 204.60317 206.70373 208.55829
 210.19685 211.35441 211.59596 211.83652 211.78608 211.50364 211.14919 210.79175
 210.42131 210.14387 209.96442 209.84098 209.78154 210.12510 210.52366 210.92521
 211.73077 212.92133 214.18389 215.97944 217.92000 219.97556 222.08312 224.17868
 226.25123 228.34779 230.45735 232.57591 234.71746 236.90202 239.17058 241.55314
 244.18669 246.45025 248.46481 250.24237 251.67193 252.80748 253.64204 253.97060
 254.02016 253.80671 253.17927 252.13983 250.75839 248.93195 246.85350 244.69906
 242.50262 240.31918 238.15173 236.00329 233.87585 231.75541 229.79396 227.96352
 226.25908 224.74364 223.38620 222.17075 221.06531 220.03787 219.15443 218.30798
 217.56254 216.75510 215.86566 215.24222 214.70477 215.02722 215.76004 216.08012
 216.26610 215.80527 215.05289 214.81615 216.67065 220.28523 224.56863 228.17665
 231.58243 235.99785 240.78862 245.43733 249.57716 253.21169 256.50247 259.57849
 262.46219 265.26846 268.06943 270.80850 273.24301 275.25317 276.77328 277.91718
 278.96463 279.87012 281.09946 282.60141 283.94754 285.13852 286.22510 287.20947
 288.09482 288.88321 289.57193 290.44965
 366.78100 356.34555 345.78810 334.66465 323.07820 311.28275 299.16330 286.97686
 274.69941 262.60696 250.62651 239.93806 230.07061 221.18516 213.37771 206.39026
 200.23481 195.18336 191.77591 189.82846 188.87601 188.95057 189.79612 191.11467
 192.85022 194.95577 197.22932 199.59887 202.05442 204.54497 206.64352 208.49607
 210.13262 211.28817 211.52773 211.76628 211.71383 211.42938 211.07293 210.71348
 210.34103 210.06158 209.88013 209.75468 209.69323 210.03478 210.43133 210.83088
 211.63444 212.82299 214.08354 215.87709 217.81564 219.86919 221.97474 224.06829
 226.13884 228.23339 230.34094 232.45749 234.59704 236.77960 239.04615 241.42670
 244.05825 246.31980 248.33235 250.10790 251.53545 252.66900 253.50155 253.82810
 253.87565 253.66020 253.03075 251.98931 250.60586 248.77741 246.69696 244.54051
 242.34206 240.15661 237.98716 235.83671 233.70726 231.58481 229.62136 227.78891
 226.08247 224.56502 223.20557 221.98812 220.88067 219.85122 218.96577 218.11732
 217.36987 216.56042 215.66897 215.04352 214.50407 214.91373 215.84091 215.98384
 216.11717 215.88834 215.20129 214.86777 216.55640 220.17656 224.47342 228.07669
 231.59586 236.00806 240.79657 245.37833 249.46402 253.05669 256.31189 259.37558
 262.29297 265.18369 268.08939 270.90121 273.44220 275.56927 277.21542 278.46915
 279.54700 280.50677 281.34100 282.34641 283.51312 284.65594 285.69855 286.64310
 287.49261 288.24911 288.90997 289.75217
 366.78100 356.34690 345.79079 334.66869 323.08358 311.28948 299.17137 286.98627
 274.71016 262.61906 250.63995 239.95285 230.08675 221.20264 213.39654 206.41043
 200.25633 195.20622 191.80012 189.85401 188.90291 188.97881 189.82570 191.14560
 192.88249 194.98939 197.26428 199.63518 202.09207 204.58397 206.68386 208.53776
 210.17566 211.33255 211.57345 211.81334 211.76224 211.47913 211.12403 210.76592
 210.39482 210.11672 209.93661 209.81251 209.75240 210.09530 210.49319 210.89409
 211.69898 212.88888 214.15077 215.94567 217.88557 219.94046 222.04736 224.14225
 226.21415 228.31004 230.41894 232.53683 234.67773 236.86163 239.12952 241.51142
 244.14431 246.40721 248.42110 250.19800 251.62689 252.76179 253.59568 253.92358
 253.97248 253.75837 253.13027 252.09016 250.70806 248.88095 246.80185 244.64674
 242.44964 240.26554 238.09743 235.94833 233.82022 231.69912 229.73701 227.90591
 226.20080 224.68470 223.32659 222.11049 221.00439 219.97628 219.09218 218.24507
 217.49897 216.69086 215.80076 215.17665 214.63855 214.95605 215.70454 216.14928
 216.21577 215.83910 215.14241 214.70241 216.33676 220.06377 224.51819 227.90073
 231.56805 236.00041 240.83182 245.41574 249.47916 253.03777 256.25052 259.25406
 262.15155 265.04254 267.94644 270.74512 273.27588 275.41736 277.11844 278.48471
 279.66226 280.70679 281.61368 282.42953 283.21930 284.08563 284.95392 285.76849
 286.52374 287.19632 287.78384 288.53259
 366.78100 356.34793 345.79286 334.67179 323.08772 311.29465 299.17758 286.99350
 274.71843 262.62836 250.65029 239.96422 230.09915 221.21608 213.41101 206.42594
 200.27287 195.22380 191.81873 189.87366 188.92359 189.00051 189.84844 191.16937
 192.90730 195.01523 197.29116 199.66309 202.12102 204.61395 206.71488 208.56981
 210.20874 211.36667 211.60860 211.84952 211.79945 211.51738 211.16331 210.80624
 210.43617 210.15910 209.98003 209.85696 209.79789 210.14182 210.54075 210.94268
 211.74861 212.93953 214.20246 215.99839 217.93932 219.99525 222.10318 224.19911
 226.27204 228.36897 230.47890 232.59783 234.73976 236.92469 239.19362 241.57654
 244.21047 246.47440 248.48933 250.26726 251.69719 252.83312 253.66805 253.99698
 254.04691 253.83384 253.20677 252.16770 250.78663 248.96055 246.88248 244.72841
 242.53234 240.34927 238.18220 236.03413 233.90706 231.78699 229.82592 227.99585
 226.29178 224.77671 223.41964 222.20456 221.09949 220.07242 219.18935 218.34328
 217.59821 216.79114 215.90207 215.27900 214.74193 214.99834 215.60452 216.17125
 216.40514 215.95413 215.10519 214.51593 216.16214 219.96944 224.43208 227.72145
 231.49463 235.99898 240.89180 245.51205 249.59726 253.16571 256.38681 259.37399
 262.21548 265.03769 267.89355 270.67252 273.19830 275.31879 276.97522 278.31400
 279.51126 280.59293 281.51736 282.29803 283.00452 283.77734 284.59192 285.28290
 285.99048 286.66055 287.24594 287.99194
 366.78100 356.34779 345.79259 334.67138 323.08718 311.29397 299.17676 286.99256
 274.71735 262.62714 250.64894 239.96273 230.09753 221.21432 213.40911 206.42391
 200.27070 195.22149 191.81629 189.87108 188.92088 188.99767 189.84546 191.16626
 192.90405 195.01184 197.28764 199.65943 202.11723 204.61002 206.71081 208.56561
 210.20440 211.36219 211.60399 211.84478 211.79458 211.51237 211.15816 210.80096
 210.43075 210.15355 209.97434 209.85113 209.79193 210.13572 210.53451 210.93631
 211.74210 212.93290 214.19569 215.99148 217.93228 219.98807 222.09586 224.19166
 226.26445 228.36125 230.47104 232.58983 234.73163 236.91642 239.18521 241.56801
 244.20180 246.46560 248.48039 250.25818 251.68798 252.82377 253.65856 253.98736
 254.03715 253.82395 253.19674 252.15753 250.77633 248.95012 246.87192 244.71771
 242.52150 240.33830 238.17109 236.02288 233.89568 231.77547 229.81427 227.98406
 226.27985 224.76465 223.40744 222.19223 221.08703 220.05982 219.17662 218.33041
 217.58520 216.77800 215.88879 215.26558 214.72838 214.98778 215.60062 216.12950
 216.38284 216.01775 215.17140 214.51595 216.09315 219.90506 224.32521 227.61195
 231.44243 236.00060 240.93071 245.56853 249.66267 253.24236 256.47787 259.46970
 262.28705 265.06729 267.88831 270.65784 273.21356 275.38123 277.04221 278.35574
 279.55197 280.64407 281.55707 282.26645 282.90115 283.62183 284.39597 285.01218
 285.64191 286.26340 286.80634 287.49823
 366.78100 356.34782 345.79265 334.67147 323.08729 311.29412 299.17694 286.99276
 274.71758 262.62741 250.64923 239.96305 230.09788 221.21470 213.40952 206.42435
 200.27117 195.22199 191.81682 189.87164 188.92146 188.99828 189.84611 191.16693
 192.90475 195.01258 197.28840 199.66022 202.11805 204.61087 206.71169 208.56652
 210.20534 211.36316 211.60498 211.84581 211.79563 211.51345 211.15928 210.80210
 210.43192 210.15475 209.97557 209.85239 209.79322 210.13704 210.53586 210.93768
 211.74351 212.93433 214.19715 215.99298 217.93380 219.98962 222.09745 224.19327
 226.26609 228.36292 230.47274 232.59156 234.73338 236.91821 239.18703 241.56985
 244.20368 246.46750 248.48232 250.26015 251.68997 252.82579 253.66062 253.98944
 254.03926 253.82608 253.19891 252.15973 250.77855 248.95238 246.87420 244.72002
 242.52385 240.34067 238.17349 236.02532 233.89814 231.77796 229.81678 227.98661
 226.28243 224.76725 223.41008 222.19490 221.08972 220.06255 219.17937 218.33319
 217.58802 216.78084 215.89166 215.26848 214.73131 214.98409 215.58130 216.14925
 216.37730 216.02945 215.22263 214.57158 216.10081 219.88074 224.22675 227.49292
 231.39110 235.99489 240.95317 245.58797 249.66672 253.24446 256.48502 259.47601
 262.27777 265.03571 267.83664 270.61115 273.21597 275.46402 277.16589 278.48203
 279.68250 280.77643 281.64984 282.29233 282.85953 283.52667 284.30020 284.88257
 285.41290 286.03107 286.57877 287.27673
 366.78100 356.34752 345.79204 334.67056 323.08608 311.29260 299.17512 286.99065
 274.71517 262.62469 250.64621 239.95973 230.09425 221.21077 213.40529 206.41981
 200.26633 195.21685 191.81137 189.86590 188.91542 188.99194 189.83946 191.15998
 192.89750 195.00502 197.28054 199.65206 202.10958 204.60210 206.70262 208.55714
 210.19567 211.35319 211.59471 211.83523 211.78475 211.50227 211.14779 210.79031
 210.41983 210.14235 209.96287 209.83939 209.77992 210.12344 210.52196 210.92348
 211.72900 212.91952 214.18204 215.97756 217.91808 219.97360 222.08112 224.17664
 226.24916 228.34569 230.45521 232.57373 234.71525 236.89977 239.16829 241.55081
 244.18433 246.44785 248.46237 250.23989 251.66941 252.80494 253.63946 253.96798
 254.01750 253.80402 253.17654 252.13706 250.75558 248.92910 246.85062 244.69614
 242.49966 240.31619 238.14871 236.00023 233.87275 231.75227 229.79079 227.96031
 226.25583 224.74035 223.38287 222.16739 221.06191 220.03443 219.15096 218.30448
 217.55900 216.75152 215.86204 215.23856 214.70108 214.96571 215.59096 216.12645
 216.42848 216.05426 215.24406 214.60368 216.10321 219.79814 224.10619 227.40494
 231.34567 235.99138 240.96738 245.59340 249.65727 253.24847 256.50986 259.50598
 262.28641 265.00174 267.76398 270.53397 273.18735 275.52438 277.27368 278.59824
 279.80905 280.90933 281.75369 282.33203 282.84192 283.43137 284.14514 284.73218
 285.21527 285.76285 286.25647 286.88550
 366.78100 356.34692 345.79085 334.66877 323.08370 311.28962 299.17154 286.98647
 274.71039 262.61932 250.64024 239.95316 230.08709 221.20301 213.39694 206.41086
 200.25678 195.20671 191.80063 189.85456 188.90348 188.97940 189.82633 191.14625
 192.88318 194.99010 197.26502 199.63595 202.09287 204.58480 206.68472 208.53864
 210.17657 211.33349 211.57442 211.81434 211.76327 211.48019 211.12511 210.76704
 210.39596 210.11789 209.93781 209.81373 209.75366 210.09658 210.49451 210.89543
 211.70035 212.89028 214.15220 215.94713 217.88705 219.94197 222.04890 224.14382
 226.21575 228.31167 230.42059 232.53852 234.67944 236.86337 239.13129 241.51321
 244.14614 246.40906 248.42299 250.19991 251.62883 252.76376 253.59768 253.92561
 253.97453 253.76045 253.13238 252.09230 250.71023 248.88315 246.80407 244.64900
 242.45192 240.26785 238.09977 235.95069 233.82262 231.70154 229.73947 227.90839
 226.20331 224.68724 223.32916 222.11309 221.00701 219.97893 219.09486 218.24778
 217.50171 216.69363 215.80356 215.17948 214.64140 214.93413 215.62570 216.07808
 216.46733 216.08127 215.24745 214.62294 216.10664 219.71436 223.99947 227.37843
 231.31735 235.99356 240.98294 245.59604 249.65323 253.26791 256.56027 259.56583
 262.32446 264.98477 267.68237 270.42563 273.12381 275.55991 277.36478 278.71051
 279.95154 281.06909 281.90482 282.44312 282.90762 283.41443 284.02103 284.63248
 285.15231 285.65289 286.08701 286.64026
 366.78100 356.34637 345.78975 334.66712 323.08150 311.28687 299.16825 286.98262
 274.70600 262.61437 250.63474 239.94712 230.08049 221.19587 213.38924 206.40262
 200.24799 195.19736 191.79074 189.84411 188.89249 188.96786 189.81424 191.13361
 192.86999 194.97636 197.25073 199.62111 202.07748 204.56886 206.66823 208.52161
 210.15898 211.31536 211.55573 211.79510 211.74348 211.45985 211.10423 210.74560
 210.37398 210.09535 209.91473 209.79010 209.72947 210.07185 210.46922 210.86960
 211.67397 212.86335 214.12472 215.91909 217.85847 219.91284 222.01922 224.11359
 226.18497 228.28034 230.38872 232.50609 234.64646 236.82984 239.09721 241.47859
 244.11096 246.37334 248.38671 250.16309 251.59146 252.72583 253.55921 253.88658
 253.93496 253.72033 253.09171 252.05108 250.66846 248.84083 246.76120 244.60558
 242.40795 240.22333 238.05470 235.90508 233.77645 231.65482 229.69220 227.86057
 226.15495 224.63832 223.27970 222.06307 220.95645 219.92782 219.04319 218.19557
 217.44894 216.64032 215.74969 215.12507 214.58644 214.90558 215.65958 216.05653
 216.46758 216.10175 215.24294 214.61575 216.09557 219.64204 223.91391 227.36040
 231.30019 235.99905 240.99847 245.59702 249.65198 253.28850 256.61038 259.62674
 262.36832 264.97247 267.58511 270.28671 273.03006 275.55872 277.41345 278.77603
 280.05276 281.18591 282.01666 282.52591 282.94946 283.40518 283.96399 284.57159
 285.10587 285.57169 285.95718 286.44846
 366.78100 356.34556 345.78811 334.66467 323.07822 311.28278 299.16333 286.97689
 274.69944 262.60700 250.62656 239.93811 230.07067 221.18522 213.37778 206.39033
 200.23489 195.18345 191.77600 189.82856 188.87611 188.95067 189.79622 191.11478
 192.85033 194.95589 197.22945 199.59900 202.05456 204.54511 206.64367 208.49622
 210.13278 211.28834 211.52789 211.76645 211.71400 211.42956 211.07311 210.71367
 210.34122 210.06178 209.88034 209.75489 209.69345 210.03500 210.43156 210.83111
 211.63467 212.82323 214.08378 215.87734 217.81589 219.86945 221.97500 224.06856
 226.13911 228.23367 230.34123 232.45778 234.59734 236.77989 239.04645 241.42700
 244.05856 246.32012 248.33267 250.10823 251.53578 252.66934 253.50189 253.82845
 253.87600 253.66056 253.03112 251.98967 250.60623 248.77778 246.69734 244.54089
 242.34245 240.15701 237.98756 235.83712 233.70767 231.58523 229.62178 227.78934
 226.08289 224.56545 223.20601 221.98856 220.88112 219.85167 218.96623 218.11778
 217.37034 216.56090 215.66945 215.04401 214.50456 214.86382 215.71262 216.05511
 216.42191 216.09645 215.24333 214.59891 216.07426 219.56857 223.81657 227.33534
 231.28831 236.00932 241.00851 245.58687 249.64519 253.31123 256.66864 259.70493
 262.44867 265.00171 267.51227 270.13287 272.89755 275.52930 277.43539 278.83154
 280.15872 281.29956 282.09058 282.54660 282.94489 283.36804 283.88126 284.47824
 285.04044 285.54120 285.93192 286.42981
 366.78100 356.34500 345.78700 334.66301 323.07601 311.28001 299.16001 286.97302
 274.69502 262.60202 250.62102 239.93203 230.06403 221.17803 213.37003 206.38204
 200.22604 195.17404 191.76604 189.81804 188.86505 188.93905 189.78405 191.10205
 192.83706 194.94206 197.21506 199.58406 202.03907 204.52907 206.62707 208.47907
 210.11507 211.27008 211.50908 211.74708 211.69408 211.40909 211.05209 210.69209
 210.31909 210.03910 209.85710 209.73110 209.66910 210.01011 210.40611 210.80511
 211.60811 212.79611 214.05612 215.84912 217.78712 219.84012 221.94513 224.03813
 226.10813 228.20213 230.30914 232.42514 234.56414 236.74614 239.01215 241.39215
 244.02315 246.28415 248.29615 250.07116 251.49816 252.63116 253.46316 253.78917
 253.83617 253.62017 252.99017 251.94818 250.56418 248.73518 246.65418 244.49718
 242.29819 240.11219 237.94219 235.79119 233.66120 231.53820 229.57420 227.74120
 226.03421 224.51621 223.15621 221.93821 220.83022 219.80022 218.91422 218.06522
 217.31722 216.50723 215.61523 214.98923 214.44923 214.83453 215.74484 216.11012
 216.35942 216.03908 215.19942 214.54214 216.03281 219.51553 223.76134 227.32149
 231.28397 236.01607 241.02214 245.59897 249.66624 253.35364 256.73477 259.78622
 262.53815 265.06790 267.50378 270.02817 272.76212 275.47577 277.45132 278.87115
 280.21689 281.36487 282.14435 282.58466 282.93884 283.31400 283.79596 284.37997
 284.94464 285.44437 285.82217 286.30362
 366.78100 356.34485 345.78670 334.66255 323.07540 311.27925 299.15910 286.97196
 274.69381 262.60066 250.61951 239.93036 230.06221 221.17606 213.36791 206.37976
 200.22361 195.17146 191.76331 189.81517 188.86202 188.93587 189.78072 191.09857
 192.83342 194.93827 197.21112 199.57997 202.03482 204.52467 206.62252 208.47438
 210.11023 211.26508 211.50393 211.74178 211.68863 211.40348 211.04633 210.68618
 210.31303 210.03288 209.85073 209.72459 209.66244 210.00329 210.39914 210.79799
 211.60084 212.78869 214.04854 215.84139 217.77924 219.83209 221.93694 224.02980
 226.09965 228.19350 230.30035 232.41620 234.55505 236.73690 239.00275 241.38260
 244.01345 246.27430 248.28615 250.06100 251.48786 252.62071 253.45256 253.77841
 253.82526 253.60911 252.97896 251.93681 250.55266 248.72351 246.64236 244.48521
 242.28607 240.09992 237.92977 235.77862 233.64847 231.52532 229.56117 227.72802
 226.02087 224.50272 223.14257 221.92442 220.81628 219.78613 218.89998 218.05083
 217.30268 216.49253 215.60038 214.97423 214.43408 214.82663 215.75404 216.17732
 216.37039 215.88148 215.08636 214.50699 216.03413 219.46576 223.66751 227.34088
 231.30421 236.04608 241.02901 245.59288 249.67236 253.40338 256.83237 259.91257
 262.68076 265.16098 267.46771 269.84717 272.57663 275.42410 277.47046 278.93478
 280.35327 281.47760 282.11755 282.37546 282.67737 283.09482 283.61560 284.19281
 284.73505 285.19507 285.58551 286.08304
 354.97500 345.04800 334.58700 324.11500 313.32600 302.53700 291.65000 280.76700
 269.93100 259.19300 248.62200 238.61700 229.08700 220.35500 212.54000 205.53500
 199.46400 194.49300 191.14300 189.19000 188.08900 188.01400 188.72400 189.90600
 191.46900 193.38200 195.40300 197.55600 199.80700 202.06000 204.28800 206.47900
 208.55200 210.37800 212.02500 213.65900 214.99800 216.11800 217.17200 218.25900
 219.49400 220.64500 221.67900 222.61400 223.54500 224.98200 226.57100 228.19000
 229.79700 231.81100 233.86500 235.97200 238.24200 240.55300 242.89900 245.25300
 247.48800 249.53500 251.36600 252.84800 254.09800 255.16700 256.02700 256.25300
 256.09500 255.54300 253.93500 252.56600 251.38400 250.24500 249.05200 247.70100
 246.01600 243.99600 241.78400 239.39300 236.81300 234.22300 231.65800 229.14400
 226.74000 224.47300 222.33500 220.32500 218.44000 216.67700 214.96200 213.47200
 212.20000 211.10800 210.26000 209.63900 209.24400 209.03100 209.05800 209.33300
 209.78400 210.62600 211.33100 212.39100 213.62500 214.84668 217.72949 219.47640
 220.32566 220.86828 220.88710 220.27371 219.43733 218.84250 219.04934 220.86203
 222.60583 225.72206 229.03064 232.61777 236.12270 239.51333 242.70767 245.68587
 248.41061 250.90679 253.19353 254.91714 256.48655 257.94920 259.39966 260.69384
 261.81714 262.77997 263.71679 264.54570 265.26305 265.89772 266.47676 267.00133
 267.47312 267.89325 268.26027 268.72800
