|-------------------------------------------------------------------------|
|   File Name : in_temp.dat
|   Subject   : temperature profiles used for initial guess atmosphere
|   File Type : input of gmtr
|   Data Type : atmospherical data
|   Author/s  : WRF-Chem
|   Date      : Fri Jul 26 15:39:24 2024
|-------------------------------------------------------------------------|

 WRF-Chem temperature
#
 values of T (K)    (8f10.5)
#
 354.97500 345.04800 334.58700 324.11500 313.32600 302.53700 291.65000 280.76700
 269.93100 259.19300 248.62200 238.61700 229.08700 220.35500 212.54000 205.53500
 199.46400 194.49300 191.14300 189.19000 188.08900 188.01400 188.72400 189.90600
 191.46900 193.38200 195.40300 197.55600 199.80700 202.06000 204.28800 206.47900
 208.55200 210.37800 212.02500 213.65900 214.99800 216.11800 217.17200 218.25900
 219.49400 220.64500 221.67900 222.61400 223.54500 224.98200 226.57100 228.19000
 229.79700 231.81100 233.86500 235.97200 238.24200 240.55300 242.89900 245.25300
 247.48800 249.53500 251.36600 252.84800 254.09800 255.16700 256.02700 256.25300
 256.09500 255.54300 253.93500 252.56600 251.38400 250.24500 249.05200 247.70100
 246.01600 243.99600 241.78400 239.39300 236.81300 234.22300 231.65800 229.14400
 226.74000 224.47300 222.33500 220.32500 218.44000 216.67700 214.96200 213.47200
 212.20000 211.10800 210.26000 209.63900 209.24400 209.03100 209.05800 209.33300
 209.78400 210.62600 211.33100 212.39100 213.62500 214.84668 217.72949 219.47640
 220.32566 220.86828 220.88710 220.27371 219.43733 218.84250 219.04934 220.86203
 222.60583 225.72206 229.03064 232.61777 236.12270 239.51333 242.70767 245.68587
 248.41061 250.90679 253.19353 254.91714 256.48655 257.94920 259.39966 260.69384
 261.81714 262.77997 263.71679 264.54570 265.26305 265.89772 266.47676 267.00133
 267.47312 267.89325 268.26027 268.72800
 366.78100 356.33500 345.76700 334.63300 323.03600 311.23000 299.10000 286.90300
 274.61500 262.51200 250.52100 239.82200 229.94400 221.04800 213.23000 206.23200
 200.06600 195.00400 191.58600 189.62800 188.66500 188.72900 189.56400 190.87200
 192.59700 194.69200 196.95500 199.31400 201.75900 204.23900 206.32700 208.16900
 209.79500 210.94000 211.16900 211.39700 211.33400 211.03900 210.67200 210.30200
 209.91900 209.62900 209.43700 209.30100 209.22900 209.56000 209.94600 210.33500
 211.12800 212.30600 213.55600 215.33900 217.26700 219.31000 221.40500 223.48800
 225.54800 227.63200 229.72900 231.83500 233.96400 236.13600 238.39200 240.76200
 243.38300 245.63400 247.63600 249.40100 250.81800 251.94100 252.76300 253.07900
 253.11600 252.89000 252.25000 251.19800 249.80400 247.96500 245.87400 243.70700
 241.49800 239.30200 237.12200 234.96100 232.82100 230.68800 228.71400 226.87100
 225.15400 223.62600 222.25600 221.02800 219.91000 218.87000 217.97400 217.11500
 216.35700 215.53700 214.63500 213.99900 213.44900 212.85855 212.01316 212.61654
 214.26826 216.08686 218.14273 220.53346 223.40855 226.78828 231.49734 235.90155
 239.42278 243.28576 247.23140 251.11907 254.80144 258.23331 261.38913 264.27520
 266.89312 269.26852 271.44504 273.08845 274.58484 275.98591 277.39845 278.65879
 279.75272 280.69038 281.56708 282.34086 283.01050 283.60295 284.14348 284.63317
 285.07358 285.46577 285.80838 286.24500
 381.81900 372.39900 361.20600 349.77600 337.62200 324.85300 311.81000 298.35300
 284.86000 271.32400 258.56100 246.30400 236.08700 226.79600 218.44800 211.29000
 205.52200 200.89400 197.38100 194.84800 193.01500 192.31500 192.25000 192.43100
 192.91200 193.53700 194.13600 194.71200 195.26200 195.83100 196.39300 196.97600
 197.60400 198.14900 198.58400 199.05700 199.69500 200.37800 201.05400 201.70800
 202.31300 202.85700 203.35500 203.86200 204.56900 205.29700 206.02600 206.98700
 208.19300 209.44100 210.96900 212.57600 214.46200 216.51300 218.63000 220.85300
 223.34100 225.96200 228.73900 231.69700 234.70600 237.70600 240.69200 243.65700
 246.73700 249.69900 252.52100 255.06300 257.29000 259.23300 260.63300 261.68000
 262.46100 262.79800 262.69100 262.22400 261.06900 259.52500 257.70700 255.50700
 253.00100 250.30200 247.39800 244.45200 241.65400 239.05400 236.73300 234.59000
 232.59500 230.72500 228.83400 226.82600 224.66600 222.38700 220.10400 217.71500
 215.45900 213.06600 210.54600 208.09300 205.35400 202.08130 196.05959 200.71215
 209.01611 216.90438 223.84126 229.78593 235.00632 240.20838 245.98943 250.68668
 254.32982 257.93487 261.55666 264.96801 268.15192 271.06452 273.76717 276.25691
 278.57680 280.74479 282.77456 284.60533 286.27232 287.81705 289.31715 290.65561
 291.81734 292.81312 293.70701 294.49387 295.17482 295.77730 296.32696 296.82492
 297.27278 297.67160 298.02000 298.46400
 399.33000 389.90700 379.81300 368.66800 357.52200 345.30100 333.07400 320.22700
 307.21600 293.84800 280.37600 267.29600 254.61000 242.98700 232.15100 221.97700
 212.67200 204.28600 197.66900 192.82100 189.48600 187.45200 186.81400 187.08900
 187.78100 189.05400 190.64800 192.54200 194.63000 196.75200 198.67100 200.15800
 201.53500 202.48700 202.97500 203.34000 203.53900 203.49700 203.38500 203.24700
 203.00500 202.78600 202.60300 202.43700 202.42600 202.88800 203.42000 203.95100
 204.89500 205.99200 207.30100 208.95800 210.73800 213.10000 215.56400 218.18000
 220.96600 223.91800 226.96100 230.09200 233.29300 236.55700 239.95500 243.53700
 246.84500 249.39000 251.54200 253.47400 255.19500 256.48400 257.43100 258.05900
 258.21200 258.04000 257.58200 256.64300 255.23900 253.50700 251.40800 249.05600
 246.57600 243.99400 241.38900 238.83000 236.34400 233.98600 231.96900 230.11800
 228.42300 226.89900 225.54800 224.29700 223.10500 221.96500 220.95800 220.11300
 219.49000 218.92000 218.32500 217.88100 217.42300 216.96366 216.35568 216.80261
 217.73415 218.28582 218.64258 219.10077 220.44626 222.53987 226.38451 230.35736
 233.59734 237.39164 241.29814 245.22796 248.98002 252.51130 255.78595 258.80109
 261.54781 264.05210 266.34239 268.04198 269.58951 271.01303 272.35754 273.55718
 274.59842 275.49092 276.28989 276.99307 277.60161 278.14001 278.63122 279.07623
 279.47646 279.83287 280.14422 280.54100
 399.73800 389.78500 379.66200 368.15100 356.64100 344.35000 331.79200 318.88800
 305.72600 292.49300 279.20900 266.73800 254.69600 244.21100 234.45700 225.43300
 217.56900 210.45100 204.30000 199.30600 195.45800 192.57600 191.02700 190.38600
 190.23900 190.53400 191.16600 191.92500 192.79500 193.76600 194.73200 195.31200
 195.80000 196.05200 196.11500 196.11500 196.03900 195.72300 195.34000 194.98900
 194.75100 194.79200 195.13300 195.59800 196.50600 198.13600 199.85800 201.56600
 204.17900 206.82300 209.89300 213.28400 216.82800 220.60500 224.38700 228.20900
 232.03200 235.82500 239.56000 243.25800 246.84500 250.20100 253.70900 257.46800
 261.53000 264.22100 266.60100 268.68100 270.32900 271.74100 272.83600 273.47400
 273.89800 274.00200 273.75700 273.28800 272.37100 271.10000 269.58900 267.77900
 265.81600 263.72100 261.39300 258.91600 256.29800 253.42300 250.33100 247.11400
 243.83700 240.52900 237.24900 233.99900 230.72800 227.51500 224.25400 220.95200
 217.62700 213.65600 210.12100 206.78900 204.01000 201.99491 199.07309 198.76551
 199.40006 200.48994 201.46112 202.31912 203.45100 204.96110 207.47502 210.85391
 213.70530 217.29629 220.99574 224.72316 228.28753 231.64854 234.68024 237.40893
 239.70644 241.60899 243.46854 245.67368 247.68154 249.52395 251.24767 252.78566
 254.12057 255.26479 256.23740 257.09036 257.82852 258.48160 259.07744 259.61723
 260.10271 260.53504 260.91270 261.39400
 399.73800 389.78500 379.66200 368.15100 356.64100 344.35000 331.79200 318.88800
 305.72600 292.49300 279.20900 266.73800 254.69600 244.21100 234.45700 225.43300
 217.56900 210.45100 204.30000 199.30600 195.45800 192.57600 191.02700 190.38600
 190.23900 190.53400 191.16600 191.92500 192.79500 193.76600 194.73200 195.31200
 195.80000 196.05200 196.11500 196.11500 196.03900 195.72300 195.34000 194.98900
 194.75100 194.79200 195.13300 195.59800 196.50600 198.13600 199.85800 201.56600
 204.17900 206.82300 209.89300 213.28400 216.82800 220.60500 224.38700 228.20900
 232.03200 235.82500 239.56000 243.25800 246.84500 250.20100 253.70900 257.46800
 261.53000 264.22100 266.60100 268.68100 270.32900 271.74100 272.83600 273.47400
 273.89800 274.00200 273.75700 273.28800 272.37100 271.10000 269.58900 267.77900
 265.81600 263.72100 261.39300 258.91600 256.29800 253.42300 250.33100 247.11400
 243.83700 240.52900 237.24900 233.99900 230.72800 227.51500 224.25400 220.95200
 217.62700 213.65600 210.12100 206.78900 204.01000 201.99491 199.07309 198.76551
 199.40006 200.48994 201.46112 202.31912 203.45100 204.96110 207.47502 210.85391
 213.70530 217.29629 220.99574 224.72316 228.28753 231.64854 234.68024 237.40893
 239.70644 241.60899 243.46854 245.67368 247.68154 249.52395 251.24767 252.78566
 254.12057 255.26479 256.23740 257.09036 257.82852 258.48160 259.07744 259.61723
 260.10271 260.53504 260.91270 261.39400
 399.33000 389.90700 379.81300 368.66800 357.52200 345.30100 333.07400 320.22700
 307.21600 293.84800 280.37600 267.29600 254.61000 242.98700 232.15100 221.97700
 212.67200 204.28600 197.66900 192.82100 189.48600 187.45200 186.81400 187.08900
 187.78100 189.05400 190.64800 192.54200 194.63000 196.75200 198.67100 200.15800
 201.53500 202.48700 202.97500 203.34000 203.53900 203.49700 203.38500 203.24700
 203.00500 202.78600 202.60300 202.43700 202.42600 202.88800 203.42000 203.95100
 204.89500 205.99200 207.30100 208.95800 210.73800 213.10000 215.56400 218.18000
 220.96600 223.91800 226.96100 230.09200 233.29300 236.55700 239.95500 243.53700
 246.84500 249.39000 251.54200 253.47400 255.19500 256.48400 257.43100 258.05900
 258.21200 258.04000 257.58200 256.64300 255.23900 253.50700 251.40800 249.05600
 246.57600 243.99400 241.38900 238.83000 236.34400 233.98600 231.96900 230.11800
 228.42300 226.89900 225.54800 224.29700 223.10500 221.96500 220.95800 220.11300
 219.49000 218.92000 218.32500 217.88100 217.42300 216.96366 216.35568 216.80261
 217.73415 218.28582 218.64258 219.10077 220.44626 222.53987 226.38451 230.35736
 233.59734 237.39164 241.29814 245.22796 248.98002 252.51130 255.78595 258.80109
 261.54781 264.05210 266.34239 268.04198 269.58951 271.01303 272.35754 273.55718
 274.59842 275.49092 276.28989 276.99307 277.60161 278.14001 278.63122 279.07623
 279.47646 279.83287 280.14422 280.54100
 381.81900 372.39900 361.20600 349.77600 337.62200 324.85300 311.81000 298.35300
 284.86000 271.32400 258.56100 246.30400 236.08700 226.79600 218.44800 211.29000
 205.52200 200.89400 197.38100 194.84800 193.01500 192.31500 192.25000 192.43100
 192.91200 193.53700 194.13600 194.71200 195.26200 195.83100 196.39300 196.97600
 197.60400 198.14900 198.58400 199.05700 199.69500 200.37800 201.05400 201.70800
 202.31300 202.85700 203.35500 203.86200 204.56900 205.29700 206.02600 206.98700
 208.19300 209.44100 210.96900 212.57600 214.46200 216.51300 218.63000 220.85300
 223.34100 225.96200 228.73900 231.69700 234.70600 237.70600 240.69200 243.65700
 246.73700 249.69900 252.52100 255.06300 257.29000 259.23300 260.63300 261.68000
 262.46100 262.79800 262.69100 262.22400 261.06900 259.52500 257.70700 255.50700
 253.00100 250.30200 247.39800 244.45200 241.65400 239.05400 236.73300 234.59000
 232.59500 230.72500 228.83400 226.82600 224.66600 222.38700 220.10400 217.71500
 215.45900 213.06600 210.54600 208.09300 205.35400 202.08130 196.05959 200.71215
 209.01611 216.90438 223.84126 229.78593 235.00632 240.20838 245.98943 250.68668
 254.32982 257.93487 261.55666 264.96801 268.15192 271.06452 273.76717 276.25691
 278.57680 280.74479 282.77456 284.60533 286.27232 287.81705 289.31715 290.65561
 291.81734 292.81312 293.70701 294.49387 295.17482 295.77730 296.32696 296.82492
 297.27278 297.67160 298.02000 298.46400
 366.78100 356.32831 345.75362 334.61293 323.00924 311.19655 299.05986 286.85618
 274.56149 262.45180 250.45411 239.74842 229.86373 220.96104 213.13635 206.13166
 199.95897 194.89028 191.46559 189.50090 188.53122 188.58853 189.41684 190.71815
 192.43646 194.52477 196.78108 199.13339 201.57170 204.04501 206.12632 207.96163
 209.58094 210.71925 210.94157 211.16288 211.09319 210.79150 210.41781 210.04112
 209.65143 209.35474 209.15605 209.01336 208.93467 209.25898 209.63829 210.02061
 210.80692 211.97823 213.22154 214.99785 216.91916 218.95547 221.04378 223.12009
 225.17340 227.25071 229.34102 231.44033 233.56265 235.72796 237.97727 240.34058
 242.95489 245.19920 247.19451 248.95282 250.36313 251.47944 252.29475 252.60406
 252.63437 252.40168 251.75500 250.69631 249.29562 247.44993 245.35224 243.17855
 240.96286 238.76017 236.57348 234.40579 232.25910 230.11941 228.13872 226.28904
 224.56535 223.03066 221.65397 220.41928 219.29459 218.24790 217.34521 216.47952
 215.71483 214.88814 213.97945 213.33676 212.78008 212.60439 212.19839 213.24506
 215.22627 217.50108 218.89072 219.09425 220.25433 223.40190 228.33388 232.87404
 236.65428 240.48093 244.17221 247.65616 250.92336 253.70273 255.99649 258.27228
 261.40030 264.39127 266.69470 268.48880 270.22580 272.07419 273.88943 275.51151
 276.87329 278.16272 279.49051 280.83234 282.01773 283.06992 284.03485 284.91647
 285.71823 286.43851 287.07932 287.93692
 366.78100 356.32857 345.75414 334.61371 323.01029 311.19786 299.06143 286.85800
 274.56357 262.45414 250.45671 239.75129 229.86686 220.96443 213.14000 206.13557
 199.96314 194.89471 191.47028 189.50586 188.53643 188.59400 189.42257 190.72414
 192.44271 194.53128 196.78786 199.14043 201.57900 204.05257 206.13414 207.96971
 209.58928 210.72786 210.95043 211.17200 211.10257 210.80114 210.42771 210.05128
 209.66185 209.36543 209.16700 209.02457 208.94614 209.27071 209.65028 210.03285
 210.81943 211.99100 213.23457 215.01114 216.93271 218.96928 221.05785 223.13443
 225.18800 227.26557 229.35614 231.45571 233.57828 235.74385 237.99342 240.35700
 242.97157 245.21614 247.21171 248.97028 250.38085 251.49742 252.31300 252.62257
 252.65314 252.42071 251.77428 250.71585 249.31542 247.47000 245.37257 243.19914
 240.98371 238.78128 236.59485 234.42742 232.28100 230.14157 228.16114 226.31171
 224.58828 223.05385 221.67742 220.44299 219.31857 218.27214 217.36971 216.50428
 215.73985 214.91342 214.00499 213.36257 212.80614 212.65277 212.29819 213.36752
 215.29399 217.55409 219.05077 219.34044 220.42540 223.44261 228.26479 232.73402
 236.47067 240.29387 244.00562 247.48489 250.70522 253.44745 255.77501 258.13602
 261.25119 264.21973 266.53253 268.34418 270.07343 271.89935 273.70956 275.35553
 276.76117 278.09253 279.43304 280.77768 281.96408 283.01678 283.98206 284.86407
 285.66449 286.38565 287.02454 287.87952
 366.78100 356.32875 345.75451 334.61426 323.01101 311.19877 299.06252 286.85927
 274.56503 262.45578 250.45853 239.75329 229.86904 220.96679 213.14255 206.13830
 199.96605 194.89781 191.47356 189.50931 188.54007 188.59782 189.42657 190.72832
 192.44708 194.53583 196.79258 199.14534 201.58409 204.05784 206.13960 207.97535
 209.59510 210.73386 210.95661 211.17836 211.10912 210.80787 210.43462 210.05838
 209.66913 209.37288 209.17464 209.03239 208.95414 209.27890 209.65865 210.04140
 210.82816 211.99991 213.24366 215.02042 216.94217 218.97892 221.06768 223.14443
 225.19818 227.27594 229.36669 231.46644 233.58920 235.75495 238.00470 240.36846
 242.98321 245.22796 247.22371 248.98247 250.39322 251.50997 252.32573 252.63548
 252.66623 252.43399 251.78774 250.72949 249.32925 247.48400 245.38675 243.21351
 240.99826 238.79601 236.60977 234.44252 232.29627 230.15703 228.17678 226.32753
 224.60429 223.07004 221.69379 220.45955 219.33530 218.28905 217.38681 216.52156
 215.75731 214.93107 214.02282 213.38057 212.82433 212.69839 212.40718 213.49310
 215.35042 217.61911 219.19022 219.58980 220.61299 223.49590 228.20479 232.57388
 236.27911 240.11392 243.83876 247.29852 250.46936 253.18503 255.55522 257.99991
 261.10089 264.04462 266.36789 268.20190 269.93143 271.73883 273.54190 275.20782
 276.65610 278.02695 279.38416 280.73019 281.91650 282.97021 283.93509 284.81570
 285.61478 286.33768 286.97501 287.82907
 366.78100 356.32878 345.75457 334.61435 323.01113 311.19891 299.06270 286.85948
 274.56526 262.45604 250.45883 239.75361 229.86939 220.96718 213.14296 206.13874
 199.96652 194.89831 191.47409 189.50987 188.54065 188.59844 189.42722 190.72900
 192.44778 194.53657 196.79335 199.14613 201.58492 204.05870 206.14048 207.97626
 209.59605 210.73483 210.95761 211.17939 211.11018 210.80896 210.43574 210.05953
 209.67031 209.37409 209.17587 209.03366 208.95544 209.28022 209.66000 210.04279
 210.82957 212.00135 213.24514 215.02192 216.94370 218.98048 221.06927 223.14605
 225.19983 227.27761 229.36840 231.46818 233.59096 235.75675 238.00653 240.37031
 242.98509 245.22988 247.22566 248.98444 250.39522 251.51201 252.32779 252.63757
 252.66835 252.43614 251.78992 250.73170 249.33149 247.48627 245.38905 243.21583
 241.00062 238.79840 236.61218 234.44496 232.29875 230.15953 228.17931 226.33010
 224.60688 223.07266 221.69644 220.46223 219.33801 218.29179 217.38957 216.52436
 215.76014 214.93392 214.02571 213.38349 212.82727 212.73778 212.53117 213.60825
 215.40739 217.69008 219.33163 219.82372 220.80513 223.55821 228.15022 232.41562
 236.08817 239.93309 243.65947 247.09454 250.22060 252.91821 255.33481 257.86270
 260.94986 263.86896 266.20267 268.06079 269.79706 271.59229 273.38931 275.07120
 276.56000 277.96417 279.33929 280.68658 281.87396 282.92654 283.89160 284.77219
 285.57211 286.29251 286.93127 287.78610
 366.78100 356.32890 345.75481 334.61471 323.01161 311.19952 299.06342 286.86032
 274.56623 262.45713 250.46003 239.75494 229.87084 220.96874 213.14465 206.14055
 199.96845 194.90036 191.47626 189.51216 188.54306 188.60097 189.42987 190.73177
 192.45068 194.53958 196.79648 199.14939 201.58829 204.06219 206.14410 207.98000
 209.59990 210.73881 210.96171 211.18361 211.11452 210.81342 210.44032 210.06423
 209.67513 209.37903 209.18094 209.03884 208.96074 209.28565 209.66555 210.04845
 210.83536 212.00726 213.25116 215.02807 216.94997 218.98687 221.07578 223.15268
 225.20658 227.28449 229.37539 231.47529 233.59819 235.76410 238.01400 240.37790
 242.99281 245.23771 247.23361 248.99252 250.40342 251.52032 252.33623 252.64613
 252.67703 252.44494 251.79884 250.74074 249.34065 247.49555 245.39845 243.22536
 241.01026 238.80816 236.62207 234.45497 232.30887 230.16978 228.18968 226.34058
 224.61749 223.08339 221.70729 220.47320 219.34910 218.30300 217.40091 216.53581
 215.77171 214.94562 214.03752 213.39542 212.83932 212.78264 212.65222 213.72589
 215.47258 217.75749 219.47041 220.04245 221.00995 223.63313 228.09787 232.27861
 235.90793 239.74852 243.46155 246.86502 249.95364 252.64456 255.11182 257.72113
 260.79700 263.69281 266.03571 267.92056 269.66977 271.46124 273.25308 274.94818
 276.47253 277.90497 279.29849 280.64871 281.83359 282.88721 283.85254 284.73291
 285.53287 286.25342 286.89243 287.74823
 366.78100 356.32909 345.75519 334.61528 323.01238 311.20047 299.06457 286.86166
 274.56776 262.45885 250.46195 239.75704 229.87314 220.97123 213.14733 206.14342
 199.97152 194.90361 191.47971 189.51580 188.54689 188.60499 189.43408 190.73618
 192.45527 194.54437 196.80146 199.15456 201.59365 204.06775 206.14984 207.98594
 209.60603 210.74513 210.96822 211.19032 211.12141 210.82051 210.44760 210.07170
 209.68279 209.38688 209.18898 209.04707 208.96917 209.29426 209.67436 210.05745
 210.84455 212.01664 213.26074 215.03783 216.95993 218.99702 221.08612 223.16321
 225.21731 227.29540 229.38650 231.48659 233.60968 235.77578 238.02587 240.38997
 243.00506 245.25016 247.24625 249.00535 250.41644 251.53354 252.34963 252.65973
 252.69082 252.45892 251.81301 250.75511 249.35520 247.51030 245.41339 243.24049
 241.02558 238.82367 236.63777 234.47086 232.32496 230.18605 228.20615 226.35724
 224.63434 223.10043 221.72453 220.49062 219.36672 218.32081 217.41891 216.55400
 215.79010 214.96419 214.05629 213.41438 212.85847 212.83124 212.76926 213.85405
 215.54092 217.81509 219.60248 220.25751 221.22729 223.71948 228.05083 232.16017
 235.74454 239.56493 243.24777 246.60699 249.66083 252.35701 254.88403 257.57217
 260.63885 263.51382 265.86606 267.78058 269.55313 271.34869 273.13962 274.84448
 276.39752 277.84769 279.25931 280.61130 281.79749 282.85028 283.81528 284.69547
 285.49591 286.21713 286.85617 287.71277
 366.78100 356.32932 345.75565 334.61597 323.01330 311.20162 299.06594 286.86327
 274.56959 262.46091 250.46424 239.75956 229.87589 220.97421 213.15053 206.14686
 199.97518 194.90750 191.48383 189.52015 188.55148 188.60980 189.43912 190.74145
 192.46077 194.55009 196.80742 199.16074 201.60007 204.07439 206.15671 207.99304
 209.61336 210.75268 210.97601 211.19833 211.12966 210.82898 210.45630 210.08063
 209.69195 209.39628 209.19860 209.05692 208.97925 209.30457 209.68489 210.06822
 210.85554 212.02787 213.27219 215.04951 216.97184 219.00916 221.09848 223.17581
 225.23013 227.30846 229.39978 231.50010 233.62343 235.78975 238.04007 240.40440
 243.01972 245.26505 247.26137 249.02069 250.43202 251.54934 252.36566 252.67599
 252.70731 252.47564 251.82996 250.77228 249.37261 247.52793 245.43125 243.25858
 241.04390 238.84223 236.65655 234.48987 232.34420 230.20552 228.22585 226.37717
 224.65449 223.12082 221.74514 220.51146 219.38779 218.34211 217.44044 216.57576
 215.81208 214.98641 214.07873 213.43705 212.88138 212.88145 212.88297 213.98750
 215.61696 217.87083 219.73094 220.46820 221.43620 223.81192 228.01311 232.04988
 235.59785 239.38799 243.02585 246.32628 249.34492 252.05656 254.65044 257.41412
 260.47473 263.33121 265.69366 267.64319 269.44705 271.25616 273.04645 274.75745
 276.33423 277.79688 279.22302 280.57611 281.76215 282.81522 283.78046 284.66101
 285.46146 286.18265 286.82257 287.68054
 366.78100 356.32971 345.75642 334.61713 323.01484 311.20354 299.06825 286.86596
 274.57267 262.46438 250.46809 239.76380 229.88051 220.97922 213.15592 206.15263
 199.98134 194.91405 191.49076 189.52747 188.55918 188.61789 189.44760 190.75031
 192.47001 194.55972 196.81743 199.17114 201.61085 204.08556 206.16827 208.00498
 209.62569 210.76539 210.98910 211.21181 211.14352 210.84323 210.47094 210.09565
 209.70736 209.41207 209.21477 209.07348 208.99619 209.32190 209.70261 210.08632
 210.87403 212.04674 213.29145 215.06915 216.99186 219.02957 221.11928 223.19699
 225.25170 227.33041 229.42212 231.52283 233.64653 235.81324 238.06395 240.42866
 243.04437 245.29008 247.28679 249.04650 250.45821 251.57592 252.39262 252.70333
 252.73504 252.50375 251.85846 250.80117 249.40188 247.55759 245.46130 243.28900
 241.07471 238.87342 236.68813 234.52184 232.37655 230.23826 228.25897 226.41068
 224.68838 223.15509 221.77980 220.54651 219.42322 218.37793 217.47664 216.61235
 215.84906 215.02376 214.11647 213.47518 212.91989 212.93968 212.98683 214.12312
 215.70282 217.93549 219.85593 220.66202 221.62271 223.90707 227.98672 231.94701
 235.46501 239.22107 242.80173 246.03177 249.01550 251.74838 254.40898 257.24344
 260.30188 263.14505 265.52249 267.51282 269.35461 271.18158 272.96997 274.68173
 276.27661 277.74747 279.19113 280.54669 281.73172 282.78528 283.75067 284.63159
 285.43210 286.15433 286.79459 287.65405
 366.78100 356.33013 345.75725 334.61838 323.01650 311.20563 299.07075 286.86888
 274.57600 262.46813 250.47225 239.76838 229.88551 220.98463 213.16176 206.15888
 199.98801 194.92113 191.49826 189.53538 188.56751 188.62664 189.45676 190.75989
 192.48001 194.57014 196.82826 199.18239 201.62251 204.09764 206.18076 208.01789
 209.63902 210.77914 211.00327 211.22639 211.15852 210.85864 210.48677 210.11189
 209.72402 209.42914 209.23227 209.09140 209.01452 209.34065 209.72177 210.10590
 210.89402 212.06715 213.31227 215.09040 217.01352 219.05165 221.14178 223.21990
 225.27503 227.35415 229.44628 231.54740 233.67153 235.83865 238.08978 240.45491
 243.07103 245.31716 247.31428 249.07441 250.48653 251.60466 252.42178 252.73291
 252.76503 252.53416 251.88929 250.83241 249.43354 247.58966 245.49379 243.32191
 241.10804 238.90716 236.72229 234.55641 232.41154 230.27367 228.29479 226.44692
 224.72504 223.19217 221.81729 220.58442 219.46154 218.41667 217.51579 216.65192
 215.88905 215.06417 214.15730 213.51642 212.96155 212.99936 213.08871 214.25630
 215.79668 218.00575 219.97302 220.83878 221.80576 224.01115 227.97379 231.85890
 235.34703 239.06612 242.57451 245.72203 248.67223 251.42949 254.15424 257.05692
 260.11978 262.95807 265.35703 267.39285 269.27707 271.12405 272.90903 274.61594
 276.22534 277.69720 279.16455 280.52252 281.70819 282.76132 283.72675 284.60788
 285.40906 286.13144 286.77271 287.63382
 366.78100 356.33053 345.75807 334.61960 323.01814 311.20767 299.07320 286.87174
 274.57927 262.47180 250.47634 239.77287 229.89041 220.98994 213.16747 206.16501
 199.99454 194.92807 191.50561 189.54314 188.57568 188.63521 189.46574 190.76928
 192.48981 194.58035 196.83888 199.19341 201.63395 204.10948 206.19301 208.03055
 209.65208 210.79262 211.01715 211.24068 211.17322 210.87375 210.50228 210.12782
 209.74035 209.44589 209.24942 209.10895 209.03249 209.35902 209.74055 210.12509
 210.91362 212.08716 213.33269 215.11122 217.03476 219.07329 221.16383 223.24236
 225.29789 227.37743 229.46996 231.57149 233.69603 235.86356 238.11510 240.48063
 243.09716 245.34370 247.34123 249.10176 250.51430 251.63283 252.45037 252.76190
 252.79443 252.56397 251.91950 250.86304 249.46457 247.62110 245.52564 243.35417
 241.14070 238.94024 236.75577 234.59031 232.44584 230.30837 228.32991 226.48244
 224.76097 223.22851 221.85404 220.62158 219.49911 218.45464 217.55418 216.69071
 215.92825 215.10378 214.19731 213.55685 213.00238 213.05809 213.18970 214.38724
 215.89922 218.07092 220.08867 221.01326 221.99796 224.11621 227.96849 231.78180
 235.23621 238.91515 242.34274 245.40071 248.31491 251.09496 253.88451 256.85779
 259.93610 262.77682 265.20166 267.28409 269.21121 271.08282 272.86230 274.55917
 276.17868 277.64172 279.14240 280.50656 281.69229 282.74539 283.71194 284.59091
 285.39462 286.11633 286.75790 287.62006
 366.78100 356.33074 345.75848 334.62022 323.01896 311.20870 299.07444 286.87318
 274.58092 262.47366 250.47840 239.77514 229.89288 220.99262 213.17036 206.16810
 199.99784 194.93158 191.50932 189.54706 188.57980 188.63954 189.47028 190.77402
 192.49476 194.58550 196.84424 199.19898 201.63972 204.11546 206.19920 208.03694
 209.65868 210.79942 211.02416 211.24790 211.18064 210.88138 210.51012 210.13586
 209.74860 209.45434 209.25808 209.11782 209.04156 209.36830 209.75004 210.13478
 210.92352 212.09726 213.34300 215.12174 217.04548 219.08422 221.17496 223.25370
 225.30944 227.38918 229.48192 231.58366 233.70840 235.87614 238.12788 240.49362
 243.11036 245.35710 247.35484 249.11558 250.52832 251.64706 252.46480 252.77654
 252.80928 252.57902 251.93476 250.87850 249.48024 247.63698 245.54172 243.37046
 241.15720 238.95694 236.77268 234.60742 232.46316 230.32590 228.34764 226.50038
 224.77912 223.24686 221.87260 220.64034 219.51808 218.47382 217.57356 216.71030
 215.94804 215.12378 214.21752 213.57726 213.02299 213.10509 213.29904 214.50809
 216.00540 218.14896 220.20219 221.19930 222.18126 224.20630 227.96492 231.72533
 235.14389 238.76813 242.09419 245.05042 247.92889 250.74878 253.62259 256.67349
 259.76727 262.60413 265.04645 267.17633 269.15219 271.05209 272.82751 274.51184
 276.13980 277.61115 279.11951 280.48694 281.67432 282.72940 283.69580 284.57785
 285.38037 286.10211 286.74597 287.60895
 366.78100 356.33104 345.75909 334.62113 323.02018 311.21022 299.07626 286.87531
 274.58335 262.47640 250.48144 239.77848 229.89653 220.99657 213.17461 206.17266
 200.00270 194.93675 191.51479 189.55283 188.58588 188.64592 189.47697 190.78101
 192.50205 194.59310 196.85214 199.20719 201.64823 204.12427 206.20832 208.04636
 209.66840 210.80945 211.03449 211.25854 211.19158 210.89262 210.52167 210.14771
 209.76076 209.46680 209.27084 209.13089 209.05493 209.38198 209.76402 210.14906
 210.93811 212.11215 213.35820 215.13724 217.06128 219.10033 221.19137 223.27041
 225.32646 227.40650 229.49955 231.60159 233.72663 235.89468 238.14672 240.51277
 243.12981 245.37685 247.37490 249.13594 250.54899 251.66803 252.48607 252.79812
 252.83116 252.60121 251.95725 250.90129 249.50334 247.66038 245.56542 243.39447
 241.18151 238.98156 236.79760 234.63264 232.48869 230.35173 228.37378 226.52682
 224.80586 223.27391 221.89995 220.66800 219.54604 218.50208 217.60213 216.73917
 215.97721 215.15326 214.24730 213.60735 213.05339 213.15547 213.39665 214.62900
 216.13055 218.22394 220.34286 221.39604 222.33011 224.29196 227.94635 231.63792
 235.03120 238.60478 241.84325 244.70898 247.56265 250.42949 253.38142 256.49496
 259.59351 262.42117 264.88434 267.06955 269.10214 271.03571 272.80612 274.47546
 276.10745 277.59085 279.10257 280.47110 281.66000 282.71576 283.68295 284.56635
 285.36823 286.09534 286.73669 287.60028
 366.78100 356.33137 345.75974 334.62211 323.02148 311.21185 299.07822 286.87759
 274.58596 262.47933 250.48470 239.78206 229.90043 221.00080 213.17917 206.17754
 200.00791 194.94228 191.52065 189.55902 188.59239 188.65276 189.48413 190.78850
 192.50987 194.60124 196.86061 199.21598 201.65735 204.13372 206.21809 208.05646
 209.67882 210.82019 211.04556 211.26993 211.20330 210.90467 210.53404 210.16041
 209.77378 209.48015 209.28452 209.14489 209.06926 209.39663 209.77900 210.16437
 210.95374 212.12811 213.37448 215.15385 217.07822 219.11758 221.20895 223.28832
 225.34469 227.42506 229.51843 231.62080 233.74617 235.91454 238.16691 240.53328
 243.15065 245.39802 247.39639 249.15776 250.57113 251.69050 252.50887 252.82124
 252.85461 252.62498 251.98135 250.92571 249.52808 247.68545 245.59082 243.42019
 241.20756 239.00793 236.82430 234.65967 232.51604 230.37941 228.40178 226.55515
 224.83452 223.30289 221.92926 220.69763 219.57600 218.53237 217.63274 216.77011
 216.00847 215.18484 214.27921 213.63958 213.08595 213.20511 213.48663 214.74358
 216.28098 218.31674 220.44360 221.62354 222.45728 224.28545 227.92111 231.59839
 234.96231 238.48424 241.62685 244.37643 247.18634 250.08984 253.11737 256.29871
 259.41342 262.24472 264.73587 266.97861 269.06540 271.03152 272.79544 274.44797
 276.08026 277.57419 279.08960 280.45865 281.64868 282.70340 283.67242 284.55579
 285.36157 286.08499 286.72803 287.59207
 366.78100 356.33225 345.76151 334.62476 323.02501 311.21627 299.08352 286.88377
 274.59302 262.48728 250.49353 239.79178 229.91104 221.01229 213.19154 206.19080
 200.02205 194.95730 191.53655 189.57581 188.61006 188.67131 189.50357 190.80882
 192.53107 194.62333 196.88358 199.23983 201.68208 204.15934 206.24459 208.08384
 209.70710 210.84935 211.07560 211.30086 211.23511 210.93736 210.56761 210.19487
 209.80912 209.51637 209.32163 209.18288 209.10813 209.43639 209.81964 210.20589
 210.99614 212.17140 213.41865 215.19890 217.12416 219.16441 221.25666 223.33692
 225.39417 227.47542 229.56967 231.67293 233.79918 235.96843 238.22169 240.58894
 243.20719 245.45545 247.45470 249.21695 250.63120 251.75146 252.57071 252.88396
 252.91822 252.68947 252.04672 250.99198 249.59523 247.75348 245.65973 243.48999
 241.27824 239.07949 236.89675 234.73300 232.59025 230.45451 228.47776 226.63201
 224.91227 223.38152 222.00877 220.77802 219.65728 218.61453 217.71578 216.85404
 216.09329 215.27054 214.36580 213.72705 213.17430 213.28061 213.53178 214.88503
 216.43541 218.43289 220.50882 221.83534 222.55661 224.26756 227.93747 231.60907
 234.92540 238.37631 241.39340 244.01227 246.78336 249.73476 252.84761 256.10553
 259.24472 262.08212 264.59863 266.89462 269.03601 271.03448 272.79074 274.42575
 276.05545 277.56076 279.07935 280.44797 281.63806 282.69504 283.66443 284.54672
 285.35217 286.07773 286.72092 287.58524
 366.78100 356.33267 345.76234 334.62601 323.02667 311.21834 299.08601 286.88668
 274.59635 262.49102 250.49769 239.79635 229.91602 221.01769 213.19736 206.19703
 200.02870 194.96436 191.54403 189.58370 188.61837 188.68004 189.51271 190.81838
 192.54104 194.63371 196.89438 199.25105 201.69372 204.17139 206.25706 208.09672
 209.72039 210.86306 211.08973 211.31540 211.25007 210.95273 210.58340 210.21107
 209.82574 209.53341 209.33908 209.20075 209.12641 209.45508 209.83875 210.22542
 211.01609 212.19176 213.43943 215.22009 217.14576 219.18643 221.27910 223.35977
 225.41744 227.49910 229.59377 231.69744 233.82411 235.99378 238.24745 240.61512
 243.23378 245.48245 247.48212 249.24479 250.65946 251.78013 252.59980 252.91346
 252.94813 252.71980 252.07747 251.02314 249.62681 247.78548 245.69214 243.52281
 241.31148 239.11315 236.93082 234.76749 232.62515 230.48982 228.51349 226.66816
 224.94883 223.41850 222.04617 220.81583 219.69550 218.65317 217.75484 216.89351
 216.13318 215.31085 214.40651 213.76818 213.21585 213.32971 213.59871 215.01622
 216.59045 218.55948 220.55365 222.00575 222.68271 224.30289 227.99576 231.60872
 234.86436 238.22327 241.11015 243.62981 246.38181 249.39111 252.59569 255.92982
 259.08978 261.92972 264.46857 266.81290 269.00705 271.03735 272.78375 274.40372
 276.03012 277.54514 279.07010 280.43994 281.62994 282.68777 283.65680 284.54172
 285.34689 286.07291 286.71786 287.58502
 366.78100 356.33258 345.76216 334.62574 323.02631 311.21789 299.08547 286.88605
 274.59563 262.49021 250.49678 239.79536 229.91494 221.01652 213.19610 206.19568
 200.02726 194.96283 191.54241 189.58199 188.61657 188.67815 189.51073 190.81631
 192.53888 194.63146 196.89204 199.24862 201.69120 204.16878 206.25435 208.09393
 209.71751 210.86009 211.08667 211.31225 211.24683 210.94940 210.57998 210.20756
 209.82214 209.52972 209.33530 209.19687 209.12245 209.45103 209.83461 210.22119
 211.01177 212.18735 213.43492 215.21550 217.14108 219.18166 221.27424 223.35482
 225.41239 227.49397 229.58855 231.69213 233.81871 235.98829 238.24187 240.60944
 243.22802 245.47660 247.47618 249.23876 250.65334 251.77392 252.59349 252.90707
 252.94165 252.71323 252.07081 251.01639 249.61996 247.77854 245.68512 243.51570
 241.30428 239.10586 236.92344 234.76001 232.61759 230.48217 228.50575 226.66033
 224.94091 223.41048 222.03806 220.80764 219.68722 218.64480 217.74638 216.88496
 216.12453 215.30211 214.39769 213.75927 213.20685 213.35158 213.69351 215.12248
 216.75410 218.70444 220.58299 222.08542 222.85373 224.37584 228.01685 231.58467
 234.77457 238.03305 240.80455 243.24501 245.98369 249.05200 252.35310 255.76787
 258.95645 261.80280 264.36404 266.75208 268.98846 271.04492 272.77216 274.36316
 275.98654 277.50897 279.05908 280.42957 281.61990 282.67862 283.64923 284.53625
 285.34375 286.07468 286.73227 287.59445
 366.78100 356.33276 345.76253 334.62629 323.02706 311.21882 299.08658 286.88735
 274.59711 262.49187 250.49864 239.79740 229.91717 221.01893 213.19869 206.19846
 200.03022 194.96599 191.54575 189.58551 188.62028 188.68204 189.51481 190.82057
 192.54333 194.63610 196.89686 199.25362 201.69639 204.17415 206.25992 208.09968
 209.72344 210.86621 211.09297 211.31874 211.25350 210.95626 210.58703 210.21479
 209.82956 209.53732 209.34308 209.20485 209.13061 209.45937 209.84314 210.22990
 211.02067 212.19643 213.44419 215.22496 217.15072 219.19149 221.28425 223.36501
 225.42278 227.50454 229.59930 231.70307 233.82983 235.99960 238.25336 240.62112
 243.23989 245.48865 247.48842 249.25118 250.66594 251.78671 252.60647 252.92024
 252.95500 252.72676 252.08453 251.03029 249.63405 247.79282 245.69958 243.53035
 241.31911 239.12087 236.93864 234.77540 232.63317 230.49793 228.52169 226.67646
 224.95722 223.42698 222.05475 220.82451 219.70428 218.66204 217.76380 216.90257
 216.14233 215.32010 214.41586 213.77762 213.22539 213.38412 213.76025 215.23642
 216.92825 218.85547 220.64661 222.11345 223.03267 224.51175 228.01312 231.54820
 234.66843 237.82401 240.49167 242.86142 245.59297 248.72397 252.12186 255.61589
 258.83508 261.69366 264.27960 266.71133 268.98874 271.06952 272.78476 274.35037
 275.96457 277.50217 279.05502 280.42584 281.61957 282.67990 283.65375 284.54700
 285.36578 286.10614 286.77463 287.64471
 366.78100 356.33322 345.76344 334.62766 323.02888 311.22110 299.08932 286.89054
 274.60076 262.49599 250.50321 239.80243 229.92265 221.02487 213.20509 206.20531
 200.03753 194.97375 191.55397 189.59419 188.62941 188.69163 189.52485 190.83107
 192.55429 194.64751 196.90873 199.26596 201.70918 204.18740 206.27362 208.11384
 209.73806 210.88128 211.10850 211.33472 211.26994 210.97316 210.60438 210.23260
 209.84782 209.55604 209.36226 209.22448 209.15071 209.47993 209.86415 210.25137
 211.04259 212.21881 213.46703 215.24825 217.17447 219.21569 221.30891 223.39013
 225.44835 227.53057 229.62579 231.73001 233.85723 236.02745 238.28168 240.64990
 243.26912 245.51834 247.51856 249.28178 250.69700 251.81822 252.63844 252.95266
 252.98788 252.76010 252.11832 251.06454 249.66876 247.82798 245.73520 243.56643
 241.35565 239.15787 236.97609 234.81331 232.67153 230.53675 228.56097 226.71619
 224.99741 223.46763 222.09585 220.86607 219.74629 218.70451 217.80673 216.94595
 216.18617 215.36440 214.46062 213.82284 213.27106 213.42673 213.79449 215.36356
 217.10883 219.01469 220.75992 222.16209 223.19919 224.70709 228.04544 231.50418
 234.54610 237.59619 240.16238 242.47949 245.22159 248.42230 251.91043 255.47285
 258.71381 261.58212 264.19495 266.66638 268.98740 271.09552 272.81842 274.38351
 275.98416 277.50589 279.04044 280.41122 281.60361 282.66125 283.63309 284.52036
 285.32864 286.05762 286.70911 287.58090
 366.78100 356.33370 345.76440 334.62909 323.03079 311.22349 299.09219 286.89389
 274.60459 262.50028 250.50798 239.80768 229.92838 221.03108 213.21178 206.21247
 200.04517 194.98187 191.56257 189.60327 188.63897 188.70166 189.53536 190.84206
 192.56576 194.65946 196.92116 199.27885 201.72255 204.20125 206.28795 208.12865
 209.75335 210.89704 211.12474 211.35144 211.28714 210.99084 210.62254 210.25123
 209.86693 209.57563 209.38233 209.24503 209.17173 209.50142 209.88612 210.27382
 211.06552 212.24222 213.49092 215.27261 217.19931 219.24101 221.33471 223.41641
 225.47511 227.55780 229.65350 231.75820 233.88590 236.05660 238.31130 240.67999
 243.29969 245.54939 247.55009 249.31379 250.72949 251.85118 252.67188 252.98658
 253.02228 252.79498 252.15368 251.10037 249.70507 247.86477 245.77247 243.60417
 241.39387 239.19656 237.01526 234.85296 232.71166 230.57736 228.60206 226.75775
 225.03945 223.51015 222.13885 220.90955 219.79025 218.74894 217.85164 216.99134
 216.23204 215.41074 214.50744 213.87013 213.31883 213.46941 213.82513 215.47952
 217.29752 219.17888 220.88831 222.22757 223.32744 224.88782 228.10144 231.45943
 234.39937 237.33067 239.79515 242.08342 244.85915 248.13690 251.71408 255.34209
 258.60379 261.47855 264.10803 266.61328 268.96899 271.09933 272.82507 274.38748
 275.98547 277.50714 279.03113 280.40140 281.59384 282.65143 283.62280 284.50958
 285.31714 286.04401 286.68997 287.56326
 366.78100 356.33386 345.76472 334.62958 323.03144 311.22430 299.09316 286.89502
 274.60589 262.50175 250.50961 239.80947 229.93033 221.03319 213.21405 206.21491
 200.04777 194.98463 191.56549 189.60635 188.64221 188.70507 189.53893 190.84580
 192.56966 194.66352 196.92538 199.28324 201.72710 204.20596 206.29282 208.13368
 209.75854 210.90240 211.13026 211.35712 211.29298 210.99685 210.62871 210.25757
 209.87343 209.58229 209.38915 209.25201 209.17887 209.50873 209.89359 210.28145
 211.07331 212.25017 213.49903 215.28089 217.20776 219.24962 221.34348 223.42534
 225.48420 227.56706 229.66292 231.76778 233.89564 236.06650 238.32136 240.69022
 243.31008 245.55994 247.56080 249.32467 250.74053 251.86239 252.68325 252.99811
 253.03397 252.80683 252.16569 251.11255 249.71741 247.87727 245.78513 243.61699
 241.40685 239.20971 237.02858 234.86644 232.72530 230.59116 228.61602 226.77188
 225.05374 223.52460 222.15346 220.92432 219.80518 218.76404 217.86690 217.00676
 216.24763 215.42649 214.52335 213.88621 213.33507 213.49399 213.86948 215.58150
 217.48221 219.35445 221.02112 222.30048 223.43835 225.05495 228.16634 231.41087
 234.23599 237.02368 239.38876 241.67824 244.51173 247.87213 251.53477 255.22485
 258.50928 261.39059 264.03595 266.56714 268.95035 271.09851 272.82043 274.36847
 275.95737 277.49985 279.02731 280.39853 281.58984 282.64874 283.61993 284.50589
 285.31244 286.04218 286.68744 287.56219
 366.78100 356.33369 345.76439 334.62908 323.03077 311.22347 299.09216 286.89386
 274.60455 262.50024 250.50794 239.80763 229.92832 221.03102 213.21171 206.21241
 200.04510 194.98179 191.56249 189.60318 188.63887 188.70157 189.53526 190.84196
 192.56565 194.65934 196.92104 199.27873 201.72242 204.20112 206.28781 208.12851
 209.75320 210.89689 211.12459 211.35128 211.28697 210.99067 210.62236 210.25106
 209.86675 209.57544 209.38214 209.24483 209.17152 209.50122 209.88591 210.27361
 211.06530 212.24199 213.49069 215.27238 217.19907 219.24077 221.33446 223.41616
 225.47485 227.55754 229.65324 231.75793 233.88562 236.05632 238.31101 240.67971
 243.29940 245.54909 247.54979 249.31348 250.72917 251.85087 252.67156 252.98626
 253.02195 252.79464 252.15334 251.10003 249.70472 247.86442 245.77211 243.60381
 241.39350 239.19619 237.01489 234.85258 232.71127 230.57697 228.60166 226.75736
 225.03905 223.50974 222.13844 220.90913 219.78982 218.74852 217.85121 216.99091
 216.23160 215.41029 214.50699 213.86968 213.31837 213.49907 213.92596 215.67877
 217.65494 219.54755 221.16972 222.37288 223.54846 225.22742 228.23169 231.35683
 234.05548 236.67677 238.94734 241.27168 244.18782 247.63452 251.37340 255.11659
 258.42337 261.31647 263.97800 266.52606 268.92752 271.09085 272.81427 274.35199
 275.93750 277.48892 279.01794 280.38910 281.58142 282.63959 283.61066 284.49753
 285.30475 286.03351 286.67892 287.55554
 366.78100 356.33341 345.76383 334.62824 323.02966 311.22207 299.09049 286.89190
 274.60232 262.49773 250.50515 239.80456 229.92498 221.02739 213.20781 206.20822
 200.04064 194.97705 191.55747 189.59788 188.63330 188.69571 189.52913 190.83554
 192.55896 194.65237 196.91379 199.27120 201.71461 204.19303 206.27944 208.11986
 209.74427 210.88769 211.11510 211.34152 211.27693 210.98035 210.61176 210.24018
 209.85559 209.56401 209.37042 209.23284 209.15925 209.48867 209.87308 210.26050
 211.05191 212.22833 213.47674 215.25816 217.18457 219.22599 221.31940 223.40081
 225.45923 227.54164 229.63706 231.74147 233.86889 236.03930 238.29372 240.66213
 243.28155 245.53096 247.53138 249.29479 250.71021 251.83162 252.65204 252.96645
 253.00187 252.77428 252.13270 251.07911 249.68353 247.84294 245.75036 243.58177
 241.37119 239.17360 236.99201 234.82943 232.68784 230.55326 228.57767 226.73309
 225.01450 223.48492 222.11333 220.88375 219.76416 218.72258 217.82499 216.96441
 216.20482 215.38324 214.47965 213.84207 213.29048 213.49626 213.98242 215.77591
 217.82880 219.74101 221.32188 222.44601 223.66788 225.41554 228.29620 231.28877
 233.84918 236.29527 238.48045 240.87018 243.88649 247.42029 251.22896 255.01711
 258.34406 261.25104 263.92657 266.48444 268.89645 271.07291 272.80972 274.34918
 275.93079 277.47476 279.00305 280.37399 281.56586 282.62354 283.59579 284.48294
 285.29129 286.01874 286.66519 287.53989
 366.78100 356.33315 345.76330 334.62745 323.02859 311.22074 299.08889 286.89004
 274.60019 262.49534 250.50248 239.80163 229.92178 221.02393 213.20408 206.20423
 200.03637 194.97252 191.55267 189.59282 188.62797 188.69012 189.52326 190.82941
 192.55256 194.64571 196.90686 199.26401 201.70716 204.18530 206.27145 208.11160
 209.73575 210.87890 211.10605 211.33219 211.26734 210.97049 210.60164 210.22979
 209.84494 209.55308 209.35923 209.22138 209.14753 209.47668 209.86083 210.24797
 211.03912 212.21527 213.46342 215.24457 217.17072 219.21187 221.30501 223.38616
 225.44431 227.52646 229.62161 231.72576 233.85290 236.02305 238.27720 240.64535
 243.26450 245.51365 247.51379 249.27694 250.69209 251.81324 252.63339 252.94754
 252.98268 252.75483 252.11298 251.05913 249.66328 247.82243 245.72957 243.56072
 241.34987 239.15202 236.97017 234.80732 232.66547 230.53061 228.55476 226.70991
 224.99106 223.46121 222.08936 220.85950 219.73965 218.69780 217.79995 216.93910
 216.17925 215.35739 214.45354 213.81569 213.26384 213.49213 214.03146 215.87445
 218.00543 219.93295 221.47108 222.52045 223.80240 225.62354 228.36646 231.19466
 233.60417 235.88066 238.00056 240.48244 243.60756 247.22667 251.10062 254.92667
 258.27301 261.19327 263.88007 266.44214 268.86020 271.04791 272.80133 274.35022
 275.93802 277.45837 278.98276 280.35391 281.54568 282.60492 283.57672 284.46451
 285.27179 285.99887 286.64713 287.52740
 366.78100 356.33302 345.76305 334.62707 323.02809 311.22012 299.08814 286.88916
 274.59919 262.49421 250.50123 239.80026 229.92028 221.02230 213.20233 206.20235
 200.03437 194.97040 191.55042 189.59044 188.62547 188.68749 189.52051 190.82654
 192.54956 194.64258 196.90361 199.26063 201.70365 204.18167 206.26770 208.10772
 209.73174 210.87477 211.10179 211.32781 211.26284 210.96586 210.59688 210.22491
 209.83993 209.54795 209.35398 209.21600 209.14202 209.47105 209.85507 210.24209
 211.03312 212.20914 213.45716 215.23819 217.16421 219.20523 221.29826 223.37928
 225.43730 227.51933 229.61435 231.71837 233.84540 236.01542 238.26944 240.63747
 243.25649 245.50551 247.50554 249.26856 250.68358 251.80461 252.62463 252.93865
 252.97368 252.74570 252.10372 251.04975 249.65377 247.81279 245.71982 243.55084
 241.33986 239.14189 236.95991 234.79693 232.65496 230.51998 228.54400 226.69902
 224.98005 223.45007 222.07809 220.84812 219.72814 218.68616 217.78819 216.92721
 216.16723 215.34526 214.44128 213.80330 213.25133 213.49326 214.06480 215.98241
 218.18379 220.10956 221.62238 222.62010 223.96228 225.82254 228.42209 231.11005
 233.35742 235.43434 237.48906 240.09006 243.34956 247.06435 250.99551 254.84427
 258.20422 261.13837 263.83658 266.40216 268.82346 271.02121 272.79544 274.35529
 275.90305 277.44620 278.97461 280.34521 281.53528 282.59415 283.56604 284.45255
 285.26068 285.98886 286.63586 287.51782
 366.78100 356.33304 345.76308 334.62712 323.02816 311.22021 299.08825 286.88929
 274.59933 262.49437 250.50141 239.80045 229.92049 221.02253 213.20258 206.20262
 200.03466 194.97070 191.55074 189.59078 188.62582 188.68786 189.52090 190.82695
 192.54999 194.64303 196.90407 199.26111 201.70415 204.18219 206.26823 208.10827
 209.73232 210.87536 211.10240 211.32844 211.26348 210.96652 210.59756 210.22560
 209.84065 209.54869 209.35473 209.21677 209.14281 209.47185 209.85589 210.24293
 211.03397 212.21002 213.45806 215.23910 217.16514 219.20618 221.29922 223.38026
 225.43830 227.52034 229.61539 231.71943 233.84647 236.01651 238.27055 240.63859
 243.25763 245.50667 247.50671 249.26976 250.68480 251.80584 252.62588 252.93992
 252.97496 252.74700 252.10504 251.05108 249.65513 247.81417 245.72121 243.55225
 241.34129 239.14333 236.96137 234.79841 232.65645 230.52150 228.54554 226.70058
 224.98162 223.45166 222.07970 220.84974 219.72978 218.68782 217.78987 216.92891
 216.16895 215.34699 214.44303 213.80507 213.25311 213.49983 214.08273 216.10843
 218.34853 220.27914 221.78099 222.72339 224.10342 226.05188 228.52907 231.00519
 233.04179 234.92438 236.94809 239.71866 243.13782 246.93388 250.90263 254.76312
 258.13400 261.08511 263.79761 266.36548 268.78696 270.99194 272.78561 274.35703
 275.95587 277.42587 278.94269 280.31659 281.50848 282.56805 283.54221 284.42963
 285.23920 285.96973 286.61575 287.50040
 366.78100 356.33241 345.76183 334.62524 323.02566 311.21707 299.08448 286.88490
 274.59431 262.48873 250.49514 239.79355 229.91297 221.01438 213.19380 206.19321
 200.02462 194.96004 191.53945 189.57887 188.61328 188.67469 189.50711 190.81252
 192.53494 194.62735 196.88776 199.24418 201.68659 204.16401 206.24942 208.08883
 209.71225 210.85466 211.08108 211.30649 211.24090 210.94332 210.57373 210.20115
 209.81556 209.52297 209.32839 209.18980 209.11522 209.44363 209.82704 210.21346
 211.00387 212.17929 213.42670 215.20711 217.13253 219.17294 221.26536 223.34577
 225.40318 227.48460 229.57901 231.68243 233.80884 235.97825 238.23167 240.59908
 243.21750 245.46591 247.46532 249.22774 250.64215 251.76257 252.58198 252.89539
 252.92981 252.70122 252.05864 251.00405 249.60746 247.76588 245.67229 243.50271
 241.29112 239.09253 236.90995 234.74636 232.60378 230.46819 228.49160 226.64602
 224.92643 223.39585 222.02326 220.79267 219.67209 218.62950 217.73092 216.86933
 216.10874 215.28616 214.38157 213.74299 213.19040 213.47289 214.14032 216.19078
 218.55913 220.41373 221.89429 222.83032 224.31810 226.29921 228.58868 230.88065
 232.73967 234.38313 236.40492 239.39900 242.94286 246.81383 250.82539 254.69351
 258.07217 261.03818 263.76105 266.32635 268.74496 270.95551 272.77264 274.36264
 275.94348 277.41708 278.93500 280.30634 281.49820 282.55658 283.53101 284.41855
 285.22757 285.95581 286.60291 287.48929
 366.78100 356.33169 345.76038 334.62307 323.02276 311.21346 299.08015 286.87984
 274.58853 262.48222 250.48791 239.78560 229.90429 221.00498 213.18367 206.18237
 200.01306 194.94775 191.52644 189.56513 188.59882 188.65951 189.49120 190.79589
 192.51758 194.60928 196.86897 199.22466 201.66635 204.14304 206.22773 208.06642
 209.68911 210.83080 211.05650 211.28119 211.21488 210.91657 210.54626 210.17295
 209.78664 209.49333 209.29802 209.15871 209.08341 209.41110 209.79379 210.17948
 210.96917 212.14386 213.39055 215.17024 217.09493 219.13462 221.22632 223.30601
 225.36270 227.44339 229.53708 231.63977 233.76546 235.93415 238.18684 240.55353
 243.17123 245.41892 247.41761 249.17930 250.59299 251.71268 252.53137 252.84406
 252.87775 252.64845 252.00514 250.94983 249.55252 247.71021 245.61590 243.44559
 241.23328 239.03397 236.85066 234.68636 232.54305 230.40674 228.42943 226.58312
 224.86281 223.33150 221.95819 220.72688 219.60557 218.56227 217.66296 216.80065
 216.03934 215.21603 214.31072 213.67141 213.11810 213.43950 214.19881 216.29102
 218.71930 220.58904 222.02901 222.95633 224.41805 226.46201 228.64871 230.81708
 232.49258 233.87315 235.89526 239.05170 242.76273 246.73073 250.76709 254.62831
 258.01007 260.99158 263.72672 266.28848 268.70163 270.91580 272.75449 274.36148
 275.93533 277.40927 278.92633 280.29810 281.48746 282.54730 283.51886 284.40814
 285.21640 285.94565 286.59296 287.48340
 366.78100 356.33095 345.75891 334.62086 323.01981 311.20977 299.07572 286.87467
 274.58263 262.47558 250.48053 239.77749 229.89544 220.99539 213.17335 206.17130
 200.00125 194.93521 191.51316 189.55111 188.58407 188.64402 189.47498 190.77893
 192.49988 194.59084 196.84979 199.20474 201.64570 204.12165 206.20560 208.04356
 209.66551 210.80646 211.03142 211.25537 211.18832 210.88928 210.51823 210.14418
 209.75714 209.46309 209.26704 209.12700 209.05095 209.37790 209.75986 210.14481
 210.93376 212.10772 213.35367 215.13262 217.05658 219.09553 221.18648 223.26544
 225.32139 227.40134 229.49430 231.59625 233.72121 235.88916 238.14111 240.50707
 243.12402 245.37097 247.36893 249.12988 250.54283 251.66179 252.47974 252.79169
 252.82465 252.59460 251.95055 250.89451 249.49646 247.65341 245.55837 243.38732
 241.17427 238.97423 236.79018 234.62513 232.48109 230.34404 228.36599 226.51895
 224.79790 223.26585 221.89181 220.65976 219.53771 218.49367 217.59362 216.73057
 215.96853 215.14448 214.23844 213.59839 213.04434 213.40524 214.25792 216.39508
 218.85466 220.79366 222.12556 223.14328 224.51254 226.48094 228.70143 230.83423
 232.28090 233.37373 235.41484 238.72472 242.59450 246.65935 250.71693 254.56825
 257.95309 260.95029 263.69617 266.25302 268.65817 270.87457 272.73459 274.36093
 275.91153 277.40381 278.92319 280.29370 281.48312 282.54178 283.51236 284.40167
 285.20990 285.93930 286.58774 287.47913
 366.78100 356.33034 345.75769 334.61903 323.01737 311.20672 299.07206 286.87040
 274.57775 262.47009 250.47443 239.77078 229.88812 220.98746 213.16481 206.16215
 199.99149 194.92483 191.50218 189.53952 188.57186 188.63121 189.46155 190.76489
 192.48524 194.57558 196.83392 199.18827 201.62861 204.10395 206.18730 208.02464
 209.64598 210.78633 211.01067 211.23401 211.16636 210.86670 210.49504 210.12039
 209.73273 209.43807 209.24142 209.10076 209.02410 209.35044 209.73179 210.11613
 210.90447 212.07782 213.32316 215.10150 217.02485 219.06319 221.15353 223.23188
 225.28722 227.36656 229.45891 231.56025 233.68459 235.85194 238.10328 240.46862
 243.08497 245.33131 247.32865 249.08900 250.50134 251.61968 252.43703 252.74837
 252.78071 252.55006 251.90540 250.84874 249.45008 247.60643 245.51077 243.33911
 241.12546 238.92480 236.74014 234.57449 232.42983 230.29217 228.31352 226.46586
 224.74420 223.21155 221.83689 220.60423 219.48158 218.43692 217.53626 216.67261
 215.90995 215.08529 214.17864 213.53798 212.98332 213.37769 214.30943 216.49396
 219.01758 220.94244 222.20152 223.32997 224.71077 226.49139 228.70674 230.82980
 232.06032 232.88712 234.94255 238.44110 242.45518 246.59348 250.66635 254.50613
 257.89630 260.91263 263.67068 266.22012 268.61569 270.83240 272.71133 274.35950
 275.95969 277.38571 278.89688 280.26913 281.46124 282.52072 283.49387 284.38474
 285.19403 285.92529 286.57291 287.46637
 366.78100 356.32970 345.75641 334.61711 323.01482 311.20352 299.06822 286.86593
 274.57263 262.46433 250.46804 239.76374 229.88045 220.97915 213.15585 206.15256
 199.98126 194.91397 191.49067 189.52737 188.55908 188.61778 189.44749 190.75019
 192.46989 194.55960 196.81730 199.17100 201.61071 204.08541 206.16812 208.00482
 209.62552 210.76523 210.98893 211.21164 211.14334 210.84304 210.47075 210.09545
 209.70716 209.41186 209.21456 209.07327 208.99597 209.32167 209.70238 210.08608
 210.87379 212.04649 213.29119 215.06890 216.99160 219.02931 221.11901 223.19671
 225.25142 227.33012 229.42182 231.52253 233.64623 235.81294 238.06364 240.42834
 243.04405 245.28975 247.28646 249.04616 250.45786 251.57557 252.39227 252.70298
 252.73468 252.50338 251.85809 250.80079 249.40149 247.55720 245.46090 243.28861
 241.07431 238.87301 236.68772 234.52142 232.37613 230.23783 228.25853 226.41024
 224.68794 223.15465 221.77935 220.54605 219.42276 218.37746 217.47616 216.61187
 215.84857 215.02328 214.11598 213.47468 212.91939 213.34813 214.36108 216.60771
 219.16628 221.04065 222.30406 223.48416 224.92476 226.56337 228.71359 230.76643
 231.79372 232.42859 234.49300 238.17340 242.33669 246.53975 250.61916 254.44312
 257.83865 260.87399 263.64639 266.19144 268.57803 270.79498 272.69171 274.35696
 275.94473 277.38129 278.89255 280.26434 281.45383 282.51257 283.48566 284.37558
 285.18378 285.91376 286.56250 287.45847
 366.78100 356.32893 345.75486 334.61479 323.01172 311.19966 299.06359 286.86052
 274.56645 262.45738 250.46031 239.75524 229.87117 220.96910 213.14503 206.14097
 199.96890 194.90083 191.47676 189.51269 188.54362 188.60155 189.43048 190.73241
 192.45134 194.54028 196.79721 199.15014 201.58907 204.06300 206.14493 207.98086
 209.60079 210.73972 210.96265 211.18459 211.11552 210.81445 210.44138 210.06531
 209.67624 209.38017 209.18210 209.04003 208.96196 209.28690 209.66683 210.04976
 210.83669 212.00862 213.25255 215.02948 216.95141 218.98834 221.07728 223.15421
 225.20814 227.28607 229.37700 231.47693 233.59986 235.76579 238.01572 240.37965
 242.99459 245.23952 247.23545 248.99438 250.40531 251.52224 252.33817 252.64810
 252.67903 252.44696 251.80090 250.74283 249.34276 247.49769 245.40062 243.22755
 241.01248 238.81041 236.62434 234.45727 232.31121 230.17214 228.19207 226.34300
 224.61993 223.08586 221.70979 220.47572 219.35165 218.30558 217.40352 216.53845
 215.77438 214.94831 214.04024 213.39817 212.84210 213.31155 214.42067 216.73076
 219.28522 221.13547 222.40556 223.62354 225.10722 226.66641 228.73824 230.65204
 231.48749 232.00113 234.09120 237.92859 242.22916 246.49052 250.57045 254.37721
 257.77866 260.83435 263.62350 266.16718 268.54636 270.76355 272.67688 274.35742
 275.94150 277.37302 278.88391 280.25446 281.44501 282.50284 283.47510 284.36432
 285.17377 285.90366 286.55170 287.45227
 366.78100 356.32791 345.75281 334.61172 323.00762 311.19453 299.05744 286.85334
 274.55825 262.44815 250.45006 239.74397 229.85887 220.95578 213.13069 206.12559
 199.95250 194.88340 191.45831 189.49322 188.52312 188.58003 189.40793 190.70884
 192.42675 194.51465 196.77056 199.12246 201.56037 204.03328 206.11418 207.94909
 209.56799 210.70590 210.92781 211.14871 211.07862 210.77653 210.40243 210.02534
 209.63524 209.33815 209.13906 208.99596 208.91687 209.24077 209.61968 210.00159
 210.78749 211.95840 213.20130 214.97721 216.89812 218.93402 221.02193 223.09783
 225.15074 227.22765 229.31755 231.41646 233.53837 235.70327 237.95218 240.31508
 242.92899 245.17290 247.16780 248.92571 250.33561 251.45152 252.26643 252.57533
 252.60524 252.37214 251.72505 250.66596 249.26486 247.41877 245.32067 243.14658
 240.93049 238.72739 236.54030 234.37221 232.22511 230.08502 228.10392 226.25383
 224.52974 222.99464 221.61755 220.38245 219.25736 218.21027 217.30717 216.44108
 215.67598 214.84889 213.93980 213.29670 212.73961 213.26233 214.49733 216.85742
 219.37410 221.22151 222.49338 223.77963 225.27179 226.77257 228.78339 230.49493
 231.16330 231.61150 233.72403 237.70580 242.12978 246.43840 250.51884 254.30898
 257.71536 260.79276 263.60147 266.14850 268.52191 270.73965 272.66461 274.35815
 275.93570 277.36578 278.87430 280.24503 281.43341 282.49103 283.46359 284.35239
 285.16071 285.89069 286.53900 287.43805
 366.78100 356.32681 345.75063 334.60844 323.00326 311.18907 299.05088 286.84570
 274.54951 262.43832 250.43914 239.73195 229.84577 220.94158 213.11539 206.10921
 199.93502 194.86484 191.43865 189.47246 188.50128 188.55709 189.38390 190.68372
 192.40053 194.48735 196.74216 199.09297 201.52979 204.00160 206.08142 207.91523
 209.53304 210.66986 210.89067 211.11049 211.03930 210.73611 210.36093 209.98274
 209.59155 209.29337 209.09318 208.94900 208.86881 209.19162 209.56944 209.95025
 210.73507 211.90488 213.14669 214.92151 216.84132 218.87613 220.96295 223.03776
 225.08958 227.16539 229.25420 231.35202 233.47283 235.63665 237.88446 240.24627
 242.85909 245.10190 247.09571 248.85253 250.26134 251.37616 252.18997 252.49778
 252.52660 252.29241 251.64423 250.58404 249.18185 247.33467 245.23548 243.06030
 240.84311 238.63892 236.45074 234.28155 232.13336 229.99218 228.00999 226.15881
 224.43362 222.89743 221.51925 220.28306 219.15688 218.10869 217.20450 216.33732
 215.57113 214.74294 213.83276 213.18857 212.63039 213.21077 214.58197 216.98729
 219.44386 221.28566 222.58281 223.95093 225.42239 226.86926 228.83871 230.30984
 230.83191 231.25401 233.38898 237.50299 242.03552 246.38464 250.46211 254.24300
 257.65515 260.75278 263.58282 266.13458 268.50406 270.71957 272.64743 274.34848
 275.89706 277.36978 278.88727 280.25815 281.44794 282.50696 283.48126 284.37375
 285.19312 285.93140 286.58823 287.48938
 366.78100 356.32578 345.74855 334.60533 322.99910 311.18388 299.04465 286.83843
 274.54120 262.42898 250.42875 239.72053 229.83330 220.92808 213.10085 206.09363
 199.91841 194.84718 191.41996 189.45273 188.48051 188.53528 189.36106 190.65983
 192.37561 194.46138 196.71516 199.06493 201.50071 203.97149 206.05026 207.88304
 209.49981 210.63559 210.85536 211.07414 211.00191 210.69769 210.32146 209.94224
 209.55001 209.25079 209.04956 208.90434 208.82312 209.14489 209.52167 209.90144
 210.68522 211.85399 213.09477 214.86854 216.78732 218.82109 220.90687 222.98064
 225.03142 227.10619 229.19397 231.29075 233.41052 235.57330 237.82007 240.18085
 242.79262 245.03440 247.02717 248.78295 250.19072 251.30450 252.11727 252.42405
 252.45183 252.21660 251.56738 250.50615 249.10293 247.25470 245.15448 242.97825
 240.76003 238.55480 236.36558 234.19535 232.04613 229.90390 227.92068 226.06846
 224.34223 222.80501 221.42578 220.18856 219.06133 218.01211 217.10688 216.23866
 215.47143 214.64221 213.73098 213.08576 212.52654 213.16319 214.66737 217.11592
 219.50261 221.33606 222.68231 224.11717 225.55902 226.95273 228.88054 230.11618
 230.50368 230.92232 233.09509 237.32378 241.94746 246.32901 250.40569 254.17705
 257.59668 260.71597 263.56882 266.12979 268.49832 270.71152 272.63919 274.34256
 275.77875 277.41809 278.93121 280.28299 281.46512 282.51981 283.48920 284.38147
 285.19901 285.93936 286.59259 287.50046
 366.78100 356.32478 345.74657 334.60235 322.99513 311.17892 299.03870 286.83148
 274.53326 262.42005 250.41883 239.70961 229.82140 220.91518 213.08696 206.07875
 199.90253 194.83031 191.40210 189.43388 188.46066 188.51444 189.33923 190.63701
 192.35179 194.43658 196.68936 199.03814 201.47293 203.94271 206.02049 207.85228
 209.46806 210.60284 210.82162 211.03941 210.96619 210.66097 210.28376 209.90354
 209.51032 209.21011 209.00789 208.86167 208.77946 209.10024 209.47602 209.85480
 210.63759 211.80537 213.04515 214.81794 216.73572 218.76850 220.85329 222.92607
 224.97585 227.04964 229.13642 231.23220 233.35098 235.51277 237.75855 240.11833
 242.72912 244.96990 246.96168 248.71647 250.12325 251.23603 252.04781 252.35360
 252.38038 252.14416 251.49395 250.43173 249.02751 247.17830 245.07708 242.89986
 240.68065 238.47443 236.28421 234.11299 231.96278 229.81956 227.83534 225.98213
 224.25491 222.71669 221.33648 220.09826 218.97004 217.91983 217.01361 216.14439
 215.37617 214.54596 213.63374 212.98752 212.42731 213.11948 214.75479 217.24025
 219.55325 221.38379 222.78583 224.27234 225.69331 227.03053 228.89885 229.92575
 230.18848 230.60880 232.83569 237.17628 241.87012 246.26866 250.34065 254.10492
 257.53653 260.67999 263.55817 266.13345 268.50415 270.71466 272.63870 274.34079
 275.89493 277.36194 278.87622 280.24615 281.43628 282.49399 283.46890 284.36481
 285.18301 285.92432 286.58005 287.48755
 366.78100 356.32378 345.74457 334.59935 322.99113 311.17391 299.03270 286.82448
 274.52526 262.41105 250.40883 239.69861 229.80939 220.90218 213.07296 206.06374
 199.88653 194.81331 191.38409 189.41487 188.44066 188.49344 189.31722 190.61401
 192.32779 194.41157 196.66335 199.01114 201.44492 203.91370 205.99049 207.82127
 209.43605 210.56983 210.78762 211.00440 210.93018 210.62397 210.24575 209.86453
 209.47031 209.16910 208.96588 208.81866 208.73545 209.05523 209.43001 209.80779
 210.58958 211.75636 212.99514 214.76693 216.68371 218.71549 220.79927 222.87106
 224.91984 226.99262 229.07841 231.17319 233.29097 235.45175 237.69654 240.05532
 242.66510 244.90489 246.89567 248.64945 250.05523 251.16702 251.97780 252.28258
 252.30837 252.07115 251.41993 250.35671 248.95150 247.10128 244.99906 242.82085
 240.60063 238.39341 236.20219 234.02998 231.87876 229.73454 227.74933 225.89511
 224.16689 222.62767 221.24646 220.00724 218.87802 217.82681 216.91959 216.04937
 215.28015 214.44894 213.53572 212.88850 212.32729 213.07703 214.84836 217.36322
 219.59645 221.42657 222.88316 224.41444 225.83228 227.11076 228.89571 229.74234
 229.89186 230.31647 232.60698 237.05096 241.79576 246.20421 250.26860 254.02869
 257.47418 260.64514 263.55057 266.14313 268.51804 270.72647 272.64136 274.33371
 275.91074 277.34650 278.85718 280.22803 281.41879 282.47784 283.45432 284.34973
 285.16888 285.91095 286.56570 287.47821
 366.78100 356.32276 345.74251 334.59627 322.98703 311.16879 299.02654 286.81730
 274.51706 262.40182 250.39857 239.68733 229.79709 220.88885 213.05860 206.04836
 199.87012 194.79588 191.36563 189.39539 188.42015 188.47191 189.29466 190.59042
 192.30318 194.38594 196.63669 198.98345 201.41621 203.88397 205.95972 207.78948
 209.40324 210.53600 210.75275 210.96851 210.89327 210.58603 210.20678 209.82454
 209.42930 209.12706 208.92281 208.77457 208.69033 209.00909 209.38284 209.75960
 210.54036 211.70612 212.94387 214.71463 216.63039 218.66115 220.74390 222.81466
 224.86242 226.93418 229.01893 231.11269 233.22945 235.38921 237.63296 239.99072
 242.59948 244.83824 246.82799 248.58075 249.98551 251.09627 251.90602 252.20978
 252.23454 251.99630 251.34405 250.27981 248.87357 247.02232 244.91908 242.73984
 240.51860 238.31035 236.11811 233.94487 231.79263 229.64738 227.66114 225.80590
 224.07666 222.53641 221.15417 219.91393 218.78369 217.73144 216.82320 215.95196
 215.18172 214.34947 213.43523 212.78699 212.22475 213.03490 214.94896 217.48584
 219.63437 221.45854 222.96349 224.54427 225.96864 227.19258 228.88147 229.56371
 229.60971 230.04668 232.40567 236.94473 241.72667 246.14101 250.19211 253.94722
 257.40939 260.61050 263.54785 266.16055 268.54123 270.74680 272.64816 274.32526
 275.93069 277.32883 278.83450 280.20779 281.40079 282.46240 283.43884 284.33466
 285.15656 285.89795 286.55457 287.46744
 366.78100 356.32153 345.74005 334.59258 322.98211 311.16264 299.01916 286.80869
 274.50722 262.39075 250.38627 239.67380 229.78233 220.87286 213.04138 206.02991
 199.85044 194.77497 191.34349 189.37202 188.39555 188.44608 189.26760 190.56213
 192.27366 194.35519 196.60471 198.95024 201.38177 203.84830 205.92282 207.75135
 209.36388 210.49541 210.71093 210.92546 210.84899 210.54052 210.16004 209.77657
 209.38010 209.07663 208.87115 208.72168 208.63621 208.95374 209.32626 209.70179
 210.48132 211.64585 212.88237 214.65190 216.56643 218.59596 220.67748 222.74701
 224.79354 226.86406 228.94759 231.04012 233.15565 235.31417 237.55670 239.91323
 242.52076 244.75828 246.74681 248.49834 249.90187 251.01139 251.81992 252.12245
 252.14598 251.90650 251.25303 250.18756 248.78009 246.92761 244.82314 242.64267
 240.42020 238.21072 236.01725 233.84278 231.68931 229.54283 227.55536 225.69889
 223.96842 222.42694 221.04347 219.80200 218.67053 217.61705 216.70758 215.83511
 215.06364 214.23016 213.31469 212.66522 212.10175 212.98299 215.06499 217.61783
 219.64995 221.47693 223.03314 224.67445 226.11252 227.27777 228.85843 229.38489
 229.33836 229.79796 232.24522 236.84421 241.65733 246.06654 250.10986 253.86635
 257.34671 260.57846 263.54834 266.18307 268.57138 270.77338 272.65921 274.31653
 275.91782 277.31592 278.82239 280.19611 281.38937 282.45065 283.42603 284.32382
 285.14310 285.88538 286.54257 287.45804
 366.78100 356.32066 345.73832 334.58999 322.97865 311.15831 299.01397 286.80263
 274.50029 262.38296 250.37762 239.66428 229.77194 220.86160 213.02926 206.01693
 199.83659 194.76025 191.32791 189.35557 188.37823 188.42790 189.24856 190.54222
 192.25288 194.33354 196.58220 198.92687 201.35753 203.82319 205.89685 207.72451
 209.33617 210.46684 210.68150 210.89516 210.81782 210.50848 210.12714 209.74281
 209.34547 209.04113 208.83479 208.68445 208.59811 208.91478 209.28644 209.66110
 210.43976 211.60342 212.83908 214.60775 216.52141 218.55007 220.63073 222.69939
 224.74505 226.81472 228.89738 230.98904 233.10370 235.26136 237.50302 239.85869
 242.46535 244.70201 246.68967 248.44033 249.84299 250.95166 251.75932 252.06098
 252.08364 251.84330 251.18896 250.12263 248.71429 246.86095 244.75561 242.57427
 240.35093 238.14060 235.94626 233.77092 231.61658 229.46924 227.48090 225.62357
 223.89223 222.34989 220.96555 219.72321 218.59087 217.53654 216.62620 215.75286
 214.98052 214.14618 213.22984 212.57951 212.01517 212.95093 215.16179 217.76044
 219.69287 221.47549 223.04646 224.73358 226.25986 227.42003 228.87938 229.24458
 229.05576 229.52341 232.08911 236.75159 241.58144 245.99477 250.04254 253.79768
 257.29025 260.54901 263.54825 266.20526 268.60199 270.80103 272.66864 274.30222
 275.91489 277.29831 278.80341 280.17880 281.37256 282.43546 283.41156 284.30811
 285.12845 285.87167 286.52869 287.44635
 366.78100 356.31974 345.73648 334.58722 322.97496 311.15370 299.00844 286.79618
 274.49292 262.37466 250.36840 239.65414 229.76088 220.84962 213.01636 206.00310
 199.82184 194.74458 191.31132 189.33805 188.35979 188.40853 189.22827 190.52101
 192.23075 194.31049 196.55823 198.90197 201.33171 203.79645 205.86919 207.69593
 209.30667 210.43641 210.65015 210.86289 210.78463 210.47437 210.09211 209.70685
 209.30859 209.00333 208.79607 208.64481 208.55755 208.87329 209.24403 209.61777
 210.39551 211.55825 212.79299 214.56073 216.47347 218.50121 220.58095 222.64869
 224.69343 226.76216 228.84390 230.93464 233.04838 235.20512 237.44586 239.80060
 242.40634 244.64208 246.62882 248.37856 249.78030 250.88804 251.69478 251.99552
 252.01726 251.77600 251.12074 250.05348 248.64422 246.78996 244.68370 242.50144
 240.27718 238.06592 235.87066 233.69440 231.53914 229.39088 227.40162 225.54336
 223.81110 222.26784 220.88258 219.63932 218.50606 217.45080 216.53954 215.66527
 214.89201 214.05675 213.13949 212.48823 211.92297 212.91873 215.27133 217.87869
 219.73724 221.51260 223.14499 224.75876 226.14265 227.43579 228.97249 229.36214
 228.93272 229.11345 231.89799 236.68843 241.52959 245.95374 249.98798 253.72592
 257.22668 260.51373 263.54623 266.22842 268.63562 270.83282 272.68027 274.28766
 275.71570 277.34402 278.85861 280.20975 281.39124 282.44467 283.41464 284.30566
 285.12399 285.86584 286.52234 287.44040
 366.78100 356.31898 345.73497 334.58495 322.97194 311.14992 299.00390 286.79089
 274.48687 262.36786 250.36084 239.64582 229.75181 220.83979 213.00578 205.99176
 199.80974 194.73173 191.29771 189.32370 188.34468 188.39266 189.21165 190.50363
 192.21262 194.29160 196.53858 198.88157 201.31055 203.77454 205.84652 207.67250
 209.28249 210.41147 210.62445 210.83644 210.75742 210.44641 210.06339 209.67737
 209.27836 208.97234 208.76433 208.61231 208.52429 208.83928 209.20926 209.58225
 210.35923 211.52121 212.75520 214.52218 216.43417 218.46115 220.54013 222.60712
 224.65110 226.71909 228.80007 230.89005 233.00304 235.15902 237.39901 239.75299
 242.35797 244.59296 246.57894 248.32793 249.72891 250.83589 251.64188 251.94186
 251.96285 251.72083 251.06481 249.99680 248.58678 246.73177 244.62475 242.44173
 240.21672 238.00470 235.80869 233.63167 231.47565 229.32664 227.33662 225.47761
 223.74459 222.20057 220.81456 219.57054 218.43653 217.38051 216.46849 215.59348
 214.81946 213.98344 213.06543 212.41341 211.84740 212.89662 215.37552 218.00339
 219.76831 221.55092 223.18758 224.86089 226.25577 227.46056 228.84277 229.31506
 228.83099 228.84140 231.75778 236.63658 241.49246 245.91252 249.92024 253.64925
 257.16437 260.48059 263.54514 266.25296 268.67276 270.86905 272.69766 274.27603
 275.77609 277.28992 278.81079 280.17987 281.36792 282.42557 283.39789 284.29007
 285.10965 285.85257 286.51019 287.42834
 366.78100 356.31836 345.73373 334.58309 322.96946 311.14682 299.00018 286.78655
 274.48191 262.36227 250.35464 239.63900 229.74437 220.83173 212.99709 205.98246
 199.79982 194.72119 191.28655 189.31191 188.33228 188.37964 189.19800 190.48937
 192.19773 194.27610 196.52246 198.86482 201.29319 203.75655 205.82792 207.65328
 209.26264 210.39101 210.60337 210.81473 210.73510 210.42346 210.03983 209.65319
 209.25355 208.94692 208.73828 208.58565 208.49701 208.81137 209.18074 209.55310
 210.32946 211.49083 212.72419 214.49056 216.40192 218.42828 220.50665 222.57301
 224.61638 226.68374 228.76410 230.85347 232.96583 235.12119 237.36056 239.71392
 242.31829 244.55265 246.53801 248.28638 249.68674 250.79311 251.59847 251.89783
 251.91820 251.67556 251.01892 249.95029 248.53965 246.68402 244.57638 242.39274
 240.16711 237.95447 235.75784 233.58020 231.42356 229.27393 227.28329 225.42366
 223.69002 222.14538 220.75875 219.51411 218.37947 217.32284 216.41020 215.53457
 214.75993 213.92329 213.00466 212.35202 211.78539 212.88286 215.47578 218.13802
 219.79300 221.57790 223.19818 224.93414 226.49477 227.57611 228.61877 229.12807
 228.68286 228.67174 231.67525 236.59262 241.45799 245.86014 249.85036 253.57820
 257.10596 260.44888 263.54349 266.27692 268.70886 270.90411 272.71387 274.26212
 275.81586 277.26025 278.77399 280.14774 281.33957 282.40063 283.37457 284.26962
 285.08917 285.83072 286.49002 287.41217
 366.78100 356.31775 345.73250 334.58126 322.96701 311.14376 298.99651 286.78226
 274.47701 262.35677 250.34852 239.63227 229.73702 220.82377 212.98853 205.97328
 199.79003 194.71078 191.27553 189.30028 188.32004 188.36679 189.18454 190.47529
 192.18304 194.26080 196.50655 198.84830 201.27605 203.73880 205.80955 207.63431
 209.24306 210.37081 210.58256 210.79331 210.71307 210.40082 210.01657 209.62932
 209.22907 208.92182 208.71258 208.55933 208.47008 208.78383 209.15258 209.52434
 210.30009 211.46084 212.69359 214.45934 216.37009 218.39585 220.47360 222.53935
 224.58210 226.64885 228.72861 230.81736 232.92911 235.08386 237.32261 239.67536
 242.27912 244.51287 246.49762 248.24537 249.64512 250.75088 251.55563 251.85438
 251.87413 251.63088 250.97363 249.90439 248.49314 246.63689 244.52864 242.34439
 240.11815 237.90490 235.70765 233.52940 231.37215 229.22190 227.23066 225.37041
 223.63616 222.09091 220.70366 219.45842 218.32317 217.26592 216.35267 215.47642
 214.70117 213.86393 212.94468 212.29143 211.72418 212.87151 215.58215 218.25951
 219.82825 221.59512 223.25024 224.98962 226.63116 227.65726 228.49345 228.92578
 228.45615 228.52303 231.62752 236.55377 241.41347 245.80443 249.79001 253.51472
 257.05008 260.41504 263.53955 266.29770 268.74210 270.93735 272.72913 274.24890
 275.81250 277.23880 278.75040 280.12616 281.31879 282.38129 283.35736 284.25128
 285.07059 285.81491 286.47269 287.39795
 366.78100 356.31732 345.73163 334.57995 322.96527 311.14159 298.99390 286.77922
 274.47354 262.35286 250.34417 239.62749 229.73181 220.81812 212.98244 205.96676
 199.78308 194.70339 191.26771 189.29203 188.31135 188.35766 189.17498 190.46530
 192.17261 194.24993 196.49525 198.83657 201.26388 203.72620 205.79652 207.62083
 209.22915 210.35647 210.56779 210.77810 210.69742 210.38474 210.00006 209.61237
 209.21169 208.90401 208.69432 208.54064 208.45096 208.76428 209.13259 209.50391
 210.27923 211.43955 212.67186 214.43718 216.34750 218.37281 220.45013 222.51545
 224.55777 226.62408 228.70340 230.79172 232.90304 235.05735 237.29567 239.64799
 242.25130 244.48462 246.46894 248.21626 249.61557 250.72089 251.52521 251.82352
 251.84284 251.59916 250.94148 249.87179 248.46011 246.60343 244.49475 242.31006
 240.08338 237.86970 235.67201 233.49333 231.33565 229.18497 227.19328 225.33260
 223.59792 222.05224 220.66455 219.41887 218.28319 217.22550 216.31182 215.43514
 214.65946 213.82177 212.90209 212.24841 211.68073 212.87144 215.68465 218.36517
 219.88351 221.61749 223.32042 225.05048 226.66531 227.66725 228.46271 228.73834
 228.18544 228.37749 231.60130 236.51927 241.36012 245.74973 249.73627 253.45851
 256.99936 260.38232 263.53113 266.31299 268.76974 270.96439 272.74088 274.23480
 275.62143 277.26974 278.79797 280.15280 281.33551 282.38870 283.35748 284.24823
 285.06561 285.80707 286.46396 287.38712
 366.78100 356.31725 345.73150 334.57975 322.96501 311.14126 298.99351 286.77876
 274.47301 262.35226 250.34351 239.62677 229.73102 220.81727 212.98152 205.96577
 199.78202 194.70228 191.26653 189.29078 188.31003 188.35628 189.17353 190.46378
 192.17104 194.24829 196.49354 198.83479 201.26204 203.72429 205.79454 207.61880
 209.22705 210.35430 210.56555 210.77580 210.69505 210.38230 209.99756 209.60981
 209.20906 208.90131 208.69156 208.53781 208.44807 208.76132 209.12957 209.50082
 210.27607 211.43632 212.66857 214.43383 216.34408 218.36933 220.44658 222.51183
 224.55408 226.62033 228.69959 230.78784 232.89909 235.05334 237.29159 239.64384
 242.24710 244.48035 246.46460 248.21185 249.61110 250.71635 251.52060 251.81886
 251.83811 251.59436 250.93661 249.86686 248.45511 246.59836 244.48962 242.30487
 240.07812 237.86437 235.66662 233.48787 231.33012 229.17938 227.18763 225.32688
 223.59213 222.04638 220.65863 219.41289 218.27714 217.21939 216.30564 215.42889
 214.65314 213.81539 212.89565 212.24190 211.67415 212.89191 215.76903 218.46800
 219.95302 221.64752 223.38055 225.11172 226.66415 227.65672 228.45613 228.55171
 227.91393 228.25000 231.58638 236.48311 241.30305 245.69527 249.68504 253.40771
 256.95395 260.35031 263.51944 266.32199 268.78983 270.98532 272.74780 274.21732
 275.71362 277.21124 278.73395 280.10641 281.29822 282.35849 283.33292 284.22473
 285.04382 285.78723 286.44559 287.36865
 366.78100 356.31746 345.73192 334.58038 322.96583 311.14229 298.99475 286.78021
 274.47467 262.35413 250.34558 239.62904 229.73350 220.81996 212.98442 205.96888
 199.78533 194.70579 191.27025 189.29471 188.31417 188.36063 189.17808 190.46854
 192.17600 194.25346 196.49892 198.84038 201.26784 203.73029 205.80075 207.62521
 209.23367 210.36113 210.57259 210.78304 210.70250 210.38996 210.00542 209.61788
 209.21734 208.90979 208.70025 208.54671 208.45717 208.77063 209.13909 209.51054
 210.28600 211.44646 212.67892 214.44438 216.35484 218.38029 220.45775 222.52321
 224.56567 226.63213 228.71159 230.80005 232.91150 235.06596 237.30442 239.65688
 242.26034 244.49380 246.47825 248.22571 249.62517 250.73063 251.53509 251.83355
 251.85300 251.60946 250.95192 249.88238 248.47084 246.61430 244.50575 242.32121
 240.09467 237.88113 235.68359 233.50505 231.34751 229.19696 227.20542 225.34488
 223.61034 222.06480 220.67726 219.43171 218.29617 217.23863 216.32509 215.44855
 214.67301 213.83546 212.91592 212.26238 211.69484 212.92795 215.84134 218.56602
 220.03291 221.68457 223.43431 225.17172 226.64857 227.64175 228.44278 228.36780
 227.66699 228.14935 231.57104 236.44110 241.24344 245.63882 249.63567 253.36310
 256.91357 260.31992 263.50558 266.32526 268.80365 270.99768 272.74863 274.20132
 275.57693 277.22650 278.76068 280.11951 281.30252 282.35895 283.32675 284.21765
 285.03497 285.77399 286.43204 287.36038
 366.78100 356.31780 345.73260 334.58141 322.96721 311.14401 298.99681 286.78261
 274.47742 262.35722 250.34902 239.63282 229.73762 220.82443 212.98923 205.97403
 199.79083 194.71163 191.27644 189.30124 188.32104 188.36784 189.18564 190.47645
 192.18425 194.26205 196.50785 198.84965 201.27746 203.74026 205.81106 207.63586
 209.24466 210.37247 210.58427 210.79507 210.71487 210.40267 210.01848 209.63128
 209.23108 208.92388 208.71468 208.56149 208.47229 208.78609 209.15489 209.52670
 210.30250 211.46330 212.69610 214.46190 216.37271 218.39851 220.47631 222.54211
 224.58491 226.65172 228.73152 230.82032 232.93212 235.08692 237.32573 239.67853
 242.28233 244.51613 246.50093 248.24874 249.64854 250.75434 251.55914 251.85794
 251.87775 251.63455 250.97735 249.90815 248.49695 246.64076 244.53256 242.34836
 240.12216 237.90896 235.71177 233.53357 231.37637 229.22617 227.23497 225.37478
 223.64058 222.09538 220.70818 219.46298 218.32779 217.27059 216.35739 215.48119
 214.70599 213.86880 212.94960 212.29640 211.72920 212.97231 215.90929 218.64944
 220.12267 221.73462 223.48759 225.22488 226.62392 227.61531 228.41650 228.19865
 227.45802 228.07248 231.54857 236.39072 241.17917 245.58047 249.58928 253.32370
 256.87680 260.28918 263.48752 266.32205 268.80948 271.00235 272.74570 274.18323
 275.65042 277.17542 278.70319 280.07675 281.26944 282.32855 283.30283 284.19467
 285.01392 285.75742 286.41583 287.34531
 366.78100 356.31829 345.73358 334.58288 322.96917 311.14646 298.99975 286.78605
 274.48134 262.36163 250.35392 239.63822 229.74351 220.83080 212.99609 205.98139
 199.79868 194.71997 191.28526 189.31056 188.33085 188.37814 189.19643 190.48773
 192.19602 194.27431 196.52060 198.86290 201.29119 203.75448 205.82577 207.65107
 209.26036 210.38865 210.60094 210.81224 210.73253 210.42082 210.03711 209.65041
 209.25070 208.94399 208.73528 208.58257 208.49387 208.80816 209.17745 209.54974
 210.32604 211.48733 212.72062 214.48691 216.39821 218.42450 220.50279 222.56908
 224.61238 226.67967 228.75996 230.84925 232.96155 235.11684 237.35613 239.70942
 242.31372 244.54801 246.53330 248.28159 249.68189 250.78818 251.59347 251.89276
 251.91306 251.67035 251.01364 249.94493 248.53423 246.67852 244.57081 242.38710
 240.16140 237.94869 235.75198 233.57427 231.41756 229.26786 227.27715 225.41744
 223.68373 222.13903 220.75232 219.50761 218.37290 217.31620 216.40349 215.52778
 214.75307 213.91637 212.99766 212.34495 211.77824 213.02522 215.97137 218.71843
 220.21886 221.80214 223.54628 225.26433 226.59457 227.57959 228.37357 228.05022
 227.28787 228.01399 231.52068 236.33064 241.10916 245.52155 249.54675 253.28999
 256.84470 260.26035 263.46686 266.31390 268.80798 270.99936 272.73825 274.16910
 275.53229 277.18683 278.72552 280.08725 281.27249 282.32819 283.29916 284.18893
 285.00586 285.74704 286.40353 287.33420
 366.78100 356.31895 345.73490 334.58485 322.97181 311.14976 299.00371 286.79066
 274.48661 262.36756 250.36052 239.64547 229.75142 220.83937 213.00532 205.99127
 199.80923 194.73118 191.29713 189.32308 188.34403 188.39198 189.21094 190.50289
 192.21184 194.29079 196.53774 198.88069 201.30965 203.77360 205.84555 207.67150
 209.28145 210.41040 210.62336 210.83531 210.75626 210.44521 210.06216 209.67611
 209.27706 208.97102 208.76297 208.61092 208.52287 208.83782 209.20777 209.58073
 210.35768 211.51963 212.75358 214.52053 216.43248 218.45944 220.53839 222.60534
 224.64929 226.71724 228.79819 230.88815 233.00110 235.15705 237.39700 239.75095
 242.35590 244.59086 246.57681 248.32576 249.72671 250.83366 251.63961 251.93957
 251.96052 251.71847 251.06242 249.99437 248.58432 246.72927 244.62223 242.43918
 240.21413 238.00208 235.80603 233.62898 231.47294 229.32389 227.33384 225.47479
 223.74174 222.19769 220.81165 219.56760 218.43355 217.37750 216.46545 215.59040
 214.81636 213.98031 213.06226 212.41021 211.84416 213.08780 216.02602 218.77710
 220.31602 221.88921 223.61327 225.29300 226.56526 227.53975 228.31116 227.91637
 227.15207 227.96854 231.48692 236.26323 241.03546 245.46353 249.50854 253.26221
 256.81732 260.23203 263.44348 266.30161 268.80157 270.99103 272.72729 274.15347
 275.59872 277.14578 278.67752 280.05063 281.24390 282.30399 283.27899 284.17230
 284.98999 285.73331 286.39157 287.32416
 366.78100 356.31979 345.73658 334.58737 322.97516 311.15395 299.00875 286.79654
 274.49333 262.37512 250.36891 239.65470 229.76149 220.85028 213.01707 206.00386
 199.82265 194.74544 191.31224 189.33903 188.36082 188.40961 189.22940 190.52219
 192.23198 194.31177 196.55956 198.90335 201.33314 203.79793 205.87073 207.69752
 209.30831 210.43810 210.65189 210.86468 210.78647 210.47626 210.09405 209.70884
 209.31063 209.00542 208.79822 208.64701 208.55980 208.87559 209.24638 209.62017
 210.39796 211.56075 212.79554 214.56333 216.47612 218.50392 220.58371 222.65150
 224.69629 226.76508 228.84687 230.93766 233.05145 235.20824 237.44903 239.80382
 242.40961 244.64541 246.63220 248.38199 249.78378 250.89157 251.69836 251.99915
 252.02094 251.77973 251.12452 250.05731 248.64810 246.79390 244.68769 242.50548
 240.28127 238.07006 235.87485 233.69864 231.54343 229.39522 227.40601 225.54780
 223.81560 222.27239 220.88718 219.64397 218.51076 217.45555 216.54434 215.67013
 214.89692 214.06171 213.14450 212.49329 211.92809 213.16072 216.07294 218.82545
 220.41541 221.99008 223.68858 225.31271 226.54228 227.50072 228.23761 227.78723
 227.03027 227.93384 231.45361 236.19101 240.95901 245.40533 249.47223 253.23979
 256.79681 260.20865 263.42267 266.28802 268.79111 270.97345 272.70609 274.13446
 275.52286 277.14114 278.68466 280.05704 281.24817 282.30698 283.27988 284.17184
 284.98920 285.73148 286.38885 287.32407
 366.78100 356.32058 345.73815 334.58973 322.97831 311.15789 299.01346 286.80204
 274.49962 262.38219 250.37677 239.66335 229.77093 220.86050 213.02808 206.01566
 199.83523 194.75881 191.32639 189.35397 188.37654 188.42612 189.24670 190.54027
 192.25085 194.33143 196.58001 198.92458 201.35516 203.82074 205.89431 207.72189
 209.33347 210.46405 210.67862 210.89220 210.81478 210.50535 210.12393 209.73951
 209.34209 209.03766 208.83124 208.68082 208.59439 208.91097 209.28255 209.65713
 210.43570 211.59928 212.83486 214.60343 216.51701 218.54559 220.62617 222.69474
 224.74032 226.80990 228.89247 230.98405 233.09863 235.25621 237.49778 239.85336
 242.45994 244.69651 246.68409 248.43467 249.83725 250.94582 251.75340 252.05498
 252.07755 251.83713 251.18271 250.11629 248.70786 246.85444 244.74902 242.56759
 240.34417 238.13375 235.93933 233.76390 231.60948 229.46206 227.47363 225.61621
 223.88479 222.34237 220.95794 219.71552 218.58310 217.52867 216.61825 215.74483
 214.97241 214.13798 213.22156 212.57114 212.00671 213.23184 216.12631 218.84779
 220.52676 222.10725 223.75252 225.33759 226.52251 227.46619 228.16113 227.65044
 226.92172 227.90932 231.41325 236.11412 240.87892 245.34457 249.44032 253.22777
 256.78674 260.19174 263.40262 266.27228 268.77536 270.94675 272.67325 274.10574
 275.45880 277.13516 278.68881 280.05890 281.24988 282.30896 283.28189 284.17319
 284.99014 285.73282 286.38934 287.32709
 366.78100 356.32178 345.74055 334.59333 322.98310 311.16388 299.02066 286.81043
 274.50921 262.39298 250.38876 239.67653 229.78531 220.87609 213.04486 206.03364
 199.85441 194.77919 191.34797 189.37674 188.40052 188.45129 189.27307 190.56784
 192.27962 194.36140 196.61117 198.95695 201.38872 203.85550 205.93028 207.75905
 209.37183 210.50360 210.71938 210.93416 210.85793 210.54971 210.16948 209.78626
 209.39003 209.08681 208.88159 208.73236 208.64714 208.96491 209.33769 209.71347
 210.49324 211.65802 212.89479 214.66457 216.57935 218.60912 220.69090 222.76067
 224.80745 226.87822 228.96200 231.05478 233.17055 235.32933 237.57210 239.92888
 242.53666 244.77443 246.76321 248.51498 249.91876 251.02853 251.83731 252.14009
 252.16386 251.92464 251.27141 250.20619 248.79897 246.94674 244.84252 242.66229
 240.44007 238.23085 236.03762 233.86340 231.71017 229.56395 227.57672 225.72050
 223.99028 222.44905 221.06583 219.82460 218.69338 217.64016 216.73093 215.85871
 215.08748 214.25426 213.33904 212.68981 212.12659 213.32361 216.15170 218.89432
 220.59993 222.23763 223.84744 225.34836 226.52065 227.42690 228.07217 227.56569
 226.83813 227.85303 231.36494 236.03340 240.79533 245.28914 249.42259 253.22809
 256.78293 260.17657 263.38083 266.25323 268.75308 270.91232 272.63174 274.07065
 275.43433 277.12265 278.68140 280.05362 281.24515 282.30737 283.28006 284.17191
 284.98752 285.72772 286.38599 287.32065
 366.78100 356.32298 345.74296 334.59693 322.98791 311.16989 299.02787 286.81884
 274.51882 262.40380 250.40078 239.68975 229.79973 220.89171 213.06169 206.05166
 199.87364 194.79962 191.36960 189.39958 188.42455 188.47653 189.29951 190.59549
 192.30846 194.39144 196.64242 198.98940 201.42237 203.89035 205.96633 207.79631
 209.41028 210.54326 210.76024 210.97622 210.90120 210.59417 210.21515 209.83313
 209.43811 209.13608 208.93206 208.78404 208.70002 209.01899 209.39297 209.76995
 210.55093 211.71690 212.95488 214.72586 216.64184 218.67282 220.75579 222.82677
 224.87475 226.94673 229.03170 231.12568 233.24266 235.40264 237.64661 240.00459
 242.61357 244.85255 246.84252 248.59550 250.00048 251.11146 251.92144 252.22541
 252.25039 252.01237 251.36035 250.29632 248.89030 247.03928 244.93626 242.75723
 240.53621 238.32819 236.13617 233.96315 231.81112 229.66610 227.68008 225.82506
 224.09603 222.55601 221.17399 219.93397 218.80394 217.75192 216.84390 215.97288
 215.20285 214.37083 213.45681 212.80879 212.24677 213.41629 216.17941 218.92509
 220.69327 222.32965 223.96945 225.41045 226.44322 227.37369 228.08083 227.41951
 226.65126 227.80386 231.31360 235.94579 240.71947 245.24983 249.41640 253.23155
 256.77908 260.16272 263.36105 266.23550 268.73132 270.87531 272.58823 274.03458
 275.42001 277.11398 278.67368 280.04700 281.24023 282.30124 283.27621 284.16843
 284.98404 285.72464 286.38049 287.32083
 366.78100 356.32399 345.74499 334.59998 322.99198 311.17497 299.03396 286.82596
 274.52695 262.41295 250.41094 239.70093 229.81193 220.90492 213.07592 206.06691
 199.88990 194.81690 191.38789 189.41889 188.44488 188.49787 189.32187 190.61886
 192.33286 194.41685 196.66885 199.01684 201.45083 203.91983 205.99682 207.82782
 209.44281 210.57680 210.79480 211.01179 210.93779 210.63178 210.25377 209.87277
 209.47876 209.17776 208.97475 208.82774 208.74474 209.06473 209.43973 209.81772
 210.59971 211.76671 213.00570 214.77770 216.69469 218.72668 220.81068 222.88267
 224.93167 227.00466 229.09065 231.18565 233.30364 235.46464 237.70963 240.06862
 242.67862 244.91861 246.90961 248.66360 250.06959 251.18159 251.99258 252.29758
 252.32357 252.08656 251.43556 250.37255 248.96755 247.11754 245.01554 242.83753
 240.61752 238.41052 236.21951 234.04751 231.89650 229.75249 227.76749 225.91348
 224.18548 222.64647 221.26546 220.02646 218.89745 217.84645 216.93944 216.06943
 215.30043 214.46942 213.55642 212.90941 212.34840 213.49944 216.21890 218.94388
 220.78030 222.40637 224.11415 225.54115 226.41862 227.29372 227.97414 227.41930
 226.60757 227.62497 231.23390 235.89799 240.66591 245.21951 249.40941 253.23604
 256.78152 260.15518 263.34671 266.22153 268.70935 270.83420 272.53763 273.99304
 275.40491 277.10547 278.66534 280.03937 281.23383 282.29489 283.27048 284.16357
 284.97858 285.72006 286.37491 287.31494
 366.78100 356.32505 345.74709 334.60314 322.99618 311.18023 299.04027 286.83332
 274.53536 262.42241 250.42146 239.71250 229.82455 220.91859 213.09064 206.08268
 199.90673 194.83477 191.40682 189.43886 188.46591 188.51996 189.34500 190.64305
 192.35809 194.44314 196.69618 199.04523 201.48027 203.95032 206.02837 207.86041
 209.47646 210.61150 210.83055 211.04859 210.97564 210.67068 210.29373 209.91378
 209.52082 209.22087 209.01891 208.87296 208.79100 209.11205 209.48809 209.86714
 210.65019 211.81823 213.05828 214.83132 216.74937 218.78241 220.86746 222.94050
 224.99055 227.06459 229.15164 231.24769 233.36673 235.52878 237.77482 240.13487
 242.74591 244.98696 246.97900 248.73405 250.14110 251.25414 252.06619 252.37223
 252.39928 252.16332 251.51337 250.45141 249.04746 247.19851 245.09755 242.92060
 240.70164 238.49569 236.30573 234.13478 231.98482 229.84187 227.85791 226.00496
 224.27801 222.74005 221.36010 220.12214 218.99419 217.94423 217.03828 216.16932
 215.40137 214.57142 213.65946 213.01351 212.45355 213.58424 216.25566 218.95996
 220.86760 222.51270 224.16841 225.60451 226.52872 227.28038 227.79587 227.36938
 226.60455 227.51955 231.17700 235.84999 240.60464 245.17757 249.39789 253.24594
 256.79202 260.15527 263.33768 266.20993 268.68680 270.78668 272.47742 273.94101
 275.38705 277.09387 278.65436 280.03024 281.22357 282.28726 283.26276 284.15433
 284.97079 285.71176 286.36700 287.30988
 366.78100 356.32606 345.74913 334.60619 323.00026 311.18532 299.04639 286.84045
 274.54352 262.43158 250.43165 239.72371 229.83678 220.93184 213.10491 206.09797
 199.92304 194.85210 191.42517 189.45823 188.48630 188.54136 189.36743 190.66649
 192.38256 194.46862 196.72269 199.07275 201.50882 203.97988 206.05895 207.89201
 209.50908 210.64514 210.86521 211.08427 211.01234 210.70840 210.33247 209.95353
 209.56160 209.26266 209.06173 208.91679 208.83586 209.15792 209.53499 209.91505
 210.69912 211.86818 213.10925 214.88331 216.80238 218.83644 220.92251 222.99657
 225.04764 227.12270 229.21077 231.30783 233.42790 235.59096 237.83803 240.19909
 242.81116 245.05322 247.04629 248.80235 250.21042 251.32448 252.13755 252.44461
 252.47268 252.23774 251.58881 250.52787 249.12494 247.27700 245.17707 243.00113
 240.78320 238.57826 236.38933 234.21939 232.07046 229.92852 227.94559 226.09365
 224.36772 222.83078 221.45185 220.21491 219.08798 218.03904 217.13411 216.26617
 215.49924 214.67030 213.75937 213.11443 212.55550 213.66675 216.29221 218.97276
 220.95013 222.63416 224.18690 225.62485 226.67975 227.31726 227.63049 227.27908
 226.57507 227.44763 231.12302 235.78761 240.53807 245.13834 249.39417 253.26338
 256.80542 260.15643 263.32950 266.19876 268.66226 270.73495 272.41135 273.88467
 275.36606 277.08005 278.64249 280.01706 281.21301 282.27737 283.25183 284.14566
 284.96109 285.70276 286.35672 287.30225
 366.78100 356.32689 345.75079 334.60868 323.00357 311.18947 299.05136 286.84625
 274.55015 262.43904 250.43994 239.73283 229.84672 220.94262 213.11651 206.11040
 199.93630 194.86619 191.44008 189.47398 188.50287 188.55876 189.38566 190.68555
 192.40244 194.48934 196.74423 199.09512 201.53202 204.00391 206.08381 207.91770
 209.53559 210.67249 210.89338 211.11327 211.04217 210.73906 210.36395 209.98585
 209.59474 209.29663 209.09653 208.95242 208.87231 209.19521 209.57310 209.95400
 210.73889 211.90878 213.15068 214.92557 216.84546 218.88036 220.96725 223.04214
 225.09404 227.16993 229.25882 231.35672 233.47761 235.64150 237.88940 240.25129
 242.86418 245.10708 247.10097 248.85787 250.26676 251.38165 252.19555 252.50344
 252.53233 252.29823 251.65012 250.59001 249.18791 247.34080 245.24169 243.06659
 240.84948 238.64537 236.45727 234.28816 232.14006 229.99895 228.01684 226.16574
 224.44063 222.90452 221.52642 220.29031 219.16420 218.11610 217.21199 216.34488
 215.57878 214.75067 213.84056 213.19646 212.63835 213.73894 216.33920 218.98213
 221.02257 222.74519 224.21948 225.65842 226.80756 227.36053 227.48523 227.15315
 226.51842 227.39557 231.07115 235.72719 240.48141 245.10918 249.39722 253.28209
 256.81906 260.15790 263.32184 266.18723 268.63687 270.68060 272.34113 273.82364
 275.34274 277.06366 278.62616 280.00244 281.19778 282.26175 283.23807 284.13135
 284.94592 285.68829 286.34293 287.28860
 366.78100 356.32766 345.75232 334.61099 323.00665 311.19331 299.05597 286.85163
 274.55630 262.44596 250.44762 239.74128 229.85594 220.95261 213.12727 206.12193
 199.94859 194.87925 191.45392 189.48858 188.51824 188.57490 189.40256 190.70322
 192.42089 194.50855 196.76421 199.11587 201.55353 204.02620 206.10686 207.94152
 209.56018 210.69784 210.91951 211.14017 211.06983 210.76749 210.39315 210.01582
 209.62548 209.32814 209.12880 208.98546 208.90613 209.22979 209.60845 209.99011
 210.77577 211.94644 213.18910 214.96476 216.88542 218.92108 221.00875 223.08441
 225.13707 227.21373 229.30339 231.40205 233.52372 235.68838 237.93704 240.29970
 242.91336 245.15703 247.15169 248.90935 250.31901 251.43467 252.24934 252.55800
 252.58766 252.35432 251.70698 250.64765 249.24631 247.39997 245.30163 243.12729
 240.91096 238.70762 236.52028 234.35194 232.20460 230.06427 228.08293 226.23259
 224.50825 222.97291 221.59558 220.36024 219.23490 218.18756 217.28422 216.41788
 215.65255 214.82521 213.91587 213.27253 212.71519 213.80746 216.38811 218.99545
 221.08484 222.83269 224.27196 225.71873 226.90523 227.39037 227.36774 226.99896
 226.42441 227.35611 231.03156 235.67856 240.43562 245.08578 249.40125 253.30075
 256.83295 260.16061 263.31442 266.17477 268.60788 270.62366 272.26837 273.75809
 275.31409 277.04211 278.60501 279.98099 281.17764 282.24216 283.21881 284.11157
 284.92801 285.66937 286.32330 287.27136
 366.78100 356.32858 345.75416 334.61374 323.01031 311.19789 299.06147 286.85805
 274.56363 262.45421 250.45678 239.75136 229.86694 220.96452 213.14010 206.13568
 199.96325 194.89483 191.47041 189.50599 188.53657 188.59415 189.42272 190.72430
 192.44288 194.53146 196.78804 199.14062 201.57919 204.05277 206.13435 207.96993
 209.58951 210.72809 210.95067 211.17224 211.10282 210.80140 210.42798 210.05156
 209.66214 209.36571 209.16729 209.02487 208.94645 209.27103 209.65061 210.03318
 210.81976 211.99134 213.23492 215.01150 216.93308 218.96965 221.05823 223.13481
 225.18839 227.26597 229.35655 231.45613 233.57870 235.74428 237.99386 240.35744
 242.97202 245.21660 247.21217 248.97075 250.38133 251.49791 252.31349 252.62307
 252.65364 252.42122 251.77480 250.71638 249.31596 247.47054 245.37311 243.19969
 240.98427 238.78185 236.59543 234.42801 232.28158 230.14216 228.16174 226.31232
 224.58890 223.05448 221.67806 220.44363 219.31921 218.27279 217.37037 216.50495
 215.74053 214.91410 214.00568 213.36326 212.80684 213.88300 216.42551 219.02100
 221.14458 222.88910 224.33344 225.79893 226.98112 227.41560 227.28300 226.82642
 226.29517 227.31595 230.99780 235.64096 240.40189 245.06999 249.41110 253.32411
 256.84970 260.16248 263.30466 266.15765 268.57092 270.55795 272.18744 273.68539
 275.28021 277.01581 278.57968 279.95551 281.15256 282.21729 283.19434 284.08838
 284.90344 285.64514 286.29999 287.24686
 366.78100 356.32940 345.75580 334.61620 323.01360 311.20200 299.06640 286.86380
 274.57020 262.46160 250.46500 239.76040 229.87680 220.97520 213.15159 206.14799
 199.97639 194.90879 191.48519 189.52159 188.55299 188.61139 189.44079 190.74319
 192.46259 194.55199 196.80939 199.16279 201.60219 204.07659 206.15899 207.99539
 209.61579 210.75519 210.97859 211.20099 211.13239 210.83179 210.45919 210.08359
 209.69498 209.39938 209.20178 209.06018 208.98258 209.30798 209.68838 210.07178
 210.85918 212.03158 213.27598 215.05338 216.97578 219.01318 221.10258 223.17998
 225.23438 227.31278 229.40418 231.50458 233.62798 235.79438 238.04478 240.40918
 243.02458 245.26998 247.26637 249.02577 250.43717 251.55457 252.37097 252.68137
 252.71277 252.48117 251.83557 250.77797 249.37837 247.53377 245.43717 243.26457
 241.04997 238.84837 236.66277 234.49617 232.35057 230.21197 228.23237 226.38377
 224.66117 223.12757 221.75197 220.51837 219.39476 218.34916 217.44756 216.58296
 215.81936 214.99376 214.08616 213.44456 212.88896 213.95305 216.46706 219.04619
 221.19635 222.94341 224.38817 225.87030 227.04962 227.44952 227.22043 226.62683
 226.11882 227.28412 230.98914 235.62129 240.38033 245.05989 249.41924 253.34300
 256.86176 260.16068 263.29202 266.13635 268.53223 270.49097 272.10559 273.61185
 275.24283 276.98477 278.54770 279.92444 281.12021 282.18521 283.16193 284.05679
 284.87146 285.61435 286.26849 287.21838
 366.78100 356.33017 345.75734 334.61851 323.01668 311.20585 299.07102 286.86919
 274.57636 262.46852 250.47269 239.76886 229.88603 220.98520 213.16237 206.15954
 199.98871 194.92188 191.49905 189.53622 188.56839 188.62756 189.45773 190.76090
 192.48107 194.57124 196.82941 199.18357 201.62374 204.09891 206.18208 208.01925
 209.64042 210.78059 211.00476 211.22793 211.16010 210.86027 210.48844 210.11361
 209.72578 209.43095 209.23412 209.09329 209.01645 209.34262 209.72379 210.10796
 210.89613 212.06930 213.31447 215.09264 217.01581 219.05398 221.14415 223.22232
 225.27749 227.35666 229.44883 231.55000 233.67417 235.84133 238.09250 240.45767
 243.07384 245.32001 247.31718 249.07735 250.48952 251.60769 252.42486 252.73603
 252.76820 252.53737 251.89254 250.83571 249.43688 247.59305 245.49722 243.32538
 241.11155 238.91072 236.72589 234.56006 232.41523 230.27740 228.29857 226.45074
 224.72891 223.19608 221.82125 220.58842 219.46559 218.42076 217.51993 216.65610
 215.89326 215.06843 214.16160 213.52077 212.96594 214.01996 216.51016 219.07759
 221.23846 222.98276 224.45433 225.94490 227.10512 227.48036 227.16209 226.42647
 225.93690 227.25694 230.99004 235.61125 240.36916 245.05550 249.42891 253.36009
 256.87036 260.15369 263.27261 266.10812 268.48810 270.42493 272.02634 273.53729
 275.20026 276.94806 278.51083 279.88693 281.08325 282.14871 283.12515 284.01898
 284.83350 285.57571 286.23166 287.17984
 366.78100 356.33085 345.75870 334.62054 323.01939 311.20924 299.07509 286.87393
 274.58178 262.47463 250.47948 239.77632 229.89417 220.99402 213.17187 206.16972
 199.99956 194.93341 191.51126 189.54911 188.58195 188.64180 189.47265 190.77650
 192.49734 194.58819 196.84704 199.20189 201.64273 204.11858 206.20243 208.04028
 209.66213 210.80297 211.02782 211.25167 211.18452 210.88536 210.51421 210.14006
 209.75291 209.45875 209.26260 209.12245 209.04630 209.37315 209.75499 210.13984
 210.92869 212.10254 213.34838 215.12723 217.05108 219.08993 221.18077 223.25962
 225.31547 227.39532 229.48817 231.59001 233.71486 235.88271 238.13456 240.50040
 243.11725 245.36410 247.36195 249.12279 250.53564 251.65449 252.47234 252.78419
 252.81703 252.58688 251.94273 250.88658 249.48842 247.64527 245.55012 243.37897
 241.16581 238.96566 236.78151 234.61636 232.47220 230.33505 228.35690 226.50975
 224.78860 223.25644 221.88229 220.65014 219.52799 218.48383 217.58368 216.72053
 215.95838 215.13422 214.22807 213.58792 213.03377 214.08136 216.55644 219.11336
 221.26907 223.01045 224.52428 226.02385 227.15863 227.51056 227.10425 226.23822
 225.76889 227.22650 230.98503 235.60719 240.36900 245.05754 249.43974 253.37494
 256.87366 260.13837 263.24506 266.07193 268.43796 270.35941 271.95306 273.46780
 275.15326 276.90317 278.46567 279.84167 281.03802 282.10175 283.08002 283.97449
 284.78900 285.53058 286.18665 287.13712
 366.78100 356.33140 345.75981 334.62221 323.02162 311.21202 299.07842 286.87783
 274.58623 262.47963 250.48504 239.78244 229.90085 221.00125 213.17965 206.17806
 200.00846 194.94287 191.52127 189.55967 188.59308 188.65348 189.48488 190.78929
 192.51069 194.60210 196.86150 199.21690 201.65831 204.13471 206.21912 208.05752
 209.67992 210.82133 211.04673 211.27114 211.20454 210.90594 210.53535 210.16175
 209.77515 209.48156 209.28596 209.14637 209.07077 209.39817 209.78058 210.16598
 210.95539 212.12979 213.37619 215.15560 217.08000 219.11940 221.21081 223.29021
 225.34662 227.42702 229.52042 231.62283 233.74823 235.91664 238.16904 240.53544
 243.15285 245.40025 247.39865 249.16006 250.57346 251.69287 252.51127 252.82367
 252.85708 252.62748 251.98389 250.92829 249.53069 247.68810 245.59350 243.42290
 241.21031 239.01071 236.82712 234.66252 232.51892 230.38233 228.40473 226.55814
 224.83754 223.30594 221.93235 220.70075 219.57916 218.53556 217.63596 216.77337
 216.01177 215.18817 214.28258 213.64298 213.08939 214.13530 216.60638 219.15169
 221.28795 223.03650 224.58946 226.09325 227.21835 227.55222 227.05339 226.05145
 225.59843 227.19353 230.98083 235.61316 240.38170 245.06631 249.44774 253.38045
 256.86520 260.11304 263.21078 266.03128 268.38647 270.29538 271.88867 273.41458
 275.10056 276.85031 278.41260 279.78760 280.98376 282.04681 283.02512 283.91846
 284.73422 285.47626 286.13480 287.07983
 366.78100 356.33178 345.76055 334.62333 323.02311 311.21388 299.08066 286.88044
 274.58921 262.48299 250.48877 239.78654 229.90532 221.00610 213.18487 206.18365
 200.01443 194.94920 191.52798 189.56676 188.60053 188.66131 189.49309 190.79786
 192.51964 194.61142 196.87119 199.22697 201.66875 204.14552 206.23030 208.06908
 209.69185 210.83363 211.05941 211.28418 211.21796 210.91974 210.54951 210.17629
 209.79007 209.49684 209.30162 209.16240 209.08717 209.41495 209.79773 210.18350
 210.97328 212.14805 213.39483 215.17461 217.09938 219.13916 221.23094 223.31071
 225.36749 227.44827 229.54204 231.64482 233.77060 235.93937 238.19215 240.55893
 243.17670 245.42448 247.42326 249.18503 250.59881 251.71859 252.53736 252.85014
 252.88392 252.65469 252.01147 250.95625 249.55902 247.71680 245.62258 243.45235
 241.24013 239.04091 236.85768 234.69346 232.55024 230.41401 228.43679 226.59057
 224.87034 223.33912 221.96590 220.73467 219.61345 218.57023 217.67100 216.80878
 216.04756 215.22433 214.31911 213.67989 213.12666 214.17833 216.66299 219.18759
 221.30290 223.05920 224.64629 226.15459 227.27588 227.61139 227.02234 225.85342
 225.40672 227.16443 230.98988 235.63246 240.40349 245.07562 249.44853 253.37531
 256.84579 260.07935 263.16956 265.98730 268.33679 270.23862 271.83386 273.37180
 275.04459 276.79083 278.35242 279.72693 280.92062 281.98480 282.96075 283.85562
 284.67181 285.41348 286.07281 287.02725
 366.78100 356.33231 345.76163 334.62494 323.02525 311.21657 299.08388 286.88419
 274.59351 262.48782 250.49413 239.79245 229.91176 221.01307 213.19239 206.19170
 200.02301 194.95833 191.53764 189.57695 188.61127 188.67258 189.50489 190.81021
 192.53252 194.62483 196.88515 199.24146 201.68377 204.16109 206.24640 208.08571
 209.70903 210.85134 211.07765 211.30296 211.23728 210.93959 210.56990 210.19722
 209.81153 209.51884 209.32416 209.18547 209.11078 209.43910 209.82241 210.20872
 210.99904 212.17435 213.42166 215.20198 217.12729 219.16760 221.25992 223.34023
 225.39754 227.47886 229.57317 231.67648 233.80280 235.97211 238.22542 240.59274
 243.21105 245.45936 247.45868 249.22099 250.63530 251.75562 252.57493 252.88824
 252.92256 252.69387 252.05118 250.99650 249.59981 247.75812 245.66444 243.49475
 241.28306 239.08438 236.90169 234.73800 232.59532 230.45963 228.48294 226.63726
 224.91757 223.38688 222.01420 220.78351 219.66282 218.62014 217.72145 216.85976
 216.09908 215.27639 214.37170 213.73302 213.18033 214.22800 216.70323 219.23799
 221.31763 223.06679 224.68425 226.20116 227.35532 227.69855 226.99855 225.65730
 225.21974 227.13269 230.98828 235.65099 240.42949 245.08743 249.44875 253.36801
 256.82364 260.04111 263.12500 265.94095 268.28659 270.18192 271.77905 273.32349
 274.98425 276.72650 278.28720 279.66040 280.85443 281.91742 282.89276 283.78781
 284.60434 285.34821 286.00784 286.95792
 366.78100 356.33305 345.76310 334.62715 323.02820 311.22025 299.08831 286.88936
 274.59941 262.49446 250.50151 239.80056 229.92061 221.02266 213.20271 206.20276
 200.03481 194.97087 191.55092 189.59097 188.62602 188.68807 189.52112 190.82717
 192.55022 194.64327 196.90432 199.26137 201.70443 204.18248 206.26853 208.10858
 209.73263 210.87568 211.10273 211.32878 211.26383 210.96688 210.59793 210.22598
 209.84104 209.54909 209.35514 209.21719 209.14324 209.47229 209.85634 210.24339
 211.03444 212.21049 213.45854 215.23960 217.16565 219.20670 221.29975 223.38080
 225.43885 227.52090 229.61595 231.72000 233.84705 236.01710 238.27116 240.63921
 243.25826 245.50731 247.50736 249.27041 250.68546 251.80651 252.62656 252.94061
 252.97566 252.74772 252.10577 251.05182 249.65587 247.81492 245.72197 243.55302
 241.34207 239.14412 236.96217 234.79922 232.65728 230.52233 228.54638 226.70143
 224.98248 223.45253 222.08058 220.85063 219.73068 218.68873 217.79078 216.92983
 216.16989 215.34794 214.44399 213.80604 213.25409 214.28748 216.72896 219.29260
 221.35301 223.04271 224.71713 226.22719 227.39478 227.83578 227.06303 225.36987
 224.87651 227.10254 231.04678 235.70851 240.47765 245.10774 249.44667 253.35121
 256.78830 259.99127 263.07199 265.88651 268.22916 270.12213 271.72357 273.27698
 274.92075 276.65799 278.21683 279.58954 280.78241 281.84467 282.82108 283.71490
 284.53159 285.27789 285.93658 286.88675
 366.78100 356.33319 345.76338 334.62756 323.02875 311.22094 299.08913 286.89031
 274.60050 262.49569 250.50288 239.80207 229.92225 221.02444 213.20463 206.20482
 200.03700 194.97319 191.55338 189.59357 188.62876 188.69094 189.52413 190.83032
 192.55351 194.64669 196.90788 199.26507 201.70826 204.18645 206.27263 208.11282
 209.73701 210.88020 211.10738 211.33357 211.26876 210.97195 210.60314 210.23132
 209.84651 209.55470 209.36089 209.22307 209.14926 209.47845 209.86264 210.24982
 211.04101 212.21720 213.46539 215.24658 217.17276 219.21395 221.30714 223.38833
 225.44651 227.52870 229.62389 231.72808 233.85527 236.02545 238.27964 240.64783
 243.26702 245.51620 247.51639 249.27958 250.69477 251.81596 252.63614 252.95033
 252.98552 252.75771 252.11589 251.06208 249.66627 247.82546 245.73265 243.56383
 241.35302 239.15521 236.97340 234.81058 232.66877 230.53396 228.55815 226.71334
 224.99452 223.46471 222.09290 220.86309 219.74327 218.70146 217.80365 216.94284
 216.18303 215.36121 214.45740 213.81959 213.26778 214.31593 216.79236 219.30779
 221.40999 223.05096 224.66260 226.26109 227.50020 227.92998 227.07446 225.26591
 224.71902 227.03293 231.05786 235.74471 240.50623 245.11050 249.43140 253.32462
 256.74872 259.94162 263.02115 265.83417 268.17682 270.07404 271.68246 273.24356
 274.85687 276.58514 278.14236 279.51404 280.70605 281.76785 282.74237 283.63800
 284.45474 285.20078 285.86191 286.81363
 366.78100 356.33332 345.76363 334.62795 323.02927 311.22159 299.08990 286.89122
 274.60154 262.49685 250.50417 239.80349 229.92381 221.02612 213.20644 206.20676
 200.03907 194.97539 191.55571 189.59603 188.63134 188.69366 189.52698 190.83329
 192.55661 194.64993 196.91125 199.26856 201.71188 204.19020 206.27651 208.11683
 209.74115 210.88447 211.11178 211.33810 211.27342 210.97673 210.60805 210.23637
 209.85169 209.56000 209.36632 209.22864 209.15496 209.48427 209.86859 210.25591
 211.04722 212.22354 213.47186 215.25318 217.17949 219.22081 221.31413 223.39544
 225.45376 227.53608 229.63140 231.73571 233.86303 236.03335 238.28766 240.65598
 243.27530 245.52462 247.52493 249.28825 250.70357 251.82488 252.64520 252.95952
 252.99484 252.76715 252.12547 251.07179 249.67610 247.83542 245.74274 243.57406
 241.36337 239.16569 236.98401 234.82132 232.67964 230.54496 228.56928 226.72459
 225.00591 223.47623 222.10454 220.87486 219.75518 218.71350 217.81581 216.95513
 216.19545 215.37376 214.47008 213.83240 213.28072 214.34099 216.84601 219.33855
 221.43016 223.07619 224.67955 226.32687 227.57918 227.92313 227.03787 225.26775
 224.67299 226.94630 231.02856 235.76151 240.52591 245.11172 249.41789 253.30200
 256.71487 259.89630 262.97333 265.78500 268.13019 270.03217 271.65039 273.22073
 274.79901 276.51422 278.06638 279.43436 280.62366 281.68329 282.65683 283.55020
 284.36917 285.11505 285.77872 286.72641
 366.78100 356.33368 345.76436 334.62905 323.03073 311.22341 299.09209 286.89377
 274.60445 262.50014 250.50782 239.80750 229.92818 221.03086 213.21154 206.21223
 200.04491 194.98159 191.56227 189.60295 188.63863 188.70132 189.53500 190.84168
 192.56536 194.65904 196.92072 199.27841 201.72209 204.20077 206.28745 208.12813
 209.75281 210.89650 211.12418 211.35086 211.28654 210.99022 210.62190 210.25059
 209.86627 209.57495 209.38163 209.24431 209.17099 209.50068 209.88536 210.27304
 211.06472 212.24140 213.49008 215.27177 217.19845 219.24013 221.33381 223.41549
 225.47417 227.55686 229.65254 231.75722 233.88490 236.05558 238.31026 240.67895
 243.29863 245.54831 247.54899 249.31267 250.72836 251.85004 252.67072 252.98540
 253.02108 252.79376 252.15245 251.09913 249.70381 247.86349 245.77117 243.60285
 241.39254 239.19522 237.01390 234.85158 232.71026 230.57594 228.60063 226.75631
 225.03799 223.50867 222.13735 220.90803 219.78872 218.74740 217.85008 216.98976
 216.23044 215.40912 214.50581 213.86849 213.31717 214.37526 216.87511 219.38734
 221.44342 223.09491 224.71376 226.37427 227.61357 227.93297 227.01553 225.26724
 224.65031 226.86023 230.98746 235.78519 240.55446 245.11794 249.40674 253.28065
 256.68027 259.84891 262.92319 265.73471 268.08331 269.99283 271.62357 273.20367
 274.82559 276.42419 277.95761 279.32877 280.52026 281.58109 282.55710 283.45065
 284.26929 285.01886 285.68332 286.63495
 366.78100 356.33399 345.76498 334.62996 323.03195 311.22494 299.09393 286.89591
 274.60690 262.50289 250.51088 239.81087 229.93185 221.03484 213.21583 206.21682
 200.04980 194.98679 191.56778 189.60877 188.64476 188.70774 189.54173 190.84872
 192.57271 194.66669 196.92868 199.28667 201.73066 204.20965 206.29663 208.13762
 209.76261 210.90660 211.13458 211.36157 211.29756 211.00155 210.63354 210.26252
 209.87851 209.58750 209.39449 209.25747 209.18446 209.51445 209.89944 210.28743
 211.07941 212.25640 213.50539 215.28738 217.21436 219.25635 221.35034 223.43233
 225.49132 227.57430 229.67029 231.77528 233.90327 236.07425 238.32924 240.69823
 243.31822 245.56821 247.56919 249.33318 250.74917 251.87116 252.69214 253.00713
 253.04312 252.81611 252.17510 251.12208 249.72707 247.88706 245.79505 243.62703
 241.41702 239.22001 237.03900 234.87699 232.73597 230.60196 228.62695 226.78294
 225.06492 223.53591 222.16490 220.93589 219.81688 218.77586 217.87885 217.01884
 216.25983 215.43881 214.53580 213.89879 213.34778 214.40590 216.90582 219.42891
 221.46829 223.11829 224.73370 226.38818 227.62253 227.97755 227.01093 225.23996
 224.61107 226.78387 230.96188 235.81950 240.58510 245.12349 249.39534 253.26041
 256.64813 259.80527 262.87796 265.69073 268.04355 269.96005 271.60083 273.18051
 274.78281 276.34555 277.87140 279.24121 280.43207 281.49350 282.46964 283.36377
 284.18515 284.93433 285.59952 286.55161
 366.78100 356.33420 345.76540 334.63060 323.03279 311.22599 299.09519 286.89739
 274.60859 262.50479 250.51299 239.81318 229.93438 221.03758 213.21878 206.21998
 200.05318 194.99037 191.57157 189.61277 188.64897 188.71217 189.54637 190.85357
 192.57776 194.67196 196.93416 199.29236 201.73656 204.21576 206.30296 208.14415
 209.76935 210.91355 211.14175 211.36895 211.30515 211.00934 210.64154 210.27074
 209.88694 209.59614 209.40334 209.26654 209.19373 209.52393 209.90913 210.29733
 211.08953 212.26673 213.51593 215.29812 217.22532 219.26752 221.36172 223.44392
 225.50312 227.58631 229.68251 231.78771 233.91591 236.08711 238.34231 240.71151
 243.33170 245.58190 247.58310 249.34730 250.76350 251.88570 252.70690 253.02209
 253.05829 252.83149 252.19069 251.13789 249.74309 247.90329 245.81148 243.64368
 241.43388 239.23708 237.05628 234.89448 232.75367 230.61987 228.64507 226.80127
 225.08347 223.55467 222.18387 220.95506 219.83626 218.79546 217.89866 217.03886
 216.28006 215.45926 214.55645 213.91965 213.36885 214.43076 216.93959 219.46597
 221.50661 223.14479 224.74210 226.37622 227.62924 228.02127 227.01064 225.21468
 224.55653 226.71440 230.95934 235.85695 240.61194 245.12802 249.38461 253.24286
 256.62003 259.76782 262.84021 265.65341 268.00909 269.92892 271.57593 273.15012
 274.72845 276.27112 277.79163 279.16232 280.35226 281.41330 282.38785 283.28461
 284.10507 284.85571 285.52365 286.47528
 366.78100 356.33443 345.76587 334.63130 323.03374 311.22717 299.09661 286.89904
 274.61048 262.50691 250.51535 239.81578 229.93721 221.04065 213.22208 206.22352
 200.05695 194.99439 191.57582 189.61726 188.65369 188.71713 189.55156 190.85899
 192.58343 194.67786 196.94030 199.29873 201.74317 204.22260 206.31004 208.15147
 209.77691 210.92134 211.14978 211.37721 211.31364 211.01808 210.65051 210.27995
 209.89638 209.60582 209.41325 209.27669 209.20412 209.53456 209.91999 210.30842
 211.10086 212.27829 213.52773 215.31016 217.23760 219.28003 221.37447 223.45690
 225.51634 227.59977 229.69620 231.80164 233.93007 236.10151 238.35694 240.72638
 243.34681 245.59725 247.59868 249.36312 250.77955 251.90198 252.72342 253.03885
 253.07529 252.84872 252.20816 251.15559 249.76103 247.92146 245.82990 243.66233
 241.45276 239.25620 237.07563 234.91407 232.77350 230.63994 228.66537 226.82181
 225.10424 223.57568 222.20511 220.97655 219.85798 218.81741 217.92085 217.06128
 216.30272 215.48215 214.57959 213.94302 213.39246 214.45468 216.96429 219.49887
 221.55020 223.17624 224.74573 226.35130 227.64177 228.05254 227.01080 225.20363
 224.50446 226.65182 230.96494 235.89182 240.63622 245.13390 249.37680 253.22716
 256.59448 259.73633 262.80896 265.62198 267.98108 269.90591 271.55753 273.12988
 274.68982 276.19974 277.71268 279.08243 280.27319 281.33188 282.30853 283.20474
 284.02588 284.77704 285.44382 286.39426
 366.78100 356.33472 345.76644 334.63216 323.03488 311.22860 299.09832 286.90104
 274.61276 262.50947 250.51819 239.81891 229.94063 221.04435 213.22607 206.22779
 200.06151 194.99923 191.58095 189.62267 188.65939 188.72311 189.55783 190.86555
 192.59027 194.68499 196.94771 199.30642 201.75114 204.23086 206.31858 208.16030
 209.78602 210.93074 211.15946 211.38718 211.32390 211.02862 210.66134 210.29106
 209.90778 209.61750 209.42522 209.28894 209.21666 209.54737 209.93309 210.32181
 211.11453 212.29225 213.54197 215.32469 217.25241 219.29513 221.38985 223.47257
 225.53229 227.61601 229.71273 231.81845 233.94717 236.11889 238.37461 240.74432
 243.36504 245.61576 247.61748 249.38220 250.79892 251.92164 252.74336 253.05908
 253.09580 252.86952 252.22924 251.17696 249.78268 247.94340 245.85212 243.68484
 241.47556 239.27927 237.09899 234.93771 232.79743 230.66415 228.68987 226.84659
 225.12931 223.60103 222.23075 221.00247 219.88419 218.84391 217.94763 217.08835
 216.33007 215.50979 214.60751 213.97122 213.42094 214.47971 216.98111 219.52892
 221.59293 223.21587 224.74757 226.32132 227.64583 228.06900 227.01369 225.20074
 224.46201 226.59969 230.97310 235.92719 240.65706 245.13475 249.36790 253.21484
 256.57846 259.71591 262.78375 265.59283 267.95575 269.88885 271.54559 273.11581
 274.65549 276.13132 277.63779 279.00656 280.19608 281.25677 282.23187 283.12762
 283.94778 284.70081 285.36719 286.31131
 366.78100 356.33501 345.76702 334.63303 323.03604 311.23005 299.10006 286.90307
 274.61508 262.51209 250.52110 239.82210 229.94411 221.04812 213.23013 206.23214
 200.06615 195.00416 191.58617 189.62818 188.66519 188.72920 189.56421 190.87222
 192.59723 194.69224 196.95525 199.31426 201.75927 204.23928 206.32729 208.16929
 209.79530 210.94031 211.16932 211.39733 211.33434 211.03935 210.67236 210.30237
 209.91938 209.62939 209.43740 209.30141 209.22942 209.56043 209.94644 210.33545
 211.12846 212.30647 213.55648 215.33949 217.26749 219.31050 221.40551 223.48852
 225.54853 227.63254 229.72955 231.83556 233.96457 236.13658 238.39259 240.76260
 243.38361 245.63462 247.63663 249.40164 250.81865 251.94166 252.76367 253.07968
 253.11668 252.89069 252.25070 251.19871 249.80472 247.96573 245.87474 243.70775
 241.49876 239.30277 237.12278 234.96179 232.82180 230.68881 228.71482 226.87183
 225.15484 223.62685 222.25686 221.02887 219.91088 218.87088 217.97489 217.11590
 216.35791 215.53792 214.63593 213.99994 213.44995 214.50510 216.99799 219.55606
 221.63525 223.25812 224.74899 226.29305 227.63264 228.06456 227.01405 225.21495
 224.44022 226.55171 230.98047 235.95816 240.67918 245.13835 249.36118 253.20981
 256.57031 259.70111 262.76263 265.56790 267.93466 269.87305 271.53592 273.09879
 274.61343 276.06879 277.56958 278.93732 280.12671 281.18585 282.16132 283.05728
 283.87778 284.62857 285.29651 286.23505
 366.78100 356.33526 345.76751 334.63377 323.03703 311.23128 299.10154 286.90480
 274.61705 262.51431 250.52357 239.82482 229.94708 221.05134 213.23359 206.23585
 200.07011 195.00836 191.59062 189.63288 188.67013 188.73439 189.56965 190.87790
 192.60316 194.69842 196.96167 199.32093 201.76619 204.24644 206.33470 208.17696
 209.80321 210.94847 211.17773 211.40598 211.34324 211.04850 210.68175 210.31201
 209.92927 209.63952 209.44778 209.31204 209.24029 209.57155 209.95781 210.34707
 211.14032 212.31858 213.56884 215.35209 217.28035 219.32361 221.41886 223.50212
 225.56238 227.64663 229.74389 231.85015 233.97940 236.15166 238.40792 240.77817
 243.39943 245.65069 247.65294 249.41820 250.83546 251.95871 252.78097 253.09723
 253.13448 252.90874 252.26900 251.21725 249.82351 247.98477 245.89402 243.72728
 241.51854 239.32279 237.14305 234.98231 232.84256 230.70982 228.73608 226.89333
 225.17659 223.64885 222.27910 221.05136 219.93362 218.89387 217.99813 217.13939
 216.38164 215.56190 214.66016 214.02441 213.47467 214.52795 217.01646 219.57367
 221.68155 223.30594 224.75056 226.26607 227.60707 228.04568 227.00629 225.23424
 224.43604 226.51183 230.99602 236.00250 240.68719 245.14098 249.36505 253.20343
 256.56430 259.69183 262.74567 265.54623 267.91376 269.85822 271.52963 273.08701
 274.57379 276.01086 277.50882 278.87491 280.06393 281.12283 282.09714 282.99481
 283.81546 284.56635 285.23264 286.16772
 366.78100 356.33554 345.76807 334.63461 323.03814 311.23268 299.10321 286.90675
 274.61929 262.51682 250.52636 239.82789 229.95043 221.05497 213.23750 206.24004
 200.07457 195.01311 191.59564 189.63818 188.67572 188.74025 189.57579 190.88432
 192.60986 194.70539 196.96893 199.32847 201.77400 204.25454 206.34307 208.18561
 209.81215 210.95768 211.18722 211.41575 211.35329 211.05882 210.69236 210.32290
 209.94043 209.65097 209.45950 209.32404 209.25257 209.58411 209.97065 210.36018
 211.15372 212.33225 213.58279 215.36633 217.29486 219.33840 221.43393 223.51747
 225.57800 227.66254 229.76008 231.86661 233.99615 236.16868 238.42522 240.79575
 243.41729 245.66883 247.67136 249.43690 250.85443 251.97797 252.80051 253.11704
 253.15458 252.92911 252.28965 251.23818 249.84472 248.00626 245.91579 243.74933
 241.54086 239.34540 237.16593 235.00547 232.86601 230.73354 228.76008 226.91761
 225.20115 223.67369 222.30422 221.07676 219.95929 218.91983 218.02436 217.16590
 216.40844 215.58897 214.68751 214.05204 213.50258 214.55276 217.03395 219.58403
 221.72939 223.35960 224.75421 226.23627 227.57097 228.01521 226.99129 225.25594
 224.45561 226.48926 230.99921 236.04797 240.70642 245.13158 249.35544 253.20271
 256.56387 259.68854 262.73553 265.52960 267.89612 269.84351 271.52267 273.08316
 274.54999 275.95499 277.44522 278.81113 279.99945 281.05856 282.03427 282.92996
 283.75043 284.50302 285.17032 286.09918
 366.78100 356.33586 345.76873 334.63559 323.03946 311.23432 299.10518 286.90905
 274.62191 262.51977 250.52964 239.83150 229.95437 221.05923 213.24209 206.24496
 200.07982 195.01869 191.60155 189.64441 188.68228 188.74714 189.58300 190.89187
 192.61773 194.71360 196.97746 199.33732 201.78319 204.26405 206.35292 208.19578
 209.82264 210.96851 211.19837 211.42723 211.36510 211.07096 210.70483 210.33569
 209.95355 209.66442 209.47328 209.33815 209.26701 209.59887 209.98574 210.37560
 211.16946 212.34833 213.59919 215.38306 217.31192 219.35578 221.45165 223.53551
 225.59638 227.68124 229.77910 231.88597 234.01583 236.18869 238.44556 240.81642
 243.43829 245.69015 247.69301 249.45888 250.87674 252.00061 252.82347 253.14033
 253.17820 252.95306 252.31392 251.26279 249.86965 248.03152 245.94138 243.77524
 241.56711 239.37197 237.19284 235.03270 232.89356 230.76143 228.78829 226.94616
 225.23002 223.70288 222.33375 221.10661 219.98947 218.95034 218.05520 217.19707
 216.43993 215.62079 214.71966 214.08452 213.53539 214.57979 217.04729 219.59302
 221.77231 223.41498 224.76851 226.21059 227.52251 227.96777 226.96893 225.27711
 224.49565 226.49416 230.98769 236.06177 240.74268 245.13580 249.34744 253.19347
 256.56079 259.68576 262.72501 265.51321 267.88095 269.83636 271.52237 273.08789
 274.54858 275.90158 277.37869 278.74374 279.93091 280.98965 281.96454 282.86060
 283.68216 284.43509 285.10010 286.01749
 366.78100 356.33618 345.76936 334.63654 323.04072 311.23590 299.10708 286.91126
 274.62444 262.52262 250.53280 239.83498 229.95816 221.06334 213.24652 206.24970
 200.08488 195.02406 191.60723 189.65041 188.68859 188.75377 189.58995 190.89913
 192.62531 194.72149 196.98567 199.34585 201.79203 204.27321 206.36239 208.20557
 209.83275 210.97893 211.20911 211.43829 211.37647 211.08265 210.71683 210.34801
 209.96619 209.67737 209.48655 209.35173 209.28091 209.61309 210.00027 210.39045
 211.18463 212.36381 213.61499 215.39917 217.32834 219.37252 221.46870 223.55288
 225.61406 227.69924 229.79742 231.90460 234.03478 236.20796 238.46514 240.83632
 243.45850 245.71068 247.71386 249.48004 250.89822 252.02240 252.84558 253.16276
 253.20094 252.97612 252.33730 251.28648 249.89366 248.05584 245.96602 243.80020
 241.59238 239.39756 237.21874 235.05892 232.92010 230.78828 228.81545 226.97363
 225.25781 223.73099 222.36217 221.13535 220.01853 218.97971 218.08489 217.22707
 216.47025 215.65143 214.75061 214.11579 213.56697 214.60519 217.05809 219.60228
 221.80995 223.46971 224.79677 226.19592 227.46146 227.89615 226.93816 225.30362
 224.54907 226.51643 230.97604 236.06468 240.76756 245.14488 249.35110 253.18515
 256.55377 259.68140 262.71146 265.49191 267.86490 269.83499 271.52908 273.09314
 274.54916 275.86978 277.31766 278.67444 279.86111 280.91974 281.89487 282.79004
 283.61124 284.36374 285.03265 285.93445
 366.78100 356.33612 345.76924 334.63637 323.04049 311.23561 299.10673 286.91085
 274.62398 262.52210 250.53222 239.83434 229.95746 221.06258 213.24571 206.24883
 200.08395 195.02307 191.60619 189.64932 188.68744 188.75256 189.58868 190.89780
 192.62393 194.72005 196.98417 199.34429 201.79041 204.27153 206.36066 208.20378
 209.83090 210.97702 211.20714 211.43627 211.37439 211.08051 210.71463 210.34575
 209.96388 209.67500 209.48412 209.34924 209.27836 209.61048 209.99761 210.38773
 211.18185 212.36097 213.61209 215.39622 217.32534 219.36946 221.46558 223.54970
 225.61083 227.69595 229.79407 231.90119 234.03131 236.20443 238.46156 240.83268
 243.45480 245.70692 247.71004 249.47617 250.89429 252.01841 252.84153 253.15865
 253.19678 252.97190 252.33302 251.28214 249.88926 248.05138 245.96151 243.79563
 241.58775 239.39287 237.21399 235.05412 232.91524 230.78336 228.81048 226.96860
 225.25273 223.72585 222.35697 221.13009 220.01321 218.97433 218.07946 217.22158
 216.46470 215.64582 214.74494 214.11007 213.56119 214.61148 217.09291 219.59885
 221.83231 223.53494 224.83430 226.19000 227.40401 227.80426 226.88455 225.33928
 224.62047 226.54781 230.98065 236.06836 240.77010 245.15994 249.35927 253.17278
 256.54562 259.67172 262.69153 265.46503 267.84805 269.83847 271.54028 273.09705
 274.53738 275.85400 277.26163 278.61185 279.79819 280.85742 281.83328 282.72882
 283.55051 284.29938 284.96704 285.85660
 366.78100 356.33624 345.76948 334.63671 323.04095 311.23619 299.10743 286.91167
 274.62491 262.52314 250.53338 239.83562 229.95886 221.06410 213.24733 206.25057
 200.08581 195.02505 191.60829 189.65152 188.68976 188.75500 189.59124 190.90048
 192.62672 194.72295 196.98719 199.34743 201.79367 204.27491 206.36414 208.20738
 209.83462 210.98086 211.21110 211.44034 211.37857 211.08481 210.71905 210.35029
 209.96853 209.67976 209.48900 209.35424 209.28348 209.61572 210.00295 210.39319
 211.18743 212.36667 213.61791 215.40215 217.33138 219.37562 221.47186 223.55610
 225.61734 227.70257 229.80081 231.90805 234.03829 236.21153 238.46877 240.84000
 243.46224 245.71448 247.71772 249.48396 250.90219 252.02643 252.84967 253.16691
 253.20515 252.98038 252.34162 251.29086 249.89810 248.06034 245.97058 243.80481
 241.59705 239.40229 237.22353 235.06377 232.92500 230.79324 228.82048 226.97872
 225.26296 223.73620 222.36743 221.14067 220.02391 218.98515 218.09039 217.23262
 216.47586 215.65710 214.75634 214.12158 213.57281 214.62589 217.11385 219.61960
 221.82011 223.59262 224.91902 226.20128 227.30754 227.67377 226.84065 225.39745
 224.69278 226.57712 230.98518 236.04897 240.77760 245.18858 249.36279 253.16052
 256.53220 259.65891 262.66910 265.43518 267.82727 269.83832 271.55075 273.09653
 274.51480 275.83322 277.21310 278.55859 279.74625 280.80429 281.77997 282.67496
 283.49612 284.24530 284.90961 285.78540
 366.78100 356.33667 345.77033 334.63800 323.04266 311.23833 299.10999 286.91466
 274.62832 262.52699 250.53766 239.84032 229.96399 221.06965 213.25332 206.25698
 200.09265 195.03231 191.61598 189.65965 188.69831 188.76398 189.60064 190.91031
 192.63697 194.73364 196.99830 199.35897 201.80564 204.28730 206.37697 208.22063
 209.84830 210.99496 211.22563 211.45529 211.39396 211.10063 210.73529 210.36696
 209.98562 209.69729 209.50695 209.37262 209.30228 209.63495 210.02262 210.41328
 211.20795 212.38761 213.63928 215.42394 217.35361 219.39827 221.49494 223.57961
 225.64127 227.72694 229.82560 231.93327 234.06393 236.23760 238.49526 240.86693
 243.48960 245.74226 247.74593 249.51259 250.93126 252.05592 252.87959 253.19725
 253.23592 253.01159 252.37325 251.32292 249.93058 248.09325 246.00391 243.83858
 241.63124 239.43691 237.25857 235.09924 232.96091 230.82957 228.85724 227.01590
 225.30057 223.77423 222.40590 221.17956 220.06323 219.02490 218.13056 217.27323
 216.51689 215.69856 214.79822 214.16389 213.61555 214.65652 217.11594 219.64246
 221.82907 223.65057 224.97119 226.18124 227.21120 227.56493 226.81522 225.44817
 224.75771 226.61002 230.97173 236.02806 240.79478 245.22066 249.37225 253.14835
 256.51517 259.64246 262.64383 265.40137 267.80072 269.83127 271.55453 273.09161
 274.48993 275.80347 277.16818 278.50995 279.69806 280.75732 281.73193 282.62662
 283.44598 284.19366 284.85394 285.71878
 366.78100 356.33711 345.77122 334.63933 323.04444 311.24055 299.11267 286.91778
 274.63189 262.53100 250.54211 239.84522 229.96933 221.07544 213.25955 206.26366
 200.09978 195.03989 191.62400 189.66811 188.70722 188.77333 189.61044 190.92055
 192.64766 194.74477 197.00988 199.37100 201.81811 204.30022 206.39033 208.23444
 209.86255 211.00966 211.24077 211.47088 211.40999 211.11711 210.75222 210.38433
 210.00344 209.71555 209.52566 209.39177 209.32188 209.65499 210.04310 210.43421
 211.22933 212.40944 213.66155 215.44666 217.37677 219.42188 221.51899 223.60410
 225.66621 227.75232 229.85144 231.95955 234.09066 236.26477 238.52288 240.89499
 243.51810 245.77121 247.77532 249.54243 250.96154 252.08666 252.91077 253.22888
 253.26799 253.04410 252.40621 251.35632 249.96443 248.12754 246.03865 243.87377
 241.66688 239.47299 237.29510 235.13621 232.99832 230.86743 228.89554 227.05465
 225.33976 223.81387 222.44599 221.22010 220.10421 219.06632 218.17243 217.31554
 216.55965 215.74176 214.84187 214.20798 213.66010 214.68797 217.11646 219.66209
 221.83394 223.67123 225.06647 226.19725 227.09532 227.44073 226.78587 225.48058
 224.82263 226.64931 230.94913 236.01979 240.81819 245.25018 249.38519 253.13557
 256.49353 259.62012 262.61221 265.36194 267.76849 269.81870 271.55350 273.08405
 274.46942 275.77582 277.12427 278.46338 279.65057 280.70911 281.68335 282.57858
 283.39520 284.14252 284.80020 285.65424
 366.78100 356.33736 345.77172 334.64008 323.04543 311.24179 299.11415 286.91951
 274.63387 262.53323 250.54458 239.84794 229.97230 221.07866 213.26302 206.26738
 200.10374 195.04409 191.62845 189.67281 188.71217 188.77853 189.61589 190.92624
 192.65360 194.75096 197.01632 199.37768 201.82504 204.30740 206.39775 208.24211
 209.87047 211.01783 211.24919 211.47955 211.41890 211.12626 210.76162 210.39398
 210.01334 209.72570 209.53605 209.40241 209.33277 209.66613 210.05449 210.44585
 211.24121 212.42156 213.67392 215.45928 217.38964 219.43500 221.53236 223.61771
 225.68007 227.76643 229.86579 231.97415 234.10551 236.27987 238.53822 240.91058
 243.53394 245.78730 247.79166 249.55902 250.97837 252.10373 252.92809 253.24645
 253.28581 253.06217 252.42453 251.37488 249.98324 248.14660 246.05796 243.89332
 241.68668 239.49303 237.31539 235.15675 233.01911 230.88847 228.91683 227.07619
 225.36154 223.83590 222.46826 221.24262 220.12698 219.08934 218.19569 217.33905
 216.58341 215.76577 214.86613 214.23249 213.68484 214.70840 217.12671 219.66994
 221.85304 223.67950 225.13914 226.20889 226.98779 227.33282 226.76016 225.50346
 224.88200 226.69307 230.94084 236.01765 240.83861 245.27618 249.39609 253.12143
 256.46960 259.59290 262.57602 265.31824 267.73242 269.80215 271.54883 273.07675
 274.44974 275.74820 277.08008 278.41519 279.60330 280.66101 281.63507 282.52826
 283.34573 284.08969 284.74518 285.59134
 366.78100 356.33745 345.77191 334.64036 323.04581 311.24227 299.11472 286.92017
 274.63463 262.53408 250.54554 239.84899 229.97344 221.07990 213.26435 206.26880
 200.10526 195.04571 191.63016 189.67462 188.71407 188.78052 189.61798 190.92843
 192.65588 194.75334 197.01879 199.38024 201.82770 204.31015 206.40061 208.24506
 209.87351 211.02097 211.25242 211.48287 211.42233 211.12978 210.76523 210.39769
 210.01714 209.72959 209.54005 209.40650 209.33695 209.67041 210.05886 210.45032
 211.24577 212.42622 213.67868 215.46413 217.39458 219.44004 221.53749 223.62294
 225.68540 227.77185 229.87130 231.97976 234.11121 236.28566 238.54412 240.91657
 243.54002 245.79348 247.79793 249.56539 250.98484 252.11029 252.93475 253.25320
 253.29265 253.06911 252.43156 251.38201 249.99047 248.15392 246.06537 243.90083
 241.69428 239.50073 237.32319 235.16464 233.02710 230.89655 228.92500 227.08446
 225.36991 223.84436 222.47682 221.25127 220.13572 219.09818 218.20463 217.34808
 216.59254 215.77499 214.87544 214.24190 213.69435 214.71992 217.14296 219.67393
 221.87421 223.70166 225.16704 226.19743 226.91028 227.25026 226.73219 225.51909
 224.93224 226.73686 230.94511 236.02155 240.85779 245.29996 249.40549 253.10480
 256.44104 259.56015 262.53452 265.27026 267.69250 269.78128 271.53998 273.06467
 274.42618 275.71652 277.03638 278.36957 279.55792 280.61447 281.58768 282.48160
 283.29898 284.04340 284.69824 285.53943
 366.78100 356.33749 345.77198 334.64048 323.04597 311.24246 299.11495 286.92044
 274.63494 262.53443 250.54592 239.84941 229.97390 221.08040 213.26489 206.26938
 200.10587 195.04636 191.63086 189.67535 188.71484 188.78133 189.61882 190.92932
 192.65681 194.75430 197.01979 199.38128 201.82877 204.31127 206.40176 208.24625
 209.87474 211.02223 211.25373 211.48422 211.42371 211.13120 210.76669 210.39919
 210.01868 209.73117 209.54166 209.40815 209.33865 209.67214 210.06063 210.45212
 211.24761 212.42811 213.68060 215.46609 217.39658 219.44207 221.53957 223.62506
 225.68755 227.77404 229.87353 231.98203 234.11352 236.28801 238.54650 240.91899
 243.54249 245.79598 247.80047 249.56796 250.98745 252.11295 252.93744 253.25593
 253.29542 253.07191 252.43441 251.38490 249.99339 248.15688 246.06837 243.90387
 241.69736 239.50385 237.32634 235.16783 233.03032 230.89982 228.92831 227.08780
 225.37329 223.84778 222.48028 221.25477 220.13926 219.10175 218.20824 217.35174
 216.59623 215.77872 214.87921 214.24570 213.69820 214.72723 217.15846 219.68208
 221.89027 223.73196 225.16803 226.17056 226.85750 227.18694 226.70158 225.52893
 224.97328 226.78004 230.95752 236.02736 240.87691 245.32301 249.41440 253.08755
 256.40939 259.52304 262.48972 265.21960 267.64859 269.75436 271.52255 273.04471
 274.39990 275.68613 276.99280 278.32281 279.51028 280.56824 281.54254 282.43469
 283.25189 283.99557 284.65042 285.48798
 366.78100 356.33756 345.77212 334.64067 323.04623 311.24279 299.11535 286.92091
 274.63546 262.53502 250.54658 239.85014 229.97470 221.08125 213.26581 206.27037
 200.10693 195.04749 191.63204 189.67660 188.71616 188.78272 189.62028 190.93083
 192.65839 194.75595 197.02151 199.38307 201.83062 204.31318 206.40374 208.24830
 209.87686 211.02442 211.25597 211.48653 211.42609 211.13365 210.76921 210.40176
 210.02132 209.73388 209.54444 209.41100 209.34155 209.67511 210.06367 210.45523
 211.25079 212.43134 213.68390 215.46946 217.40002 219.44558 221.54313 223.62869
 225.69125 227.77781 229.87737 231.98592 234.11748 236.29204 238.55060 240.92316
 243.54671 245.80027 247.80483 249.57239 250.99195 252.11750 252.94206 253.26062
 253.30018 253.07674 252.43929 251.38985 249.99841 248.16197 246.07353 243.90908
 241.70264 239.50920 237.33176 235.17332 233.03587 230.90543 228.93399 227.09355
 225.37911 223.85367 222.48622 221.26078 220.14534 219.10790 218.21446 217.35801
 216.60257 215.78513 214.88569 214.25225 213.70480 214.73441 217.16693 219.69026
 221.90456 223.75887 225.15599 226.13695 226.81943 227.13799 226.67241 225.53337
 225.00365 226.82097 230.97780 236.03508 240.89319 245.34326 249.41954 253.06903
 256.37839 259.48700 262.44662 265.17020 267.60358 269.72159 271.49377 273.00800
 274.35153 275.63669 276.95117 278.28351 279.47070 280.52908 281.50229 282.39453
 283.21249 283.95520 284.61130 285.44492
 366.78100 356.33778 345.77255 334.64133 323.04711 311.24389 299.11666 286.92244
 274.63722 262.53700 250.54877 239.85255 229.97733 221.08411 213.26888 206.27366
 200.11044 195.05122 191.63599 189.68077 188.72055 188.78733 189.62510 190.93588
 192.66366 194.76144 197.02721 199.38899 201.83677 204.31955 206.41032 208.25510
 209.88388 211.03166 211.26343 211.49421 211.43399 211.14177 210.77754 210.41032
 210.03010 209.74288 209.55365 209.42043 209.35121 209.68499 210.07376 210.46554
 211.26132 212.44210 213.69487 215.48065 217.41143 219.45721 221.55498 223.64076
 225.70354 227.79031 229.89009 231.99887 234.13065 236.30542 238.56420 240.93698
 243.56076 245.81453 247.81931 249.58709 251.00687 252.13264 252.95742 253.27620
 253.31598 253.09275 252.45553 251.40631 250.01509 248.17886 246.09064 243.92642
 241.72020 239.52697 237.34975 235.19153 233.05431 230.92408 228.95286 227.11264
 225.39842 223.87319 222.50597 221.28075 220.16553 219.12830 218.23508 217.37886
 216.62364 215.80641 214.90719 214.27397 213.72675 214.75133 217.17203 219.69211
 221.92078 223.77762 225.13484 226.09871 226.78894 227.10236 226.65034 225.53873
 225.03029 226.85898 231.00085 236.04243 240.90126 245.35207 249.42067 253.05458
 256.35373 259.45770 262.40970 265.12573 267.55984 269.68372 271.45569 272.96353
 274.30579 275.59573 276.90128 278.23151 279.41837 280.47629 281.44907 282.34186
 283.15848 283.90186 284.55621 285.39633
 366.78100 356.33816 345.77332 334.64248 323.04864 311.24580 299.11896 286.92512
 274.64028 262.54043 250.55259 239.85675 229.98191 221.08907 213.27423 206.27939
 200.11655 195.05771 191.64287 189.68803 188.72819 188.79535 189.63351 190.94467
 192.67283 194.77098 197.03714 199.39930 201.84746 204.33062 206.42178 208.26694
 209.89610 211.04426 211.27642 211.50758 211.44774 211.15590 210.79206 210.42522
 210.04538 209.75853 209.56969 209.43685 209.36801 209.70217 210.09133 210.48349
 211.27965 212.46081 213.71397 215.50013 217.43129 219.47745 221.57561 223.66177
 225.72493 227.81208 229.91224 232.02140 234.15356 236.32872 238.58788 240.96104
 243.58520 245.83936 247.84452 249.61268 251.03284 252.15900 252.98416 253.30332
 253.34348 253.12063 252.48379 251.43495 250.04411 248.20827 246.12043 243.95659
 241.75075 239.55791 237.38107 235.22323 233.08639 230.95655 228.98571 227.14587
 225.43203 223.90719 222.54034 221.31550 220.20066 219.16382 218.27098 217.41514
 216.66030 215.84346 214.94462 214.31178 213.76494 214.77812 217.17192 219.68806
 221.94576 223.79256 225.09856 226.05104 226.75760 227.07301 226.63718 225.54778
 225.05891 226.90289 231.03015 236.04671 240.89360 245.34457 249.40683 253.03471
 256.33563 259.44083 262.38876 265.09549 267.52567 269.65311 271.41953 272.91187
 274.24115 275.53140 276.86331 278.20184 279.39056 280.44928 281.42285 282.31671
 283.13345 283.88144 284.53519 285.37781
 366.78100 356.33851 345.77402 334.64353 323.05004 311.24756 299.12107 286.92758
 274.64309 262.54360 250.55611 239.86062 229.98613 221.09364 213.27916 206.28467
 200.12218 195.06369 191.64920 189.69471 188.73522 188.80273 189.64124 190.95276
 192.68127 194.77978 197.04629 199.40880 201.85731 204.34082 206.43233 208.27784
 209.90736 211.05587 211.28838 211.51989 211.46040 211.16891 210.80542 210.43893
 210.05944 209.77296 209.58447 209.45198 209.38349 209.71800 210.10751 210.50002
 211.29653 212.47804 213.73155 215.51807 217.44958 219.49609 221.59460 223.68111
 225.74462 227.83213 229.93264 232.04215 234.17467 236.35018 238.60969 240.98320
 243.60771 245.86222 247.86773 249.63624 251.05675 252.18327 253.00878 253.32829
 253.36880 253.14631 252.50982 251.46133 250.07084 248.23535 246.14787 243.98438
 241.77889 239.58640 237.40991 235.25242 233.11593 230.98644 229.01595 227.17647
 225.46298 223.93849 222.57200 221.34751 220.23302 219.19653 218.30404 217.44855
 216.69407 215.87758 214.97909 214.34660 213.80011 214.80225 217.16994 219.68156
 221.97319 223.80286 225.04929 225.99509 226.72997 227.04730 226.61749 225.56622
 225.11046 226.95876 231.06134 236.04141 240.87560 245.32436 249.38675 253.01453
 256.31686 259.42957 262.37610 265.07361 267.49646 269.62576 271.38843 272.87427
 274.20184 275.49072 276.80475 278.13309 279.31781 280.37439 281.34317 282.23221
 283.05109 283.79822 284.44559 285.28769
 366.78100 356.33877 345.77453 334.64430 323.05106 311.24883 299.12259 286.92936
 274.64512 262.54589 250.55866 239.86342 229.98919 221.09695 213.28272 206.28848
 200.12625 195.06802 191.65378 189.69955 188.74031 188.80808 189.64684 190.95861
 192.68737 194.78614 197.05291 199.41567 201.86444 204.34820 206.43997 208.28573
 209.91550 211.06427 211.29703 211.52880 211.46956 211.17833 210.81509 210.44886
 210.06962 209.78339 209.59516 209.46292 209.39469 209.72945 210.11922 210.51198
 211.30875 212.49052 213.74428 215.53105 217.46281 219.50958 221.60834 223.69511
 225.75887 227.84664 229.94741 232.05717 234.18994 236.36570 238.62547 240.99923
 243.62400 245.87876 247.88453 249.65330 251.07406 252.20083 253.02659 253.34636
 253.38712 253.16489 252.52866 251.48042 250.09019 248.25495 246.16772 244.00448
 241.79925 239.60701 237.43078 235.27355 233.13731 231.00808 229.03784 227.19861
 225.48537 223.96114 222.59491 221.37067 220.25644 219.22020 218.32797 217.47273
 216.71850 215.90226 215.00403 214.37180 213.82556 214.82018 217.17007 219.68051
 221.99188 223.79115 224.98529 225.94083 226.70978 227.02855 226.58191 225.57153
 225.19469 227.04173 231.08730 236.02518 240.84360 245.30035 249.36989 253.01280
 256.31223 259.41849 262.35474 265.03577 267.45029 269.58597 271.34860 272.82327
 274.14136 275.42346 276.72424 278.05563 279.23953 280.29407 281.26230 282.15005
 282.97552 283.72205 284.37518 285.22040
 366.78100 356.33890 345.77479 334.64469 323.05158 311.24948 299.12338 286.93027
 274.64617 262.54706 250.55996 239.86486 229.99075 221.09865 213.28455 206.29044
 200.12834 195.07023 191.65613 189.70203 188.74292 188.81082 189.64971 190.96161
 192.69051 194.78940 197.05630 199.41919 201.86809 204.35199 206.44388 208.28978
 209.91967 211.06857 211.30147 211.53336 211.47426 211.18315 210.82005 210.45395
 210.07484 209.78874 209.60064 209.46853 209.40043 209.73532 210.12522 210.51812
 211.31501 212.49691 213.75080 215.53770 217.46960 219.51649 221.61539 223.70228
 225.76618 227.85408 229.95497 232.06487 234.19776 236.37366 238.63356 241.00745
 243.63235 245.88725 247.89314 249.66204 251.08293 252.20983 253.03573 253.35562
 253.39652 253.17441 252.53831 251.49021 250.10010 248.26500 246.17789 244.01479
 241.80969 239.61758 237.44148 235.28437 233.14827 231.01917 229.04906 227.20996
 225.49685 223.97275 222.60665 221.38254 220.26844 219.23234 218.34023 217.48513
 216.73102 215.91492 215.01682 214.38471 213.83861 214.83124 217.17641 219.68234
 221.99864 223.76897 224.90799 225.87605 226.69763 227.00693 226.53339 225.57127
 225.28877 227.14032 231.12457 236.00899 240.75824 245.26991 249.38187 253.02692
 256.35574 259.41641 262.33063 264.98804 267.38791 269.52612 271.29727 272.78891
 274.11899 275.41077 276.66714 277.91940 279.07294 280.12000 281.07767 281.95993
 282.77185 283.49908 284.12601 284.91821
 366.78100 356.33872 345.77444 334.64415 323.05087 311.24859 299.12231 286.92902
 274.64474 262.54546 250.55818 239.86290 229.98861 221.09633 213.28205 206.28777
 200.12549 195.06720 191.65292 189.69864 188.73936 188.80707 189.64579 190.95751
 192.68623 194.78495 197.05166 199.41438 201.86310 204.34682 206.43854 208.28425
 209.91397 211.06269 211.29541 211.52712 211.46784 211.17656 210.81328 210.44700
 210.06771 209.78143 209.59315 209.46087 209.39259 209.72730 210.11702 210.50974
 211.30646 212.48817 213.74189 215.52861 217.46033 219.50705 221.60576 223.69248
 225.75620 227.84392 229.94464 232.05435 234.18707 236.36279 238.62251 240.99622
 243.62094 245.87566 247.88138 249.65010 251.07081 252.19753 253.02325 253.34297
 253.38369 253.16140 252.52512 251.47684 250.08656 248.25127 246.16399 244.00071
 241.79543 239.60315 237.42686 235.26958 233.13330 231.00402 229.03374 227.19445
 225.48117 223.95689 222.59061 221.36632 220.25204 219.21576 218.32348 217.46820
 216.71391 215.89763 214.99935 214.36707 213.82079 214.82710 217.20465 219.65796
 222.01068 223.75296 224.81331 225.83847 226.68213 226.95401 226.47174 225.55748
 225.39536 227.23869 231.15578 235.99174 240.71889 245.20903 249.38589 253.05945
 256.40201 259.44327 262.33832 264.96439 267.32327 269.43692 271.20721 272.71750
 274.08160 275.37354 276.61868 277.85785 279.03726 280.09479 281.07870 281.97919
 282.79684 283.52225 284.17615 285.00949
 366.78100 356.33864 345.77427 334.64391 323.05054 311.24818 299.12182 286.92845
 274.64409 262.54472 250.55736 239.86200 229.98763 221.09527 213.28090 206.28654
 200.12417 195.06581 191.65145 189.69708 188.73772 188.80535 189.64399 190.95563
 192.68426 194.78290 197.04953 199.41217 201.86081 204.34444 206.43608 208.28171
 209.91135 211.05999 211.29262 211.52426 211.46489 211.17353 210.81016 210.44380
 210.06444 209.77807 209.58971 209.45734 209.38898 209.72362 210.11325 210.50589
 211.30252 212.48416 213.73780 215.52443 217.45607 219.50270 221.60134 223.68798
 225.75161 227.83925 229.93988 232.04952 234.18215 236.35779 238.61743 240.99106
 243.61570 245.87033 247.87597 249.64461 251.06524 252.19188 253.01751 253.33715
 253.37779 253.15542 252.51906 251.47069 250.08033 248.24497 246.15760 243.99424
 241.78887 239.59651 237.42015 235.26278 233.12642 230.99705 229.02669 227.18732
 225.47396 223.94960 222.58323 221.35887 220.24450 219.20814 218.31578 217.46041
 216.70605 215.88968 214.99132 214.35896 213.81259 214.83087 217.23665 219.62909
 221.97203 223.71727 224.70966 225.78821 226.71474 226.87857 226.35709 225.65916
 225.49940 227.29094 231.17334 235.96407 240.71913 245.09859 249.40788 253.09634
 256.43073 259.47327 262.37393 264.95844 267.28745 269.36975 271.12927 272.63242
 273.99826 275.29526 276.52094 277.84174 279.03177 280.09650 281.08585 281.99783
 282.82379 283.59445 284.26767 285.12564
 366.78100 356.33919 345.77538 334.64557 323.05275 311.25094 299.12513 286.93232
 274.64851 262.54970 250.56289 239.86807 229.99426 221.10245 213.28864 206.29483
 200.13302 195.07521 191.66139 189.70758 188.74877 188.81696 189.65615 190.96834
 192.69753 194.79671 197.06390 199.42709 201.87628 204.36047 206.45266 208.29885
 209.92903 211.07822 211.31141 211.54360 211.48479 211.19398 210.83117 210.46535
 210.08654 209.80073 209.61292 209.48111 209.41330 209.74849 210.13868 210.53186
 211.32905 212.51124 213.76543 215.55262 217.48481 219.53200 221.63118 223.71837
 225.78256 227.87075 229.97194 232.08213 234.21532 236.39150 238.65169 241.02588
 243.65107 245.90626 247.91245 249.68164 251.10282 252.23001 253.05620 253.37639
 253.41758 253.19577 252.55996 251.51214 250.12233 248.28752 246.20071 244.03790
 241.83309 239.64128 237.46546 235.30865 233.17284 231.04403 229.07422 227.23541
 225.52260 223.99878 222.63297 221.40916 220.29535 219.25954 218.36773 217.51292
 216.75910 215.94329 215.04548 214.41367 213.86786 214.86497 217.23563 219.66345
 221.84947 223.58521 224.69879 225.76930 226.65401 226.74127 226.22804 225.89160
 225.65024 227.09987 231.18567 235.96803 240.74767 245.16887 249.26759 253.08653
 256.40564 259.47034 262.37109 264.96912 267.28381 269.34549 271.09229 272.59665
 273.95135 275.23758 276.50385 277.80832 278.98990 280.05646 281.05542 282.01117
 282.89529 283.68259 284.37039 285.24689
 366.78100 356.33962 345.77623 334.64685 323.05446 311.25308 299.12770 286.93531
 274.65193 262.55354 250.56716 239.87278 229.99939 221.10801 213.29462 206.30124
 200.13986 195.08247 191.66909 189.71570 188.75732 188.82594 189.66555 190.97817
 192.70778 194.80740 197.07502 199.43863 201.88825 204.37286 206.46548 208.31210
 209.94271 211.09233 211.32594 211.55856 211.50018 211.20979 210.84741 210.48202
 210.10364 209.81826 209.63087 209.49949 209.43210 209.76772 210.15834 210.55195
 211.34957 212.53218 213.78680 215.57442 217.50703 219.55465 221.65426 223.74188
 225.80650 227.89511 229.99673 232.10734 234.24096 236.41758 238.67819 241.05281
 243.67842 245.93404 247.94066 249.71027 251.13189 252.25950 253.08612 253.40674
 253.44835 253.22697 252.59158 251.54420 250.15482 248.32043 246.23405 244.07166
 241.86728 239.67589 237.50051 235.34413 233.20874 231.08036 229.11097 227.27259
 225.56021 224.03682 222.67144 221.44805 220.33467 219.29929 218.40790 217.55352
 216.80013 215.98475 215.08737 214.45598 213.91060 214.89258 217.23904 219.68539
 221.79990 223.40096 224.68620 225.79575 226.59825 226.61095 226.10400 225.92641
 225.81909 226.91989 231.27974 235.96533 240.73784 245.22231 249.32513 253.10135
 256.38000 259.46893 262.40790 264.94885 267.23145 269.29797 271.05582 272.56781
 273.92831 275.21204 276.47046 277.77832 278.97318 280.05008 281.09457 282.11368
 283.03024 283.84644 284.55948 285.46814
 366.78100 356.33969 345.77638 334.64706 323.05475 311.25344 299.12813 286.93581
 274.65250 262.55419 250.56788 239.87356 230.00025 221.10894 213.29563 206.30231
 200.14100 195.08369 191.67038 189.71706 188.75875 188.82744 189.66713 190.97981
 192.70950 194.80919 197.07688 199.44056 201.89025 204.37494 206.46763 208.31431
 209.94500 211.09469 211.32838 211.56106 211.50275 211.21244 210.85013 210.48481
 210.10650 209.82119 209.63388 209.50256 209.43525 209.77094 210.16163 210.55531
 211.35300 212.53569 213.79038 215.57807 217.51075 219.55844 221.65813 223.74582
 225.81050 227.89919 230.00088 232.11157 234.24525 236.42194 238.68263 241.05732
 243.68300 245.93869 247.94538 249.71507 251.13675 252.26444 253.09113 253.41182
 253.45350 253.23219 252.59688 251.54957 250.16025 248.32594 246.23963 244.07732
 241.87300 239.68169 237.50638 235.35007 233.21475 231.08644 229.11713 227.27882
 225.56650 224.04319 222.67788 221.45457 220.34125 219.30594 218.41463 217.56032
 216.80700 215.99169 215.09438 214.46307 213.91776 214.90248 217.26468 219.66185
 221.82501 223.30746 224.72902 225.89256 226.48608 226.43138 225.97205 225.92049
 225.95543 227.20735 231.34222 235.98305 240.72260 245.22896 249.37292 253.14658
 256.46283 259.57010 262.38196 264.83923 267.18567 269.23737 270.98071 272.48611
 273.85434 275.16766 276.50113 277.87988 279.10382 280.24258 281.41467 282.47647
 283.43149 284.28189 285.02481 285.97156
 366.78100 356.33993 345.77687 334.64780 323.05573 311.25467 299.12960 286.93753
 274.65447 262.55640 250.57034 239.87627 230.00320 221.11214 213.29907 206.30600
 200.14494 195.08787 191.67480 189.72174 188.76367 188.83260 189.67254 190.98547
 192.71540 194.81534 197.08327 199.44721 201.89714 204.38207 206.47501 208.32194
 209.95287 211.10281 211.33674 211.56967 211.51161 211.22154 210.85947 210.49441
 210.11634 209.83127 209.64421 209.51314 209.44608 209.78201 210.17294 210.56688
 211.36481 212.54774 213.80268 215.59061 217.52354 219.57148 221.67141 223.75934
 225.82428 227.91321 230.01514 232.12608 234.26001 236.43694 238.69788 241.07281
 243.69875 245.95468 247.96161 249.73155 251.15348 252.28141 253.10835 253.42928
 253.47121 253.25015 252.61508 251.56801 250.17895 248.34488 246.25881 244.09675
 241.89268 239.70162 237.52655 235.37048 233.23542 231.10735 229.13828 227.30022
 225.58815 224.06508 222.70002 221.47695 220.36388 219.32882 218.43775 217.58368
 216.83062 216.01555 215.11849 214.48742 213.94235 214.92415 217.29309 219.65775
 221.78552 223.42914 224.91098 225.82188 226.23691 226.29408 225.86371 225.84741
 225.99039 227.64508 231.41959 236.01804 240.72911 245.25288 249.42091 253.19437
 256.55432 259.65591 262.44235 264.78235 267.12830 269.17654 270.82819 272.27286
 273.64490 275.04663 276.60513 278.01813 279.32718 280.57977 281.72253 282.75784
 283.68896 284.51813 285.24246 286.16556
 366.78100 356.34083 345.77867 334.65050 323.05933 311.25916 299.13500 286.94383
 274.66166 262.56449 250.57933 239.88616 230.01399 221.12382 213.31166 206.31949
 200.15932 195.10315 191.69099 189.73882 188.78165 188.85148 189.69232 191.00615
 192.73698 194.83781 197.10665 199.47148 201.92231 204.40814 206.50198 208.34981
 209.98164 211.13247 211.36731 211.60114 211.54397 211.25481 210.89364 210.52947
 210.15230 209.86814 209.68197 209.55180 209.48563 209.82247 210.21430 210.60913
 211.40796 212.59180 213.84763 215.63646 217.57029 219.61913 221.71996 223.80879
 225.87462 227.96446 230.06729 232.17912 234.31395 236.49179 238.75362 241.12945
 243.75628 246.01312 248.02095 249.79178 251.21461 252.34345 253.17128 253.49311
 253.53595 253.31578 252.68161 251.63544 250.24728 248.41411 246.32894 244.16777
 241.96461 239.77444 237.60027 235.44510 233.31094 231.18377 229.21560 227.37843
 225.66727 224.14510 222.78093 221.55876 220.44660 219.41243 218.52226 217.66909
 216.91693 216.10276 215.20659 214.57642 214.03226 214.97752 217.28958 219.69521
 221.69376 223.61513 225.03996 225.60390 226.07959 226.18059 225.73422 225.69046
 225.99231 227.92015 231.56490 236.07820 240.77249 245.31023 249.48994 253.25130
 256.62970 259.72794 262.52393 264.93713 267.16687 269.11346 270.63333 271.93604
 273.48242 275.13889 276.73679 278.22937 279.71457 281.02859 282.22745 283.31354
 284.29034 285.16019 285.92007 286.88846
 366.78100 356.34152 345.78004 334.65256 323.06208 311.26260 299.13912 286.94864
 274.66716 262.57069 250.58621 239.89373 230.02225 221.13277 213.32129 206.32981
 200.17033 195.11485 191.70337 189.75189 188.79541 188.86593 189.70745 191.02197
 192.75349 194.85501 197.12454 199.49006 201.94158 204.42810 206.52262 208.37114
 210.00366 211.15518 211.39070 211.62522 211.56874 211.28026 210.91978 210.55630
 210.17982 209.89634 209.71086 209.58139 209.51591 209.85343 210.24595 210.64147
 211.44099 212.62551 213.88203 215.67155 217.60607 219.65559 221.75711 223.84663
 225.91315 228.00367 230.10719 232.21971 234.35524 236.53376 238.79628 241.17280
 243.80032 246.05784 248.06636 249.83788 251.26140 252.39092 253.21944 253.54196
 253.58548 253.36600 252.73252 251.68704 250.29956 248.46709 246.38261 244.22213
 242.01965 239.83017 237.65669 235.50221 233.36873 231.24225 229.27477 227.43829
 225.72781 224.20633 222.84285 221.62137 220.50989 219.47641 218.58694 217.73446
 216.98298 216.16950 215.27402 214.64454 214.10106 215.01848 217.28568 219.71693
 221.65764 223.68367 225.06328 225.43214 225.92291 226.05992 225.58720 225.57205
 226.01601 228.04900 231.68370 236.15379 240.83882 245.38852 249.57877 253.32912
 256.70160 259.77606 262.56210 264.98575 267.21008 269.24036 270.83087 271.95486
 273.44482 275.16684 276.79666 278.42233 279.93301 281.26956 282.48898 283.59369
 284.58725 285.47202 286.24490 287.22992
 366.78100 356.34097 345.77894 334.65091 323.05988 311.25985 299.13583 286.94480
 274.66277 262.56574 250.58071 239.88768 230.01565 221.12562 213.31359 206.32156
 200.16154 195.10551 191.69348 189.74145 188.78442 188.85439 189.69536 191.00933
 192.74030 194.84127 197.11025 199.47522 201.92619 204.41216 206.50613 208.35410
 209.98607 211.13704 211.37201 211.60598 211.54895 211.25993 210.89890 210.53487
 210.15784 209.87381 209.68778 209.55775 209.49172 209.82869 210.22066 210.61564
 211.41461 212.59858 213.85455 215.64352 217.57749 219.62646 221.72743 223.81640
 225.88237 227.97235 230.07532 232.18729 234.32226 236.50023 238.76220 241.13817
 243.76514 246.02211 248.03008 249.80105 251.22403 252.35300 253.18097 253.50294
 253.54591 253.32588 252.69185 251.64582 250.25779 248.42476 246.33974 244.17871
 241.97568 239.78565 237.61162 235.45659 233.32256 231.19553 229.22750 227.39047
 225.67945 224.15742 222.79339 221.57136 220.45933 219.42530 218.53527 217.68224
 216.93021 216.11618 215.22015 214.59013 214.04610 214.99359 217.29282 219.69797
 221.67622 223.43756 224.99956 225.30107 225.79446 225.88124 225.35176 225.48946
 226.11659 228.10947 231.77992 236.23924 240.90356 245.44891 249.64734 253.43655
 256.83380 259.88901 262.59970 264.92279 267.08578 269.18958 271.01520 272.39233
 273.55008 275.15424 276.73529 278.17227 279.50427 280.76407 281.91342 282.95468
 283.89117 284.72513 285.45364 286.38205
 366.78100 356.34038 345.77776 334.64914 323.05751 311.25689 299.13227 286.94065
 274.65803 262.56041 250.57479 239.88116 230.00854 221.11792 213.30530 206.31268
 200.15206 195.09544 191.68282 189.73019 188.77257 188.84195 189.68233 190.99571
 192.72609 194.82647 197.09484 199.45922 201.90960 204.39498 206.48836 208.33574
 209.96712 211.11749 211.35187 211.58525 211.52763 211.23801 210.87639 210.51177
 210.13414 209.84952 209.66290 209.53228 209.46566 209.80204 210.19342 210.58780
 211.38617 212.56955 213.82493 215.61331 217.54669 219.59507 221.69545 223.78382
 225.84920 227.93858 230.04096 232.15234 234.28672 236.46410 238.72547 241.10085
 243.72723 245.98361 247.99099 249.76137 251.18375 252.31212 253.13950 253.46088
 253.50326 253.28264 252.64802 251.60140 250.21278 248.37915 246.29353 244.13191
 241.92829 239.73767 237.56305 235.40743 233.27280 231.14518 229.17656 227.33894
 225.62732 224.10470 222.74008 221.51745 220.40483 219.37021 218.47959 217.62597
 216.87335 216.05873 215.16210 214.53148 213.98686 214.96445 217.30197 219.66301
 221.74718 223.15019 224.75259 225.27292 225.78041 225.52483 225.12646 225.26184
 226.12901 228.15170 231.90565 236.33611 240.98865 245.52823 249.71445 253.50697
 256.91388 259.97852 262.69995 265.01120 267.02185 268.95502 270.74927 272.31656
 273.66553 275.07529 276.61356 278.00125 279.22495 280.33380 281.40732 282.39603
 283.28525 284.07712 284.76886 285.65042
 366.78100 356.34045 345.77789 334.64934 323.05779 311.25723 299.13268 286.94112
 274.65857 262.56102 250.57546 239.88191 230.00936 221.11880 213.30625 206.31370
 200.15314 195.09659 191.68403 189.73148 188.77393 188.84337 189.68382 190.99727
 192.72771 194.82816 197.09661 199.46105 201.91150 204.39694 206.49039 208.33784
 209.96928 211.11973 211.35418 211.58762 211.53007 211.24052 210.87896 210.51441
 210.13685 209.85230 209.66575 209.53519 209.46864 209.80509 210.19653 210.59098
 211.38943 212.57287 213.82832 215.61676 217.55021 219.59866 221.69910 223.78755
 225.85300 227.94244 230.04489 232.15634 234.29078 236.46823 238.72967 241.10512
 243.73157 245.98801 247.99546 249.76591 251.18835 252.31680 253.14425 253.46569
 253.50814 253.28759 252.65303 251.60648 250.21792 248.38437 246.29882 244.13726
 241.93371 239.74316 237.56860 235.41305 233.27850 231.15094 229.18239 227.34483
 225.63328 224.11073 222.74617 221.52362 220.41107 219.37651 218.48596 217.63241
 216.87985 216.06530 215.16874 214.53819 213.99364 214.97183 217.30968 219.67239
 221.71184 223.18581 224.58186 225.27325 225.65895 225.24414 224.87383 225.17245
 226.09259 228.27165 232.09615 236.49362 241.12288 245.63945 249.80017 253.58739
 256.98975 260.04034 262.75409 265.07272 267.09894 268.97284 270.62854 272.12650
 273.50891 274.96353 276.51874 277.90295 279.12119 280.22528 281.28989 282.27621
 283.16327 283.95322 284.64331 285.52274
 366.78100 356.34074 345.77849 334.65023 323.05897 311.25872 299.13446 286.94320
 274.66095 262.56369 250.57843 239.88517 230.01292 221.12266 213.31040 206.31815
 200.15789 195.10163 191.68938 189.73712 188.77986 188.84961 189.69035 191.00409
 192.73484 194.83558 197.10432 199.46907 201.91981 204.40555 206.49929 208.34704
 209.97878 211.12952 211.36427 211.59801 211.54075 211.25150 210.89024 210.52598
 210.14873 209.86447 209.67821 209.54796 209.48170 209.81844 210.21019 210.60493
 211.40367 212.58741 213.84316 215.63190 217.56564 219.61439 221.71513 223.80387
 225.86962 227.95936 230.06210 232.17385 234.30859 236.48633 238.74808 241.12382
 243.75056 246.00731 248.01505 249.78579 251.20853 252.33728 253.16502 253.48676
 253.52951 253.30925 252.67499 251.62874 250.24048 248.40722 246.32197 244.16071
 241.95745 239.76720 237.59294 235.43768 233.30342 231.17617 229.20791 227.37065
 225.65940 224.13714 222.77288 221.55063 220.43837 219.40411 218.51386 217.66060
 216.90834 216.09409 215.19783 214.56757 214.02332 214.98999 217.30032 219.69707
 221.68260 223.21085 224.50543 225.19261 225.44772 225.03223 224.63452 225.08157
 226.03471 228.31543 232.27939 236.67949 241.28801 245.77803 249.91045 253.69048
 257.08145 260.10162 262.78259 265.08356 267.13174 269.02875 270.63083 272.06052
 273.42761 274.90009 276.45767 277.84085 279.06131 280.16464 281.24341 282.26721
 283.18805 284.00803 284.72437 285.63724
 366.78100 356.34070 345.77840 334.65010 323.05880 311.25851 299.13421 286.94291
 274.66061 262.56331 250.57801 239.88471 230.01241 221.12211 213.30981 206.31752
 200.15722 195.10092 191.68862 189.73632 188.77902 188.84872 189.68942 191.00312
 192.73382 194.83453 197.10323 199.46793 201.91863 204.40433 206.49803 208.34573
 209.97743 211.12813 211.36284 211.59654 211.53924 211.24994 210.88864 210.52434
 210.14704 209.86274 209.67644 209.54614 209.47985 209.81655 210.20825 210.60295
 211.40165 212.58535 213.84105 215.62975 217.56345 219.61216 221.71286 223.80156
 225.86726 227.95696 230.05966 232.17136 234.30606 236.48376 238.74546 241.12117
 243.74787 246.00457 248.01227 249.78297 251.20567 252.33437 253.16207 253.48377
 253.52647 253.30618 252.67188 251.62558 250.23728 248.40398 246.31868 244.15738
 241.95408 239.76378 237.58949 235.43419 233.29989 231.17259 229.20429 227.36699
 225.65569 224.13339 222.76909 221.54679 220.43450 219.40020 218.50990 217.65660
 216.90430 216.09000 215.19370 214.56340 214.01910 214.99197 217.31285 219.68507
 221.70630 223.22957 224.40280 225.10547 225.25745 224.78412 224.38965 224.93607
 226.03433 228.40721 232.43620 236.87538 241.46928 245.92694 250.02710 253.79686
 257.17380 260.16696 262.82980 265.12497 267.17072 269.04611 270.62979 272.03629
 273.38800 274.78818 276.34155 277.72040 278.93381 280.03568 281.09018 282.09390
 282.99664 283.80051 284.50278 285.39774
 366.78100 356.34110 345.77919 334.65129 323.06039 311.26048 299.13658 286.94568
 274.66377 262.56687 250.58197 239.88906 230.01716 221.12726 213.31535 206.32345
 200.16355 195.10764 191.69574 189.74384 188.78693 188.85703 189.69813 191.01222
 192.74332 194.84442 197.11351 199.47861 201.92971 204.41580 206.50990 208.35800
 209.99009 211.14119 211.37629 211.61038 211.55348 211.26458 210.90367 210.53977
 210.16287 209.87896 209.69306 209.56316 209.49725 209.83435 210.22645 210.62154
 211.42064 212.60474 213.86084 215.64993 217.58403 219.63313 221.73422 223.82332
 225.88942 227.97951 230.08261 232.19471 234.32980 236.50790 238.77000 241.14609
 243.77319 246.03029 248.03838 249.80948 251.23258 252.36167 253.18977 253.51187
 253.55496 253.33506 252.70116 251.65525 250.26735 248.43445 246.34954 244.18864
 241.98574 239.79583 237.62193 235.46703 233.33312 231.20622 229.23832 227.40141
 225.69051 224.16861 222.80470 221.58280 220.47090 219.43699 218.54709 217.69419
 216.94228 216.12838 215.23248 214.60257 214.05867 215.01669 217.30836 219.69931
 221.68018 223.13371 224.34236 225.05702 225.06908 224.53424 224.13213 224.68407
 226.00784 228.57086 232.60533 237.08600 241.66368 246.07993 250.15240 253.90559
 257.26303 260.22934 262.88013 265.18652 267.23993 269.08755 270.62256 272.00027
 273.35992 274.74213 276.27051 277.64780 278.87219 279.98624 281.06644 282.06888
 282.97046 283.77332 284.47470 285.36850
 366.78100 356.34249 345.78198 334.65547 323.06596 311.26745 299.14494 286.95543
 274.67492 262.57941 250.59590 239.90439 230.03388 221.14537 213.33486 206.34435
 200.18584 195.13133 191.72082 189.77031 188.81480 188.88629 189.72878 191.04427
 192.77676 194.87925 197.14974 199.51623 201.96872 204.45621 206.55169 208.40118
 210.03467 211.18716 211.42365 211.65914 211.60363 211.31612 210.95661 210.59410
 210.21859 209.93608 209.75157 209.62306 209.55855 209.89704 210.29053 210.68702
 211.48751 212.67300 213.93049 215.72098 217.65647 219.70696 221.80945 223.89994
 225.96743 228.05892 230.16341 232.27690 234.41339 236.59288 238.85637 241.23386
 243.86235 246.12084 248.13033 249.90282 251.32731 252.45780 253.28729 253.61078
 253.65527 253.43676 252.80425 251.75974 250.37323 248.54172 246.45821 244.29870
 242.09719 239.90868 237.73617 235.58266 233.45015 231.32464 229.35813 227.52262
 225.81310 224.29259 222.93008 221.70957 220.59906 219.56655 218.67804 217.82653
 217.07602 216.26351 215.36900 214.74049 214.19798 215.08839 217.22693 219.78745
 221.65755 223.08173 224.34634 224.89653 224.91495 224.28386 223.89722 224.36609
 225.97914 228.68837 232.79314 237.29948 241.86241 246.24489 250.28552 254.02225
 257.36676 260.29980 262.92093 265.24695 267.32315 269.16556 270.67181 272.00027
 273.30817 274.67380 276.20618 277.57837 278.79529 279.89828 280.94693 281.91547
 282.78656 283.56229 284.23993 285.10352
 366.78100 356.34277 345.78254 334.65631 323.06708 311.26884 299.14661 286.95738
 274.67715 262.58192 250.59869 239.90746 230.03723 221.14900 213.33876 206.34853
 200.19030 195.13607 191.72584 189.77561 188.82038 188.89215 189.73492 191.05068
 192.78345 194.88622 197.15699 199.52376 201.97653 204.46430 206.56007 208.40984
 210.04361 211.19637 211.43314 211.66891 211.61368 211.32645 210.96722 210.60499
 210.22976 209.94753 209.76329 209.63506 209.57083 209.90960 210.30337 210.70014
 211.50091 212.68668 213.94445 215.73521 217.67098 219.72175 221.82452 223.91529
 225.98306 228.07483 230.17960 232.29337 234.43013 236.60990 238.87367 241.25144
 243.88021 246.13898 248.14875 249.92152 251.34629 252.47705 253.30682 253.63059
 253.67536 253.45713 252.82490 251.78067 250.39444 248.56321 246.47998 244.32074
 242.11951 239.93128 237.75905 235.60582 233.47359 231.34836 229.38213 227.54690
 225.83766 224.31743 222.95520 221.73497 220.62474 219.59251 218.70428 217.85305
 217.10282 216.29058 215.39635 214.76812 214.22589 215.10333 217.19295 219.81000
 221.72513 223.21217 224.19028 224.72267 224.79498 224.01955 223.63686 224.16269
 225.99788 228.84114 232.99834 237.51918 242.07140 246.42085 250.41168 254.13448
 257.46823 260.37500 262.99225 265.33707 267.42114 269.23373 270.74030 272.07721
 273.37717 274.63174 275.91846 277.25955 278.45737 279.53430 280.53442 281.46323
 282.31174 283.06735 283.72745 284.56863
 366.78100 356.34228 345.78156 334.65483 323.06511 311.26639 299.14367 286.95394
 274.67322 262.57750 250.59378 239.90206 230.03133 221.14261 213.33189 206.34117
 200.18244 195.12772 191.71700 189.76628 188.81055 188.88183 189.72411 191.03939
 192.77167 194.87394 197.14422 199.51050 201.96278 204.45005 206.54533 208.39461
 210.02789 211.18017 211.41644 211.65172 211.59600 211.30828 210.94855 210.58583
 210.21011 209.92739 209.74266 209.61394 209.54922 209.88750 210.28078 210.67705
 211.47733 212.66261 213.91989 215.71016 217.64544 219.69572 221.79800 223.88828
 225.95555 228.04683 230.15111 232.26439 234.40066 236.57994 238.84322 241.22050
 243.84877 246.10705 248.11633 249.88861 251.31289 252.44316 253.27244 253.59572
 253.64000 253.42127 252.78855 251.74383 250.35711 248.52539 246.44166 244.28194
 242.08022 239.89150 237.71877 235.56505 233.43233 231.30661 229.33988 227.50416
 225.79444 224.27372 222.91100 221.69027 220.57955 219.54683 218.65811 217.80638
 217.05566 216.24294 215.34822 214.71950 214.17677 215.08817 217.27745 219.73436
 221.71817 223.00015 224.08640 224.75630 224.60066 223.72270 223.36229 223.93633
 225.76640 229.01486 233.26231 237.77806 242.29211 246.58145 250.52538 254.22693
 257.54166 260.44595 263.09430 265.47150 267.54880 269.30661 270.75964 272.07477
 273.34619 274.58954 275.78555 277.09814 278.30804 279.43121 280.53021 281.53812
 282.44464 283.25189 283.95706 284.85577
 366.78100 356.34214 345.78128 334.65442 323.06456 311.26570 299.14284 286.95298
 274.67212 262.57626 250.59240 239.90054 230.02968 221.14082 213.32996 206.33910
 200.18024 195.12538 191.71452 189.76366 188.80780 188.87894 189.72108 191.03622
 192.76836 194.87050 197.14064 199.50678 201.95892 204.44606 206.54120 208.39034
 210.02348 211.17562 211.41176 211.64690 211.59104 211.30318 210.94332 210.58046
 210.20460 209.92174 209.73688 209.60802 209.54316 209.88130 210.27444 210.67058
 211.47072 212.65586 213.91300 215.70314 217.63828 219.68842 221.79056 223.88070
 225.94784 228.03898 230.14312 232.25626 234.39240 236.57154 238.83468 241.21182
 243.83996 246.09810 248.10724 249.87938 251.30352 252.43366 253.26280 253.58594
 253.63008 253.41122 252.77836 251.73350 250.34664 248.51478 246.43092 244.27106
 242.06920 239.88034 237.70748 235.55362 233.42076 231.29490 229.32804 227.49218
 225.78232 224.26146 222.89859 221.67773 220.56687 219.53401 218.64515 217.79329
 217.04243 216.22957 215.33471 214.70585 214.16299 215.10312 217.39175 219.66447
 221.75760 223.27197 224.38362 224.47855 224.20554 223.62881 223.29181 223.89249
 225.68706 229.12424 233.46161 238.01588 242.53748 246.77504 250.65845 254.36417
 257.64450 260.52985 263.18701 265.59402 267.64877 269.33447 270.73132 272.07294
 273.21970 274.68231 276.29382 277.90393 279.33133 280.59418 281.74637 282.79016
 283.72894 284.56491 285.29523 286.22589
 366.78100 356.34281 345.78263 334.65644 323.06725 311.26906 299.14688 286.95769
 274.67750 262.58231 250.59913 239.90794 230.03775 221.14956 213.33938 206.34919
 200.19100 195.13681 191.72663 189.77644 188.82125 188.89306 189.73588 191.05169
 192.78450 194.88731 197.15813 199.52494 201.97775 204.46556 206.56138 208.41119
 210.04500 211.19781 211.43463 211.67044 211.61525 211.32806 210.96888 210.60669
 210.23150 209.94931 209.76513 209.63694 209.57275 209.91156 210.30538 210.70219
 211.50300 212.68882 213.94663 215.73744 217.67325 219.72407 221.82688 223.91769
 225.98550 228.07732 230.18213 232.29594 234.43275 236.61257 238.87638 241.25419
 243.88300 246.14182 248.15163 249.92444 251.34925 252.48007 253.30988 253.63369
 253.67850 253.46032 252.82813 251.78394 250.39775 248.56657 246.48338 244.32419
 242.12300 239.93482 237.76263 235.60944 233.47725 231.35207 229.38588 227.55069
 225.84150 224.32132 222.95913 221.73894 220.62875 219.59657 218.70838 217.85719
 217.10700 216.29482 215.40063 214.77244 214.23026 215.14400 217.39542 219.68192
 221.70345 223.40759 224.34569 224.23392 224.02554 223.46584 223.04324 223.57881
 225.55547 229.19023 233.64944 238.21971 242.71513 246.93318 250.83588 254.52887
 257.79172 260.62549 263.24384 265.70401 267.83289 269.56253 270.54538 272.27643
 273.65823 275.12808 276.79819 278.32379 279.64404 280.81216 281.87787 282.84332
 283.71167 284.48492 285.16040 286.02124
 366.78100 356.34329 345.78357 334.65786 323.06914 311.27143 299.14971 286.96100
 274.68128 262.58657 250.60385 239.91314 230.04342 221.15571 213.34599 206.35628
 200.19856 195.14485 191.73513 189.78542 188.83070 188.90299 189.74627 191.06256
 192.79584 194.89913 197.17041 199.53770 201.99098 204.47927 206.57555 208.42584
 210.06012 211.21341 211.45069 211.68698 211.63226 211.34555 210.98683 210.62512
 210.25040 209.96869 209.78497 209.65726 209.59355 209.93283 210.32712 210.72440
 211.52569 212.71197 213.97026 215.76154 217.69783 219.74911 221.85240 223.94368
 226.01197 228.10425 230.20954 232.32382 234.46111 236.64139 238.90568 241.28396
 243.91325 246.17253 248.18282 249.95610 251.38139 252.51267 253.34296 253.66724
 253.71253 253.49481 252.86310 251.81938 250.43367 248.60295 246.52024 244.36152
 242.16081 239.97309 237.80138 235.64866 233.51695 231.39223 229.42652 227.59181
 225.88309 224.36338 223.00166 221.78195 220.67223 219.64052 218.75280 217.90209
 217.15237 216.34066 215.44694 214.81923 214.27751 215.16785 217.37146 219.71045
 221.66121 223.32443 224.27823 224.05009 223.78596 223.24980 222.68266 223.40488
 225.57860 229.34958 233.89371 238.47787 242.95334 247.12712 250.95174 254.64508
 257.92084 260.73166 263.34229 265.85724 268.05325 269.79468 270.83115 272.18307
 273.61880 274.79654 276.36261 277.84662 279.13092 280.26718 281.30383 282.24298
 283.08765 283.83981 284.49689 285.33429
 366.78100 356.34276 345.78252 334.65628 323.06704 311.26880 299.14656 286.95732
 274.67708 262.58184 250.59860 239.90736 230.03712 221.14888 213.33864 206.34840
 200.19016 195.13592 191.72568 189.77544 188.82020 188.89196 189.73472 191.05048
 192.78324 194.88600 197.15676 199.52352 201.97628 204.46404 206.55980 208.40956
 210.04332 211.19608 211.43284 211.66860 211.61336 211.32612 210.96688 210.60464
 210.22940 209.94716 209.76292 209.63468 209.57044 209.90920 210.30296 210.69972
 211.50048 212.68624 213.94400 215.73476 217.67052 219.72128 221.82404 223.91480
 225.98256 228.07432 230.17908 232.29284 234.42960 236.60936 238.87312 241.25088
 243.87964 246.13840 248.14816 249.92092 251.34568 252.47644 253.30620 253.62996
 253.67472 253.45648 252.82424 251.78000 250.39376 248.56252 246.47928 244.32004
 242.11880 239.93056 237.75833 235.60509 233.47285 231.34761 229.38137 227.54613
 225.83689 224.31665 222.95441 221.73417 220.62393 219.59169 218.70345 217.85221
 217.10197 216.28973 215.39549 214.76725 214.22501 215.14949 217.41028 219.66982
 221.68678 223.24956 224.23193 223.91229 223.42336 222.89243 222.52347 223.27547
 225.58047 229.50224 234.11800 238.73917 243.20126 247.32588 251.10637 254.75168
 258.00171 260.81708 263.47375 266.02707 268.25723 269.99802 270.96518 272.32220
 273.52884 274.44177 275.82648 277.33243 278.63571 279.78876 280.84076 281.79376
 282.65091 283.41422 284.08102 284.93076
 366.78100 356.34214 345.78127 334.65441 323.06455 311.26569 299.14282 286.95296
 274.67210 262.57623 250.59237 239.90051 230.02965 221.14078 213.32992 206.33906
 200.18020 195.12533 191.71447 189.76361 188.80774 188.87888 189.72102 191.03616
 192.76829 194.87043 197.14057 199.50670 201.95884 204.44598 206.54112 208.39025
 210.02339 211.17553 211.41166 211.64680 211.59094 211.30308 210.94321 210.58035
 210.20449 209.92163 209.73676 209.60790 209.54304 209.88117 210.27431 210.67045
 211.47059 212.65572 213.91286 215.70300 217.63813 219.68827 221.79041 223.88055
 225.94768 228.03882 230.14296 232.25609 234.39223 236.57137 238.83451 241.21164
 243.83978 246.09792 248.10706 249.87919 251.30333 252.43347 253.26260 253.58574
 253.62988 253.41102 252.77815 251.73329 250.34643 248.51456 246.43070 244.27084
 242.06898 239.88011 237.70725 235.55339 233.42052 231.29466 229.32780 227.49194
 225.78207 224.26121 222.89835 221.67748 220.56662 219.53376 218.64490 217.79303
 217.04217 216.22931 215.33445 214.70558 214.16272 215.12669 217.45549 219.61995
 221.69987 223.20973 224.18533 223.78481 223.15836 222.58887 222.32120 223.13838
 225.53629 229.61232 234.30330 238.92773 243.37134 247.47697 251.26709 254.89612
 258.12207 260.92783 263.60114 266.19250 268.46967 270.19357 271.05319 272.58377
 273.62247 274.35315 275.39703 276.88403 278.17093 279.30948 280.34824 281.28928
 282.13565 282.88934 283.54776 284.38684
 366.78100 356.34292 345.78285 334.65677 323.06770 311.26962 299.14755 286.95847
 274.67840 262.58332 250.60024 239.90917 230.03909 221.15102 213.34094 206.35087
 200.19279 195.13871 191.72864 189.77856 188.82349 188.89541 189.73834 191.05426
 192.78719 194.89011 197.16103 199.52796 201.98088 204.46881 206.56473 208.41466
 210.04858 211.20151 211.43843 211.67435 211.61928 211.33220 210.97313 210.61105
 210.23598 209.95390 209.76982 209.64175 209.57767 209.91660 210.31052 210.70745
 211.50837 212.69430 213.95222 215.74314 217.67907 219.72999 221.83292 223.92384
 225.99177 228.08369 230.18862 232.30254 234.43946 236.61939 238.88331 241.26124
 243.89016 246.14909 248.15901 249.93193 251.35686 252.48778 253.31771 253.64163
 253.68656 253.46848 252.83641 251.79233 250.40625 248.57518 246.49210 244.33303
 242.13195 239.94388 237.77180 235.61873 233.48665 231.36157 229.39550 227.56042
 225.85135 224.33127 222.96920 221.74912 220.63904 219.60697 218.71889 217.86782
 217.11774 216.30567 215.41159 214.78352 214.24144 215.16779 217.42535 219.64966
 221.63013 223.18338 224.10854 223.70132 223.02562 222.30521 221.94342 223.05803
 225.54382 229.72495 234.48495 239.12286 243.53229 247.62054 251.41003 255.05290
 258.28253 261.08945 263.74261 266.31525 268.59561 270.39282 271.09921 272.83401
 273.76416 274.44888 275.49542 276.93185 278.18506 279.29382 280.30539 281.22180
 282.04602 282.78000 283.42117 284.23828
 366.78100 356.34409 345.78518 334.66027 323.07235 311.27544 299.15453 286.96662
 274.68771 262.59380 250.61188 239.92197 230.05306 221.16615 213.35724 206.36833
 200.21141 195.15850 191.74959 189.80068 188.84677 188.91986 189.76394 191.08103
 192.81512 194.91921 197.19130 199.55939 202.01347 204.50256 206.59965 208.45074
 210.08583 211.23992 211.47800 211.71509 211.66118 211.37527 211.01736 210.65645
 210.28253 210.00162 209.81871 209.69180 209.62889 209.96898 210.36406 210.76215
 211.56424 212.75133 214.01042 215.80251 217.73959 219.79168 221.89577 223.98786
 226.05695 228.15004 230.25612 232.37121 234.50930 236.69039 238.95548 241.33457
 243.96465 246.22474 248.23583 250.00992 251.43601 252.56810 253.39918 253.72427
 253.77036 253.55345 252.92254 251.87963 250.49471 248.66480 246.58289 244.42498
 242.22507 240.03816 237.86724 235.71533 233.58442 231.46051 229.49560 227.66169
 225.95377 224.43486 223.07395 221.85504 220.74613 219.71522 218.82830 217.97839
 217.22948 216.41857 215.52566 214.89875 214.35783 215.22110 217.34433 219.73341
 221.52141 223.06236 223.99969 223.59038 222.89972 222.01161 221.48219 222.98753
 225.59966 229.85014 234.66451 239.35231 243.71867 247.75580 251.54674 255.21048
 258.42041 261.21811 263.88324 266.45209 268.74344 270.55359 271.51483 273.00085
 273.96170 274.65411 275.29343 276.32489 277.52573 278.60068 279.58139 280.46985
 281.26892 281.98050 282.60211 283.39432
 366.78100 356.34447 345.78594 334.66142 323.07389 311.27736 299.15683 286.96930
 274.69078 262.59725 250.61572 239.92619 230.05766 221.17114 213.36261 206.37408
 200.21755 195.16502 191.75650 189.80797 188.85444 188.92791 189.77238 191.08985
 192.82433 194.92880 197.20127 199.56974 202.02421 204.51369 206.61116 208.46263
 210.09810 211.25257 211.49105 211.72852 211.67499 211.38946 211.03193 210.67141
 210.29788 210.01735 209.83482 209.70829 209.64577 209.98624 210.38171 210.78018
 211.58265 212.77013 214.02960 215.82207 217.75954 219.81201 221.91649 224.00896
 226.07843 228.17190 230.27837 232.39384 234.53232 236.71379 238.97926 241.35873
 243.98920 246.24968 248.26115 250.03562 251.46209 252.59456 253.42604 253.75151
 253.79798 253.58145 252.95092 251.90840 250.52387 248.69434 246.61281 244.45528
 242.25576 240.06923 237.89870 235.74717 233.61664 231.49312 229.52859 227.69506
 225.98753 224.46900 223.10848 221.88995 220.78142 219.75089 218.86436 218.01483
 217.26631 216.45578 215.56325 214.93672 214.39619 215.23700 217.28868 219.80080
 221.45755 222.83908 223.90955 223.47176 222.72472 221.62051 221.03238 222.86005
 225.62161 229.97780 234.84326 239.58061 243.93980 247.91399 251.69496 255.32652
 258.53345 261.34329 263.99686 266.58121 268.86639 270.59506 271.65775 273.12369
 274.11780 274.82941 275.39969 276.05054 276.80136 277.76566 278.73990 279.62250
 280.41629 281.12317 281.74069 282.52765
 366.78100 356.34422 345.78543 334.66065 323.07286 311.27608 299.15529 286.96751
 274.68872 262.59494 250.61315 239.92337 230.05458 221.16780 213.35901 206.37023
 200.21344 195.16066 191.75188 189.80309 188.84931 188.92252 189.76674 191.08395
 192.81817 194.92238 197.19460 199.56281 202.01703 204.50624 206.60346 208.45467
 210.08989 211.24410 211.48232 211.71954 211.66575 211.37997 211.02218 210.66140
 210.28761 210.00683 209.82404 209.69726 209.63447 209.97469 210.36990 210.76812
 211.57033 212.75755 214.01676 215.80898 217.74620 219.79841 221.90263 223.99484
 226.06406 228.15727 230.26349 232.37870 234.51692 236.69813 238.96335 241.34256
 243.97278 246.23299 248.24421 250.01842 251.44464 252.57686 253.40807 253.73329
 253.77950 253.56272 252.93193 251.88915 250.50436 248.67458 246.59279 244.43501
 242.23522 240.04844 237.87765 235.72587 233.59508 231.47130 229.50652 227.67273
 225.96495 224.44616 223.08538 221.86659 220.75781 219.72702 218.84024 217.99045
 217.24167 216.43088 215.53810 214.91131 214.37053 215.22234 217.26393 219.82240
 221.51895 222.62253 223.80690 223.38232 222.45580 221.23686 220.62952 222.60693
 225.61234 230.10892 235.03416 239.79613 244.19557 248.08185 251.82399 255.44592
 258.66336 261.48770 264.15359 266.71515 268.97928 270.74881 271.65884 273.23898
 274.28903 275.03976 275.62311 276.18005 276.75476 277.30276 277.97546 278.85611
 279.64813 280.35345 280.96960 281.75482
 366.78100 356.34315 345.78330 334.65745 323.06860 311.27076 299.14891 286.96006
 274.68021 262.58536 250.60251 239.91166 230.04181 221.15396 213.34412 206.35427
 200.19642 195.14257 191.73272 189.78287 188.82802 188.90017 189.74333 191.05948
 192.79263 194.89578 197.16693 199.53408 201.98723 204.47538 206.57153 208.42169
 210.05584 211.20899 211.44614 211.68229 211.62744 211.34059 210.98174 210.61989
 210.24505 209.96320 209.77935 209.65150 209.58765 209.92680 210.32095 210.71810
 211.51925 212.70541 213.96356 215.75471 217.69086 219.74201 221.84516 223.93631
 226.00446 228.09662 230.20177 232.31592 234.45307 236.63322 238.89737 241.27552
 243.90467 246.16382 248.17398 249.94713 251.37228 252.50343 253.33358 253.65773
 253.70288 253.48503 252.85318 251.80934 250.42349 248.59264 246.50979 244.35094
 242.15009 239.96224 237.79039 235.63754 233.50570 231.38085 229.41500 227.58015
 225.87130 224.35145 222.98960 221.76975 220.65991 219.62806 218.74021 217.88936
 217.13951 216.32766 215.43381 214.80596 214.26411 215.16924 217.30766 219.74765
 221.67357 222.75923 223.65390 223.25412 222.21376 220.90523 220.47874 222.55591
 225.75214 230.27274 235.23151 240.00467 244.46388 248.27060 251.90813 255.59572
 258.80487 261.60812 264.26990 266.81369 269.05377 270.69388 271.96487 273.36548
 274.45990 275.27005 275.88971 276.41504 276.92734 277.47171 277.89532 278.38394
 279.05173 279.75412 280.36771 281.14963
 366.78100 356.34292 345.78284 334.65676 323.06768 311.26959 299.14751 286.95843
 274.67835 262.58327 250.60019 239.90911 230.03903 221.15095 213.34086 206.35078
 200.19270 195.13862 191.72854 189.77846 188.82338 188.89530 189.73822 191.05413
 192.78705 194.88997 197.16089 199.52781 201.98073 204.46865 206.56457 208.41449
 210.04840 211.20132 211.43824 211.67416 211.61908 211.33200 210.97292 210.61084
 210.23576 209.95368 209.76959 209.64151 209.57743 209.91635 210.31027 210.70719
 211.50811 212.69403 213.95195 215.74286 217.67878 219.72970 221.83262 223.92354
 225.99146 228.08338 230.18830 232.30222 234.43913 236.61905 238.88297 241.26089
 243.88981 246.14873 248.15865 249.93157 251.35649 252.48740 253.31732 253.64124
 253.68616 253.46808 252.83600 251.79192 250.40584 248.57476 246.49167 244.33259
 242.13151 239.94343 237.77135 235.61827 233.48619 231.36111 229.39503 227.55994
 225.85086 224.33078 222.96870 221.74862 220.63854 219.60646 218.71838 217.86730
 217.11721 216.30513 215.41105 214.78297 214.24089 215.16010 217.33183 219.71497
 221.70894 222.81511 223.53230 223.17172 222.03403 220.56502 220.19368 222.47856
 225.84654 230.43066 235.41266 240.19318 244.63551 248.50925 252.00668 255.72713
 258.93472 261.73141 264.36923 266.91376 269.12881 270.78973 271.96530 273.52490
 274.65854 275.53735 276.20059 276.70148 277.09674 277.54248 277.90378 278.22009
 278.64966 279.26111 279.86453 280.63351
 366.78100 356.34290 345.78281 334.65671 323.06761 311.26951 299.14742 286.95832
 274.67822 262.58313 250.60003 239.90893 230.03883 221.15074 213.34064 206.35054
 200.19245 195.13835 191.72825 189.77815 188.82306 188.89496 189.73786 191.05377
 192.78667 194.88957 197.16047 199.52738 201.98028 204.46818 206.56409 208.41399
 210.04789 211.20080 211.43770 211.67360 211.61850 211.33141 210.97231 210.61021
 210.23512 209.95302 209.76892 209.64082 209.57673 209.91563 210.30953 210.70644
 211.50734 212.69324 213.95114 215.74205 217.67795 219.72885 221.83176 223.92266
 225.99056 228.08246 230.18737 232.30127 234.43817 236.61808 238.88198 241.25988
 243.88878 246.14769 248.15759 249.93049 251.35540 252.48630 253.31620 253.64010
 253.68501 253.46691 252.83481 251.79072 250.40462 248.57352 246.49042 244.33133
 242.13023 239.94213 237.77004 235.61694 233.48484 231.35975 229.39365 227.55855
 225.84945 224.32936 222.96726 221.74716 220.63707 219.60497 218.71687 217.86577
 217.11568 216.30358 215.40948 214.78139 214.23929 215.16161 217.34070 219.69916
 221.71617 222.86028 223.39696 223.05067 221.93098 220.28746 219.86482 222.37457
 225.91183 230.58409 235.59857 240.38635 244.80957 248.73373 252.19055 255.78429
 259.03833 261.85458 264.47253 266.98108 269.13489 270.75687 272.11746 273.68753
 274.87994 275.81274 276.48941 276.94751 277.25595 277.51660 277.86823 278.19308
 278.48578 278.88113 279.45047 280.22247
 366.78100 356.34302 345.78303 334.65705 323.06806 311.27008 299.14810 286.95911
 274.67913 262.58414 250.60116 239.91018 230.04019 221.15221 213.34222 206.35224
 200.19426 195.14027 191.73029 189.78030 188.82532 188.89733 189.74035 191.05637
 192.78938 194.89240 197.16341 199.53043 201.98345 204.47146 206.56748 208.41749
 210.05151 211.20453 211.44154 211.67756 211.62257 211.33559 210.97661 210.61462
 210.23964 209.95765 209.77367 209.64569 209.58170 209.92072 210.31473 210.71175
 211.51277 212.69878 213.95680 215.74781 217.68383 219.73485 221.83786 223.92888
 225.99689 228.08891 230.19393 232.30794 234.44496 236.62497 238.88899 241.26700
 243.89602 246.15504 248.16505 249.93807 251.36308 252.49410 253.32412 253.64813
 253.69315 253.47516 252.84318 251.79920 250.41321 248.58223 246.49924 244.34026
 242.13928 239.95129 237.77931 235.62632 233.49434 231.36936 229.40337 227.56839
 225.85940 224.33942 222.97744 221.75745 220.64747 219.61548 218.72750 217.87652
 217.12653 216.31455 215.42056 214.79258 214.25060 215.17021 217.34290 219.68919
 221.69450 222.88480 223.29346 222.91183 221.73300 219.87317 219.67088 222.32045
 225.95615 230.73149 235.76802 240.56232 244.98030 248.93665 252.43913 255.85959
 259.10696 261.94669 264.54645 267.02713 269.14240 270.67258 272.30090 273.85428
 275.09308 276.04300 276.72992 277.18628 277.47864 277.69672 277.97440 278.28925
 278.56613 278.81223 279.29883 280.06555
 366.78100 356.34342 345.78385 334.65827 323.06969 311.27212 299.15054 286.96196
 274.68239 262.58781 250.60524 239.91466 230.04508 221.15751 213.34793 206.35835
 200.20078 195.14720 191.73762 189.78805 188.83347 188.90589 189.74932 191.06574
 192.79916 194.90259 197.17401 199.54143 201.99486 204.48328 206.57971 208.43013
 210.06455 211.21798 211.45540 211.69182 211.63725 211.35067 210.99209 210.63052
 210.25594 209.97436 209.79079 209.66321 209.59963 209.93906 210.33348 210.73091
 211.53233 212.71875 213.97718 215.76860 217.70502 219.75645 221.85987 223.95129
 226.01972 228.11214 230.21756 232.33199 234.46941 236.64983 238.91426 241.29268
 243.92210 246.18153 248.19195 249.96538 251.39080 252.52222 253.35265 253.67707
 253.72249 253.50492 252.87334 251.82976 250.44419 248.61361 246.53103 244.37246
 242.17188 239.98430 237.81273 235.66015 233.52858 231.40400 229.43842 227.60385
 225.89527 224.37569 223.01412 221.79454 220.68496 219.65339 218.76581 217.91523
 217.16566 216.35408 215.46050 214.83293 214.29135 215.19551 217.33168 219.69472
 221.65167 222.86821 223.22180 222.76184 221.54152 219.57144 219.36511 222.19908
 226.04149 230.89143 235.92896 240.73129 245.15460 249.13957 252.69116 256.00217
 259.15158 262.00464 264.59372 267.04919 269.11209 270.74576 272.49252 274.06473
 275.29156 276.25549 276.96194 277.43085 277.72913 277.94730 278.13620 278.41428
 278.69278 278.97293 279.39355 280.15311
 366.78100 356.34375 345.78450 334.65925 323.07100 311.27375 299.15250 286.96425
 274.68500 262.59075 250.60850 239.91825 230.04900 221.16175 213.35250 206.36325
 200.20600 195.15275 191.74350 189.79425 188.84000 188.91275 189.75650 191.07325
 192.80700 194.91076 197.18251 199.55026 202.00401 204.49276 206.58951 208.44026
 210.07501 211.22876 211.46651 211.70326 211.64901 211.36276 211.00451 210.64326
 210.26901 209.98776 209.80451 209.67726 209.61401 209.95376 210.34851 210.74626
 211.54801 212.73476 213.99351 215.78526 217.72201 219.77376 221.87751 223.96926
 226.03801 228.13076 230.23651 232.35126 234.48901 236.66976 238.93451 241.31326
 243.94301 246.20276 248.21351 249.98726 251.41301 252.54476 253.37551 253.70026
 253.74601 253.52876 252.89752 251.85427 250.46902 248.63877 246.55652 244.39827
 242.19802 240.01077 237.83952 235.68727 233.55602 231.43177 229.46652 227.63227
 225.92402 224.40477 223.04352 221.82427 220.71502 219.68377 218.79652 217.94627
 217.19702 216.38577 215.49252 214.86527 214.32402 215.21669 217.32576 219.69452
 221.61456 222.84647 223.16452 222.57675 221.33386 219.34621 219.08582 222.05731
 226.09639 231.03203 236.08231 240.89328 245.32465 249.33893 252.93042 256.19781
 259.20612 262.04517 264.64465 267.04358 268.99704 270.84052 272.66373 274.23410
 275.47305 276.45895 277.18948 277.67892 277.99246 278.21805 278.40314 278.60260
 278.90884 279.23257 279.56696 280.31256
 366.78100 356.34390 345.78480 334.65970 323.07160 311.27450 299.15339 286.96529
 274.68619 262.59209 250.60999 239.91989 230.05079 221.16369 213.35459 206.36549
 200.20839 195.15529 191.74618 189.79708 188.84298 188.91588 189.75978 191.07668
 192.81058 194.91448 197.18638 199.55428 202.00818 204.49707 206.59397 208.44487
 210.07977 211.23367 211.47157 211.70847 211.65437 211.36827 211.01017 210.64907
 210.27497 209.99386 209.81076 209.68366 209.62056 209.96046 210.35536 210.75326
 211.55516 212.74206 214.00096 215.79286 217.72975 219.78165 221.88555 223.97745
 226.04635 228.13925 230.24515 232.36005 234.49795 236.67885 238.94375 241.32265
 243.95254 246.21244 248.22334 249.99724 251.42314 252.55504 253.38594 253.71084
 253.75674 253.53964 252.90854 251.86543 250.48033 248.65023 246.56813 244.41003
 242.20993 240.02283 237.85173 235.69963 233.56853 231.44443 229.47933 227.64522
 225.93712 224.41802 223.05692 221.83782 220.72872 219.69762 218.81052 217.96042
 217.21132 216.40022 215.50711 214.88001 214.33891 215.22743 217.32668 219.69043
 221.57913 222.81949 223.11740 222.39194 221.08453 219.12656 218.84064 221.93353
 226.16541 231.16953 236.22438 241.04741 245.48386 249.52599 253.15556 256.41101
 259.32098 262.03903 264.61386 266.99530 269.04074 271.01062 272.84366 274.36981
 275.61838 276.64352 277.40643 277.92050 278.24945 278.47415 278.62823 278.76459
 279.02615 279.38406 279.77002 280.46405
 366.78100 356.34405 345.78509 334.66014 323.07219 311.27524 299.15428 286.96633
 274.68738 262.59343 250.61147 239.92152 230.05257 221.16561 213.35666 206.36771
 200.21076 195.15780 191.74885 189.79990 188.84595 188.91899 189.76304 191.08009
 192.81414 194.91818 197.19023 199.55828 202.01232 204.50137 206.59842 208.44947
 210.08451 211.23856 211.47661 211.71366 211.65970 211.37375 211.01580 210.65484
 210.28089 209.99994 209.81699 209.69003 209.62708 209.96713 210.36218 210.76022
 211.56227 212.74932 214.00836 215.80041 217.73746 219.78951 221.89355 223.98560
 226.05465 228.14770 230.25374 232.36879 234.50684 236.68788 238.95293 241.33198
 243.96203 246.22207 248.23312 250.00717 251.43322 252.56526 253.39631 253.72136
 253.76741 253.55045 252.91950 251.87655 250.49159 248.66164 246.57969 244.42174
 242.22178 240.03483 237.86388 235.71193 233.58097 231.45702 229.49207 227.65811
 225.95016 224.43121 223.07026 221.85130 220.74235 219.71140 218.82445 217.97449
 217.22554 216.41459 215.52163 214.89468 214.35373 215.23763 217.32593 219.68625
 221.55356 222.77431 223.07686 222.24590 220.80412 218.89456 218.61458 221.83870
 226.23897 231.31554 236.36446 241.19011 245.61885 249.68164 253.34749 256.59607
 259.47272 262.13281 264.69455 267.07101 269.20465 271.19965 272.95712 274.44571
 275.72049 276.77484 277.55438 278.07458 278.42221 278.67633 278.86948 279.02945
 279.24252 279.57831 279.94455 280.58182
 366.78100 356.34424 345.78548 334.66073 323.07297 311.27621 299.15545 286.96769
 274.68894 262.59518 250.61342 239.92366 230.05490 221.16815 213.35939 206.37063
 200.21387 195.16111 191.75236 189.80360 188.84984 188.92308 189.76732 191.08457
 192.81881 194.92305 197.19529 199.56353 202.01778 204.50702 206.60426 208.45550
 210.09074 211.24499 211.48323 211.72047 211.66671 211.38095 211.02320 210.66244
 210.28868 210.00792 209.82516 209.69841 209.63565 209.97589 210.37113 210.76937
 211.57162 212.75886 214.01810 215.81034 217.74758 219.79983 221.90407 223.99631
 226.06555 228.15879 230.26504 232.38028 234.51852 236.69976 238.96500 241.34425
 243.97449 246.23473 248.24597 250.02021 251.44646 252.57870 253.40994 253.73518
 253.78142 253.56467 252.93391 251.89115 250.50639 248.67663 246.59488 244.43712
 242.23736 240.05060 237.87984 235.72809 233.59733 231.47357 229.50881 227.67505
 225.96730 224.44854 223.08778 221.86902 220.76026 219.72951 218.84275 217.99299
 217.24423 216.43347 215.54072 214.91396 214.37320 215.25015 217.32201 219.68301
 221.52722 222.73848 223.00330 222.11237 220.56145 218.65309 218.36209 221.79744
 226.31494 231.47501 236.52106 241.32785 245.73961 249.81024 253.50333 256.75024
 259.63455 262.30881 264.84933 267.19678 269.28833 271.22922 272.96249 274.48105
 275.77649 276.88159 277.66742 278.19565 278.56436 278.83707 279.04922 279.23050
 279.49319 279.77917 280.08295 280.68811
 354.97500 345.04800 334.58700 324.11500 313.32600 302.53700 291.65000 280.76700
 269.93100 259.19300 248.62200 238.61700 229.08700 220.35500 212.54000 205.53500
 199.46400 194.49300 191.14300 189.19000 188.08900 188.01400 188.72400 189.90600
 191.46900 193.38200 195.40300 197.55600 199.80700 202.06000 204.28800 206.47900
 208.55200 210.37800 212.02500 213.65900 214.99800 216.11800 217.17200 218.25900
 219.49400 220.64500 221.67900 222.61400 223.54500 224.98200 226.57100 228.19000
 229.79700 231.81100 233.86500 235.97200 238.24200 240.55300 242.89900 245.25300
 247.48800 249.53500 251.36600 252.84800 254.09800 255.16700 256.02700 256.25300
 256.09500 255.54300 253.93500 252.56600 251.38400 250.24500 249.05200 247.70100
 246.01600 243.99600 241.78400 239.39300 236.81300 234.22300 231.65800 229.14400
 226.74000 224.47300 222.33500 220.32500 218.44000 216.67700 214.96200 213.47200
 212.20000 211.10800 210.26000 209.63900 209.24400 209.03100 209.05800 209.33300
 209.78400 210.62600 211.33100 212.39100 213.62500 214.84668 217.72949 219.47640
 220.32566 220.86828 220.88710 220.27371 219.43733 218.84250 219.04934 220.86203
 222.60583 225.72206 229.03064 232.61777 236.12270 239.51333 242.70767 245.68587
 248.41061 250.90679 253.19353 254.91714 256.48655 257.94920 259.39966 260.69384
 261.81714 262.77997 263.71679 264.54570 265.26305 265.89772 266.47676 267.00133
 267.47312 267.89325 268.26027 268.72800
