|-------------------------------------------------------------------------|
|   File Name : in_temp.dat
|   Subject   : temperature profiles used for initial guess atmosphere
|   File Type : input of gmtr
|   Data Type : atmospherical data
|   Author/s  : WRF-Chem
|   Date      : Fri Jul 26 15:39:24 2024
|-------------------------------------------------------------------------|

 WRF-Chem temperature
#
 values of T (K)    (8f10.5)
#
 354.97500 345.04800 334.58700 324.11500 313.32600 302.53700 291.65000 280.76700
 269.93100 259.19300 248.62200 238.61700 229.08700 220.35500 212.54000 205.53500
 199.46400 194.49300 191.14300 189.19000 188.08900 188.01400 188.72400 189.90600
 191.46900 193.38200 195.40300 197.55600 199.80700 202.06000 204.28800 206.47900
 208.55200 210.37800 212.02500 213.65900 214.99800 216.11800 217.17200 218.25900
 219.49400 220.64500 221.67900 222.61400 223.54500 224.98200 226.57100 228.19000
 229.79700 231.81100 233.86500 235.97200 238.24200 240.55300 242.89900 245.25300
 247.48800 249.53500 251.36600 252.84800 254.09800 255.16700 256.02700 256.25300
 256.09500 255.54300 253.93500 252.56600 251.38400 250.24500 249.05200 247.70100
 246.01600 243.99600 241.78400 239.39300 236.81300 234.22300 231.65800 229.14400
 226.74000 224.47300 222.33500 220.32500 218.44000 216.67700 214.96200 213.47200
 212.20000 211.10800 210.26000 209.63900 209.24400 209.03100 209.05800 209.33300
 209.78400 210.62600 211.33100 212.39100 213.62500 214.84668 217.72949 219.47640
 220.32566 220.86828 220.88710 220.27371 219.43733 218.84250 219.04934 220.86203
 222.60583 225.72206 229.03064 232.61777 236.12270 239.51333 242.70767 245.68587
 248.41061 250.90679 253.19353 254.91714 256.48655 257.94920 259.39966 260.69384
 261.81714 262.77997 263.71679 264.54570 265.26305 265.89772 266.47676 267.00133
 267.47312 267.89325 268.26027 268.72800
 366.78100 356.33500 345.76700 334.63300 323.03600 311.23000 299.10000 286.90300
 274.61500 262.51200 250.52100 239.82200 229.94400 221.04800 213.23000 206.23200
 200.06600 195.00400 191.58600 189.62800 188.66500 188.72900 189.56400 190.87200
 192.59700 194.69200 196.95500 199.31400 201.75900 204.23900 206.32700 208.16900
 209.79500 210.94000 211.16900 211.39700 211.33400 211.03900 210.67200 210.30200
 209.91900 209.62900 209.43700 209.30100 209.22900 209.56000 209.94600 210.33500
 211.12800 212.30600 213.55600 215.33900 217.26700 219.31000 221.40500 223.48800
 225.54800 227.63200 229.72900 231.83500 233.96400 236.13600 238.39200 240.76200
 243.38300 245.63400 247.63600 249.40100 250.81800 251.94100 252.76300 253.07900
 253.11600 252.89000 252.25000 251.19800 249.80400 247.96500 245.87400 243.70700
 241.49800 239.30200 237.12200 234.96100 232.82100 230.68800 228.71400 226.87100
 225.15400 223.62600 222.25600 221.02800 219.91000 218.87000 217.97400 217.11500
 216.35700 215.53700 214.63500 213.99900 213.44900 212.85855 212.01316 212.61654
 214.26826 216.08686 218.14273 220.53346 223.40855 226.78828 231.49734 235.90155
 239.42278 243.28576 247.23140 251.11907 254.80144 258.23331 261.38913 264.27520
 266.89312 269.26852 271.44504 273.08845 274.58484 275.98591 277.39845 278.65879
 279.75272 280.69038 281.56708 282.34086 283.01050 283.60295 284.14348 284.63317
 285.07358 285.46577 285.80838 286.24500
 381.81900 372.39900 361.20600 349.77600 337.62200 324.85300 311.81000 298.35300
 284.86000 271.32400 258.56100 246.30400 236.08700 226.79600 218.44800 211.29000
 205.52200 200.89400 197.38100 194.84800 193.01500 192.31500 192.25000 192.43100
 192.91200 193.53700 194.13600 194.71200 195.26200 195.83100 196.39300 196.97600
 197.60400 198.14900 198.58400 199.05700 199.69500 200.37800 201.05400 201.70800
 202.31300 202.85700 203.35500 203.86200 204.56900 205.29700 206.02600 206.98700
 208.19300 209.44100 210.96900 212.57600 214.46200 216.51300 218.63000 220.85300
 223.34100 225.96200 228.73900 231.69700 234.70600 237.70600 240.69200 243.65700
 246.73700 249.69900 252.52100 255.06300 257.29000 259.23300 260.63300 261.68000
 262.46100 262.79800 262.69100 262.22400 261.06900 259.52500 257.70700 255.50700
 253.00100 250.30200 247.39800 244.45200 241.65400 239.05400 236.73300 234.59000
 232.59500 230.72500 228.83400 226.82600 224.66600 222.38700 220.10400 217.71500
 215.45900 213.06600 210.54600 208.09300 205.35400 202.08130 196.05959 200.71215
 209.01611 216.90438 223.84126 229.78593 235.00632 240.20838 245.98943 250.68668
 254.32982 257.93487 261.55666 264.96801 268.15192 271.06452 273.76717 276.25691
 278.57680 280.74479 282.77456 284.60533 286.27232 287.81705 289.31715 290.65561
 291.81734 292.81312 293.70701 294.49387 295.17482 295.77730 296.32696 296.82492
 297.27278 297.67160 298.02000 298.46400
 399.33000 389.90700 379.81300 368.66800 357.52200 345.30100 333.07400 320.22700
 307.21600 293.84800 280.37600 267.29600 254.61000 242.98700 232.15100 221.97700
 212.67200 204.28600 197.66900 192.82100 189.48600 187.45200 186.81400 187.08900
 187.78100 189.05400 190.64800 192.54200 194.63000 196.75200 198.67100 200.15800
 201.53500 202.48700 202.97500 203.34000 203.53900 203.49700 203.38500 203.24700
 203.00500 202.78600 202.60300 202.43700 202.42600 202.88800 203.42000 203.95100
 204.89500 205.99200 207.30100 208.95800 210.73800 213.10000 215.56400 218.18000
 220.96600 223.91800 226.96100 230.09200 233.29300 236.55700 239.95500 243.53700
 246.84500 249.39000 251.54200 253.47400 255.19500 256.48400 257.43100 258.05900
 258.21200 258.04000 257.58200 256.64300 255.23900 253.50700 251.40800 249.05600
 246.57600 243.99400 241.38900 238.83000 236.34400 233.98600 231.96900 230.11800
 228.42300 226.89900 225.54800 224.29700 223.10500 221.96500 220.95800 220.11300
 219.49000 218.92000 218.32500 217.88100 217.42300 216.96366 216.35568 216.80261
 217.73415 218.28582 218.64258 219.10077 220.44626 222.53987 226.38451 230.35736
 233.59734 237.39164 241.29814 245.22796 248.98002 252.51130 255.78595 258.80109
 261.54781 264.05210 266.34239 268.04198 269.58951 271.01303 272.35754 273.55718
 274.59842 275.49092 276.28989 276.99307 277.60161 278.14001 278.63122 279.07623
 279.47646 279.83287 280.14422 280.54100
 399.73800 389.78500 379.66200 368.15100 356.64100 344.35000 331.79200 318.88800
 305.72600 292.49300 279.20900 266.73800 254.69600 244.21100 234.45700 225.43300
 217.56900 210.45100 204.30000 199.30600 195.45800 192.57600 191.02700 190.38600
 190.23900 190.53400 191.16600 191.92500 192.79500 193.76600 194.73200 195.31200
 195.80000 196.05200 196.11500 196.11500 196.03900 195.72300 195.34000 194.98900
 194.75100 194.79200 195.13300 195.59800 196.50600 198.13600 199.85800 201.56600
 204.17900 206.82300 209.89300 213.28400 216.82800 220.60500 224.38700 228.20900
 232.03200 235.82500 239.56000 243.25800 246.84500 250.20100 253.70900 257.46800
 261.53000 264.22100 266.60100 268.68100 270.32900 271.74100 272.83600 273.47400
 273.89800 274.00200 273.75700 273.28800 272.37100 271.10000 269.58900 267.77900
 265.81600 263.72100 261.39300 258.91600 256.29800 253.42300 250.33100 247.11400
 243.83700 240.52900 237.24900 233.99900 230.72800 227.51500 224.25400 220.95200
 217.62700 213.65600 210.12100 206.78900 204.01000 201.99491 199.07309 198.76551
 199.40006 200.48994 201.46112 202.31912 203.45100 204.96110 207.47502 210.85391
 213.70530 217.29629 220.99574 224.72316 228.28753 231.64854 234.68024 237.40893
 239.70644 241.60899 243.46854 245.67368 247.68154 249.52395 251.24767 252.78566
 254.12057 255.26479 256.23740 257.09036 257.82852 258.48160 259.07744 259.61723
 260.10271 260.53504 260.91270 261.39400
 399.73800 389.78500 379.66200 368.15100 356.64100 344.35000 331.79200 318.88800
 305.72600 292.49300 279.20900 266.73800 254.69600 244.21100 234.45700 225.43300
 217.56900 210.45100 204.30000 199.30600 195.45800 192.57600 191.02700 190.38600
 190.23900 190.53400 191.16600 191.92500 192.79500 193.76600 194.73200 195.31200
 195.80000 196.05200 196.11500 196.11500 196.03900 195.72300 195.34000 194.98900
 194.75100 194.79200 195.13300 195.59800 196.50600 198.13600 199.85800 201.56600
 204.17900 206.82300 209.89300 213.28400 216.82800 220.60500 224.38700 228.20900
 232.03200 235.82500 239.56000 243.25800 246.84500 250.20100 253.70900 257.46800
 261.53000 264.22100 266.60100 268.68100 270.32900 271.74100 272.83600 273.47400
 273.89800 274.00200 273.75700 273.28800 272.37100 271.10000 269.58900 267.77900
 265.81600 263.72100 261.39300 258.91600 256.29800 253.42300 250.33100 247.11400
 243.83700 240.52900 237.24900 233.99900 230.72800 227.51500 224.25400 220.95200
 217.62700 213.65600 210.12100 206.78900 204.01000 201.99491 199.07309 198.76551
 199.40006 200.48994 201.46112 202.31912 203.45100 204.96110 207.47502 210.85391
 213.70530 217.29629 220.99574 224.72316 228.28753 231.64854 234.68024 237.40893
 239.70644 241.60899 243.46854 245.67368 247.68154 249.52395 251.24767 252.78566
 254.12057 255.26479 256.23740 257.09036 257.82852 258.48160 259.07744 259.61723
 260.10271 260.53504 260.91270 261.39400
 399.33000 389.90700 379.81300 368.66800 357.52200 345.30100 333.07400 320.22700
 307.21600 293.84800 280.37600 267.29600 254.61000 242.98700 232.15100 221.97700
 212.67200 204.28600 197.66900 192.82100 189.48600 187.45200 186.81400 187.08900
 187.78100 189.05400 190.64800 192.54200 194.63000 196.75200 198.67100 200.15800
 201.53500 202.48700 202.97500 203.34000 203.53900 203.49700 203.38500 203.24700
 203.00500 202.78600 202.60300 202.43700 202.42600 202.88800 203.42000 203.95100
 204.89500 205.99200 207.30100 208.95800 210.73800 213.10000 215.56400 218.18000
 220.96600 223.91800 226.96100 230.09200 233.29300 236.55700 239.95500 243.53700
 246.84500 249.39000 251.54200 253.47400 255.19500 256.48400 257.43100 258.05900
 258.21200 258.04000 257.58200 256.64300 255.23900 253.50700 251.40800 249.05600
 246.57600 243.99400 241.38900 238.83000 236.34400 233.98600 231.96900 230.11800
 228.42300 226.89900 225.54800 224.29700 223.10500 221.96500 220.95800 220.11300
 219.49000 218.92000 218.32500 217.88100 217.42300 216.96366 216.35568 216.80261
 217.73415 218.28582 218.64258 219.10077 220.44626 222.53987 226.38451 230.35736
 233.59734 237.39164 241.29814 245.22796 248.98002 252.51130 255.78595 258.80109
 261.54781 264.05210 266.34239 268.04198 269.58951 271.01303 272.35754 273.55718
 274.59842 275.49092 276.28989 276.99307 277.60161 278.14001 278.63122 279.07623
 279.47646 279.83287 280.14422 280.54100
 381.81900 372.39900 361.20600 349.77600 337.62200 324.85300 311.81000 298.35300
 284.86000 271.32400 258.56100 246.30400 236.08700 226.79600 218.44800 211.29000
 205.52200 200.89400 197.38100 194.84800 193.01500 192.31500 192.25000 192.43100
 192.91200 193.53700 194.13600 194.71200 195.26200 195.83100 196.39300 196.97600
 197.60400 198.14900 198.58400 199.05700 199.69500 200.37800 201.05400 201.70800
 202.31300 202.85700 203.35500 203.86200 204.56900 205.29700 206.02600 206.98700
 208.19300 209.44100 210.96900 212.57600 214.46200 216.51300 218.63000 220.85300
 223.34100 225.96200 228.73900 231.69700 234.70600 237.70600 240.69200 243.65700
 246.73700 249.69900 252.52100 255.06300 257.29000 259.23300 260.63300 261.68000
 262.46100 262.79800 262.69100 262.22400 261.06900 259.52500 257.70700 255.50700
 253.00100 250.30200 247.39800 244.45200 241.65400 239.05400 236.73300 234.59000
 232.59500 230.72500 228.83400 226.82600 224.66600 222.38700 220.10400 217.71500
 215.45900 213.06600 210.54600 208.09300 205.35400 202.08130 196.05959 200.71215
 209.01611 216.90438 223.84126 229.78593 235.00632 240.20838 245.98943 250.68668
 254.32982 257.93487 261.55666 264.96801 268.15192 271.06452 273.76717 276.25691
 278.57680 280.74479 282.77456 284.60533 286.27232 287.81705 289.31715 290.65561
 291.81734 292.81312 293.70701 294.49387 295.17482 295.77730 296.32696 296.82492
 297.27278 297.67160 298.02000 298.46400
 366.78100 356.34193 345.78087 334.65380 323.06373 311.26467 299.14160 286.95154
 274.67047 262.57440 250.59034 239.89827 230.02720 221.13814 213.32707 206.33600
 200.17694 195.12187 191.71081 189.75974 188.80367 188.87461 189.71654 191.03147
 192.76341 194.86534 197.13527 199.50121 201.95314 204.44008 206.53501 208.38394
 210.01688 211.16881 211.40474 211.63968 211.58361 211.29554 210.93548 210.57241
 210.19635 209.91328 209.72821 209.59915 209.53408 209.87201 210.26495 210.66088
 211.46081 212.64575 213.90268 215.69262 217.62755 219.67748 221.77942 223.86935
 225.93628 228.02722 230.13115 232.24409 234.38002 236.55895 238.82189 241.19882
 243.82675 246.08469 248.09362 249.86555 251.28949 252.41942 253.24836 253.57129
 253.61522 253.39616 252.76309 251.71802 250.33096 248.49889 246.41482 244.25476
 242.05269 239.86363 237.69056 235.53649 233.40343 231.27736 229.31029 227.47423
 225.76416 224.24309 222.88003 221.65896 220.54790 219.51483 218.62576 217.77370
 217.02263 216.20956 215.31450 214.68543 214.14236 213.13829 210.77408 209.86552
 210.32602 210.75606 212.16020 215.25267 219.46938 224.19032 229.88988 234.96118
 238.85091 242.85097 247.07797 251.25015 255.04865 258.79587 261.65601 263.56171
 266.18854 268.91687 271.43585 273.72824 275.70401 277.40594 278.91562 280.50864
 282.26886 283.94370 285.48749 286.84625 288.02554 289.06900 290.02191 290.88580
 291.66379 292.35794 292.96661 293.75885
 366.78100 356.34175 345.78050 334.65324 323.06299 311.26374 299.14049 286.95023
 274.66898 262.57273 250.58848 239.89622 230.02497 221.13572 213.32447 206.33321
 200.17396 195.11871 191.70746 189.75621 188.79995 188.87070 189.71245 191.02720
 192.75894 194.86069 197.13044 199.49619 201.94793 204.43468 206.52943 208.37818
 210.01092 211.16267 211.39842 211.63317 211.57692 211.28866 210.92841 210.56516
 210.18891 209.90565 209.72040 209.59115 209.52590 209.86364 210.25639 210.65214
 211.45189 212.63663 213.89338 215.68313 217.61788 219.66762 221.76937 223.85912
 225.92587 228.01662 230.12036 232.23311 234.36886 236.54761 238.81035 241.18710
 243.81485 246.07260 248.08134 249.85309 251.27684 252.40659 253.23533 253.55808
 253.60183 253.38258 252.74933 251.70407 250.31682 248.48457 246.40032 244.24006
 242.03781 239.84856 237.67531 235.52105 233.38780 231.26155 229.29430 227.45804
 225.74779 224.22654 222.86329 221.64204 220.53078 219.49753 218.60828 217.75603
 217.00477 216.19152 215.29627 214.66702 214.12376 213.15677 210.87909 209.97499
 210.32106 210.83109 212.21220 215.17078 219.37463 224.12842 229.80412 234.86681
 238.74884 242.74428 246.98621 251.17848 254.98428 258.74881 261.62973 263.54797
 266.18884 268.91595 271.40930 273.65762 275.65048 277.39539 278.88153 280.44067
 282.18790 283.84393 285.38245 286.74225 287.92026 288.96542 289.91855 290.78174
 291.56116 292.25702 292.86569 293.66257
 366.78100 356.34151 345.78002 334.65254 323.06205 311.26256 299.13907 286.94859
 274.66710 262.57061 250.58612 239.89364 230.02215 221.13266 213.32117 206.32969
 200.17020 195.11471 191.70322 189.75173 188.79525 188.86576 189.70727 191.02178
 192.75330 194.85481 197.12432 199.48983 201.94135 204.42786 206.52237 208.37088
 210.00340 211.15491 211.39042 211.62493 211.56844 211.27996 210.91947 210.55598
 210.17949 209.89601 209.71052 209.58103 209.51554 209.85306 210.24557 210.64108
 211.44059 212.62511 213.88162 215.67113 217.60564 219.65515 221.75667 223.84618
 225.91269 228.00320 230.10672 232.21923 234.35474 236.53325 238.79577 241.17228
 243.79979 246.05730 248.06582 249.83733 251.26084 252.39035 253.21886 253.54138
 253.58489 253.36540 252.73191 251.68643 250.29894 248.46645 246.38196 244.22148
 242.01899 239.82950 237.65601 235.50153 233.36804 231.24155 229.27406 227.43757
 225.72709 224.20560 222.84211 221.62062 220.50914 219.47565 218.58616 217.73367
 216.98219 216.16870 215.27321 214.64372 214.10023 213.17163 210.98364 210.07907
 210.33376 210.88301 212.26787 215.12498 219.26367 224.04164 229.72079 234.78026
 238.65620 242.64644 246.90117 251.11131 254.92198 258.69952 261.59616 263.52786
 266.18442 268.91125 271.38129 273.58688 275.59952 277.38824 278.85172 280.37708
 282.10941 283.74780 285.27939 286.63831 287.81802 288.86386 289.81641 290.68170
 291.45953 292.15527 292.76627 293.56433
 366.78100 356.34117 345.77933 334.65150 323.06067 311.26084 299.13700 286.94617
 274.66434 262.56751 250.58267 239.88984 230.01801 221.12818 213.31634 206.32451
 200.16468 195.10884 191.69701 189.74518 188.78835 188.85851 189.69968 191.01385
 192.74502 194.84618 197.11535 199.48052 201.93169 204.41785 206.51202 208.36019
 209.99236 211.14352 211.37869 211.61286 211.55602 211.26719 210.90636 210.54253
 210.16569 209.88186 209.69603 209.56620 209.50036 209.83753 210.22970 210.62487
 211.42403 212.60820 213.86437 215.65353 217.58770 219.63687 221.73804 223.82720
 225.89337 227.98354 230.08671 232.19887 234.33404 236.51221 238.77438 241.15054
 243.77771 246.03488 248.04305 249.81421 251.23738 252.36655 253.19471 253.51688
 253.56005 253.34022 252.70638 251.66055 250.27272 248.43989 246.35505 244.19422
 241.99139 239.80156 237.62772 235.47289 233.33906 231.21222 229.24439 227.40756
 225.69673 224.17489 222.81106 221.58923 220.47740 219.44356 218.55373 217.70090
 216.94907 216.13523 215.23940 214.60957 214.06573 213.18011 211.09261 210.17825
 210.35957 210.92636 212.30786 215.09496 219.15463 223.95047 229.64458 234.70010
 238.56744 242.55061 246.81616 251.04317 254.85928 258.64731 261.55682 263.50443
 266.17560 268.90378 271.35223 273.51773 275.54987 277.38205 278.82599 280.31909
 282.03433 283.65570 285.17831 286.53812 287.71664 288.76248 289.71652 290.58176
 291.36005 292.05750 292.67081 293.46951
 366.78100 356.34086 345.77872 334.65057 323.05943 311.25929 299.13515 286.94400
 274.66186 262.56472 250.57958 239.88644 230.01429 221.12415 213.31201 206.31987
 200.15972 195.10358 191.69144 189.73930 188.78215 188.85201 189.69287 191.00673
 192.73759 194.83844 197.10730 199.47216 201.92302 204.40887 206.50273 208.35059
 209.98245 211.13331 211.36816 211.60202 211.54488 211.25574 210.89459 210.53045
 210.15331 209.86917 209.68303 209.55288 209.48674 209.82360 210.21546 210.61031
 211.40917 212.59303 213.84889 215.63775 217.57160 219.62046 221.72132 223.81018
 225.87603 227.96589 230.06875 232.18061 234.31546 236.49332 238.75518 241.13104
 243.75790 246.01475 248.02261 249.79347 251.21633 252.34518 253.17304 253.49490
 253.53776 253.31762 252.68347 251.63733 250.24919 248.41605 246.33090 244.16976
 241.96662 239.77648 237.60234 235.44719 233.31305 231.18591 229.21777 227.38062
 225.66948 224.14734 222.78320 221.56106 220.44891 219.41477 218.52463 217.67149
 216.91934 216.10520 215.20906 214.57892 214.03477 213.18942 211.19614 210.28250
 210.39230 210.96680 212.33571 215.07137 219.05261 223.85834 229.57344 234.62137
 238.47795 242.45453 246.72990 250.97362 254.79857 258.59549 261.51474 263.47772
 266.16220 268.89096 271.32062 273.44965 275.50031 277.37543 278.80463 280.26642
 281.96396 283.56949 285.08182 286.44125 287.62109 288.66641 289.62070 290.48627
 291.26797 291.96329 292.57401 293.38541
 366.78100 356.34064 345.77828 334.64993 323.05857 311.25821 299.13385 286.94250
 274.66014 262.56278 250.57742 239.88407 230.01171 221.12135 213.30899 206.31664
 200.15628 195.09992 191.68756 189.73521 188.77785 188.84749 189.68813 191.00178
 192.73242 194.83306 197.10170 199.46635 201.91699 204.40263 206.49627 208.34392
 209.97556 211.12620 211.36084 211.59449 211.53713 211.24777 210.88641 210.52206
 210.14470 209.86034 209.67398 209.54363 209.47727 209.81391 210.20555 210.60019
 211.39884 212.58248 213.83812 215.62676 217.56041 219.60905 221.70969 223.79833
 225.86398 227.95362 230.05626 232.16790 234.30255 236.48019 238.74183 241.11747
 243.74412 246.00076 248.00840 249.77904 251.20169 252.33033 253.15797 253.47961
 253.52226 253.30190 252.66754 251.62118 250.23283 248.39947 246.31411 244.15275
 241.94940 239.75904 237.58468 235.42932 233.29497 231.16761 229.19925 227.36189
 225.65054 224.12818 222.76382 221.54146 220.42911 219.39475 218.50439 217.65103
 216.89867 216.08432 215.18796 214.55760 214.01324 213.20251 211.29047 210.39632
 210.42967 211.00410 212.35818 215.04788 218.95836 223.76407 229.50595 234.54102
 238.38768 242.35924 246.64510 250.90501 254.74112 258.54565 261.47256 263.44864
 266.14395 268.87259 271.28610 273.38193 275.44876 277.36530 278.78522 280.22046
 281.89874 283.49142 284.99118 286.34924 287.53036 288.57703 289.52991 290.39651
 291.17767 291.87552 292.48798 293.29736
 366.78100 356.34048 345.77796 334.64944 323.05792 311.25740 299.13288 286.94136
 274.65884 262.56132 250.57580 239.88228 230.00976 221.11925 213.30673 206.31421
 200.15369 195.09717 191.68465 189.73213 188.77461 188.84409 189.68457 190.99805
 192.72853 194.82901 197.09749 199.46197 201.91245 204.39793 206.49141 208.33889
 209.97037 211.12085 211.35533 211.58881 211.53129 211.24177 210.88026 210.51574
 210.13822 209.85370 209.66718 209.53666 209.47014 209.80662 210.19810 210.59258
 211.39106 212.57454 213.83002 215.61850 217.55198 219.60046 221.70094 223.78942
 225.85490 227.94438 230.04686 232.15834 234.29282 236.47030 238.73178 241.10727
 243.73375 245.99023 247.99771 249.76819 251.19067 252.31915 253.14663 253.46811
 253.51059 253.29007 252.65555 251.60903 250.22051 248.38699 246.30147 244.13995
 241.93643 239.74591 237.57139 235.41587 233.28135 231.15383 229.18531 227.34779
 225.63628 224.11376 222.74924 221.52672 220.41420 219.37968 218.48916 217.63564
 216.88312 216.06860 215.17208 214.54156 213.99704 213.21756 211.37892 210.51791
 210.47177 211.04198 212.37434 215.02187 218.87195 223.66589 229.43823 234.45773
 238.29747 242.26646 246.56163 250.83760 254.68803 258.49820 261.42950 263.41626
 266.11963 268.84708 271.24789 273.31451 275.39532 277.34763 278.76584 280.18112
 281.83972 283.42053 284.90744 286.26624 287.44675 288.49252 289.44760 290.31427
 291.09561 291.79279 292.40744 293.21884
 366.78100 356.34032 345.77763 334.64895 323.05726 311.25658 299.13189 286.94021
 274.65752 262.55984 250.57415 239.88047 230.00779 221.11710 213.30442 206.31173
 200.15105 195.09436 191.68168 189.72899 188.77131 188.84062 189.68094 190.99426
 192.72457 194.82489 197.09320 199.45752 201.90783 204.39315 206.48646 208.33378
 209.96509 211.11541 211.34973 211.58304 211.52536 211.23567 210.87399 210.50930
 210.13162 209.84693 209.66025 209.52956 209.46288 209.79920 210.19051 210.58483
 211.38314 212.56646 213.82177 215.61009 217.54340 219.59172 221.69203 223.78035
 225.84567 227.93498 230.03730 232.14861 234.28293 236.46024 238.72156 241.09687
 243.72319 245.97950 247.98682 249.75714 251.17945 252.30777 253.13508 253.45640
 253.49871 253.27803 252.64334 251.59666 250.20797 248.37429 246.28861 244.12692
 241.92324 239.73255 237.55787 235.40218 233.26750 231.13981 229.17113 227.33344
 225.62176 224.09908 222.73439 221.51171 220.39902 219.36434 218.47365 217.61997
 216.86728 216.05260 215.15591 214.52523 213.98055 213.23170 211.46513 210.63849
 210.52730 211.07469 212.38522 214.99956 218.78416 223.56644 229.37108 234.37544
 238.20842 242.17519 246.47836 250.76982 254.63721 258.45224 261.38535 263.38101
 266.08908 268.81558 271.20602 273.24835 275.34006 277.32455 278.74829 280.15076
 281.78940 283.35721 284.83020 286.18964 287.36887 288.41440 289.37097 290.23795
 291.02115 291.71826 292.33298 293.14667
 366.78100 356.34011 345.77722 334.64832 323.05643 311.25554 299.13065 286.93876
 274.65586 262.55797 250.57208 239.87819 230.00530 221.11441 213.30151 206.30862
 200.14773 195.09084 191.67795 189.72505 188.76716 188.83627 189.67638 190.98949
 192.71959 194.81970 197.08781 199.45192 201.90203 204.38713 206.48024 208.32735
 209.95846 211.10857 211.34267 211.57578 211.51789 211.22800 210.86611 210.50122
 210.12332 209.83843 209.65154 209.52065 209.45376 209.78986 210.18097 210.57508
 211.37319 212.55630 213.81140 215.59951 217.53262 219.58073 221.68084 223.76894
 225.83405 227.92316 230.02527 232.13638 234.27049 236.44759 238.70870 241.08381
 243.70992 245.96603 247.97313 249.74324 251.16535 252.29346 253.12057 253.44167
 253.48378 253.26289 252.62800 251.58111 250.19221 248.35832 246.27243 244.11054
 241.90665 239.71575 237.54086 235.38497 233.25008 231.12219 229.15330 227.31540
 225.60351 224.08062 222.71573 221.49284 220.37994 219.34505 218.45416 217.60027
 216.84738 216.03248 215.13559 214.50470 213.95981 213.24329 211.55270 210.75456
 210.59299 211.11530 212.38347 214.97595 218.70529 223.46538 229.30075 234.28874
 238.11597 242.08340 246.39503 250.70256 254.59079 258.41119 261.34296 263.34424
 266.05325 268.77808 271.16147 273.18231 275.28180 277.29608 278.73428 280.12814
 281.74652 283.29980 284.75845 286.11694 287.29749 288.34329 289.29953 290.16745
 290.94846 291.64819 292.26370 293.07840
 366.78100 356.34033 345.77766 334.64899 323.05732 311.25665 299.13199 286.94032
 274.65765 262.55998 250.57431 239.88064 230.00797 221.11730 213.30463 206.31196
 200.15129 195.09462 191.68196 189.72929 188.77162 188.84095 189.68128 190.99461
 192.72494 194.82527 197.09360 199.45793 201.90826 204.39359 206.48693 208.33426
 209.96559 211.11592 211.35025 211.58358 211.52591 211.23624 210.87457 210.50990
 210.13223 209.84757 209.66090 209.53023 209.46356 209.79989 210.19122 210.58555
 211.38388 212.56721 213.82254 215.61087 217.54420 219.59254 221.69287 223.78120
 225.84653 227.93586 230.03819 232.14952 234.28385 236.46118 238.72251 241.09784
 243.72418 245.98051 247.98784 249.75817 251.18050 252.30883 253.13616 253.45749
 253.49982 253.27915 252.64448 251.59781 250.20915 248.37548 246.28981 244.12814
 241.92447 239.73380 237.55913 235.40346 233.26879 231.14112 229.17245 227.33478
 225.62312 224.10045 222.73578 221.51311 220.40044 219.36577 218.47510 217.62143
 216.86876 216.05409 215.15742 214.52676 213.98209 213.27655 211.61194 210.88618
 210.67914 211.14491 212.39276 214.94800 218.60799 223.35799 229.23032 234.20578
 238.02962 241.99615 246.31259 250.63455 254.54721 258.37137 261.30014 263.30496
 266.01288 268.73642 271.11462 273.11743 275.22354 277.26218 278.72110 280.11548
 281.71054 283.24838 284.69104 286.04910 287.22974 288.27591 289.23151 290.09921
 290.88193 291.58017 292.19940 293.01071
 366.78100 356.34038 345.77776 334.64914 323.05752 311.25690 299.13228 286.94066
 274.65804 262.56042 250.57480 239.88118 230.00856 221.11794 213.30532 206.31270
 200.15208 195.09547 191.68285 189.73023 188.77261 188.84199 189.68237 190.99575
 192.72613 194.82651 197.09489 199.45927 201.90965 204.39503 206.48841 208.33579
 209.96717 211.11755 211.35193 211.58531 211.52769 211.23807 210.87645 210.51183
 210.13421 209.84959 209.66297 209.53235 209.46573 209.80211 210.19349 210.58787
 211.38625 212.56963 213.82502 215.61340 217.54678 219.59516 221.69554 223.78392
 225.84930 227.93868 230.04106 232.15244 234.28682 236.46420 238.72558 241.10096
 243.72734 245.98372 247.99110 249.76148 251.18386 252.31224 253.13962 253.46100
 253.50338 253.28276 252.64814 251.60152 250.21290 248.37928 246.29366 244.13204
 241.92842 239.73780 237.56318 235.40756 233.27295 231.14533 229.17671 227.33909
 225.62747 224.10485 222.74023 221.51761 220.40499 219.37037 218.47975 217.62613
 216.87351 216.05889 215.16227 214.53165 213.98703 213.30180 211.68483 210.98090
 210.81036 211.20096 212.34732 214.92619 218.54248 223.25310 229.15466 234.11066
 237.92818 241.89838 246.22258 250.56128 254.50583 258.33817 261.26715 263.27441
 265.97336 268.69360 271.06635 273.05371 275.16138 277.21988 278.70547 280.10449
 281.67938 283.19891 284.62833 285.98547 287.16534 288.21182 289.16922 290.03598
 290.81921 291.52100 292.13556 292.95480
 366.78100 356.34065 345.77831 334.64996 323.05861 311.25827 299.13392 286.94257
 274.66023 262.56288 250.57753 239.88419 230.01184 221.12149 213.30915 206.31680
 200.15645 195.10011 191.68776 189.73542 188.77807 188.84772 189.68838 191.00203
 192.73268 194.83334 197.10199 199.46664 201.91730 204.40295 206.49660 208.34426
 209.97591 211.12656 211.36122 211.59487 211.53752 211.24818 210.88683 210.52248
 210.14514 209.86079 209.67444 209.54410 209.47775 209.81440 210.20606 210.60071
 211.39936 212.58302 213.83867 215.62733 217.56098 219.60963 221.71029 223.79894
 225.86459 227.95425 230.05690 232.16855 234.30321 236.48086 238.74251 241.11817
 243.74482 246.00147 248.00913 249.77978 251.20243 252.33109 253.15874 253.48039
 253.52305 253.30270 252.66835 251.62201 250.23366 248.40031 246.31497 244.15362
 241.95027 239.75993 237.58558 235.43023 233.29589 231.16854 229.20020 227.36285
 225.65150 224.12916 222.76481 221.54246 220.43012 219.39577 218.50542 217.65208
 216.89973 216.08538 215.18904 214.55869 214.01434 213.33638 211.73659 211.11664
 210.89304 211.27281 212.40445 214.87271 218.39388 223.12071 229.06487 234.00757
 237.82957 241.80978 246.14407 250.50293 254.48019 258.32156 261.24921 263.24969
 265.92972 268.64099 271.00784 272.98032 275.09021 277.16461 278.67862 280.09369
 281.65012 283.15292 284.56693 285.92581 287.10471 288.15170 289.10672 289.97678
 290.75864 291.46240 292.07736 292.89734
 366.78100 356.34158 345.78016 334.65274 323.06232 311.26290 299.13948 286.94906
 274.66765 262.57123 250.58681 239.89439 230.02297 221.13355 213.32213 206.33071
 200.17129 195.11587 191.70445 189.75303 188.79661 188.86719 189.70878 191.02336
 192.75494 194.85652 197.12610 199.49168 201.94326 204.42984 206.52442 208.37300
 210.00558 211.15716 211.39274 211.62732 211.57091 211.28249 210.92207 210.55865
 210.18223 209.89881 209.71339 209.58397 209.51855 209.85613 210.24871 210.64429
 211.44387 212.62845 213.88504 215.67462 217.60920 219.65878 221.76036 223.84994
 225.91652 228.00710 230.11068 232.22326 234.35884 236.53742 238.80000 241.17658
 243.80417 246.06175 248.07033 249.84191 251.26549 252.39507 253.22365 253.54623
 253.58981 253.37039 252.73697 251.69155 250.30413 248.47171 246.38730 244.22688
 242.02446 239.83504 237.66162 235.50720 233.37378 231.24736 229.27994 227.44352
 225.73310 224.21168 222.84826 221.62684 220.51543 219.48201 218.59259 217.74017
 216.98875 216.17533 215.27991 214.65049 214.10707 213.40448 211.74669 211.23582
 211.10323 211.33537 212.35066 214.75462 218.23038 222.98706 229.00288 233.94179
 237.76849 241.75084 246.08440 250.45737 254.46265 258.30383 261.21735 263.20547
 265.87054 268.57501 270.93851 272.90103 275.01556 277.10608 278.65506 280.08734
 281.62717 283.11066 284.51114 285.86835 287.04846 288.09509 289.05060 289.91861
 290.70300 291.40460 292.02209 292.84299
 366.78100 356.34162 345.78023 334.65285 323.06247 311.26309 299.13970 286.94932
 274.66794 262.57155 250.58717 239.89479 230.02341 221.13402 213.32264 206.33126
 200.17187 195.11649 191.70511 189.75373 188.79734 188.86796 189.70958 191.02420
 192.75581 194.85743 197.12705 199.49266 201.94428 204.43090 206.52552 208.37413
 210.00675 211.15837 211.39398 211.62860 211.57222 211.28384 210.92345 210.56007
 210.18369 209.90030 209.71492 209.58554 209.52016 209.85777 210.25039 210.64601
 211.44562 212.63024 213.88686 215.67648 217.61109 219.66071 221.76233 223.85194
 225.91856 228.00918 230.11280 232.22541 234.36103 236.53965 238.80227 241.17888
 243.80650 246.06412 248.07273 249.84435 251.26797 252.39759 253.22620 253.54882
 253.59244 253.37305 252.73967 251.69429 250.30691 248.47452 246.39014 244.22976
 242.02737 239.83799 237.66461 235.51023 233.37684 231.25046 229.28308 227.44669
 225.73631 224.21493 222.85155 221.63016 220.51878 219.48540 218.59601 217.74363
 216.99225 216.17887 215.28348 214.65410 214.11072 213.43079 211.82599 211.28806
 211.27704 211.36205 212.27650 214.69250 218.15109 222.89349 228.97499 233.91075
 237.72716 241.70065 246.02289 250.40329 254.43536 258.26840 261.15817 263.14029
 265.80130 268.50479 270.87018 272.82913 274.94846 277.05237 278.64307 280.09567
 281.61432 283.07291 284.45728 285.81458 286.99445 288.03918 288.99631 289.86639
 290.64944 291.35141 291.96729 292.79276
 366.78100 356.34140 345.77981 334.65221 323.06161 311.26202 299.13842 286.94782
 274.66623 262.56963 250.58503 239.89244 230.02084 221.13124 213.31965 206.32805
 200.16845 195.11286 191.70126 189.74966 188.79306 188.86347 189.70487 191.01927
 192.75068 194.85208 197.12148 199.48689 201.93829 204.42469 206.51910 208.36750
 209.99990 211.15131 211.38671 211.62111 211.56452 211.27592 210.91532 210.55173
 210.17513 209.89153 209.70594 209.57634 209.51074 209.84815 210.24055 210.63595
 211.43536 212.61976 213.87616 215.66557 217.59997 219.64937 221.75078 223.84018
 225.90658 227.99699 230.10039 232.21279 234.34819 236.52660 238.78900 241.16540
 243.79281 246.05021 248.05861 249.83002 251.25342 252.38282 253.21123 253.53363
 253.57703 253.35744 252.72384 251.67824 250.29065 248.45805 246.37345 244.21286
 242.01026 239.82066 237.64707 235.49247 233.35887 231.23228 229.26468 227.42808
 225.71749 224.19589 222.83229 221.61070 220.49910 219.46550 218.57591 217.72331
 216.97171 216.15812 215.26252 214.63292 214.08932 213.44458 211.92235 211.33215
 211.38599 211.39670 212.25333 214.67805 218.10016 222.83257 228.94240 233.86490
 237.66719 241.63258 245.94679 250.33408 254.39709 258.22131 261.08875 263.07251
 265.73291 268.43762 270.80756 272.76572 274.88657 276.99994 278.63300 280.10751
 281.60504 283.03909 284.40744 285.76373 286.94440 287.98907 288.94452 289.81430
 290.59891 291.29938 291.91885 292.74384
 366.78100 356.34164 345.78028 334.65292 323.06256 311.26320 299.13984 286.94948
 274.66812 262.57176 250.58741 239.89505 230.02369 221.13433 213.32297 206.33161
 200.17225 195.11689 191.70553 189.75417 188.79781 188.86845 189.71009 191.02473
 192.75637 194.85801 197.12765 199.49329 201.94493 204.43158 206.52622 208.37486
 210.00750 211.15914 211.39478 211.62942 211.57306 211.28470 210.92434 210.56098
 210.18462 209.90126 209.71590 209.58654 209.52118 209.85882 210.25146 210.64710
 211.44675 212.63139 213.88803 215.67767 217.61231 219.66195 221.76359 223.85323
 225.91987 228.01051 230.11415 232.22679 234.36243 236.54107 238.80371 241.18035
 243.80799 246.06563 248.07427 249.84592 251.26956 252.39920 253.22784 253.55048
 253.59412 253.37476 252.74140 251.69604 250.30868 248.47632 246.39196 244.23160
 242.02924 239.83988 237.66652 235.51216 233.37880 231.25244 229.28509 227.44873
 225.73837 224.21701 222.85365 221.63229 220.52093 219.48757 218.59821 217.74585
 216.99449 216.18113 215.28577 214.65641 214.11305 213.48077 211.98767 211.39906
 211.47853 211.43723 212.26518 214.66655 218.03287 222.78418 228.90204 233.80206
 237.59131 241.55318 245.86406 250.26276 254.36029 258.17673 261.02533 263.01236
 265.66721 268.37143 270.74356 272.70312 274.82260 276.94330 278.61688 280.11578
 281.59482 283.00677 284.35947 285.71646 286.89551 287.94196 288.89734 289.76590
 290.55276 291.25360 291.87170 292.69705
 366.78100 356.34216 345.78131 334.65447 323.06462 311.26578 299.14293 286.95309
 274.67224 262.57640 250.59256 239.90071 230.02987 221.14102 213.33018 206.33933
 200.18049 195.12564 191.71480 189.76395 188.80811 188.87927 189.72142 191.03658
 192.76873 194.87089 197.14104 199.50720 201.95935 204.44651 206.54167 208.39082
 210.02398 211.17613 211.41229 211.64744 211.59160 211.30375 210.94391 210.58106
 210.20522 209.92238 209.73753 209.60869 209.54384 209.88200 210.27515 210.67131
 211.47146 212.65662 213.91378 215.70393 217.63909 219.68924 221.79140 223.88155
 225.94871 228.03986 230.14402 232.25717 234.39333 236.57249 238.83564 241.21280
 243.84095 246.09911 248.10826 249.88042 251.30457 252.43473 253.26389 253.58704
 253.63120 253.41235 252.77951 251.73466 250.34782 248.51597 246.43213 244.27229
 242.07044 239.88160 237.70875 235.55491 233.42206 231.29622 229.32937 227.49353
 225.78368 224.26284 222.90000 221.67915 220.56831 219.53546 218.64662 217.79477
 217.04393 216.23108 215.33624 214.70740 214.16455 213.53030 212.03235 211.47966
 211.55872 211.48962 212.29128 214.64806 217.96913 222.74319 228.85757 233.73083
 237.50887 241.47041 245.78209 250.19446 254.32681 258.13431 260.96329 262.95227
 265.59930 268.30145 270.67496 272.63641 274.75674 276.88324 278.59552 280.11972
 281.58365 282.97421 284.31497 285.67047 286.84985 287.89508 288.85159 289.72028
 290.50543 291.20886 291.82816 292.65298
 366.78100 356.34275 345.78250 334.65626 323.06701 311.26876 299.14651 286.95726
 274.67701 262.58177 250.59852 239.90727 230.03702 221.14877 213.33853 206.34828
 200.19003 195.13578 191.72553 189.77528 188.82004 188.89179 189.73454 191.05029
 192.78304 194.88580 197.15655 199.52330 201.97605 204.46380 206.55955 208.40931
 210.04306 211.19581 211.43256 211.66831 211.61307 211.32582 210.96657 210.60432
 210.22907 209.94682 209.76258 209.63433 209.57008 209.90883 210.30258 210.69934
 211.50009 212.68584 213.94359 215.73434 217.67009 219.72085 221.82360 223.91435
 225.98210 228.07385 230.17861 232.29236 234.42911 236.60886 238.87261 241.25036
 243.87912 246.13787 248.14762 249.92037 251.34512 252.47588 253.30563 253.62938
 253.67413 253.45588 252.82363 251.77939 250.39314 248.56189 246.47864 244.31939
 242.11815 239.92990 237.75765 235.60440 233.47215 231.34690 229.38066 227.54541
 225.83616 224.31591 222.95366 221.73342 220.62317 219.59092 218.70267 217.85142
 217.10117 216.28893 215.39468 214.76643 214.22418 213.58368 212.07063 211.56577
 211.62233 211.55974 212.32414 214.62625 217.92068 222.70587 228.80779 233.65564
 237.42508 241.38876 245.70200 250.12874 254.29439 258.08813 260.89526 262.88644
 265.52759 268.22836 270.60275 272.56937 274.69165 276.82501 278.57404 280.12302
 281.57373 282.94461 284.27219 285.62637 286.80609 287.85126 288.80704 289.67682
 290.46201 291.16577 291.78522 292.61081
 366.78100 356.34336 345.78372 334.65808 323.06943 311.27179 299.15015 286.96151
 274.68187 262.58723 250.60459 239.91394 230.04430 221.15666 213.34702 206.35738
 200.19974 195.14609 191.73645 189.78681 188.83217 188.90453 189.74789 191.06425
 192.79760 194.90096 197.17232 199.53968 201.99304 204.48140 206.57776 208.42811
 210.06247 211.21583 211.45319 211.68955 211.63491 211.34826 210.98962 210.62798
 210.25334 209.97170 209.78806 209.66042 209.59677 209.93613 210.33049 210.72785
 211.52921 212.71557 213.97393 215.76528 217.70164 219.75300 221.85636 223.94772
 226.01608 228.10844 230.21379 232.32815 234.46551 236.64587 238.91023 241.28859
 243.91794 246.17730 248.18766 249.96102 251.38638 252.51774 253.34810 253.67245
 253.71781 253.50017 252.86853 251.82489 250.43925 248.60861 246.52596 244.36732
 242.16668 239.97904 237.80740 235.65476 233.52311 231.39847 229.43283 227.59819
 225.88955 224.36991 223.00827 221.78862 220.67898 219.64734 218.75970 217.90906
 217.15942 216.34778 215.45413 214.82649 214.28485 213.63676 212.10559 211.65034
 211.67514 211.63982 212.36304 214.60573 217.89264 222.66878 228.75166 233.57738
 237.34235 241.30817 245.62361 250.06390 254.25978 258.03485 260.81641 262.81485
 265.45383 268.15396 270.53027 272.50415 274.62930 276.76727 278.55167 280.12387
 281.56168 282.91492 284.23065 285.58447 286.76489 287.80841 288.76498 289.63528
 290.42078 291.12289 291.74423 292.57028
 366.78100 356.34395 345.78490 334.65984 323.07179 311.27474 299.15368 286.96563
 274.68658 262.59253 250.61047 239.92042 230.05137 221.16432 213.35526 206.36621
 200.20916 195.15611 191.74706 189.79800 188.84395 188.91690 189.76084 191.07779
 192.81174 194.91569 197.18764 199.55558 202.00953 204.49848 206.59543 208.44637
 210.08132 211.23527 211.47322 211.71016 211.65611 211.37006 211.01200 210.65095
 210.27690 209.99585 209.81279 209.68574 209.62269 209.96264 210.35759 210.75553
 211.55748 212.74443 214.00338 215.79532 217.73227 219.78422 221.88816 223.98011
 226.04906 228.14201 230.24796 232.36290 234.50085 236.68180 238.94674 241.32569
 243.95564 246.21559 248.22653 250.00048 251.42643 252.55838 253.38932 253.71427
 253.76022 253.54317 252.91212 251.86906 250.48401 248.65396 246.57190 244.41385
 242.21380 240.02675 237.85569 235.70364 233.57259 231.44854 229.48349 227.64943
 225.94138 224.42233 223.06127 221.84222 220.73317 219.70212 218.81506 217.96501
 217.21596 216.40491 215.51185 214.88480 214.34375 213.68826 212.13959 211.72742
 211.72882 211.72151 212.41020 214.59212 217.87427 222.63026 228.69249 233.50027
 237.26245 241.22931 245.54552 249.99898 254.22144 257.97296 260.72882 262.73965
 265.37964 268.08020 270.45642 272.43906 274.56876 276.71295 278.52585 280.11914
 281.54547 282.88370 284.19012 285.54480 286.72360 287.76868 288.72339 289.59384
 290.37991 291.08337 291.70441 292.53250
 366.78100 356.34455 345.78609 334.66164 323.07419 311.27773 299.15728 286.96982
 274.69137 262.59792 250.61646 239.92701 230.05856 221.17210 213.36365 206.37519
 200.21874 195.16629 191.75783 189.80938 188.85593 188.92947 189.77402 191.09156
 192.82611 194.93066 197.20320 199.57175 202.02630 204.51584 206.61339 208.46493
 210.10048 211.25503 211.49357 211.73112 211.67767 211.39221 211.03476 210.67430
 210.30085 210.02040 209.83794 209.71149 209.64904 209.98958 210.38513 210.78367
 211.58622 212.77377 214.03331 215.82586 217.76341 219.81595 221.92050 224.01304
 226.08259 228.17614 230.28268 232.39823 234.53678 236.71832 238.98387 241.36341
 243.99396 246.25451 248.26605 250.04060 251.46715 252.59969 253.43124 253.75678
 253.80333 253.58688 252.95642 251.91397 250.52952 248.70006 246.61861 244.46115
 242.26170 240.07525 237.90479 235.75334 233.62289 231.49943 229.53498 227.70152
 225.99407 224.47562 223.11516 221.89671 220.78826 219.75780 218.87135 218.02189
 217.27344 216.46299 215.57053 214.94408 214.40363 213.73964 212.17091 211.79626
 211.79272 211.79645 212.46693 214.59256 217.85332 222.59192 228.63678 233.42429
 237.18141 241.14857 245.46721 249.93509 254.17979 257.90271 260.63318 262.66187
 265.30670 268.00681 270.38107 272.37399 274.50894 276.66006 278.49777 280.10846
 281.52594 282.85196 284.15195 285.50500 286.68466 287.72879 288.68518 289.55286
 290.34024 291.04449 291.66501 292.49377
 366.78100 356.34518 345.78737 334.66355 323.07673 311.28091 299.16110 286.97428
 274.69646 262.60365 250.62283 239.93401 230.06619 221.18038 213.37256 206.38474
 200.22893 195.17711 191.76929 189.82147 188.86866 188.94284 189.78802 191.10621
 192.84139 194.94657 197.21975 199.58894 202.04412 204.53430 206.63249 208.48467
 210.12085 211.27603 211.51522 211.75340 211.70058 211.41577 211.05895 210.69913
 210.32631 210.04650 209.86468 209.73886 209.67705 210.01823 210.41441 210.81359
 211.61678 212.80496 214.06514 215.85833 217.79651 219.84969 221.95487 224.04806
 226.11824 228.21242 230.31961 232.43579 234.57497 236.75715 239.02334 241.40352
 244.03470 246.29589 248.30807 250.08325 251.51043 252.64362 253.47580 253.80198
 253.84917 253.63335 253.00353 251.96171 250.57790 248.74908 246.66826 244.51145
 242.31263 240.12681 237.95699 235.80618 233.67636 231.55354 229.58973 227.75691
 226.05009 224.53227 223.17246 221.95464 220.84682 219.81701 218.93119 218.08237
 217.33455 216.52474 215.63292 215.00710 214.46729 213.79237 212.19783 211.85709
 211.86783 211.87540 212.52722 214.59749 217.83177 222.55487 228.58138 233.35014
 237.09935 241.06595 245.38930 249.87302 254.13635 257.82477 260.52951 262.58115
 265.23367 267.93262 270.30396 272.30856 274.44998 276.60822 278.46826 280.09482
 281.50351 282.82104 284.11484 285.46927 286.64685 287.69144 288.64667 289.51703
 290.30142 291.00684 291.62741 292.45309
 366.78100 356.34597 345.78894 334.66590 323.07987 311.28484 299.16581 286.97978
 274.70275 262.61071 250.63068 239.94265 230.07562 221.19059 213.38356 206.39652
 200.24149 195.19046 191.78343 189.83640 188.88436 188.95933 189.80530 191.12427
 192.86024 194.96621 197.24017 199.61014 202.06611 204.55708 206.65605 208.50901
 210.14598 211.30195 211.54192 211.78089 211.72886 211.44482 211.08879 210.72976
 210.35773 210.07870 209.89767 209.77263 209.71160 210.05357 210.45054 210.85051
 211.65447 212.84344 214.10441 215.89838 217.83735 219.89132 221.99728 224.09125
 226.16222 228.25719 230.36516 232.48213 234.62209 236.80506 239.07203 241.45300
 244.08497 246.34693 248.35990 250.13587 251.56384 252.69781 253.53078 253.85774
 253.90571 253.69068 253.06165 252.02062 250.63758 248.80955 246.72952 244.57349
 242.37546 240.19043 238.02139 235.87136 233.74233 231.62030 229.65727 227.82524
 226.11920 224.60217 223.24314 222.02611 220.91908 219.89004 219.00501 218.15698
 217.40995 216.60092 215.70989 215.08485 214.54582 213.85175 212.21193 211.91724
 211.95251 211.94849 212.59477 214.61726 217.80557 222.51677 228.53076 233.27576
 237.01242 240.97823 245.31065 249.81308 254.09163 257.74057 260.41977 262.49911
 265.16434 267.85773 270.22360 272.24048 274.39166 276.55774 278.43640 280.07663
 281.48022 282.78940 284.07950 285.43295 286.61176 287.65555 288.61069 289.48114
 290.26648 290.97147 291.59204 292.41977
 366.78100 356.34669 345.79038 334.66806 323.08275 311.28844 299.17013 286.98482
 274.70851 262.61719 250.63788 239.95057 230.08426 221.19995 213.39364 206.40732
 200.25301 195.20270 191.79639 189.85008 188.89877 188.97445 189.82114 191.14083
 192.87752 194.98421 197.25890 199.62958 202.08627 204.57796 206.67765 208.53134
 210.16903 211.32571 211.56640 211.80609 211.75478 211.47147 211.11615 210.75784
 210.38653 210.10822 209.92791 209.80360 209.74328 210.08597 210.48366 210.88435
 211.68904 212.87873 214.14041 215.93510 217.87479 219.92948 222.03617 224.13086
 226.20254 228.29823 230.40692 232.52461 234.66530 236.84899 239.11667 241.49836
 244.13105 246.39374 248.40743 250.18412 251.61280 252.74749 253.58118 253.90887
 253.95756 253.74324 253.11493 252.07462 250.69231 248.86500 246.78569 244.63037
 242.43306 240.24875 238.08044 235.93113 233.80282 231.68150 229.71919 227.88788
 226.18257 224.66626 223.30795 222.09163 220.98532 219.95701 219.07270 218.22539
 217.47908 216.67076 215.78045 215.15614 214.61783 213.90698 212.22752 211.96518
 212.04698 212.02776 212.65118 214.64546 217.79823 222.47717 228.47623 233.19891
 236.92406 240.89117 245.23491 249.75743 254.04849 257.65320 260.30444 262.41519
 265.09479 267.77957 270.13730 272.16791 274.33154 276.50638 278.40033 280.05338
 281.45166 282.75769 284.04547 285.39902 286.57632 287.62180 288.57715 289.44638
 290.23291 290.93710 291.55966 292.38614
 366.78100 356.34746 345.79192 334.67038 323.08584 311.29230 299.17477 286.99023
 274.71469 262.62415 250.64561 239.95907 230.09353 221.20999 213.40445 206.41891
 200.26537 195.21583 191.81030 189.86476 188.91422 188.99068 189.83814 191.15860
 192.89606 195.00352 197.27898 199.65044 202.10790 204.60036 206.70083 208.55529
 210.19375 211.35121 211.59267 211.83313 211.78259 211.50005 211.14551 210.78797
 210.41743 210.13989 209.96036 209.83682 209.77728 210.12074 210.51920 210.92066
 211.72612 212.91658 214.17904 215.97450 217.91496 219.97042 222.07789 224.17335
 226.24581 228.34227 230.45173 232.57019 234.71165 236.89611 239.16457 241.54703
 244.18049 246.44395 248.45842 250.23588 251.66534 252.80080 253.63526 253.96372
 254.01318 253.79964 253.17210 252.13256 250.75102 248.92448 246.84595 244.69141
 242.49487 240.31133 238.14379 235.99525 233.86771 231.74717 229.78563 227.95509
 226.25055 224.73501 223.37748 222.16194 221.05640 220.02886 219.14532 218.29878
 217.55324 216.74570 215.85616 215.23262 214.69508 213.96324 212.23418 212.02176
 212.12328 212.11029 212.72658 214.67534 217.78754 222.43690 228.43019 233.12944
 236.84073 240.80643 245.16133 249.70425 254.00348 257.55634 260.17670 262.32513
 265.02383 267.69894 270.04614 272.09286 274.27213 276.45609 278.36456 280.02866
 281.42529 282.72836 284.01501 285.36868 286.54572 287.59052 288.54532 289.41519
 290.20175 290.90561 291.52673 292.35663
 366.78100 356.34815 345.79330 334.67245 323.08860 311.29575 299.17890 286.99505
 274.72020 262.63035 250.65250 239.96665 230.10180 221.21895 213.41409 206.42924
 200.27639 195.22754 191.82269 189.87784 188.92799 189.00514 189.85329 191.17444
 192.91259 195.02074 197.29689 199.66904 202.12719 204.62034 206.72149 208.57664
 210.21579 211.37394 211.61609 211.85724 211.80739 211.52554 211.17169 210.81484
 210.44498 210.16813 209.98928 209.86643 209.80758 210.15173 210.55088 210.95303
 211.75918 212.95033 214.21348 216.00963 217.95078 220.00693 222.11508 224.21123
 226.28438 228.38153 230.49168 232.61083 234.75298 236.93813 239.20728 241.59043
 244.22458 246.48873 248.50387 250.28202 251.71217 252.84832 253.68347 254.01262
 254.06277 253.84992 253.22307 252.18422 250.80337 248.97752 246.89967 244.74582
 242.54997 240.36712 238.20027 236.05242 233.92557 231.80572 229.84487 228.01502
 226.31117 224.79632 223.43947 222.22462 221.11976 220.09291 219.21006 218.36421
 217.61936 216.81251 215.92366 215.30081 214.76396 214.01476 212.24464 212.06033
 212.22484 212.17419 212.81126 214.73683 217.78302 222.39931 228.37923 233.04898
 236.74913 240.71590 245.08594 249.65028 253.95396 257.44998 260.04187 262.23523
 264.95468 267.61847 269.95419 272.01932 274.21396 276.40714 278.32800 280.00226
 281.39590 282.69839 283.98544 285.33917 286.51630 287.56079 288.51495 289.38519
 290.17108 290.87689 291.49786 292.32529
 366.78100 356.34839 345.79379 334.67318 323.08957 311.29696 299.18036 286.99675
 274.72214 262.63253 250.65493 239.96932 230.10471 221.22210 213.41750 206.43289
 200.28028 195.23167 191.82707 189.88246 188.93285 189.01024 189.85864 191.18003
 192.91842 195.02681 197.30321 199.67560 202.13399 204.62738 206.72878 208.58417
 210.22356 211.38195 211.62435 211.86574 211.81613 211.53452 211.18092 210.82431
 210.45470 210.17809 209.99949 209.87688 209.81827 210.16266 210.56206 210.96445
 211.77084 212.96223 214.22563 216.02202 217.96341 220.01980 222.12820 224.22459
 226.29798 228.39537 230.50577 232.62516 234.76755 236.95294 239.22234 241.60573
 244.24012 246.50451 248.51991 250.29830 251.72869 252.86509 253.70048 254.02987
 254.08026 253.86766 253.24105 252.20244 250.82183 248.99623 246.91862 244.76501
 242.56940 240.38680 238.22019 236.07258 233.94597 231.82637 229.86576 228.03615
 226.33254 224.81794 223.46133 222.24672 221.14211 220.11551 219.23290 218.38729
 217.64268 216.83608 215.94747 215.32486 214.78825 214.04192 212.27863 212.07521
 212.30597 212.36629 212.85291 214.72343 217.80586 222.34152 228.31583 232.96027
 236.65236 240.62430 245.01300 249.60013 253.90535 257.34311 259.90674 262.14807
 264.88812 267.53702 269.86032 271.94342 274.15524 276.35855 278.28848 279.97238
 281.36682 282.67236 283.95810 285.31073 286.48825 287.53149 288.48767 289.35519
 290.14273 290.84729 291.46915 292.29782
 366.78100 356.34839 345.79377 334.67316 323.08955 311.29694 299.18032 286.99671
 274.72210 262.63248 250.65487 239.96926 230.10465 221.22203 213.41742 206.43281
 200.28020 195.23158 191.82697 189.88236 188.93274 189.01013 189.85852 191.17991
 192.91829 195.02668 197.30307 199.67545 202.13384 204.62723 206.72862 208.58400
 210.22339 211.38178 211.62416 211.86555 211.81594 211.53433 211.18071 210.82410
 210.45449 210.17788 209.99926 209.87665 209.81804 210.16242 210.56181 210.96420
 211.77059 212.96197 214.22536 216.02175 217.96313 220.01952 222.12791 224.22430
 226.29768 228.39507 230.50546 232.62484 234.76723 236.95262 239.22201 241.60539
 244.23978 246.50417 248.51956 250.29794 251.72833 252.86472 253.70010 254.02949
 254.07988 253.86727 253.24065 252.20204 250.82143 248.99581 246.91820 244.76459
 242.56898 240.38636 238.21975 236.07214 233.94552 231.82591 229.86530 228.03569
 226.33207 224.81746 223.46085 222.24623 221.14162 220.11501 219.23240 218.38678
 217.64217 216.83556 215.94695 215.32433 214.78772 214.05444 212.32201 212.09908
 212.36377 212.52165 212.90346 214.72601 217.83531 222.29317 228.26590 232.88745
 236.56715 240.54263 244.94788 249.55530 253.85709 257.23373 259.77045 262.06161
 264.81784 267.45099 269.76108 271.86417 274.09448 276.30771 278.24677 279.93555
 281.33041 282.63968 283.93332 285.28687 286.46423 287.50879 288.46414 289.33273
 290.11911 290.82388 291.44489 292.27386
 366.78100 356.34848 345.79396 334.67344 323.08993 311.29741 299.18089 286.99737
 274.72285 262.63333 250.65581 239.97030 230.10578 221.22326 213.41874 206.43422
 200.28170 195.23319 191.82867 189.88415 188.93463 189.01211 189.86059 191.18207
 192.92056 195.02904 197.30552 199.67800 202.13648 204.62996 206.73144 208.58693
 210.22641 211.38489 211.62737 211.86885 211.81933 211.53782 211.18430 210.82778
 210.45826 210.18174 210.00322 209.88070 209.82219 210.16667 210.56615 210.96863
 211.77511 212.96659 214.23007 216.02656 217.96804 220.02452 222.13300 224.22948
 226.30296 228.40045 230.51093 232.63041 234.77289 236.95837 239.22785 241.61133
 244.24582 246.51030 248.52578 250.30426 251.73474 252.87122 253.70670 254.03619
 254.08667 253.87415 253.24763 252.20911 250.82859 249.00308 246.92556 244.77204
 242.57652 240.39400 238.22748 236.07996 233.95345 231.83393 229.87341 228.04389
 226.34037 224.82585 223.46933 222.25482 221.15030 220.12378 219.24126 218.39574
 217.65122 216.84471 215.95619 215.33367 214.79715 214.06937 212.34990 212.13831
 212.42209 212.63394 212.97519 214.75482 217.86003 222.25134 228.22168 232.81885
 236.48303 240.45993 244.88390 249.51071 253.80583 257.11737 259.62238 261.96851
 264.74536 267.35983 269.65549 271.78064 274.03293 276.25720 278.20334 279.90112
 281.30179 282.61752 283.90768 285.26044 286.43756 287.48077 288.43628 289.30460
 290.09076 290.79315 291.41599 292.24503
 366.78100 356.34904 345.79508 334.67511 323.09215 311.30019 299.18423 287.00126
 274.72730 262.63834 250.66138 239.97642 230.11245 221.23049 213.42653 206.44257
 200.29061 195.24264 191.83868 189.89472 188.94576 189.02379 189.87283 191.19487
 192.93391 195.04295 197.31998 199.69302 202.15206 204.64610 206.74813 208.60417
 210.24421 211.40325 211.64629 211.88832 211.83936 211.55840 211.20544 210.84948
 210.48051 210.20455 210.02659 209.90463 209.84666 210.19170 210.59174 210.99478
 211.80182 212.99385 214.25789 216.05493 217.99697 220.05401 222.16304 224.26008
 226.33412 228.43216 230.54319 232.66323 234.80627 236.99231 239.26235 241.64638
 244.28142 246.54646 248.56250 250.34153 251.77257 252.90961 253.74565 254.07569
 254.12672 253.91476 253.28880 252.25084 250.87088 249.04591 246.96895 244.81599
 242.62103 240.43906 238.27310 236.12614 234.00018 231.88122 229.92125 228.09229
 226.38933 224.87537 223.51940 222.30544 221.20148 220.17552 219.29356 218.44859
 217.70463 216.89867 216.01071 215.38875 214.85278 214.10698 212.34492 212.17502
 212.49648 212.73915 213.07059 214.81412 217.88373 222.21425 228.17255 232.74788
 236.39024 240.37190 244.81557 249.46127 253.73871 256.98050 259.46472 261.87064
 264.66052 267.25781 269.54727 271.70096 273.97607 276.21155 278.16705 279.86829
 281.26996 282.58899 283.88928 285.24280 286.42200 287.46561 288.42136 289.29080
 290.07556 290.77960 291.40179 292.22882
 366.78100 356.35000 345.79700 334.67800 323.09600 311.30500 299.19000 287.00800
 274.73500 262.64700 250.67100 239.98700 230.12400 221.24300 213.44000 206.45700
 200.30600 195.25900 191.85600 189.91300 188.96500 189.04400 189.89400 191.21700
 192.95700 195.06700 197.34500 199.71900 202.17900 204.67400 206.77700 208.63400
 210.27500 211.43500 211.67900 211.92200 211.87400 211.59400 211.24200 210.88700
 210.51900 210.24400 210.06700 209.94600 209.88900 210.23500 210.63600 211.04000
 211.84800 213.04100 214.30600 216.10400 218.04700 220.10500 222.21500 224.31300
 226.38800 228.48700 230.59900 232.72000 234.86400 237.05100 239.32200 241.70700
 244.34300 246.60900 248.62600 250.40600 251.83800 252.97600 253.81300 254.14400
 254.19600 253.98500 253.36000 252.32300 250.94400 249.12000 247.04400 244.89200
 242.69800 240.51700 238.35200 236.20600 234.08100 231.96300 230.00400 228.17600
 226.47400 224.96100 223.60600 222.39300 221.29000 220.26500 219.38400 218.54000
 217.79700 216.99200 216.10501 215.48401 214.94901 214.16753 212.32123 212.19914
 212.56784 212.83420 213.19258 214.90811 217.91283 222.18869 228.12967 232.67902
 236.30844 240.29097 244.75539 249.41663 253.67667 256.84653 259.31152 261.77444
 264.57767 267.16010 269.44226 271.62411 273.91956 276.15845 278.11749 279.81900
 281.22986 282.55661 283.86713 285.22177 286.39929 287.44275 288.39822 289.26642
 290.05313 290.75577 291.37631 292.20001
 366.78100 356.35037 345.79775 334.67912 323.09749 311.30686 299.19224 287.01061
 274.73798 262.65036 250.67473 239.99110 230.12847 221.24785 213.44522 206.46259
 200.31197 195.26534 191.86271 189.92008 188.97246 189.05183 189.90220 191.22557
 192.96595 195.07632 197.35469 199.72907 202.18944 204.68481 206.78818 208.64556
 210.28693 211.44730 211.69168 211.93505 211.88742 211.60779 211.25617 210.90154
 210.53391 210.25929 210.08266 209.96203 209.90540 210.25178 210.65315 211.05752
 211.86590 213.05927 214.32464 216.12301 218.06639 220.12476 222.23513 224.33351
 226.40888 228.50825 230.62062 232.74200 234.88637 237.07374 239.34512 241.73049
 244.36686 246.63323 248.65061 250.43098 251.86335 253.00172 253.83910 254.17047
 254.22284 254.01222 253.38759 252.35096 250.97233 249.14871 247.07308 244.92145
 242.72783 240.54720 238.38257 236.23694 234.11232 231.99469 230.03606 228.20844
 226.50681 224.99418 223.63955 222.42693 221.32430 220.29967 219.41905 218.57542
 217.83279 217.02816 216.14154 215.52091 214.98628 214.19620 212.32951 212.24092
 212.61244 212.86990 213.28209 214.99199 217.92830 222.16563 228.09737 232.62552
 236.24225 240.22917 244.71123 249.39198 253.65472 256.77625 259.21158 261.72372
 264.52509 267.07309 269.34369 271.55124 273.86853 276.11206 278.07562 279.78415
 281.20090 282.53125 283.84952 285.18872 286.36337 287.40619 288.35974 289.22507
 290.00977 290.71280 291.32983 292.15356
 366.78100 356.35041 345.79782 334.67923 323.09764 311.30705 299.19245 287.01086
 274.73827 262.65068 250.67509 239.99150 230.12891 221.24832 213.44573 206.46314
 200.31255 195.26596 191.86336 189.92077 188.97318 189.05259 189.90300 191.22641
 192.96682 195.07723 197.35564 199.73005 202.19046 204.68587 206.78927 208.64668
 210.28809 211.44850 211.69291 211.93632 211.88873 211.60914 211.25755 210.90296
 210.53537 210.26077 210.08418 209.96359 209.90700 210.25341 210.65482 211.05923
 211.86764 213.06105 214.32646 216.12487 218.06828 220.12668 222.23709 224.33550
 226.41091 228.51032 230.62273 232.74414 234.88855 237.07596 239.34737 241.73278
 244.36918 246.63559 248.65300 250.43341 251.86582 253.00423 253.84164 254.17305
 254.22546 254.01487 253.39028 252.35369 250.97509 249.15150 247.07591 244.92432
 242.73073 240.55014 238.38555 236.23996 234.11537 231.99778 230.03919 228.21160
 226.51000 224.99741 223.64282 222.43023 221.32764 220.30305 219.42246 218.57887
 217.83628 217.03169 216.14510 215.52450 214.98991 214.20224 212.34125 212.31587
 212.68846 212.89366 213.34268 215.03752 217.90439 222.12099 228.04193 232.53896
 236.14423 240.14714 244.65411 249.35042 253.59506 256.66641 259.12039 261.66019
 264.47095 267.03171 269.30237 271.51831 273.84183 276.09256 278.05710 279.76315
 281.17386 282.50970 283.82883 285.18005 286.35477 287.39764 288.35028 289.21671
 289.99966 290.70129 291.32056 292.14346
 366.78100 356.34997 345.79694 334.67791 323.09588 311.30486 299.18983 287.00780
 274.73477 262.64674 250.67071 239.98668 230.12365 221.24262 213.43959 206.45657
 200.30554 195.25851 191.85548 189.91245 188.96442 189.04339 189.89336 191.21633
 192.95631 195.06628 197.34425 199.71822 202.17819 204.67316 206.77613 208.63310
 210.27407 211.43404 211.67802 211.92099 211.87296 211.59293 211.24090 210.88587
 210.51784 210.24281 210.06578 209.94476 209.88773 210.23370 210.63467 211.03864
 211.84661 213.03958 214.30455 216.10252 218.04550 220.10347 222.21344 224.31141
 226.38638 228.48535 230.59732 232.71829 234.86226 237.04923 239.32021 241.70518
 244.34115 246.60712 248.62409 250.40406 251.83603 252.97400 253.81097 254.14195
 254.19392 253.98289 253.35786 252.32083 250.94180 249.11777 247.04174 244.88971
 242.69568 240.51466 238.34963 236.20360 234.07857 231.96054 230.00151 228.17348
 226.47145 224.95842 223.60340 222.39037 221.28734 220.26231 219.38128 218.53725
 217.79422 216.98919 216.10216 215.48113 214.94611 214.17899 212.36656 212.41637
 212.78691 212.92490 213.40894 215.09909 217.90340 222.09312 227.99310 232.46419
 236.06310 240.07495 244.60159 249.30664 253.52176 256.53296 258.91281 261.57455
 264.39435 266.88702 269.13934 271.40790 273.76376 276.01590 277.98911 279.71201
 281.15863 282.49039 283.79877 285.11807 286.28040 287.32211 288.27277 289.13968
 289.92218 290.62390 291.24536 292.06857
 366.78100 356.34816 345.79332 334.67248 323.08864 311.29580 299.17897 286.99513
 274.72029 262.63045 250.65261 239.96677 230.10193 221.21909 213.41425 206.42941
 200.27657 195.22774 191.82290 189.87806 188.92822 189.00538 189.85354 191.17470
 192.91286 195.02102 197.29718 199.66934 202.12751 204.62067 206.72183 208.57699
 210.21615 211.37431 211.61647 211.85763 211.80779 211.52595 211.17211 210.81528
 210.44544 210.16860 209.98976 209.86692 209.80808 210.15224 210.55140 210.95356
 211.75972 212.95088 214.21405 216.01021 217.95137 220.00753 222.11569 224.21185
 226.28501 228.38217 230.49233 232.61149 234.75365 236.93882 239.20798 241.59114
 244.22530 246.48946 248.50462 250.28278 251.71294 252.84910 253.68426 254.01342
 254.06359 253.85075 253.22391 252.18507 250.80423 248.97839 246.90055 244.74671
 242.55087 240.36803 238.20119 236.05336 233.92652 231.80668 229.84584 228.01600
 226.31216 224.79732 223.44048 222.22564 221.12080 220.09396 219.21113 218.36529
 217.62045 216.81361 215.92477 215.30193 214.76509 214.08441 212.48138 212.52545
 212.85439 212.92676 213.43590 215.12219 217.90247 222.03847 227.90352 232.42384
 235.98192 240.03008 244.56679 249.26662 253.47124 256.53687 259.05975 261.56976
 264.26694 266.78958 269.06854 271.31152 273.64313 275.89365 277.86563 279.54068
 280.96646 282.39572 283.85120 285.22430 286.41357 287.46490 288.42511 289.29724
 290.08450 290.79047 291.42111 292.22632
 366.78100 356.34661 345.79023 334.66784 323.08245 311.28806 299.16968 286.98429
 274.70790 262.61651 250.63713 239.94974 230.08335 221.19897 213.39258 206.40619
 200.25180 195.20142 191.79503 189.84864 188.89726 188.97287 189.81948 191.13909
 192.87571 194.98232 197.25693 199.62754 202.08416 204.57577 206.67538 208.52900
 210.16661 211.32322 211.56383 211.80345 211.75206 211.46867 211.11328 210.75490
 210.38351 210.10512 209.92474 209.80035 209.73996 210.08257 210.48019 210.88080
 211.68541 212.87502 214.13664 215.93125 217.87086 219.92548 222.03209 224.12670
 226.19831 228.29393 230.40254 232.52015 234.66077 236.84438 239.11199 241.49360
 244.12622 246.38883 248.40244 250.17905 251.60767 252.74228 253.57589 253.90351
 253.95212 253.73773 253.10934 252.06896 250.68657 248.85918 246.77979 244.62441
 242.42702 240.24263 238.07425 235.92486 233.79647 231.67508 229.71270 227.88131
 226.17592 224.65953 223.30115 222.08476 220.97837 219.94999 219.06560 218.21821
 217.47182 216.66344 215.77305 215.14866 214.61028 214.01501 212.65594 212.57808
 212.75758 212.80142 213.44655 215.15689 217.93668 222.07225 227.72679 232.32208
 235.87354 239.97939 244.52763 249.16609 253.19551 256.22144 258.97186 261.87640
 264.58688 267.04324 269.34247 271.54346 273.74057 275.80652 277.64139 279.20108
 280.60406 282.08435 283.52448 284.83841 285.99539 287.03140 287.97934 288.77060
 289.48129 290.11417 290.66702 291.37158
 366.78100 356.34736 345.79171 334.67007 323.08543 311.29178 299.17414 286.98950
 274.71385 262.62321 250.64457 239.95792 230.09228 221.20864 213.40299 206.41735
 200.26371 195.21407 191.80842 189.86278 188.91214 188.98849 189.83585 191.15621
 192.89356 195.00092 197.27628 199.64763 202.10499 204.59735 206.69770 208.55206
 210.19042 211.34777 211.58913 211.82949 211.77884 211.49620 211.14156 210.78391
 210.41327 210.13563 209.95598 209.83234 209.77270 210.11605 210.51441 210.91577
 211.72113 212.91148 214.17384 215.96920 217.90955 219.96491 222.07227 224.16762
 226.23998 228.33634 230.44569 232.56405 234.70541 236.88976 239.15812 241.54048
 244.17383 246.43719 248.45155 250.22890 251.65826 252.79362 253.62797 253.95633
 254.00569 253.79204 253.16440 252.12476 250.74311 248.91647 246.83783 244.68318
 242.48654 240.30290 238.13526 235.98661 233.85897 231.73833 229.77668 227.94604
 226.24140 224.72575 223.36811 222.15247 221.04682 220.01918 219.13554 218.28889
 217.54325 216.73561 215.84596 215.22232 214.68468 214.06142 212.66353 212.58727
 212.83058 212.89755 213.58286 215.21416 217.93100 222.06383 227.65636 232.23244
 235.79588 239.92746 244.49966 249.15681 253.18571 256.13754 259.01437 262.00400
 264.76199 267.17307 269.43039 271.60901 273.76910 275.78989 277.60382 279.12164
 280.54510 282.01862 283.42551 284.75366 285.93939 287.06982 288.15997 289.14755
 290.03580 290.82675 291.51773 292.39832
 366.78100 356.34813 345.79326 334.67239 323.08852 311.29565 299.17878 286.99491
 274.72005 262.63018 250.65231 239.96644 230.10157 221.21870 213.41383 206.42896
 200.27609 195.22722 191.82235 189.87748 188.92761 189.00474 189.85288 191.17401
 192.91214 195.02027 197.29640 199.66853 202.12666 204.61979 206.72092 208.57605
 210.21518 211.37331 211.61544 211.85657 211.80671 211.52484 211.17097 210.81410
 210.44423 210.16736 209.98849 209.86562 209.80675 210.15088 210.55001 210.95214
 211.75827 212.94940 214.21253 216.00867 217.94980 220.00593 222.11406 224.21019
 226.28332 228.38045 230.49058 232.60971 234.75184 236.93697 239.20610 241.58923
 244.22336 246.48750 248.50263 250.28076 251.71089 252.84702 253.68215 254.01128
 254.06141 253.84854 253.22167 252.18280 250.80193 248.97606 246.89819 244.74433
 242.54846 240.36559 238.19872 236.05085 233.92398 231.80411 229.84324 228.01337
 226.30950 224.79463 223.43776 222.22289 221.11802 220.09115 219.20829 218.36242
 217.61755 216.81068 215.92181 215.29894 214.76207 214.08707 212.55339 212.70830
 213.09911 213.00334 213.62338 215.20236 217.84760 221.93037 227.55249 232.09483
 235.67993 239.83990 244.43336 249.05881 253.03110 256.05585 258.89297 261.90399
 264.64191 267.06268 269.33749 271.57605 273.81738 275.92294 277.79422 279.41391
 280.81818 282.20944 283.57639 284.84836 286.00952 287.05798 288.03369 288.91599
 289.70743 290.41223 291.02792 291.81256
 366.78100 356.35032 345.79764 334.67896 323.09728 311.30660 299.19193 287.01025
 274.73757 262.64989 250.67421 239.99053 230.12785 221.24717 213.44449 206.46181
 200.31114 195.26446 191.86178 189.91910 188.97142 189.05074 189.90106 191.22438
 192.96470 195.07502 197.35334 199.72767 202.18799 204.68331 206.78663 208.64395
 210.28527 211.44559 211.68991 211.93323 211.88555 211.60587 211.25420 210.89952
 210.53184 210.25716 210.08048 209.95980 209.90312 210.24944 210.65076 211.05508
 211.86341 213.05673 214.32205 216.12037 218.06369 220.12201 222.23233 224.33065
 226.40597 228.50529 230.61761 232.73894 234.88326 237.07058 239.34190 241.72722
 244.36354 246.62986 248.64718 250.42750 251.85982 252.99815 253.83547 254.16679
 254.21911 254.00843 253.38375 252.34707 250.96839 249.14471 247.06903 244.91735
 242.72368 240.54300 238.37832 236.23264 234.10796 231.99028 230.03160 228.20392
 226.50224 224.98956 223.63488 222.42221 221.31953 220.29485 219.41417 218.57049
 217.82781 217.02313 216.13645 215.51577 214.98109 214.17909 212.30733 212.86751
 213.52634 213.30997 213.75740 215.18401 217.71779 221.77834 227.51036 231.92140
 235.53569 239.70024 244.32172 248.94017 252.87129 255.82025 258.53525 261.54373
 264.26169 266.70160 269.02042 271.35339 273.67072 275.85617 277.77628 279.44757
 280.92761 282.33322 283.71631 285.00589 286.15387 287.19235 288.14624 289.01749
 289.81216 290.54288 291.19232 292.01993
 366.78100 356.35262 345.80224 334.68586 323.10648 311.31811 299.20573 287.02635
 274.75597 262.67059 250.69721 240.01583 230.15545 221.27708 213.47670 206.49632
 200.34794 195.30356 191.90318 189.96280 189.01742 189.09905 189.95167 191.27729
 193.01991 195.13253 197.41315 199.78977 202.25239 204.75001 206.85564 208.71526
 210.35888 211.52150 211.76812 212.01374 211.96836 211.69098 211.34161 210.98923
 210.62385 210.35147 210.17709 210.05871 210.00433 210.35295 210.75658 211.16320
 211.97382 213.16944 214.43706 216.23768 218.18330 220.24392 222.35655 224.45717
 226.53479 228.63641 230.75103 232.87465 235.02127 237.21089 239.48451 241.87214
 244.51076 246.77938 248.79900 250.58162 252.01624 253.15686 253.99648 254.33011
 254.38473 254.17635 253.55397 252.51959 251.14321 249.32183 247.24845 245.09908
 242.90770 240.72932 238.56694 236.42356 234.30118 232.18580 230.22942 228.40404
 226.70467 225.19429 223.84191 222.63153 221.53115 220.50877 219.63039 218.78901
 218.04864 217.24626 216.36188 215.74350 215.21112 214.29977 212.14665 212.76375
 213.89899 213.62155 213.85022 215.17886 217.67401 221.75763 227.46797 231.79781
 235.43765 239.60574 244.26357 248.89862 252.79855 255.65677 258.33987 261.32162
 264.02780 266.49820 268.86420 271.24072 273.61261 275.83682 277.74390 279.39648
 280.85678 282.29236 283.72253 285.06900 286.24112 287.28214 288.23560 289.10730
 289.89847 290.60977 291.23383 292.03650
 366.78100 356.35247 345.80195 334.68542 323.10589 311.31736 299.20484 287.02531
 274.75478 262.66925 250.69573 240.01420 230.15367 221.27515 213.47462 206.49409
 200.34556 195.30104 191.90051 189.95998 189.01445 189.09593 189.94840 191.27387
 193.01635 195.12882 197.40929 199.78576 202.24824 204.74571 206.85118 208.71065
 210.35413 211.51660 211.76307 212.00855 211.96302 211.68549 211.33596 210.98344
 210.61791 210.34538 210.17085 210.05233 209.99780 210.34627 210.74975 211.15622
 211.96669 213.16216 214.42964 216.23011 218.17558 220.23606 222.34853 224.44900
 226.52647 228.62795 230.74242 232.86589 235.01236 237.20184 239.47531 241.86278
 244.50126 246.76973 248.78920 250.57167 252.00615 253.14662 253.98609 254.31956
 254.37404 254.16551 253.54298 252.50846 251.13193 249.31040 247.23687 245.08735
 242.89582 240.71729 238.55476 236.41124 234.28871 232.17318 230.21666 228.39113
 226.69160 225.18107 223.82855 222.61802 221.51749 220.49496 219.61644 218.77491
 218.03438 217.23186 216.34733 215.72880 215.19627 214.30542 212.20070 212.64326
 214.06218 213.76440 213.80116 215.25720 217.78253 221.75432 227.42827 231.76566
 235.40436 239.57581 244.24382 248.88036 252.75517 255.55746 258.23911 261.19205
 263.88477 266.37860 268.77914 271.16428 273.56400 275.79959 277.69293 279.35208
 280.82092 282.25833 283.70526 285.04388 286.21127 287.25189 288.20477 289.07611
 289.87146 290.58392 291.20282 291.98911
 366.78100 356.35132 345.79964 334.68196 323.10128 311.31160 299.19792 287.01724
 274.74556 262.65888 250.68420 240.00152 230.13984 221.26016 213.45848 206.47680
 200.32712 195.28144 191.87976 189.93808 188.99140 189.07172 189.92304 191.24736
 192.98867 195.09999 197.37931 199.75463 202.21595 204.71227 206.81659 208.67491
 210.31723 211.47855 211.72387 211.96819 211.92151 211.64283 211.29215 210.93847
 210.57179 210.29811 210.12243 210.00275 209.94707 210.29439 210.69671 211.10203
 211.91135 213.10567 214.37199 216.17131 218.11563 220.17495 222.28627 224.38559
 226.46191 228.56223 230.67555 232.79787 234.94319 237.13151 239.40383 241.79015
 244.42747 246.69479 248.71311 250.49443 251.92775 253.06707 253.90538 254.23770
 254.29102 254.08134 253.45766 252.42198 251.04430 249.22162 247.14694 244.99626
 242.80358 240.62390 238.46022 236.31554 234.19186 232.07518 230.11750 228.29082
 226.59014 225.07846 223.72478 222.51310 221.41142 220.38774 219.50806 218.66538
 217.92370 217.12002 216.23434 215.61466 215.08098 214.26266 212.35652 212.66489
 213.98848 213.73511 213.76346 215.31577 217.90977 221.74289 227.31972 231.77177
 235.37767 239.58688 244.22835 248.80305 252.65788 255.60518 258.27704 261.10480
 263.80182 266.34119 268.78128 271.18460 273.54202 275.70276 277.57047 279.19733
 280.72556 282.25836 283.76218 285.12140 286.29813 287.34033 288.29379 289.16559
 289.95285 290.67352 291.30414 292.10779
 366.78100 356.35105 345.79911 334.68116 323.10021 311.31026 299.19632 287.01537
 274.74342 262.65647 250.68153 239.99858 230.13663 221.25669 213.45474 206.47279
 200.32284 195.27690 191.87495 189.93300 188.98606 189.06611 189.91716 191.24121
 192.98227 195.09332 197.37237 199.74742 202.20848 204.70453 206.80858 208.66664
 210.30869 211.46974 211.71479 211.95885 211.91190 211.63295 211.28200 210.92806
 210.56111 210.28716 210.11122 209.99127 209.93532 210.28237 210.68443 211.08948
 211.89853 213.09259 214.35864 216.15769 218.10174 220.16080 222.27185 224.37090
 226.44695 228.54701 230.66006 232.78211 234.92717 237.11522 239.38727 241.77332
 244.41038 246.67743 248.69548 250.47653 251.90959 253.04864 253.88669 254.21875
 254.27180 254.06185 253.43790 252.40196 251.02401 249.20106 247.12611 244.97517
 242.78222 240.60227 238.43833 236.29338 234.16943 232.05248 230.09454 228.26759
 226.56664 225.05470 223.70075 222.48880 221.38685 220.36291 219.48296 218.64001
 217.89806 217.09412 216.20817 215.58822 215.05428 214.26271 212.44997 212.72279
 213.91519 213.70439 213.79671 215.34750 217.92238 221.69934 227.20808 231.70419
 235.30923 239.55630 244.19041 248.70317 252.46474 255.49742 258.45279 261.29941
 263.93564 266.45303 268.88647 271.24707 273.54993 275.62936 277.44427 279.06140
 280.57376 282.12424 283.56683 284.88483 286.05899 287.11230 288.08804 288.99051
 289.81094 290.54156 291.17981 291.99319
 366.78100 356.35159 345.80019 334.68278 323.10238 311.31297 299.19957 287.01916
 274.74775 262.66135 250.68694 240.00454 230.14313 221.26373 213.46232 206.48091
 200.33151 195.28610 191.88470 189.94329 188.99689 189.07748 189.92907 191.25367
 192.99526 195.10686 197.38645 199.76205 202.22364 204.72023 206.82483 208.68342
 210.32602 211.48761 211.73321 211.97780 211.93139 211.65299 211.30258 210.94918
 210.58277 210.30937 210.13396 210.01455 209.95915 210.30674 210.70934 211.11493
 211.92453 213.11912 214.38571 216.18531 218.12990 220.18950 222.30109 224.40069
 226.47728 228.57787 230.69147 232.81406 234.95966 237.14825 239.42085 241.80744
 244.44503 246.71263 248.73122 250.51282 251.94641 253.08601 253.92460 254.25719
 254.31079 254.10138 253.47798 252.44257 251.06517 249.24276 247.16835 245.01795
 242.82554 240.64614 238.48273 236.33833 234.21492 232.09851 230.14111 228.31470
 226.61430 225.10289 223.74949 222.53808 221.43667 220.41327 219.53386 218.69146
 217.95005 217.14665 216.26124 215.64183 215.10843 214.29616 212.41284 212.73509
 214.07016 213.86313 213.87550 215.37843 217.89949 221.58450 227.18076 231.61533
 235.24055 239.50349 244.15645 248.66879 252.42195 255.40164 258.35858 261.21271
 263.80945 266.31107 268.77710 271.17194 273.49368 275.59668 277.42038 279.05923
 280.60098 282.12878 283.57397 284.89661 286.06665 287.10709 288.06091 288.92920
 289.72748 290.44614 291.07391 291.87399
 366.78100 356.35187 345.80074 334.68361 323.10348 311.31435 299.20122 287.02109
 274.74996 262.66383 250.68970 240.00757 230.14644 221.26731 213.46618 206.48505
 200.33592 195.29079 191.88966 189.94853 189.00240 189.08327 189.93514 191.26001
 193.00188 195.11375 197.39362 199.76949 202.23136 204.72823 206.83310 208.69197
 210.33484 211.49671 211.74258 211.98745 211.94132 211.66318 211.31305 210.95992
 210.59379 210.32066 210.14553 210.02640 209.97127 210.31914 210.72201 211.12788
 211.93775 213.13262 214.39949 216.19936 218.14423 220.20410 222.31597 224.41584
 226.49271 228.59358 230.70745 232.83032 234.97619 237.16506 239.43793 241.82480
 244.46267 246.73054 248.74941 250.53128 251.96515 253.10502 253.94389 254.27676
 254.33063 254.12150 253.49837 252.46324 251.08611 249.26398 247.18985 245.03972
 242.84759 240.66846 238.50533 236.36120 234.23807 232.12194 230.16481 228.33868
 226.63855 225.12742 223.77429 222.56316 221.46203 220.43890 219.55977 218.71764
 217.97651 217.17338 216.28825 215.66912 215.13599 214.31499 212.37527 212.72063
 214.26715 214.08905 213.96991 215.42612 217.88354 221.46503 227.18542 231.48914
 235.15753 239.43105 244.12244 248.65048 252.36818 255.24791 258.14450 261.01288
 263.61246 266.14590 268.66077 271.07822 273.44025 275.58957 277.41199 279.05688
 280.62381 282.14307 283.59201 284.91370 286.07062 287.09668 288.03293 288.89310
 289.67450 290.37094 290.96072 291.67929
 366.78100 356.35180 345.80059 334.68339 323.10318 311.31398 299.20077 287.02057
 274.74936 262.66316 250.68895 240.00675 230.14554 221.26634 213.46513 206.48393
 200.33472 195.28952 191.88831 189.94711 189.00090 189.08170 189.93350 191.25829
 193.00009 195.11188 197.39168 199.76747 202.22927 204.72606 206.83086 208.68965
 210.33245 211.49424 211.74004 211.98483 211.93863 211.66042 211.31022 210.95701
 210.59081 210.31761 210.14240 210.02320 209.96799 210.31579 210.71858 211.12438
 211.93417 213.12897 214.39576 216.19556 218.14035 220.20015 222.31194 224.41174
 226.48853 228.58933 230.70312 232.82592 234.97171 237.16051 239.43331 241.82010
 244.45790 246.72569 248.74449 250.52628 251.96008 253.09987 253.93867 254.27146
 254.32526 254.11605 253.49285 252.45764 251.08044 249.25823 247.18403 245.03382
 242.84162 240.66242 238.49921 236.35501 234.23180 232.11560 230.15839 228.33219
 226.63198 225.12078 223.76757 222.55637 221.45516 220.43196 219.55275 218.71055
 217.96934 217.16614 216.28093 215.66173 215.12852 214.32370 212.42223 212.71378
 214.30168 214.19957 214.13173 215.54482 217.95258 221.44286 227.13609 231.41016
 235.09602 239.38098 244.07397 248.55954 252.21776 255.08528 257.94086 260.79739
 263.42734 266.01743 268.57663 271.00320 273.37155 275.49954 277.28793 278.97461
 280.52585 282.09299 283.56503 284.88419 286.02582 287.03348 287.95486 288.80597
 289.57776 290.25784 290.78790 291.27118
 366.78100 356.35089 345.79878 334.68067 323.09956 311.30945 299.19534 287.01423
 274.74212 262.65501 250.67990 239.99679 230.13468 221.25457 213.45246 206.47035
 200.32024 195.27413 191.87202 189.92991 188.98280 189.06269 189.91358 191.23747
 192.97835 195.08924 197.36813 199.74302 202.20391 204.69980 206.80369 208.66158
 210.30347 211.46436 211.70925 211.95314 211.90603 211.62692 211.27581 210.92170
 210.55459 210.28048 210.10437 209.98426 209.92815 210.27504 210.67693 211.08182
 211.89071 213.08460 214.35049 216.14938 218.09327 220.15216 222.26305 224.36194
 226.43783 228.53772 230.65061 232.77250 234.91739 237.10528 239.37717 241.76306
 244.39995 246.66684 248.68473 250.46562 251.89851 253.03740 253.87529 254.20718
 254.26006 254.04995 253.42584 252.38973 251.01162 249.18851 247.11340 244.96229
 242.76918 240.58907 238.42496 236.27985 234.15574 232.03863 230.08052 228.25341
 226.55230 225.04019 223.68608 222.47397 221.37186 220.34775 219.46764 218.62453
 217.88242 217.07831 216.19220 215.57209 215.03798 214.28783 212.51553 212.74007
 214.27170 214.20357 214.20560 215.65105 218.03625 221.45207 227.10152 231.38699
 235.07530 239.36583 244.05090 248.50905 252.12259 254.98819 257.85098 260.68762
 263.31067 265.92227 268.50037 270.92728 273.29529 275.40649 277.23502 278.80563
 280.51456 282.06552 283.49609 284.79214 285.90460 286.89130 287.79446 288.63354
 289.39194 290.05139 290.50208 290.81992
 366.78100 356.34781 345.79261 334.67142 323.08723 311.29404 299.17684 286.99265
 274.71746 262.62726 250.64907 239.96288 230.09768 221.21449 213.40930 206.42411
 200.27091 195.22172 191.81653 189.87133 188.92114 188.99795 189.84576 191.16656
 192.90437 195.01218 197.28798 199.65979 202.11760 204.61040 206.71121 208.56602
 210.20483 211.36263 211.60444 211.84525 211.79505 211.51286 211.15867 210.80148
 210.43128 210.15409 209.97490 209.85170 209.79251 210.13632 210.53512 210.93693
 211.74274 212.93355 214.19635 215.99216 217.93297 219.98877 222.09658 224.19239
 226.26520 228.36200 230.47181 232.59062 234.73242 236.91723 239.18604 241.56884
 244.20265 246.46646 248.48127 250.25907 251.68888 252.82469 253.65949 253.98830
 254.03811 253.82492 253.19772 252.15853 250.77734 248.95114 246.87295 244.71876
 242.52256 240.33937 238.17218 236.02399 233.89679 231.77660 229.81541 227.98521
 226.28102 224.76583 223.40864 222.19344 221.08825 220.06106 219.17786 218.33167
 217.58648 216.77928 215.89009 215.26690 214.72971 214.13464 212.72879 212.84525
 214.18008 214.07939 214.12720 215.66052 218.06305 221.44815 227.05312 231.39897
 235.06444 239.36787 244.04524 248.50740 252.15053 255.02817 257.83603 260.64627
 263.28696 265.90085 268.47705 270.89438 273.22244 275.29822 276.97525 278.83447
 280.41348 281.99057 283.45456 284.71893 285.81424 286.77692 287.65094 288.43863
 289.10367 289.57172 289.87180 290.23163
 366.78100 356.34477 345.78655 334.66232 323.07509 311.27886 299.15864 286.97141
 274.69318 262.59996 250.61873 239.92950 230.06127 221.17505 213.36682 206.37859
 200.22237 195.17014 191.76191 189.81368 188.86046 188.93423 189.77900 191.09678
 192.83155 194.93632 197.20909 199.57787 202.03264 204.52241 206.62019 208.47196
 210.10773 211.26250 211.50128 211.73905 211.68582 211.40060 211.04337 210.68314
 210.30991 210.02969 209.84746 209.72123 209.65901 209.99978 210.39555 210.79432
 211.59710 212.78487 214.04464 215.83742 217.77519 219.82796 221.93273 224.02551
 226.09528 228.18905 230.29583 232.41160 234.55037 236.73214 238.99792 241.37769
 244.00846 246.26924 248.28101 250.05578 251.48255 252.61533 253.44710 253.77287
 253.81965 253.60342 252.97319 251.93096 250.54674 248.71751 246.63628 244.47905
 242.27983 240.09360 237.92337 235.77215 233.64192 231.51869 229.55446 227.72124
 226.01401 224.49578 223.13556 221.91733 220.80910 219.77887 218.89265 218.04342
 217.29519 216.48497 215.59274 214.96651 214.42628 213.97984 212.94380 213.06358
 214.05653 213.91110 214.06097 215.60966 218.02876 221.47655 226.90529 231.37146
 235.02670 239.35019 243.98093 248.36394 252.01637 255.10368 258.06531 260.85751
 263.47601 266.08743 268.61972 270.95541 273.15411 275.09915 277.10330 278.90457
 280.34515 281.70154 283.04498 284.20233 285.19586 286.06201 286.83423 287.39151
 287.63089 287.70874 287.77676 287.86346
 366.78100 356.34594 345.78889 334.66583 323.07978 311.28472 299.16567 286.97961
 274.70256 262.61050 250.63045 239.94239 230.07534 221.19028 213.38323 206.39617
 200.24112 195.19006 191.78301 189.83595 188.88389 188.95884 189.80478 191.12373
 192.85967 194.96562 197.23956 199.60951 202.06545 204.55640 206.65534 208.50829
 210.14523 211.30118 211.54112 211.78007 211.72801 211.44395 211.08790 210.72884
 210.35679 210.07773 209.89668 209.77162 209.71057 210.05251 210.44946 210.84940
 211.65335 212.84229 214.10324 215.89718 217.83613 219.89007 221.99602 224.08996
 226.16090 228.25585 230.36379 232.48074 234.62068 236.80363 239.07057 241.45152
 244.08346 246.34541 248.35835 250.13430 251.56224 252.69619 253.52913 253.85608
 253.90402 253.68896 253.05991 252.01885 250.63580 248.80774 246.72769 244.57163
 242.37358 240.18852 238.01947 235.86941 233.74036 231.61830 229.65525 227.82319
 226.11714 224.60008 223.24103 222.02397 220.91691 219.88786 219.00280 218.15475
 217.40769 216.59864 215.70758 215.08253 214.54347 214.04749 212.92575 213.19963
 214.19710 213.99127 214.09796 215.54643 217.91487 221.41986 226.73903 231.23941
 234.93246 239.27762 243.87682 248.17398 251.79555 255.01012 258.08719 260.89871
 263.50198 266.13010 268.64090 270.91257 273.03226 275.10818 277.22180 278.83212
 280.21039 281.50882 282.76611 283.84799 284.76398 285.56155 286.21048 286.27103
 286.32550 286.37402 286.41638 286.47037
 366.78100 356.34896 345.79492 334.67489 323.09185 311.29981 299.18377 287.00074
 274.72670 262.63766 250.66062 239.97559 230.11155 221.22951 213.42547 206.44143
 200.28940 195.24136 191.83732 189.89328 188.94425 189.02221 189.87117 191.19313
 192.93210 195.04106 197.31802 199.69098 202.14994 204.64391 206.74587 208.60183
 210.24179 211.40076 211.64372 211.88568 211.83664 211.55561 211.20257 210.84653
 210.47749 210.20145 210.02342 209.90138 209.84334 210.18830 210.58827 210.99123
 211.79819 212.99015 214.25412 216.05108 217.99304 220.05000 222.15896 224.25593
 226.32989 228.42785 230.53881 232.65878 234.80174 236.98770 239.25766 241.64162
 244.27659 246.54155 248.55751 250.33647 251.76744 252.90440 253.74036 254.07032
 254.12129 253.90925 253.28321 252.24517 250.86513 249.04010 246.96306 244.81002
 242.61498 240.43295 238.26691 236.11987 233.99383 231.87480 229.91476 228.08572
 226.38268 224.86864 223.51261 222.29857 221.19453 220.16849 219.28646 218.44142
 217.69738 216.89134 216.00331 215.38127 214.84523 214.22906 212.85654 213.14700
 214.45026 214.30759 214.31541 215.60738 217.86595 221.38414 226.59756 231.08580
 234.80682 239.16833 243.73845 247.94562 251.52144 254.80203 257.96313 260.83813
 263.48581 266.14948 268.69455 270.95740 273.01920 275.16599 277.09540 278.78287
 280.09399 281.29514 282.49060 283.55182 284.42328 285.07111 285.45554 285.80380
 286.11700 286.39594 286.63962 286.95013
 366.78100 356.35104 345.79907 334.68111 323.10015 311.31018 299.19622 287.01526
 274.74330 262.65633 250.68137 239.99841 230.13644 221.25648 213.45452 206.47255
 200.32259 195.27663 191.87466 189.93270 188.98574 189.06577 189.91681 191.24085
 192.98189 195.09292 197.37196 199.74700 202.20803 204.70407 206.80811 208.66614
 210.30818 211.46922 211.71425 211.95829 211.91133 211.63236 211.28140 210.92744
 210.56048 210.28651 210.11055 209.99059 209.93462 210.28166 210.68370 211.08873
 211.89777 213.09181 214.35784 216.15688 218.10092 220.15995 222.27099 224.37003
 226.44607 228.54610 230.65914 232.78118 234.92621 237.11425 239.38629 241.77232
 244.40936 246.67640 248.69443 250.47547 251.90851 253.04755 253.88558 254.21762
 254.27066 254.06069 253.43673 252.40077 251.02280 249.19984 247.12488 244.97391
 242.78095 240.60099 238.43702 236.29206 234.16810 232.05114 230.09317 228.26621
 226.56525 225.05328 223.69932 222.48736 221.38539 220.36143 219.48147 218.63850
 217.89654 217.09258 216.20661 215.58665 215.05269 214.37654 212.88231 213.04553
 214.51218 214.58153 214.70992 215.91769 218.02002 221.48694 226.56757 231.00276
 234.73326 239.08867 243.64009 247.77859 251.30487 254.58434 257.78406 260.73502
 263.51642 266.25476 268.81204 271.06174 272.90475 275.21478 277.09155 278.69409
 279.97577 281.08514 282.14911 283.08356 283.94144 284.70386 285.39941 286.02957
 286.59631 287.10101 287.54190 288.10376
 366.78100 356.35070 345.79840 334.68009 323.09879 311.30849 299.19419 287.01288
 274.74058 262.65328 250.67798 239.99468 230.13237 221.25207 213.44977 206.46747
 200.31717 195.27086 191.86856 189.92626 188.97896 189.05865 189.90935 191.23305
 192.97375 195.08445 197.36314 199.73784 202.19854 204.69424 206.79794 208.65563
 210.29733 211.45803 211.70273 211.94642 211.89912 211.61982 211.26852 210.91422
 210.54691 210.27261 210.09631 209.97601 209.91970 210.26640 210.66810 211.07280
 211.88150 213.07519 214.34089 216.13959 218.08329 220.14199 222.25268 224.35138
 226.42708 228.52678 230.63947 232.76117 234.90587 237.09357 239.36527 241.75096
 244.38766 246.65436 248.67206 250.45275 251.88545 253.02415 253.86185 254.19355
 254.24624 254.03594 253.41164 252.37534 250.99704 249.17373 247.09843 244.94713
 242.75383 240.57352 238.40922 236.26392 234.13962 232.02232 230.06401 228.23671
 226.53541 225.02311 223.66881 222.45650 221.35420 220.32990 219.44960 218.60629
 217.86399 217.05969 216.17339 215.55309 215.01878 214.39722 213.00845 212.99812
 214.35480 214.69576 215.00246 216.19022 218.20590 221.59923 226.61920 231.01750
 234.72144 239.05742 243.59001 247.68225 251.20976 254.48306 257.66327 260.68658
 263.57657 266.33652 268.88892 271.09393 273.00958 275.23065 277.07617 278.60367
 279.85214 280.92163 281.92233 283.05682 284.05722 284.94235 285.74988 286.48145
 287.13940 287.72531 288.23718 288.88947
 366.78100 356.34791 345.79282 334.67173 323.08764 311.29455 299.17746 286.99338
 274.71829 262.62820 250.65011 239.96402 230.09893 221.21584 213.41075 206.42566
 200.27257 195.22348 191.81839 189.87331 188.92322 189.00013 189.84804 191.16895
 192.90686 195.01477 197.29068 199.66259 202.12050 204.61341 206.71432 208.56924
 210.20815 211.36606 211.60797 211.84888 211.79879 211.51670 211.16261 210.80552
 210.43543 210.15834 209.97925 209.85617 209.79708 210.14099 210.53990 210.94181
 211.74772 212.93863 214.20154 215.99745 217.93836 219.99427 222.10218 224.19809
 226.27101 228.36792 230.47783 232.59674 234.73865 236.92356 239.19247 241.57538
 244.20929 246.47320 248.48811 250.26602 251.69594 252.83185 253.66676 253.99567
 254.04558 253.83249 253.20540 252.16631 250.78522 248.95913 246.88104 244.72695
 242.53087 240.34778 238.18069 236.03260 233.90551 231.78542 229.82433 227.99424
 226.29015 224.77506 223.41797 222.20288 221.09780 220.07071 219.18762 218.34153
 217.59644 216.78935 215.90026 215.27717 214.74008 214.26411 213.18066 213.05238
 214.16415 214.59093 215.05385 216.33115 218.30722 221.64545 226.62839 231.01895
 234.73080 239.05307 243.56834 247.63972 251.15027 254.41893 257.60519 260.61911
 263.57132 266.36618 268.89456 270.98282 273.05658 275.19250 277.00647 278.48813
 279.77274 280.96533 282.04404 283.25229 284.31647 285.25800 286.11700 286.89523
 287.59512 288.21841 288.76288 289.45676
 366.78100 356.34672 345.79043 334.66815 323.08286 311.28858 299.17029 286.98501
 274.70872 262.61744 250.63815 239.95087 230.08459 221.20030 213.39402 206.40773
 200.25345 195.20316 191.79688 189.85059 188.89931 188.97502 189.82174 191.14146
 192.87817 194.98489 197.25960 199.63032 202.08703 204.57875 206.67846 208.53218
 210.16989 211.32661 211.56733 211.80704 211.75576 211.47247 211.11719 210.75890
 210.38762 210.10933 209.92905 209.80476 209.74448 210.08719 210.48491 210.88563
 211.69034 212.88006 214.14177 215.93649 217.87620 219.93092 222.03763 224.13235
 226.20406 228.29978 230.40850 232.52621 234.66693 236.85064 239.11836 241.50007
 244.13279 246.39550 248.40922 250.18593 251.61465 252.74937 253.58308 253.91080
 253.95951 253.74523 253.11694 252.07666 250.69437 248.86709 246.78780 244.63252
 242.43524 240.25095 238.08267 235.93338 233.80510 231.68381 229.72153 227.89024
 226.18496 224.66867 223.31039 222.09411 220.98782 219.95954 219.07525 218.22797
 217.48168 216.67340 215.78311 215.15883 214.62054 214.19125 213.22432 213.17708
 214.14313 214.49586 214.99219 216.31142 218.31194 221.59436 226.53734 230.98061
 234.70509 239.00244 243.43553 247.47423 250.99492 254.27095 257.41873 260.56689
 263.52911 266.35355 268.85645 270.88174 273.14099 275.10745 276.90479 278.37994
 279.80963 281.11371 282.19049 283.23914 284.22528 285.09494 285.88837 286.60715
 287.25360 287.82928 288.33218 288.97308
 366.78100 356.34729 345.79157 334.66986 323.08515 311.29144 299.17372 286.98901
 274.71330 262.62258 250.64387 239.95716 230.09144 221.20773 213.40202 206.41631
 200.26259 195.21288 191.80717 189.86145 188.91074 188.98703 189.83431 191.15460
 192.89189 194.99918 197.27446 199.64575 202.10304 204.59532 206.69561 208.54990
 210.18819 211.34547 211.58676 211.82705 211.77633 211.49362 211.13891 210.78119
 210.41048 210.13277 209.95306 209.82934 209.76963 210.11292 210.51120 210.91249
 211.71778 212.90806 214.17035 215.96564 217.90593 219.96121 222.06850 224.16379
 226.23607 228.33236 230.44165 232.55994 234.70122 236.88551 239.15380 241.53608
 244.16937 246.43266 248.44694 250.22423 251.65352 252.78881 253.62309 253.95138
 254.00067 253.78695 253.15924 252.11953 250.73781 248.91110 246.83239 244.67768
 242.48096 240.29725 238.12954 235.98082 233.85311 231.73240 229.77069 227.93997
 226.23526 224.71955 223.36183 222.14612 221.04041 220.01269 219.12898 218.28227
 217.53656 216.72884 215.83913 215.21542 214.67770 214.22261 213.19910 213.20630
 214.23857 214.49397 215.01125 216.37927 218.37222 221.55661 226.46236 230.92763
 234.65607 238.92540 243.29698 247.29738 250.80745 254.08344 257.43265 260.46112
 263.47150 266.25574 268.68118 270.86188 273.15521 275.13913 276.83112 278.26218
 279.65912 280.98785 282.04227 283.00662 283.95956 284.81662 285.59857 286.30695
 286.94406 287.51141 288.00705 288.63867
 366.78100 356.34636 345.78971 334.66707 323.08143 311.28678 299.16814 286.98250
 274.70585 262.61421 250.63457 239.94692 230.08028 221.19564 213.38899 206.40235
 200.24771 195.19706 191.79042 189.84378 188.89213 188.96749 189.81385 191.13320
 192.86956 194.97592 197.25027 199.62063 202.07699 204.56834 206.66770 208.52106
 210.15841 211.31477 211.55513 211.79448 211.74284 211.45920 211.10355 210.74491
 210.37327 210.09463 209.91398 209.78934 209.72870 210.07105 210.46841 210.86877
 211.67312 212.86248 214.12384 215.91819 217.85755 219.91191 222.01826 224.11262
 226.18398 228.27933 230.38769 232.50505 234.64540 236.82876 239.09612 241.47747
 244.10983 246.37219 248.38554 250.16190 251.59026 252.72461 253.55797 253.88533
 253.93368 253.71904 253.09040 252.04975 250.66711 248.83947 246.75982 244.60418
 242.40654 240.22189 238.05325 235.90361 233.77496 231.65332 229.69068 227.85903
 226.15339 224.63675 223.27810 222.06146 220.95482 219.92617 219.04153 218.19389
 217.44724 216.63860 215.74796 215.12331 214.58467 214.19501 213.29907 213.14777
 214.20885 214.46875 215.10838 216.62228 218.60617 221.67859 226.48180 230.92769
 234.64508 238.88861 243.21561 247.19400 250.71071 254.00113 257.51813 260.44275
 263.28772 266.00739 268.55087 270.92749 273.19061 275.12671 276.76096 278.16425
 279.41116 280.67120 281.68982 282.63245 283.59039 284.46490 285.26273 285.98553
 286.63559 287.21448 287.72018 288.36465
 366.78100 356.34504 345.78707 334.66311 323.07615 311.28018 299.16022 286.97325
 274.69529 262.60233 250.62136 239.93240 230.06444 221.17847 213.37051 206.38255
 200.22658 195.17462 191.76665 189.81869 188.86573 188.93976 189.78480 191.10284
 192.83787 194.94291 197.21595 199.58498 202.04002 204.53005 206.62809 208.48013
 210.11616 211.27120 211.51024 211.74827 211.69531 211.41035 211.05338 210.69342
 210.32045 210.04049 209.85853 209.73256 209.67060 210.01164 210.40767 210.80671
 211.60975 212.79778 214.05782 215.85085 217.78889 219.84193 221.94696 224.04000
 226.11004 228.20407 230.31111 232.42715 234.56618 236.74822 239.01425 241.39429
 244.02533 246.28636 248.29840 250.07344 251.50047 252.63351 253.46555 253.79158
 253.83862 253.62265 252.99269 251.95073 250.56676 248.73780 246.65684 244.49987
 242.30091 240.11495 237.94498 235.79402 233.66405 231.54109 229.57713 227.74416
 226.03720 224.51924 223.15927 221.94131 220.83335 219.80338 218.91742 218.06845
 217.32049 216.51053 215.61856 214.99260 214.45264 214.15585 213.43979 213.14717
 214.09384 214.51163 215.28801 216.84729 218.76688 221.79350 226.52861 230.91725
 234.63663 238.86104 243.16234 247.12402 250.63808 253.95177 257.47986 260.52832
 263.28943 266.03146 268.59192 271.00800 273.21146 275.07330 276.65515 278.03192
 279.26157 280.25903 281.14307 282.29236 283.39398 284.36862 285.25784 286.06342
 286.78796 287.43314 287.99677 288.71506
 366.78100 356.34398 345.78496 334.65994 323.07192 311.27490 299.15388 286.96586
 274.68684 262.59281 250.61079 239.92077 230.05175 221.16473 213.35571 206.36669
 200.20967 195.15665 191.74763 189.79861 188.84459 188.91757 189.76155 191.07853
 192.81251 194.91648 197.18846 199.55644 202.01042 204.49940 206.59638 208.44736
 210.08234 211.23632 211.47430 211.71128 211.65726 211.37124 211.01322 210.65220
 210.27818 209.99716 209.81413 209.68711 209.62409 209.96407 210.35905 210.75703
 211.55901 212.74599 214.00497 215.79695 217.73393 219.78591 221.88989 223.98187
 226.05085 228.14383 230.24980 232.36478 234.50276 236.68374 238.94872 241.32770
 243.95768 246.21766 248.22864 250.00262 251.42860 252.56058 253.39156 253.71654
 253.76252 253.54550 252.91447 251.87145 250.48643 248.65641 246.57439 244.41637
 242.21635 240.02933 237.85831 235.70629 233.57527 231.45125 229.48623 227.65221
 225.94419 224.42517 223.06415 221.84512 220.73610 219.70508 218.81806 217.96804
 217.21902 216.40800 215.51498 214.88796 214.34694 214.13803 213.56982 213.19937
 213.96617 214.57973 215.44720 216.97112 218.75200 221.73895 226.55183 230.95137
 234.66077 238.83279 243.05577 246.98593 250.53645 253.99791 257.46976 260.55435
 263.33603 266.08893 268.70297 271.12851 273.22400 275.00623 276.55930 277.92654
 279.02423 279.91782 281.20486 282.33502 283.31308 284.17838 284.96786 285.68307
 286.32632 286.89914 287.39954 288.03723
 366.78100 356.34053 345.77806 334.64958 323.05811 311.25764 299.13317 286.94170
 274.65923 262.56175 250.57628 239.88281 230.01034 221.11987 213.30739 206.31492
 200.15445 195.09798 191.68551 189.73304 188.77556 188.84509 189.68562 190.99915
 192.72968 194.83020 197.09873 199.46326 201.91379 204.39932 206.49284 208.34037
 209.97190 211.12243 211.35696 211.59049 211.53301 211.24354 210.88207 210.51760
 210.14013 209.85565 209.66918 209.53871 209.47224 209.80877 210.20030 210.59482
 211.39335 212.57688 213.83241 215.62094 217.55446 219.60299 221.70352 223.79205
 225.85758 227.94711 230.04963 232.16116 234.29569 236.47322 238.73475 241.11027
 243.73680 245.99333 248.00086 249.77139 251.19391 252.32244 253.14997 253.47150
 253.51403 253.29356 252.65908 251.61261 250.22414 248.39067 246.30520 244.14372
 241.94025 239.74978 237.57531 235.41984 233.28537 231.15789 229.18942 227.35195
 225.64048 224.11801 222.75353 221.53106 220.41859 219.38412 218.49365 217.64018
 216.88770 216.07323 215.17676 214.54629 214.00182 213.99095 213.78366 213.17386
 213.69788 214.52396 215.49908 217.08492 218.82153 221.69991 226.56702 230.98888
 234.69798 238.85062 243.05412 246.98540 250.56721 254.07172 257.58414 260.69138
 263.51953 266.16891 268.79376 271.23270 273.26807 274.93326 276.46570 277.81491
 278.95825 280.68323 282.25674 283.63840 284.83411 285.89200 286.85718 287.73154
 288.51794 289.21823 289.83002 290.60962
 366.78100 356.33913 345.77526 334.64539 323.05252 311.25065 299.12477 286.93190
 274.64803 262.54916 250.56229 239.86742 229.99355 221.10168 213.28781 206.29394
 200.13207 195.07419 191.66032 189.70645 188.74758 188.81571 189.65484 190.96697
 192.69610 194.79523 197.06236 199.42549 201.87461 204.35874 206.45087 208.29700
 209.92713 211.07626 211.30939 211.54152 211.48265 211.19178 210.82891 210.46303
 210.08416 209.79829 209.61042 209.47855 209.41068 209.74581 210.13594 210.52907
 211.32620 212.50832 213.76245 215.54958 217.48171 219.52884 221.62797 223.71510
 225.77923 227.86736 229.96849 232.07862 234.21174 236.38787 238.64800 241.02213
 243.64726 245.90239 247.90852 249.67765 251.09878 252.22591 253.05204 253.37216
 253.41329 253.19142 252.55555 251.50768 250.11781 248.28294 246.19607 244.03320
 241.82833 239.63646 237.46058 235.30371 233.16784 231.03897 229.06910 227.23023
 225.51736 223.99349 222.62762 221.40375 220.28988 219.25400 218.36213 217.50726
 216.75339 215.93752 215.03965 214.40778 213.86191 213.89966 213.87202 213.27272
 213.45189 214.32066 215.46867 217.10664 218.99184 221.92680 226.58900 231.01353
 234.70198 238.83578 243.02377 246.92957 250.55568 254.07790 257.54977 260.71628
 263.59125 266.27029 268.85199 271.25717 273.23730 274.87897 276.41818 278.09967
 279.44949 280.63126 282.01077 283.33362 284.47845 285.49130 286.41541 287.25256
 288.00549 288.67596 289.26172 290.00815
 366.78100 356.34280 345.78260 334.65641 323.06721 311.26901 299.14681 286.95762
 274.67742 262.58222 250.59902 239.90782 230.03763 221.14943 213.33923 206.34903
 200.19083 195.13664 191.72644 189.77624 188.82104 188.89285 189.73565 191.05145
 192.78425 194.88705 197.15786 199.52466 201.97746 204.46526 206.56107 208.41087
 210.04467 211.19747 211.43427 211.67008 211.61488 211.32768 210.96848 210.60628
 210.23109 209.94889 209.76469 209.63649 209.57230 209.91110 210.30490 210.70170
 211.50250 212.68831 213.94611 215.73691 217.67271 219.72352 221.82632 223.91712
 225.98492 228.07672 230.18153 232.29533 234.43213 236.61193 238.87573 241.25354
 243.88234 246.14114 248.15094 249.92375 251.34855 252.47935 253.30915 253.63295
 253.67776 253.45956 252.82736 251.78316 250.39697 248.56577 246.48257 244.32337
 242.12217 239.93398 237.76178 235.60858 233.47638 231.35118 229.38499 227.54979
 225.84059 224.32039 222.95820 221.73800 220.62780 219.59560 218.70740 217.85621
 217.10601 216.29381 215.39961 214.77142 214.22922 214.06950 213.68413 213.43851
 213.67517 214.26596 215.38452 217.04962 219.01634 221.94858 226.53688 230.95522
 234.64502 238.74777 242.90195 246.74033 250.29576 253.89108 257.44281 260.57101
 263.45752 266.24844 268.92798 271.27835 273.11209 274.74948 276.29102 277.50391
 278.82388 280.08023 281.30573 282.48212 283.50156 284.40347 285.22635 285.97180
 286.64227 287.23932 287.76089 288.42557
 366.78100 356.34555 345.78811 334.66466 323.07821 311.28276 299.16332 286.97687
 274.69942 262.60698 250.62653 239.93808 230.07063 221.18519 213.37774 206.39029
 200.23485 195.18340 191.77595 189.82850 188.87606 188.95061 189.79616 191.11472
 192.85027 194.95582 197.22937 199.59893 202.05448 204.54503 206.64359 208.49614
 210.13269 211.28824 211.52780 211.76635 211.71390 211.42946 211.07301 210.71356
 210.34112 210.06167 209.88022 209.75477 209.69333 210.03488 210.43143 210.83099
 211.63454 212.82309 214.08364 215.87720 217.81575 219.86930 221.97486 224.06841
 226.13896 228.23351 230.34107 232.45762 234.59717 236.77973 239.04628 241.42683
 244.05838 246.31994 248.33249 250.10804 251.53560 252.66915 253.50170 253.82825
 253.87581 253.66036 253.03091 251.98947 250.60602 248.77757 246.69712 244.54068
 242.34223 240.15678 237.98734 235.83689 233.70744 231.58499 229.62155 227.78910
 226.08265 224.56521 223.20576 221.98831 220.88086 219.85142 218.96597 218.11752
 217.37008 216.56063 215.66918 215.04373 214.50429 214.24239 213.62698 213.42880
 213.86777 214.45612 215.51999 217.10896 218.96390 221.88365 226.56837 230.94781
 234.62112 238.67262 242.74170 246.53909 250.12807 253.83960 257.40854 260.58090
 263.51453 266.33859 269.02786 271.25327 272.97516 274.54358 276.04141 277.25946
 278.28317 279.68253 281.18030 282.49545 283.63361 284.64056 285.55930 286.39157
 287.14014 287.80673 288.38904 289.13113
 366.78100 356.34364 345.78428 334.65891 323.07055 311.27319 299.15183 286.96346
 274.68410 262.58974 250.60738 239.91702 230.04765 221.16029 213.35093 206.36157
 200.20420 195.15084 191.74148 189.79212 188.83775 188.91039 189.75403 191.07067
 192.80431 194.90794 197.17958 199.54722 202.00086 204.48949 206.58613 208.43677
 210.07141 211.22505 211.46268 211.69932 211.64496 211.35860 211.00023 210.63887
 210.26451 209.98315 209.79979 209.67242 209.60906 209.94870 210.34334 210.74097
 211.54261 212.72925 213.98789 215.77953 217.71616 219.76780 221.87144 223.96308
 226.03171 228.12435 230.22999 232.34463 234.48226 236.66290 238.92754 241.30618
 243.93582 246.19545 248.20609 249.97973 251.40537 252.53700 253.36764 253.69228
 253.73792 253.52056 252.88919 251.84583 250.46047 248.63011 246.54774 244.38938
 242.18902 240.00166 237.83030 235.67793 233.54657 231.42221 229.45685 227.62248
 225.91412 224.39476 223.03340 221.81403 220.70467 219.67331 218.78595 217.93559
 217.18622 216.37486 215.48150 214.85414 214.31277 214.19325 213.79887 213.38148
 213.76225 214.53844 215.58130 217.13148 219.04378 221.91983 226.59219 230.97087
 234.63763 238.67670 242.73666 246.52225 250.11383 253.89993 257.47919 260.68521
 263.65009 266.43991 269.04559 271.17831 272.91885 274.37524 275.81519 277.11032
 278.18765 279.10400 279.89694 280.59320 281.19577 281.72888 282.21524 282.65588
 283.05215 283.40506 283.71335 284.10623
 366.78100 356.34159 345.78018 334.65277 323.06236 311.26295 299.13955 286.94914
 274.66773 262.57132 250.58691 239.89450 230.02309 221.13368 213.32227 206.33086
 200.17145 195.11605 191.70464 189.75323 188.79682 188.86741 189.70900 191.02359
 192.75518 194.85677 197.12636 199.49196 201.94355 204.43014 206.52473 208.37332
 210.00591 211.15750 211.39309 211.62768 211.57127 211.28286 210.92246 210.55905
 210.18264 209.89923 209.71382 209.58441 209.51900 209.85659 210.24918 210.64477
 211.44436 212.62896 213.88555 215.67514 217.60973 219.65932 221.76091 223.85050
 225.91709 228.00768 230.11127 232.22387 234.35946 236.53805 238.80064 241.17723
 243.80482 246.06241 248.07100 249.84259 251.26618 252.39577 253.22437 253.54696
 253.59055 253.37114 252.73773 251.69232 250.30491 248.47250 246.38809 244.22768
 242.02527 239.83587 237.66246 235.50805 233.37464 231.24823 229.28082 227.44441
 225.73400 224.21259 222.84918 221.62777 220.51637 219.48296 218.59355 217.74114
 216.98973 216.17632 215.28091 214.65150 214.10809 214.12523 213.93626 213.37152
 213.63806 214.53926 215.68350 217.11128 218.98759 221.96043 226.52209 230.93895
 234.58061 238.58913 242.63127 246.44026 250.12234 253.89963 257.47626 260.70770
 263.72818 266.56586 269.08429 271.12653 272.86810 274.27765 275.72495 277.10910
 278.33170 279.37967 280.28653 281.08279 281.77188 282.38159 282.93784 283.44174
 283.89496 284.29855 284.65112 285.10043
 366.78100 356.33909 345.77518 334.64527 323.05236 311.25045 299.12454 286.93163
 274.64772 262.54881 250.56190 239.86699 229.99308 221.10117 213.28726 206.29335
 200.13145 195.07354 191.65963 189.70572 188.74681 188.81490 189.65399 190.96608
 192.69517 194.79426 197.06135 199.42444 201.87353 204.35762 206.44971 208.29580
 209.92589 211.07498 211.30807 211.54016 211.48125 211.19034 210.82743 210.46152
 210.08261 209.79670 209.60879 209.47688 209.40897 209.74406 210.13415 210.52725
 211.32434 212.50643 213.76052 215.54761 217.47970 219.52679 221.62588 223.71297
 225.77706 227.86515 229.96624 232.07633 234.20942 236.38551 238.64560 241.01969
 243.64478 245.89987 247.90596 249.67505 251.09614 252.22323 253.04932 253.36941
 253.41050 253.18859 252.55268 251.50477 250.11486 248.27995 246.19305 244.03014
 241.82523 239.63332 237.45741 235.30050 233.16459 231.03568 229.06577 227.22686
 225.51395 223.99004 222.62413 221.40022 220.28631 219.25040 218.35849 217.50358
 216.74967 215.93376 215.03585 214.40394 213.85803 214.02800 214.05721 213.29253
 213.55319 214.54448 215.75385 217.19174 219.05711 222.00179 226.53519 230.94170
 234.55049 238.50204 242.51335 246.35834 250.08099 253.87831 257.44943 260.69623
 263.74377 266.61264 269.20358 271.34329 273.03061 274.25092 275.73846 278.24207
 280.49875 282.43307 284.10690 285.57666 286.84860 287.97394 289.00064 289.93079
 290.76733 291.51227 292.16302 292.99237
 366.78100 356.33748 345.77196 334.64044 323.04592 311.24240 299.11488 286.92036
 274.63484 262.53432 250.54579 239.84927 229.97375 221.08023 213.26471 206.26919
 200.10567 195.04615 191.63063 189.67511 188.71459 188.78107 189.61855 190.92903
 192.65651 194.75399 197.01947 199.38095 201.82842 204.31090 206.40138 208.24586
 209.87434 211.02182 211.25330 211.48378 211.42326 211.13074 210.76622 210.39870
 210.01818 209.73066 209.54114 209.40762 209.33810 209.67158 210.06005 210.45153
 211.24701 212.42749 213.67997 215.46545 217.39593 219.44141 221.53889 223.62437
 225.68685 227.77333 229.87281 231.98129 234.11277 236.28725 238.54573 240.91821
 243.54168 245.79516 247.79964 249.56712 250.98660 252.11208 252.93656 253.25504
 253.29452 253.07100 252.43348 251.38396 249.99244 248.15592 246.06740 243.90288
 241.69636 239.50284 237.32532 235.16679 233.02927 230.89875 228.92723 227.08671
 225.37219 223.84667 222.47915 221.25363 220.13811 219.10059 218.20707 217.35055
 216.59503 215.77751 214.87799 214.24447 213.69695 213.94534 214.18402 213.31567
 213.41245 214.53540 215.85338 217.30547 219.13658 221.97615 226.62161 230.99010
 234.57567 238.47119 242.43629 246.29330 250.02013 253.83557 257.40540 260.65631
 263.72076 266.56747 269.11362 271.21909 272.90607 274.31015 275.96616 278.27463
 280.71924 282.81461 284.62784 286.21997 287.59781 288.81686 289.92905 290.93665
 291.84283 292.64981 293.35477 294.25314
 366.78100 356.34051 345.77801 334.64952 323.05802 311.25753 299.13304 286.94154
 274.65905 262.56155 250.57606 239.88256 230.01007 221.11958 213.30708 206.31459
 200.15409 195.09760 191.68511 189.73261 188.77512 188.84462 189.68513 190.99864
 192.72914 194.82965 197.09815 199.46266 201.91316 204.39867 206.49218 208.33968
 209.97119 211.12169 211.35620 211.58971 211.53221 211.24272 210.88122 210.51673
 210.13924 209.85474 209.66825 209.53775 209.47126 209.80776 210.19927 210.59378
 211.39228 212.57579 213.83129 215.61980 217.55331 219.60181 221.70232 223.79082
 225.85633 227.94584 230.04834 232.15985 234.29435 236.47186 238.73336 241.10887
 243.73538 245.99188 247.99939 249.76989 251.19240 252.32091 253.14841 253.46992
 253.51242 253.29193 252.65744 251.61094 250.22245 248.38895 246.30346 244.14196
 241.93847 239.74798 237.57348 235.41799 233.28349 231.15600 229.18751 227.35001
 225.63852 224.11602 222.75153 221.52904 220.41654 219.38205 218.49155 217.63806
 216.88556 216.07107 215.17458 214.54408 213.99959 214.06577 214.10550 213.56520
 213.39967 214.40874 215.82916 217.25105 219.04056 221.88458 226.63536 231.01314
 234.58710 238.44397 242.35434 246.19246 249.95944 253.80875 257.38287 260.63345
 263.71445 266.53491 268.98581 271.01468 272.73145 274.23383 275.90317 277.80258
 279.77725 281.64850 283.26779 284.68961 285.92010 287.00876 288.00198 288.90179
 289.71106 290.43173 291.06128 291.86359
 366.78100 356.34245 345.78189 334.65534 323.06579 311.26724 299.14468 286.95513
 274.67458 262.57903 250.59547 239.90392 230.03337 221.14482 213.33426 206.34371
 200.18516 195.13061 191.72005 189.76950 188.81395 188.88540 189.72784 191.04329
 192.77574 194.87819 197.14863 199.51508 201.96753 204.45497 206.55042 208.39987
 210.03332 211.18576 211.42221 211.65766 211.60211 211.31455 210.95500 210.59245
 210.21690 209.93434 209.74979 209.62124 209.55669 209.89513 210.28858 210.68503
 211.48548 212.67092 213.92837 215.71882 217.65427 219.70471 221.80716 223.89761
 225.96505 228.05650 230.16095 232.27440 234.41084 236.59029 238.85374 241.23119
 243.85963 246.11808 248.12753 249.89998 251.32442 252.45487 253.28432 253.60777
 253.65221 253.43366 252.80111 251.75656 250.37000 248.53845 246.45490 244.29535
 242.09379 239.90524 237.73269 235.57913 233.44658 231.32103 229.35448 227.51892
 225.80937 224.28882 222.92627 221.70571 220.59516 219.56261 218.67406 217.82250
 217.07195 216.25940 215.36485 214.73629 214.19374 214.15106 214.03201 213.72673
 213.47092 214.32634 215.77774 217.17836 218.96719 222.00922 226.57724 231.01073
 234.58559 238.41605 242.28288 246.10445 249.92206 253.76741 257.36664 260.65085
 263.77893 266.56464 268.92883 270.90836 272.62045 274.12701 275.88281 277.65469
 279.04343 280.69064 282.27518 283.66647 284.87054 285.93585 286.90775 287.78824
 288.58014 289.28534 289.90137 290.68646
 366.78100 356.33946 345.77592 334.64638 323.05385 311.25231 299.12677 286.93423
 274.65069 262.55215 250.56561 239.87108 229.99754 221.10600 213.29246 206.29892
 200.13738 195.07984 191.66631 189.71277 188.75423 188.82269 189.66215 190.97461
 192.70407 194.80354 197.07100 199.43446 201.88392 204.36838 206.46084 208.30730
 209.93777 211.08723 211.32069 211.55315 211.49461 211.20407 210.84153 210.47600
 210.09746 209.81192 209.62438 209.49284 209.42530 209.76076 210.15123 210.54469
 211.34215 212.52461 213.77907 215.56653 217.49899 219.54646 221.64592 223.73338
 225.79784 227.88630 229.98776 232.09822 234.23168 236.40815 238.66861 241.04307
 243.66853 245.92399 247.93045 249.69991 251.12138 252.24884 253.07530 253.39576
 253.43722 253.21568 252.58014 251.53261 250.14307 248.30853 246.22199 244.05945
 241.85491 239.66337 237.48784 235.33130 233.19576 231.06722 229.09768 227.25914
 225.54660 224.02307 222.65753 221.43399 220.32045 219.28491 218.39337 217.53883
 216.78530 215.96976 215.07222 214.44068 213.89514 214.01173 214.19742 213.73647
 213.42911 214.30609 215.80780 217.22359 219.03271 222.07712 226.51395 230.98553
 234.53763 238.34035 242.17413 245.99489 249.84886 253.72426 257.34085 260.66876
 263.81793 266.59708 268.84109 270.78259 272.52008 274.07080 275.79742 277.61151
 278.83875 280.17902 281.73978 283.14108 284.35379 285.42670 286.40558 287.29239
 288.08997 288.80020 289.42065 290.21136
 366.78100 356.33733 345.77165 334.63998 323.04531 311.24164 299.11396 286.91929
 274.63362 262.53294 250.54427 239.84760 229.97192 221.07825 213.26258 206.26691
 200.10323 195.04356 191.62789 189.67221 188.71154 188.77787 189.61519 190.92552
 192.65285 194.75018 197.01550 199.37683 201.82416 204.30648 206.39681 208.24114
 209.86946 211.01679 211.24812 211.47845 211.41777 211.12510 210.76043 210.39275
 210.01208 209.72441 209.53473 209.40106 209.33139 209.66472 210.05304 210.44437
 211.23970 212.42002 213.67235 215.45768 217.38800 219.43333 221.53066 223.61599
 225.67831 227.76464 229.86397 231.97229 234.10362 236.27795 238.53628 240.90860
 243.53193 245.78526 247.78958 249.55691 250.97624 252.10156 252.92589 253.24422
 253.28355 253.05987 252.42220 251.37253 249.98085 248.14418 246.05551 243.89083
 241.68416 239.49049 237.31282 235.15414 233.01647 230.88580 228.91412 227.07345
 225.35878 223.83310 222.46543 221.23976 220.12409 219.08641 218.19274 217.33607
 216.58039 215.76272 214.86305 214.22937 213.68170 213.92474 214.34125 213.75740
 213.39702 214.29814 215.83206 217.29976 219.08258 222.06802 226.50008 230.92213
 234.46284 238.22849 242.03998 245.87201 249.78554 253.69191 257.30756 260.63815
 263.80081 266.55231 268.80258 270.70312 272.44019 273.95932 275.77347 277.42996
 278.63422 280.26895 281.84384 283.22672 284.42346 285.48230 286.44830 287.32343
 288.11053 288.81143 289.42374 290.20404
 366.78100 356.33935 345.77571 334.64606 323.05341 311.25176 299.12612 286.93347
 274.64982 262.55117 250.56453 239.86988 229.99623 221.10459 213.29094 206.29729
 200.13564 195.07800 191.66435 189.71070 188.75206 188.82041 189.65976 190.97211
 192.70147 194.80082 197.06817 199.43152 201.88088 204.36523 206.45758 208.30394
 209.93429 211.08364 211.31699 211.54935 211.49070 211.20005 210.83741 210.47176
 210.09311 209.80746 209.61982 209.48817 209.42052 209.75587 210.14623 210.53958
 211.33693 212.51929 213.77364 215.56099 217.49334 219.54070 221.64005 223.72740
 225.79176 227.88011 229.98146 232.09181 234.22517 236.40152 238.66187 241.03622
 243.66158 245.91693 247.92328 249.69264 251.11399 252.24134 253.06769 253.38805
 253.42940 253.20775 252.57211 251.52446 250.13481 248.30016 246.21352 244.05087
 241.84622 239.65457 237.47893 235.32228 233.18663 231.05799 229.08834 227.24969
 225.53704 224.01340 222.64775 221.42410 220.31046 219.27481 218.38316 217.52851
 216.77487 215.95922 215.06157 214.42992 213.88428 214.04314 214.29793 213.82755
 213.43356 214.21677 215.70061 217.27829 219.17506 222.04019 226.59660 230.91835
 234.41815 238.15993 241.97812 245.83549 249.79515 253.71158 257.32425 260.68335
 263.82596 266.59308 268.81476 270.68405 272.38321 273.93613 275.74466 277.30286
 279.47491 281.52338 283.29602 284.85251 286.19949 287.39127 288.47855 289.46356
 290.34949 291.13840 291.82758 292.70584
 366.78100 356.34098 345.77897 334.65095 323.05993 311.25992 299.13590 286.94488
 274.66286 262.56585 250.58083 239.88781 230.01580 221.12578 213.31376 206.32175
 200.16173 195.10571 191.69369 189.74168 188.78466 188.85464 189.69563 191.00961
 192.74059 194.84158 197.11056 199.47554 201.92652 204.41251 206.50649 208.35447
 209.98646 211.13744 211.37242 211.60641 211.54939 211.26037 210.89935 210.53534
 210.15832 209.87430 209.68829 209.55827 209.49225 209.82924 210.22122 210.61620
 211.41519 212.59917 213.85515 215.64413 217.57812 219.62710 221.72808 223.81707
 225.88305 227.97303 230.07602 232.18800 234.32298 236.50096 238.76295 241.13893
 243.76591 246.02290 248.03088 249.80186 251.22485 252.35383 253.18181 253.50379
 253.54678 253.32676 252.69274 251.64673 250.25871 248.42569 246.34068 244.17966
 241.97664 239.78662 237.61261 235.45759 233.32357 231.19656 229.22854 227.39152
 225.68051 224.15849 222.79447 221.57246 220.46044 219.42642 218.53640 217.68339
 216.93137 216.11735 215.22134 214.59132 214.04730 214.13365 214.27045 213.91258
 213.50627 214.15581 215.55551 217.16541 219.14571 222.05736 226.62689 230.94022
 234.41576 238.13161 241.95575 245.84109 249.82806 253.73170 257.33914 260.68692
 263.85147 266.68005 268.94775 270.77707 272.45621 273.92456 275.89954 277.79407
 280.06122 282.12683 283.91428 285.48380 286.84204 288.04379 289.14017 290.13342
 291.02673 291.82224 292.51718 293.40280
 366.78100 356.33961 345.77621 334.64682 323.05443 311.25303 299.12764 286.93525
 274.65185 262.55346 250.56707 239.87267 229.99928 221.10789 213.29449 206.30110
 200.13971 195.08231 191.66892 189.71553 188.75713 188.82574 189.66535 190.97795
 192.70756 194.80717 197.07477 199.43838 201.88799 204.37259 206.46520 208.31181
 209.94241 211.09202 211.32563 211.55823 211.49984 211.20945 210.84705 210.48166
 210.10327 209.81787 209.63048 209.49909 209.43169 209.76730 210.15791 210.55151
 211.34912 212.53173 213.78633 215.57394 217.50655 219.55415 221.65376 223.74137
 225.80597 227.89458 229.99619 232.10679 234.24040 236.41701 238.67761 241.05222
 243.67783 245.93343 247.94004 249.70965 251.13125 252.25886 253.08547 253.40607
 253.44768 253.22629 252.59089 251.54350 250.15411 248.31971 246.23332 244.07093
 241.86653 239.67514 237.49975 235.34335 233.20796 231.07957 229.11017 227.27178
 225.55939 224.03599 222.67060 221.44721 220.33381 219.29842 218.40703 217.55263
 216.79924 215.98385 215.08645 214.45506 213.90967 214.07156 214.35930 213.98804
 213.56178 214.18893 215.53613 217.05168 219.02831 222.04793 226.57028 230.89906
 234.34512 238.03276 241.85324 245.77716 249.77136 253.66769 257.28122 260.61700
 263.75909 266.55157 268.86145 270.68048 272.36429 273.88214 275.94666 277.86322
 279.74448 281.69370 283.39575 284.89032 286.18372 287.32803 288.37204 289.31787
 290.16852 290.92603 291.58780 292.43112
 366.78100 356.33719 345.77137 334.63956 323.04475 311.24093 299.11312 286.91830
 274.63249 262.53168 250.54286 239.84605 229.97024 221.07642 213.26061 206.26479
 200.10098 195.04117 191.62535 189.66954 188.70873 188.77491 189.61210 190.92229
 192.64947 194.74666 197.01184 199.37303 201.82022 204.30240 206.39259 208.23678
 209.86496 211.01215 211.24334 211.47352 211.41271 211.11989 210.75508 210.38727
 210.00645 209.71864 209.52883 209.39501 209.32520 209.65838 210.04657 210.43776
 211.23294 212.41313 213.66532 215.45050 217.38069 219.42588 221.52306 223.60825
 225.67043 227.75662 229.85581 231.96399 234.09518 236.26937 238.52755 240.89974
 243.52293 245.77611 247.78030 249.54748 250.96667 252.09186 252.91604 253.23423
 253.27342 253.04960 252.41179 251.36197 249.97016 248.13335 246.04453 243.87972
 241.67291 239.47909 237.30128 235.14247 233.00465 230.87384 228.90202 227.06121
 225.34640 223.82058 222.45277 221.22696 220.11114 219.07333 218.17952 217.32270
 216.56689 215.74907 214.84926 214.21545 213.66763 213.96051 214.50032 214.03064
 213.52051 214.15503 215.55890 217.10609 219.05136 222.10600 226.52711 230.83411
 234.24832 237.89696 241.70825 245.66681 249.69075 253.60416 257.22455 260.57568
 263.71423 266.45084 268.71524 270.56296 272.31412 273.82745 276.01633 277.96027
 279.55621 281.36417 282.97977 284.39841 285.62610 286.71231 287.70331 288.60107
 289.40851 290.12756 290.75568 291.55618
 366.78100 356.33625 345.76951 334.63676 323.04101 311.23627 299.10752 286.91177
 274.62502 262.52328 250.53353 239.83578 229.95904 221.06429 213.24754 206.25080
 200.08605 195.02530 191.60856 189.65181 188.69006 188.75532 189.59157 190.90082
 192.62707 194.72333 196.98758 199.34783 201.79409 204.27534 206.36459 208.20785
 209.83510 210.98135 211.21161 211.44086 211.37911 211.08536 210.71962 210.35087
 209.96912 209.68038 209.48963 209.35488 209.28414 209.61639 210.00364 210.39390
 211.18815 212.36740 213.61866 215.40291 217.33216 219.37641 221.47267 223.55692
 225.61817 227.70343 229.80168 231.90893 234.03919 236.21244 238.46969 240.84095
 243.46320 245.71545 247.71870 249.48496 250.90321 252.02746 252.85072 253.16797
 253.20622 252.98148 252.34273 251.29198 249.89924 248.06149 245.97174 243.80600
 241.59825 239.40350 237.22475 235.06501 232.92626 230.79451 228.82177 226.98002
 225.26427 223.73753 222.36878 221.14203 220.02529 218.98654 218.09179 217.23404
 216.47730 215.65855 214.75780 214.12306 213.57431 213.92087 214.57565 214.08078
 213.48528 214.04225 215.50494 217.15781 219.16295 222.22990 226.56711 230.83063
 234.21866 237.83575 241.63640 245.62181 249.66899 253.59085 257.21375 260.57465
 263.70361 266.38638 268.59586 270.46487 272.23236 273.86124 276.14767 277.99707
 279.56705 281.26257 282.86411 284.27036 285.48734 286.56406 287.54642 288.43637
 289.23676 289.94952 290.57217 291.36569
 366.78100 356.33816 345.77332 334.64248 323.04864 311.24580 299.11896 286.92511
 274.64027 262.54043 250.55259 239.85675 229.98191 221.08907 213.27423 206.27939
 200.11655 195.05771 191.64287 189.68803 188.72818 188.79534 189.63350 190.94466
 192.67282 194.77098 197.03714 199.39930 201.84746 204.33062 206.42178 208.26694
 209.89610 211.04425 211.27641 211.50757 211.44773 211.15589 210.79205 210.42521
 210.04537 209.75853 209.56969 209.43685 209.36801 209.70217 210.09132 210.48348
 211.27964 212.46080 213.71396 215.50012 217.43128 219.47744 221.57560 223.66176
 225.72492 227.81208 229.91224 232.02139 234.15355 236.32871 238.58787 240.96103
 243.58519 245.83935 247.84451 249.61267 251.03283 252.15899 252.98415 253.30331
 253.34346 253.12062 252.48378 251.43494 250.04410 248.20826 246.12042 243.95658
 241.75074 239.55790 237.38106 235.22322 233.08638 230.95653 228.98569 227.14585
 225.43201 223.90717 222.54033 221.31549 220.20065 219.16381 218.27097 217.41513
 216.66029 215.84345 214.94460 214.31176 213.76492 214.02234 214.52188 214.16719
 213.58580 213.98431 215.39218 217.10176 219.16937 222.28296 226.64920 230.83408
 234.20323 237.78525 241.57304 245.57767 249.64326 253.56326 257.18567 260.55801
 263.68472 266.30161 268.46140 270.34613 272.16467 273.93427 276.04355 277.84909
 279.41968 281.02414 282.62900 284.03821 285.25772 286.33670 287.32111 288.21292
 289.01498 289.72925 290.35318 291.14835
 366.78100 356.34109 345.77918 334.65126 323.06035 311.26044 299.13653 286.94561
 274.66370 262.56679 250.58188 239.88896 230.01705 221.12714 213.31523 206.32332
 200.16340 195.10749 191.69558 189.74367 188.78675 188.85684 189.69793 191.01202
 192.74310 194.84419 197.11328 199.47837 201.92946 204.41554 206.50963 208.35772
 209.98981 211.14089 211.37598 211.61007 211.55316 211.26424 210.90333 210.53942
 210.16251 209.87860 209.69268 209.56277 209.49686 209.83395 210.22603 210.62112
 211.42021 212.60430 213.86038 215.64947 217.58356 219.63265 221.73374 223.82282
 225.88891 227.97900 230.08209 232.19417 234.32926 236.50735 238.76944 241.14552
 243.77261 246.02970 248.03779 249.80888 251.23196 252.36105 253.18914 253.51123
 253.55431 253.33440 252.70049 251.65458 250.26667 248.43375 246.34884 244.18793
 241.98502 239.79510 237.62119 235.46628 233.33237 231.20545 229.23754 227.40063
 225.68972 224.16781 222.80389 221.58198 220.47007 219.43616 218.54624 217.69333
 216.94142 216.12751 215.23159 214.60168 214.05777 214.18222 214.44237 214.23622
 213.65154 214.00223 215.33359 217.03249 219.09157 222.23497 226.73416 230.83963
 234.17076 237.73158 241.51152 245.52769 249.61087 253.53859 257.16818 260.55020
 263.64276 266.22388 268.36646 270.28226 272.18509 274.07623 275.90103 277.69647
 279.23471 280.96014 282.52524 283.89951 285.08881 286.14105 287.10104 287.97076
 288.75296 289.44949 290.05798 290.83344
 366.78100 356.34221 345.78143 334.65464 323.06486 311.26607 299.14329 286.95350
 274.67272 262.57693 250.59314 239.90136 230.03057 221.14179 213.33100 206.34022
 200.18143 195.12664 191.71586 189.76507 188.80929 188.88050 189.72272 191.03793
 192.77015 194.87236 197.14257 199.50879 201.96100 204.44822 206.54343 208.39265
 210.02586 211.17808 211.41429 211.64950 211.59372 211.30593 210.94615 210.58336
 210.20758 209.92479 209.74001 209.61122 209.54643 209.88465 210.27786 210.67408
 211.47429 212.65951 213.91672 215.70693 217.64215 219.69236 221.79458 223.88479
 225.95201 228.04322 230.14744 232.26065 234.39686 236.57608 238.83929 241.21651
 243.84472 246.10294 248.11215 249.88437 251.30858 252.43879 253.26801 253.59122
 253.63544 253.41665 252.78387 251.73908 250.35229 248.52051 246.43672 244.27694
 242.07515 239.88637 237.71358 235.55980 233.42701 231.30122 229.33444 227.49865
 225.78887 224.26808 222.90530 221.68451 220.57373 219.54094 218.65215 217.80037
 217.04958 216.23680 215.34201 214.71323 214.17044 214.25186 214.45540 214.30920
 213.59583 213.93555 215.25873 216.95914 219.08662 222.22955 226.81868 230.89314
 234.19527 237.72571 241.48807 245.51723 249.61757 253.55324 257.19012 260.57904
 263.65430 266.20471 268.29816 270.24738 272.25009 274.08606 275.87991 277.62921
 279.30020 281.03873 282.55093 283.87875 285.02789 286.04456 286.97211 287.81244
 288.56818 289.24121 289.82913 290.57837
 366.78100 356.34179 345.78058 334.65337 323.06317 311.26396 299.14075 286.95054
 274.66933 262.57312 250.58891 239.89670 230.02550 221.13629 213.32508 206.33387
 200.17466 195.11945 191.70824 189.75703 188.80083 188.87162 189.71341 191.02820
 192.75999 194.86178 197.13157 199.49736 201.94916 204.43595 206.53074 208.37953
 210.01232 211.16411 211.39990 211.63469 211.57849 211.29028 210.93007 210.56686
 210.19065 209.90744 209.72223 209.59303 209.52782 209.86561 210.25840 210.65419
 211.45398 212.63877 213.89556 215.68536 217.62015 219.66994 221.77173 223.86152
 225.92831 228.01910 230.12289 232.23569 234.37148 236.55027 238.81306 241.18985
 243.81764 246.07543 248.08422 249.85602 251.27981 252.40960 253.23839 253.56118
 253.60497 253.38576 252.75255 251.70735 250.32014 248.48793 246.40372 244.24351
 242.04130 239.85209 237.67889 235.52468 233.39147 231.26526 229.29805 227.46184
 225.75163 224.23042 222.86722 221.64601 220.53480 219.50159 218.61238 217.76017
 217.00896 216.19575 215.30055 214.67134 214.12813 214.24518 214.50746 214.38687
 213.70842 213.84073 215.10912 216.86456 219.00885 222.25549 226.79048 230.88834
 234.17801 237.69179 241.44504 245.48756 249.60158 253.54198 257.19611 260.58398
 263.63480 266.16602 268.25397 270.23618 272.25906 274.03629 275.81137 277.47055
 279.02386 280.66971 282.15799 283.46478 284.59573 285.59631 286.50919 287.33621
 288.08002 288.74237 289.32098 290.05838
 366.78100 356.34086 345.77871 334.65057 323.05943 311.25928 299.13514 286.94400
 274.66186 262.56471 250.57957 239.88643 230.01428 221.12414 213.31200 206.31985
 200.15971 195.10357 191.69143 189.73928 188.78214 188.85200 189.69285 191.00671
 192.73757 194.83842 197.10728 199.47214 201.92300 204.40885 206.50271 208.35057
 209.98242 211.13328 211.36814 211.60199 211.54485 211.25571 210.89457 210.53042
 210.15328 209.86914 209.68299 209.55285 209.48671 209.82356 210.21542 210.61028
 211.40914 212.59299 213.84885 215.63771 217.57156 219.62042 221.72128 223.81013
 225.87599 227.96585 230.06871 232.18056 234.31542 236.49328 238.75513 241.13099
 243.75785 246.01470 248.02256 249.79342 251.21627 252.34513 253.17299 253.49485
 253.53770 253.31756 252.68342 251.63727 250.24913 248.41599 246.33084 244.16970
 241.96656 239.77642 237.60227 235.44713 233.31299 231.18584 229.21770 227.38056
 225.66941 224.14727 222.78313 221.56099 220.44884 219.41470 218.52456 217.67141
 216.91927 216.10513 215.20898 214.57884 214.03470 214.22456 214.58284 214.35501
 213.90094 214.00438 215.04123 216.63025 218.87820 222.19250 226.71109 230.83247
 234.09917 237.59569 241.35355 245.42662 249.56476 253.51979 257.18567 260.57001
 263.59174 266.08713 268.18448 270.22540 272.25610 274.04178 275.65842 277.28400
 278.76819 280.57489 282.15598 283.54428 284.74576 285.80875 286.77856 287.65717
 288.44736 289.15100 289.76572 290.54910
 366.78100 356.34015 345.77731 334.64846 323.05661 311.25576 299.13092 286.93907
 274.65622 262.55838 250.57253 239.87868 230.00583 221.11499 213.30214 206.30929
 200.14844 195.09160 191.67875 189.72590 188.76806 188.83721 189.67736 190.99051
 192.72067 194.82082 197.08897 199.45313 201.90328 204.38843 206.48158 208.32874
 209.95989 211.11004 211.34419 211.57735 211.51950 211.22965 210.86781 210.50296
 210.12511 209.84026 209.65342 209.52257 209.45572 209.79188 210.18303 210.57718
 211.37533 212.55849 213.81364 215.60179 217.53495 219.58310 221.68325 223.77140
 225.83656 227.92571 230.02786 232.13901 234.27317 236.45032 238.71147 241.08663
 243.71278 245.96893 247.97608 249.74624 251.16839 252.29654 253.12370 253.44485
 253.48700 253.26615 252.63131 251.58446 250.19561 248.36176 246.27592 244.11407
 241.91022 239.71938 237.54453 235.38868 233.25383 231.12599 229.15714 227.31929
 225.60745 224.08460 222.71975 221.49690 220.38406 219.34921 218.45836 217.60452
 216.85167 216.03682 215.13997 214.50913 213.96428 214.21584 214.66667 214.33595
 213.90529 214.08330 215.00124 216.49554 218.86473 222.19740 226.71964 230.83142
 234.07637 237.56361 241.32527 245.42470 249.58644 253.56203 257.23285 260.61157
 263.62360 266.12598 268.18716 270.24838 272.28299 274.05627 275.67239 277.15576
 278.85660 280.65280 282.20709 283.57190 284.75302 285.79800 286.75137 287.61508
 288.39191 289.08365 289.68796 290.45807
 366.78100 356.34111 345.77921 334.65132 323.06043 311.26053 299.13664 286.94574
 274.66385 262.56696 250.58206 239.88917 230.01728 221.12738 213.31549 206.32359
 200.16370 195.10781 191.69591 189.74402 188.78713 188.85723 189.69834 191.01245
 192.74355 194.84466 197.11376 199.47887 201.92998 204.41608 206.51019 208.35830
 209.99040 211.14151 211.37661 211.61072 211.55383 211.26493 210.90404 210.54015
 210.16325 209.87936 209.69347 209.56357 209.49768 209.83478 210.22689 210.62200
 211.42110 212.60521 213.86132 215.65042 217.58453 219.63363 221.73474 223.82385
 225.88995 227.98006 230.08317 232.19527 234.33038 236.50849 238.77059 241.14670
 243.77380 246.03091 248.03902 249.81012 251.23323 252.36234 253.19044 253.51255
 253.55565 253.33576 252.70187 251.65597 250.26808 248.43519 246.35029 244.18940
 241.98651 239.79661 237.62272 235.46782 233.33393 231.20704 229.23914 227.40225
 225.69136 224.16946 222.80557 221.58367 220.47178 219.43789 218.54799 217.69510
 216.94321 216.12931 215.23342 214.60353 214.05963 214.27237 214.68045 214.40871
 213.86562 214.07805 214.94812 216.26534 218.75183 222.24704 226.69600 230.83730
 234.06715 237.55048 241.32298 245.44719 249.62001 253.59883 257.27457 260.67117
 263.71158 266.24982 268.32410 270.33011 272.30334 274.01236 275.66135 277.19110
 278.98032 280.86423 282.49448 283.92590 285.16470 286.26074 287.26068 288.16656
 288.98132 289.70685 290.34067 291.14838
 366.78100 356.34177 345.78054 334.65331 323.06308 311.26385 299.14063 286.95040
 274.66917 262.57294 250.58871 239.89648 230.02525 221.13602 213.32479 206.33356
 200.17433 195.11910 191.70788 189.75665 188.80042 188.87119 189.71296 191.02773
 192.75950 194.86127 197.13104 199.49681 201.94858 204.43535 206.53013 208.37890
 210.01167 211.16344 211.39921 211.63398 211.57775 211.28952 210.92929 210.56606
 210.18983 209.90660 209.72138 209.59215 209.52692 209.86469 210.25746 210.65323
 211.45300 212.63777 213.89454 215.68431 217.61908 219.66885 221.77063 223.86040
 225.92717 228.01794 230.12171 232.23448 234.37025 236.54902 238.81179 241.18856
 243.81633 246.07410 248.08288 249.85465 251.27842 252.40819 253.23696 253.55973
 253.60350 253.38427 252.75104 251.70581 250.31858 248.48635 246.40213 244.24190
 242.03967 239.85044 237.67721 235.52298 233.38975 231.26352 229.29629 227.46006
 225.74983 224.22860 222.86538 221.64415 220.53292 219.49969 218.61046 217.75823
 217.00700 216.19377 215.29854 214.66931 214.12608 214.31270 214.68721 214.44745
 213.89558 214.14120 214.94231 216.10432 218.62021 222.28529 226.56410 230.78050
 233.98817 237.48334 241.28093 245.41591 249.58083 253.52829 257.20627 260.60199
 263.62570 266.16855 268.34558 270.40460 272.34085 274.03796 275.73215 277.38797
 278.77063 280.44498 282.05518 283.46906 284.69266 285.77521 286.76288 287.65765
 288.46240 289.17905 289.80505 290.60287
 366.78100 356.34154 345.78008 334.65262 323.06216 311.26271 299.13925 286.94879
 274.66733 262.57087 250.58641 239.89395 230.02249 221.13304 213.32158 206.33012
 200.17066 195.11520 191.70374 189.75228 188.79582 188.86636 189.70791 191.02245
 192.75399 194.85553 197.12507 199.49061 201.94215 204.42869 206.52324 208.37178
 210.00432 211.15586 211.39140 211.62594 211.56948 211.28102 210.92057 210.55711
 210.18065 209.89719 209.71173 209.58227 209.51681 209.85435 210.24689 210.64244
 211.44198 212.62652 213.88306 215.67260 217.60714 219.65668 221.75822 223.84777
 225.91431 228.00485 230.10839 232.22093 234.35647 236.53501 238.79755 241.17409
 243.80164 246.05918 248.06772 249.83926 251.26280 252.39234 253.22088 253.54342
 253.58697 253.36751 252.73405 251.68859 250.30113 248.46867 246.38421 244.22375
 242.02130 239.83184 237.65838 235.50392 233.37046 231.24400 229.27654 227.44008
 225.72962 224.20817 222.84471 221.62325 220.51179 219.47833 218.58887 217.73641
 216.98495 216.17150 215.27604 214.64658 214.10312 214.31227 214.74054 214.45207
 213.80070 214.10463 214.92773 216.10638 218.62170 222.31604 226.62166 230.79097
 233.95250 237.42123 241.22163 245.39647 249.55148 253.48158 257.15259 260.51569
 263.48105 265.98532 268.16888 270.33487 272.36267 274.09573 275.79080 277.37161
 278.63538 280.00055 281.46707 282.84415 284.03586 285.09024 286.05219 286.92368
 287.70746 288.40543 289.01514 289.79218
 366.78100 356.34144 345.77987 334.65231 323.06175 311.26219 299.13862 286.94806
 274.66650 262.56994 250.58537 239.89281 230.02125 221.13168 213.32012 206.32856
 200.16900 195.11343 191.70187 189.75031 188.79375 188.86418 189.70562 191.02006
 192.75149 194.85293 197.12237 199.48781 201.93924 204.42568 206.52012 208.36856
 210.00099 211.15243 211.38787 211.62230 211.56574 211.27718 210.91662 210.55305
 210.17649 209.89293 209.70737 209.57780 209.51224 209.84968 210.24211 210.63755
 211.43699 212.62143 213.87786 215.66730 217.60174 219.65118 221.75261 223.84205
 225.90849 227.99892 230.10236 232.21480 234.35024 236.52867 238.79111 241.16755
 243.79499 246.05242 248.06086 249.83230 251.25573 252.38517 253.21361 253.53605
 253.57948 253.35992 252.72636 251.68080 250.29323 248.46067 246.37611 244.21554
 242.01298 239.82342 237.64986 235.49529 233.36173 231.23517 229.26761 227.43104
 225.72048 224.19892 222.83535 221.61379 220.50223 219.46867 218.57910 217.72654
 216.97498 216.16142 215.26585 214.63629 214.09273 214.32034 214.79468 214.50348
 213.71307 213.89832 214.75587 216.09264 218.67133 222.38605 226.75975 230.87726
 234.00647 237.45125 241.23328 245.42912 249.57800 253.51315 257.17810 260.50690
 263.40225 265.84830 268.10687 270.37552 272.42297 274.10379 275.86047 277.13660
 278.35178 279.69431 280.93393 282.27567 283.44058 284.47122 285.41153 286.26340
 287.02954 287.71182 288.30783 289.06738
 366.78100 356.34195 345.78090 334.65384 323.06379 311.26474 299.14169 286.95164
 274.67059 262.57453 250.59048 239.89843 230.02738 221.13833 213.32728 206.33622
 200.17717 195.12212 191.71107 189.76002 188.80397 188.87491 189.71686 191.03181
 192.76376 194.86571 197.13566 199.50160 201.95355 204.44050 206.53545 208.38440
 210.01735 211.16929 211.40524 211.64019 211.58414 211.29609 210.93604 210.57298
 210.19693 209.91388 209.72883 209.59978 209.53472 209.87267 210.26562 210.66157
 211.46152 212.64647 213.90341 215.69336 217.62831 219.67826 221.78021 223.87016
 225.93710 228.02805 230.13200 232.24495 234.38090 236.55985 238.82279 241.19974
 243.82769 246.08564 248.09459 249.86654 251.29048 252.42043 253.24938 253.57233
 253.61628 253.39723 252.76417 251.71912 250.33207 248.50002 246.41597 244.25592
 242.05386 239.86481 237.69176 235.53771 233.40466 231.27860 229.31155 227.47550
 225.76545 224.24440 222.88135 221.66029 220.54924 219.51619 218.62714 217.77509
 217.02404 216.21098 215.31593 214.68688 214.14383 214.36508 214.82356 214.58005
 213.84673 213.77122 214.52379 215.97684 218.64093 222.39761 226.82014 230.93376
 234.05403 237.49977 241.29530 245.48059 249.60747 253.53667 257.20682 260.51715
 263.36462 265.73923 268.02786 270.35873 272.48383 274.11295 275.80591 277.19849
 278.17697 279.25784 280.47647 281.58752 282.54904 283.39975 284.17587 284.87900
 285.51138 286.07452 286.56647 287.19342
 366.78100 356.34256 345.78211 334.65567 323.06623 311.26779 299.14534 286.95590
 274.67546 262.58002 250.59657 239.90513 230.03469 221.14625 213.33580 206.34536
 200.18692 195.13248 191.72203 189.77159 188.81615 188.88771 189.73026 191.04582
 192.77838 194.88094 197.15149 199.51805 201.97061 204.45817 206.55372 208.40328
 210.03684 211.18940 211.42595 211.66151 211.60607 211.31862 210.95918 210.59674
 210.22130 209.93885 209.75441 209.62597 209.56153 209.90008 210.29364 210.69020
 211.49076 212.67631 213.93387 215.72443 217.65999 219.71054 221.81310 223.90366
 225.97122 228.06277 230.16733 232.28089 234.41745 236.59700 238.86056 241.23812
 243.86668 246.12523 248.13479 249.90735 251.33190 252.46246 253.29202 253.61558
 253.66013 253.44169 252.80925 251.76481 250.37836 248.54692 246.46348 244.30404
 242.10259 239.91415 237.74171 235.58827 233.45582 231.33038 229.36394 227.52850
 225.81905 224.29861 222.93617 221.71573 220.60528 219.57284 218.68440 217.83296
 217.08251 216.27007 215.37563 214.74719 214.20474 214.43340 214.87025 214.62395
 214.05161 213.84521 214.41040 215.65752 218.39351 222.23100 226.85555 230.88751
 234.03209 237.49576 241.33656 245.49167 249.63921 253.58464 257.23334 260.49799
 263.27454 265.72705 268.09781 270.45612 272.53333 274.18982 275.71506 277.02405
 278.13751 278.96899 279.68848 280.32022 280.86697 281.35068 281.79202 282.19183
 282.55139 282.87161 283.15134 283.50784
 366.78100 356.34250 345.78199 334.65549 323.06598 311.26748 299.14497 286.95547
 274.67497 262.57946 250.59596 239.90445 230.03395 221.14545 213.33494 206.34444
 200.18593 195.13143 191.72092 189.77042 188.81492 188.88641 189.72891 191.04440
 192.77690 194.87939 197.14989 199.51639 201.96888 204.45638 206.55187 208.40137
 210.03486 211.18736 211.42386 211.65935 211.60385 211.31634 210.95684 210.59434
 210.21883 209.93633 209.75182 209.62332 209.55881 209.89731 210.29081 210.68730
 211.48780 212.67329 213.93079 215.72128 217.65678 219.70728 221.80977 223.90027
 225.96776 228.05926 230.16376 232.27725 234.41375 236.59324 238.85674 241.23423
 243.86273 246.12123 248.13072 249.90322 251.32771 252.45821 253.28770 253.61120
 253.65570 253.43719 252.80469 251.76018 250.37368 248.54217 246.45867 244.29917
 242.09766 239.90916 237.73665 235.58315 233.45065 231.32514 229.35864 227.52313
 225.81363 224.29312 222.93062 221.71012 220.59961 219.56711 218.67860 217.82710
 217.07659 216.26409 215.36959 214.74108 214.19858 214.48087 214.94173 214.64664
 213.89705 213.64893 214.41685 215.72488 218.40251 222.12819 226.76309 230.80630
 233.97241 237.49605 241.41345 245.60040 249.76546 253.73329 257.40814 260.67767
 263.48544 265.90433 268.15131 270.30951 272.37051 274.09296 275.59879 276.73816
 277.72705 278.57468 279.30820 279.95224 280.50961 281.00278 281.45267 281.86026
 282.22687 282.55328 282.83847 283.20190
 366.78100 356.34273 345.78246 334.65619 323.06692 311.26865 299.14638 286.95711
 274.67684 262.58158 250.59831 239.90704 230.03677 221.14850 213.33823 206.34796
 200.18969 195.13542 191.72515 189.77488 188.81961 188.89134 189.73407 191.04980
 192.78253 194.88527 197.15600 199.52273 201.97546 204.46319 206.55892 208.40865
 210.04238 211.19511 211.43184 211.66757 211.61230 211.32503 210.96576 210.60349
 210.22822 209.94596 209.76169 209.63342 209.56915 209.90788 210.30161 210.69834
 211.49907 212.68480 213.94253 215.73326 217.66899 219.71972 221.82245 223.91318
 225.98091 228.07264 230.17738 232.29111 234.42784 236.60757 238.87130 241.24903
 243.87776 246.13649 248.14622 249.91895 251.34368 252.47441 253.30414 253.62787
 253.67260 253.45433 252.82207 251.77780 250.39153 248.56026 246.47699 244.31772
 242.11645 239.92818 237.75591 235.60264 233.47037 231.34510 229.37883 227.54356
 225.83429 224.31402 222.95176 221.73149 220.62122 219.58895 218.70068 217.84941
 217.09914 216.28687 215.39260 214.76433 214.22206 214.51297 214.99620 214.62466
 213.68687 213.57619 214.50096 215.68675 218.38440 222.06950 226.71350 230.72450
 233.88531 237.45013 241.44258 245.70158 249.88971 253.86568 257.59930 261.02121
 263.99817 266.47192 268.59610 270.83649 272.71033 274.20892 275.66885 276.83267
 277.84280 278.70865 279.45789 280.11578 280.68512 281.18884 281.64844 282.06476
 282.43921 282.77267 283.06396 283.43521
 366.78100 356.34308 345.78316 334.65725 323.06833 311.27041 299.14849 286.95958
 274.67966 262.58474 250.60182 239.91091 230.04099 221.15307 213.34315 206.35323
 200.19532 195.14140 191.73148 189.78156 188.82665 188.89873 189.74181 191.05789
 192.79098 194.89406 197.16514 199.53222 201.98531 204.47339 206.56947 208.41955
 210.05363 211.20672 211.44380 211.67988 211.62496 211.33805 210.97913 210.61721
 210.24229 209.96038 209.77646 209.64854 209.58462 209.92370 210.31779 210.71487
 211.51595 212.70203 213.96012 215.75120 217.68728 219.73836 221.84145 223.93253
 226.00061 228.09269 230.19777 232.31186 234.44894 236.62902 238.89310 241.27119
 243.90027 246.15935 248.16943 249.94252 251.36760 252.49868 253.32876 253.65285
 253.69793 253.48001 252.84809 251.80417 250.41826 248.58734 246.50442 244.34550
 242.14459 239.95667 237.78475 235.63183 233.49992 231.37500 229.40908 227.57416
 225.86524 224.34533 222.98341 221.76349 220.65357 219.62166 218.73374 217.88282
 217.13290 216.32099 215.42707 214.79915 214.25723 214.52007 215.03206 214.68066
 213.78389 213.61565 214.40714 215.59315 218.36093 222.14806 226.66872 230.68451
 233.82716 237.39856 241.39137 245.63745 249.76286 253.65598 257.33478 260.74631
 263.79858 266.39429 268.66718 270.82489 272.75507 274.25964 275.82455 277.79129
 280.10849 282.13324 283.88531 285.42377 286.75519 287.93314 289.00784 289.98145
 290.85712 291.63687 292.31805 293.18616
 366.78100 356.34400 345.78499 334.65999 323.07199 311.27498 299.15398 286.96598
 274.68697 262.59297 250.61097 239.92096 230.05196 221.16496 213.35595 206.36695
 200.20995 195.15694 191.74794 189.79894 188.84493 188.91793 189.76193 191.07892
 192.81292 194.91692 197.18891 199.55691 202.01091 204.49990 206.59690 208.44790
 210.08289 211.23689 211.47489 211.71188 211.65788 211.37188 211.01387 210.65287
 210.27887 209.99786 209.81486 209.68786 209.62485 209.96485 210.35985 210.75784
 211.55984 212.74684 214.00583 215.79783 217.73482 219.78682 221.89082 223.98281
 226.05181 228.14481 230.25080 232.36580 234.50380 236.68479 238.94979 241.32879
 243.95878 246.21878 248.22978 250.00377 251.42977 252.56177 253.39276 253.71776
 253.76376 253.54675 252.91575 251.87275 250.48774 248.65774 246.57574 244.41773
 242.21773 240.03073 237.85972 235.70772 233.57672 231.45271 229.48771 227.65371
 225.94570 224.42670 223.06570 221.84669 220.73769 219.70669 218.81968 217.96968
 217.22068 216.40967 215.51667 214.88967 214.34866 214.56088 215.01450 214.80481
 213.92183 213.64549 214.09247 215.29208 218.17566 222.19714 226.61368 230.74480
 233.87001 237.43973 241.42068 245.64452 249.74712 253.59192 257.19293 260.49487
 263.43927 266.02441 268.33533 270.52469 272.49948 274.24362 275.89954 277.38626
 279.07175 280.89038 282.52255 283.95569 285.19595 286.29327 287.29443 288.20139
 289.01709 289.74350 290.37805 291.18674
 366.78100 356.34511 345.78722 334.66333 323.07644 311.28055 299.16066 286.97378
 274.69589 262.60300 250.62211 239.93322 230.06533 221.17944 213.37155 206.38366
 200.22777 195.17588 191.76799 189.82011 188.86722 188.94133 189.78644 191.10455
 192.83966 194.94477 197.21788 199.58699 202.04210 204.53221 206.63032 208.48244
 210.11855 211.27366 211.51277 211.75088 211.69799 211.41310 211.05621 210.69632
 210.32343 210.04354 209.86165 209.73577 209.67388 210.01499 210.41110 210.81021
 211.61332 212.80143 214.06154 215.85465 217.79276 219.84587 221.95098 224.04410
 226.11421 228.20832 230.31543 232.43154 234.57065 236.75276 239.01887 241.39898
 244.03009 246.29120 248.30331 250.07843 251.50554 252.63865 253.47076 253.79687
 253.84398 253.62809 252.99820 251.95631 250.57242 248.74353 246.66264 244.50576
 242.30687 240.12098 237.95109 235.80020 233.67031 231.54742 229.58353 227.75064
 226.04375 224.52586 223.16597 221.94809 220.84020 219.81031 218.92442 218.07553
 217.32764 216.51775 215.62586 214.99997 214.46008 214.62532 214.97919 214.82042
 214.02736 213.63188 213.94804 215.24069 218.11409 222.12289 226.60193 230.78169
 233.90382 237.49316 241.48705 245.74773 249.86888 253.70801 257.27988 260.53201
 263.40329 265.91522 268.18887 270.41248 272.46661 274.22534 275.89621 277.25949
 278.59964 280.10684 281.69064 283.12503 284.36636 285.46463 286.46664 287.37439
 288.19080 288.91782 289.55292 290.36230
 366.78100 356.34483 345.78666 334.66248 323.07531 311.27914 299.15897 286.97179
 274.69362 262.60045 250.61928 239.93011 230.06193 221.17576 213.36759 206.37942
 200.22324 195.17107 191.76290 189.81473 188.86156 188.93538 189.78021 191.09804
 192.83287 194.93769 197.21052 199.57935 202.03418 204.52401 206.62183 208.47366
 210.10949 211.26432 211.50314 211.74097 211.68780 211.40263 211.04546 210.68528
 210.31211 210.03194 209.84977 209.72359 209.66142 210.00225 210.39808 210.79691
 211.59973 212.78756 214.04739 215.84022 217.77804 219.83087 221.93570 224.02853
 226.09836 228.19218 230.29901 232.41484 234.55367 236.73549 239.00132 241.38115
 244.01198 246.27281 248.28463 250.05946 251.48629 252.61912 253.45094 253.77677
 253.82360 253.60743 252.97726 251.93508 250.55091 248.72174 246.64057 244.48339
 242.28422 240.09805 237.92788 235.77671 233.64653 231.52336 229.55919 227.72602
 226.01884 224.50067 223.14050 221.92233 220.81416 219.78398 218.89781 218.04864
 217.30047 216.49029 215.59812 214.97195 214.43178 214.62367 215.02693 214.81578
 214.06848 213.50105 213.90533 215.31343 218.04836 221.97543 226.54671 230.67836
 233.82765 237.46172 241.49989 245.81361 249.95555 253.80202 257.37433 260.62231
 263.45926 265.91327 268.14844 270.37634 272.42133 274.19312 275.83008 277.21634
 278.41034 279.71429 281.16669 282.58682 283.84695 284.96185 285.97900 286.90051
 287.72928 288.46732 289.11203 289.93365
 366.78100 356.34439 345.78578 334.66117 323.07356 311.27695 299.15634 286.96874
 274.69013 262.59652 250.61491 239.92530 230.05669 221.17008 213.36147 206.37286
 200.21625 195.16364 191.75503 189.80642 188.85282 188.92621 189.77060 191.08799
 192.82238 194.92677 197.19916 199.56755 202.02194 204.51133 206.60872 208.46011
 210.09550 211.24990 211.48829 211.72568 211.67207 211.38646 211.02885 210.66824
 210.29463 210.01402 209.83141 209.70480 209.64219 209.98258 210.37798 210.77637
 211.57876 212.76615 214.02554 215.81793 217.75532 219.80771 221.91210 224.00449
 226.07388 228.16727 230.27366 232.38906 234.52745 236.70884 238.97423 241.35362
 243.98401 246.24440 248.25579 250.03018 251.45657 252.58896 253.42035 253.74574
 253.79214 253.57553 252.94492 251.90231 250.51770 248.68809 246.60648 244.44887
 242.24926 240.06265 237.89204 235.74043 233.60982 231.48622 229.52161 227.68800
 225.98039 224.46178 223.10117 221.88256 220.77395 219.74334 218.85673 218.00712
 217.25851 216.44790 215.55530 214.92869 214.38808 214.60925 215.08519 214.88885
 214.08426 213.45271 213.77452 215.18575 217.94221 221.86736 226.49696 230.55521
 233.74701 237.41751 241.50734 245.84334 250.00034 253.85396 257.42191 260.68268
 263.52780 265.97211 268.18231 270.34839 272.38193 274.14975 275.77289 277.17853
 278.37973 279.60318 280.94803 282.30048 283.56665 284.68689 285.70892 286.63483
 287.46759 288.20914 288.85696 289.68253
 366.78100 356.34487 345.78674 334.66261 323.07548 311.27935 299.15922 286.97209
 274.69396 262.60083 250.61970 239.93057 230.06244 221.17631 213.36818 206.38005
 200.22392 195.17179 191.76366 189.81553 188.86240 188.93627 189.78114 191.09901
 192.83388 194.93875 197.21163 199.58050 202.03537 204.52524 206.62311 208.47498
 210.11085 211.26572 211.50459 211.74246 211.68933 211.40420 211.04707 210.68694
 210.31381 210.03368 209.85155 209.72542 209.66329 210.00416 210.40003 210.79890
 211.60177 212.78964 214.04951 215.84238 217.78025 219.83312 221.93799 224.03086
 226.10073 228.19460 230.30147 232.41734 234.55621 236.73808 239.00395 241.38382
 244.01469 246.27556 248.28743 250.06230 251.48917 252.62204 253.45391 253.77978
 253.82665 253.61052 252.98039 251.93826 250.55414 248.72501 246.64388 244.48675
 242.28762 240.10149 237.93136 235.78023 233.65010 231.52697 229.56284 227.72971
 226.02258 224.50445 223.14432 221.92619 220.81806 219.78793 218.90180 218.05267
 217.30454 216.49441 215.60228 214.97615 214.43602 214.63902 215.09003 214.98651
 214.07944 213.44040 213.62692 214.98579 217.83806 221.82567 226.51100 230.52827
 233.72966 237.41522 241.53712 245.89194 250.04652 253.89038 257.44406 260.69998
 263.56155 266.01508 268.20734 270.31830 272.32300 274.09583 275.74820 277.17493
 278.36139 279.62302 280.90512 282.22873 283.48068 284.60596 285.63260 286.56265
 287.39914 288.14404 288.79477 289.62405
 366.78100 356.34438 345.78575 334.66113 323.07350 311.27688 299.15625 286.96863
 274.69000 262.59638 250.61475 239.92513 230.05650 221.16988 213.36125 206.37263
 200.21601 195.16338 191.75476 189.80613 188.85251 188.92588 189.77026 191.08763
 192.82201 194.92638 197.19876 199.56713 202.02151 204.51089 206.60826 208.45964
 210.09501 211.24939 211.48776 211.72514 211.67151 211.38589 211.02826 210.66764
 210.29401 210.01339 209.83076 209.70414 209.64152 209.98189 210.37727 210.77564
 211.57802 212.76539 214.02477 215.81714 217.75452 219.80689 221.91127 224.00364
 226.07302 228.16640 230.27277 232.38815 234.52652 236.70790 238.97327 241.35265
 243.98302 246.24340 248.25477 250.02915 251.45552 252.58790 253.41927 253.74465
 253.79103 253.57440 252.94378 251.90115 250.51653 248.68690 246.60528 244.44765
 242.24803 240.06140 237.89078 235.73915 233.60853 231.48491 229.52028 227.68666
 225.97903 224.46041 223.09978 221.88116 220.77253 219.74191 218.85528 218.00566
 217.25703 216.44641 215.55378 214.92716 214.38654 214.62106 215.14655 215.06165
 214.03493 213.42415 213.52232 214.79269 217.72412 221.79692 226.55328 230.55272
 233.74831 237.43816 241.57849 245.95300 250.10844 253.92805 257.45071 260.69882
 263.57312 266.04404 268.22247 270.27850 272.25247 274.03625 275.73001 277.16736
 278.31445 279.63174 280.92401 282.20148 283.42404 284.53317 285.54510 286.46185
 287.28635 288.02057 288.66196 289.47937
 366.78100 356.34371 345.78443 334.65914 323.07085 311.27357 299.15228 286.96399
 274.68471 262.59042 250.60813 239.91785 230.04856 221.16127 213.35199 206.36270
 200.20541 195.15213 191.74284 189.79355 188.83927 188.91198 189.75569 191.07241
 192.80612 194.90983 197.18155 199.54926 202.00297 204.49169 206.58840 208.43911
 210.07382 211.22754 211.46525 211.70196 211.64768 211.36139 211.00310 210.64182
 210.26753 209.98624 209.80296 209.67567 209.61238 209.95210 210.34681 210.74452
 211.54624 212.73295 213.99166 215.78338 217.72009 219.77180 221.87552 223.96723
 226.03594 228.12866 230.23437 232.34908 234.48680 236.66751 238.93222 241.31094
 243.94065 246.20036 248.21108 249.98479 251.41050 252.54222 253.37293 253.69764
 253.74336 253.52607 252.89478 251.85150 250.46621 248.63592 246.55364 244.39535
 242.19506 240.00778 237.83649 235.68420 233.55292 231.42863 229.46334 227.62906
 225.92077 224.40148 223.04019 221.82091 220.71162 219.68033 218.79305 217.94276
 217.19347 216.38219 215.48890 214.86161 214.32033 214.59033 215.20230 215.17952
 214.04955 213.37004 213.39246 214.58743 217.61099 221.76022 226.56795 230.56952
 233.76733 237.46342 241.62054 246.00394 250.14946 253.94806 257.44098 260.67538
 263.55649 266.04199 268.21063 270.23648 272.20337 273.98965 275.72589 277.15121
 278.32608 279.65295 280.90829 282.13470 283.32190 284.39633 285.37662 286.26465
 287.06335 287.77460 288.39594 289.18777
 366.78100 356.34590 345.78881 334.66571 323.07961 311.28451 299.16542 286.97932
 274.70222 262.61012 250.63003 239.94193 230.07483 221.18973 213.38264 206.39554
 200.24044 195.18934 191.78225 189.83515 188.88305 188.95795 189.80386 191.12276
 192.85866 194.96457 197.23847 199.60837 202.06427 204.55518 206.65408 208.50698
 210.14388 211.29979 211.53969 211.77859 211.72649 211.44240 211.08630 210.72720
 210.35510 210.07601 209.89491 209.76981 209.70871 210.05062 210.44752 210.84742
 211.65133 212.84023 214.10113 215.89503 217.83394 219.88784 221.99374 224.08764
 226.15855 228.25345 230.36135 232.47825 234.61816 236.80106 239.06796 241.44886
 244.08077 246.34267 248.35557 250.13147 251.55938 252.69328 253.52618 253.85309
 253.90099 253.68589 253.05679 252.01570 250.63260 248.80450 246.72440 244.56831
 242.37021 240.18511 238.01601 235.86592 233.73682 231.61472 229.65162 227.81953
 226.11343 224.59633 223.23723 222.02014 220.91304 219.88394 218.99885 218.15075
 217.40365 216.59455 215.70346 215.07836 214.53926 214.70821 215.11842 215.28026
 214.26027 213.39977 213.30743 214.47507 217.52979 221.70605 226.58041 230.54645
 233.72864 237.43672 241.61542 246.04283 250.19383 253.94264 257.38745 260.59225
 263.48361 265.99664 268.17807 270.13049 272.11346 273.96097 275.74524 277.14453
 278.31720 279.57330 280.81146 282.13037 283.32571 284.38330 285.34818 286.22229
 287.00845 287.70856 288.32013 289.09952
 366.78100 356.34924 345.79548 334.67572 323.09297 311.30121 299.18545 287.00269
 274.72893 262.64017 250.66342 239.97866 230.11490 221.23314 213.42938 206.44562
 200.29386 195.24611 191.84235 189.89859 188.94983 189.02807 189.87731 191.19956
 192.93880 195.04804 197.32528 199.69852 202.15776 204.65200 206.75425 208.61049
 210.25073 211.40997 211.65321 211.89545 211.84670 211.56594 211.21318 210.85742
 210.48866 210.21290 210.03514 209.91339 209.85563 210.20087 210.60111 211.00435
 211.81159 213.00384 214.26808 216.06532 218.00756 220.06480 222.17404 224.27128
 226.34553 228.44377 230.55501 232.67525 234.81849 237.00473 239.27498 241.65922
 244.29446 246.55970 248.57594 250.35518 251.78642 252.92367 253.75991 254.09015
 254.14139 253.92963 253.30387 252.26612 250.88636 249.06160 246.98484 244.83208
 242.63732 240.45556 238.28981 236.14305 234.01729 231.89853 229.93877 228.11001
 226.40726 224.89350 223.53774 222.32398 221.22022 220.19446 219.31270 218.46795
 217.72419 216.91843 216.03067 215.40891 214.87315 214.89780 215.02707 215.26961
 214.48132 213.52992 213.22833 214.36739 217.44995 221.62129 226.64270 230.50322
 233.70808 237.45291 241.65948 246.05046 250.19868 253.95898 257.39981 260.58566
 263.47440 265.98212 268.14056 270.11285 272.06979 273.98746 275.72595 277.12585
 278.36609 279.73318 281.27875 282.63583 283.81030 284.84940 285.79742 286.65625
 287.42868 288.11655 288.71744 289.48322
 366.78100 356.34874 345.79449 334.67423 323.09098 311.29872 299.18247 286.99921
 274.72496 262.63570 250.65845 239.97319 230.10894 221.22668 213.42243 206.43817
 200.28592 195.23766 191.83341 189.88915 188.93990 189.01764 189.86639 191.18813
 192.92688 195.03562 197.31237 199.68511 202.14386 204.63760 206.73935 208.59509
 210.23484 211.39358 211.63633 211.87807 211.82882 211.54756 211.19430 210.83805
 210.46879 210.19254 210.01428 209.89203 209.83377 210.17852 210.57826 210.98101
 211.78775 212.97950 214.24324 216.03999 217.98173 220.03848 222.14722 224.24397
 226.31771 228.41546 230.52620 232.64595 234.78869 236.97444 239.24418 241.62793
 244.26267 246.52742 248.54316 250.32191 251.75265 252.88940 253.72514 254.05489
 254.10563 253.89338 253.26712 252.22886 250.84861 249.02335 246.94610 244.79284
 242.59759 240.41533 238.24908 236.10182 233.97557 231.85631 229.89606 228.06680
 226.36355 224.84929 223.49304 222.27878 221.17453 220.14827 219.26602 218.42076
 217.67651 216.87025 215.98200 215.35974 214.82349 214.90706 215.09149 215.18129
 214.69176 213.64902 213.05310 214.09419 217.29974 221.46962 226.56042 230.44261
 233.67683 237.46469 241.71434 246.13185 250.31053 254.08652 257.51898 260.69815
 263.59628 266.14734 268.28354 270.14517 272.01559 273.99564 275.71396 277.16669
 278.51224 280.32623 281.89597 283.27429 284.46713 285.52246 286.48532 287.35757
 288.14209 288.84070 289.45099 290.22876
 366.78100 356.34684 345.79067 334.66851 323.08334 311.28918 299.17101 286.98585
 274.70968 262.61852 250.63936 239.95219 230.08603 221.20186 213.39570 206.40953
 200.25537 195.20520 191.79904 189.85288 188.90171 188.97755 189.82438 191.14422
 192.88105 194.98789 197.26272 199.63356 202.09039 204.58223 206.68207 208.53590
 210.17374 211.33057 211.57141 211.81124 211.76008 211.47691 211.12175 210.76359
 210.39242 210.11426 209.93409 209.80993 209.74976 210.09260 210.49043 210.89127
 211.69611 212.88594 214.14778 215.94261 217.88245 219.93728 222.04412 224.13895
 226.21079 228.30663 230.41546 232.53330 234.67413 236.85797 239.12580 241.50764
 244.14047 246.40331 248.41715 250.19398 251.62282 252.75765 253.59149 253.91932
 253.96816 253.75399 253.12583 252.08566 250.70350 248.87634 246.79717 244.64201
 242.44484 240.26068 238.09251 235.94335 233.81518 231.69402 229.73186 227.90069
 226.19553 224.67936 223.32120 222.10503 220.99887 219.97070 219.08654 218.23938
 217.49321 216.68505 215.79488 215.17072 214.63255 214.83759 215.18228 215.08577
 214.95074 213.88876 212.96924 213.85429 217.08495 221.33929 226.35620 230.27545
 233.54382 237.38925 241.70007 246.16724 250.37444 254.16589 257.59851 260.80328
 263.74951 266.36487 268.55069 270.34103 272.03598 273.95477 275.69052 277.17136
 278.83182 280.74426 282.39914 283.85226 285.10983 286.22244 287.23752 288.15710
 288.98419 289.72070 290.36411 291.18405
 366.78100 356.34655 345.79011 334.66766 323.08221 311.28777 299.16932 286.98388
 274.70743 262.61598 250.63654 239.94909 230.08264 221.19820 213.39175 206.40531
 200.25086 195.20041 191.79397 189.84752 188.89607 188.97163 189.81818 191.13774
 192.87429 194.98084 197.25540 199.62595 202.08250 204.57406 206.67361 208.52716
 210.16472 211.32127 211.56183 211.80138 211.74993 211.46649 211.11104 210.75259
 210.38115 210.10270 209.92226 209.79781 209.73736 210.07992 210.47747 210.87802
 211.68258 212.87213 214.13369 215.92824 217.86779 219.92235 222.02890 224.12345
 226.19501 228.29056 230.39911 232.51667 234.65722 236.84078 239.10833 241.48988
 244.12244 246.38499 248.39854 250.17510 251.60365 252.73821 253.57176 253.89931
 253.94787 253.73342 253.10497 252.06453 250.68208 248.85463 246.77519 244.61974
 242.42230 240.23785 238.06940 235.91996 233.79151 231.67006 229.70762 227.87617
 226.17073 224.65428 223.29583 222.07939 220.97294 219.94449 219.06005 218.21260
 217.46616 216.65771 215.76726 215.14282 214.60437 214.82506 215.21202 215.01041
 215.04213 214.24757 213.18686 213.80499 216.89920 221.22699 226.08858 230.05806
 233.35101 237.25374 241.62068 246.11163 250.30583 254.07895 257.52762 260.76788
 263.77298 266.45966 268.74542 270.58878 272.27521 273.87598 275.62070 277.14548
 278.89948 280.85269 282.65625 284.23993 285.61047 286.82306 287.92935 288.93158
 289.83295 290.63565 291.33685 292.23047
 366.78100 356.34737 345.79173 334.67010 323.08547 311.29184 299.17420 286.98957
 274.71394 262.62331 250.64467 239.95804 230.09241 221.20878 213.40314 206.41751
 200.26388 195.21425 191.80861 189.86298 188.91235 188.98872 189.83608 191.15645
 192.89382 195.00119 197.27655 199.64792 202.10529 204.59766 206.69802 208.55239
 210.19076 211.34813 211.58949 211.82986 211.77923 211.49660 211.14196 210.78433
 210.41370 210.13607 209.95643 209.83280 209.77317 210.11654 210.51490 210.91627
 211.72164 212.91201 214.17437 215.96974 217.91011 219.96547 222.07284 224.16821
 226.24058 228.33694 230.44631 232.56468 234.70605 236.89041 239.15878 241.54115
 244.17452 246.43788 248.45225 250.22962 251.65899 252.79435 253.62872 253.95709
 254.00646 253.79282 253.16519 252.12556 250.74393 248.91729 246.83866 244.68403
 242.48740 240.30376 238.13613 235.98750 233.85987 231.73923 229.77760 227.94697
 226.24234 224.72670 223.36907 222.15344 221.04781 220.02017 219.13654 218.28991
 217.54428 216.73664 215.84701 215.22338 214.68575 214.85271 215.18747 215.05209
 214.90048 214.39026 213.49431 213.97263 216.87680 221.12868 225.88684 229.91624
 233.20126 237.14818 241.56656 246.07553 250.24637 253.97733 257.39578 260.61996
 263.64423 266.38989 268.74139 270.68167 272.45383 274.16382 275.57672 277.26538
 278.80600 280.49680 282.15668 283.69901 285.03378 286.21469 287.29211 288.26816
 289.14603 289.92776 290.61066 291.48096
 366.78100 356.34817 345.79334 334.67251 323.08868 311.29584 299.17901 286.99518
 274.72035 262.63052 250.65269 239.96686 230.10203 221.21919 213.41436 206.42953
 200.27670 195.22787 191.82304 189.87821 188.92838 189.00555 189.85371 191.17488
 192.91305 195.02122 197.29739 199.66956 202.12773 204.62090 206.72207 208.57723
 210.21640 211.37457 211.61674 211.85791 211.80808 211.52625 211.17242 210.81558
 210.44575 210.16892 209.99009 209.86726 209.80843 210.15260 210.55177 210.95394
 211.76010 212.95127 214.21444 216.01061 217.95178 220.00795 222.11612 224.21229
 226.28546 228.38262 230.49279 232.61196 234.75413 236.93930 239.20847 241.59164
 244.22581 246.48997 248.50514 250.28331 251.71348 252.84965 253.68482 254.01399
 254.06416 253.85133 253.22449 252.18566 250.80483 248.97900 246.90117 244.74734
 242.55151 240.36868 238.20185 236.05401 233.92718 231.80735 229.84652 228.01669
 226.31286 224.79803 223.44120 222.22636 221.12153 220.09470 219.21187 218.36604
 217.62121 216.81438 215.92555 215.30272 214.76588 214.88315 215.14452 215.14166
 214.80322 214.27725 213.58441 214.05379 216.84662 221.06873 225.82576 229.85118
 233.15271 237.12729 241.59705 246.14847 250.31877 254.00887 257.37463 260.55676
 263.54745 266.28772 268.68240 270.66467 272.49951 274.30905 275.88556 277.32123
 278.87091 280.35562 281.82288 283.24161 284.51471 285.64108 286.66873 287.59970
 288.43701 289.18265 289.83401 290.66409
 366.78100 356.34854 345.79407 334.67361 323.09015 311.29768 299.18122 286.99776
 274.72329 262.63383 250.65637 239.97090 230.10644 221.22398 213.41951 206.43505
 200.28259 195.23412 191.82966 189.88520 188.93573 189.01327 189.86180 191.18334
 192.92188 195.03041 197.30695 199.67949 202.13802 204.63156 206.73310 208.58863
 210.22817 211.38671 211.62924 211.87078 211.82132 211.53985 211.18639 210.82993
 210.46046 210.18400 210.00554 209.88307 209.82461 210.16915 210.56868 210.97122
 211.77776 212.96929 214.23283 216.02937 217.97090 220.02744 222.13598 224.23251
 226.30605 228.40359 230.51412 232.63366 234.77619 236.96173 239.23127 241.61480
 244.24934 246.51388 248.52941 250.30795 251.73849 252.87502 253.71056 254.04010
 254.09063 253.87817 253.25171 252.21324 250.83278 249.00732 246.92985 244.77639
 242.58093 240.39846 238.23200 236.08454 233.95807 231.83861 229.87815 228.04868
 226.34522 224.83076 223.47429 222.25983 221.15537 220.12890 219.24644 218.40098
 217.65651 216.85005 215.96158 215.33912 214.80266 214.89102 215.10104 215.21979
 214.85204 214.05403 213.44321 213.99876 216.75674 220.99161 225.81937 229.79190
 233.16699 237.15390 241.63052 246.16856 250.34973 254.05775 257.41550 260.57007
 263.53336 266.26343 268.66440 270.70001 272.58151 274.41800 276.04309 277.53000
 278.97946 280.33267 281.54172 282.75592 283.89301 284.94757 285.90967 286.78128
 287.56522 288.26331 288.87314 289.65030
 366.78100 356.34789 345.79277 334.67166 323.08755 311.29443 299.17732 286.99321
 274.71809 262.62798 250.64987 239.96375 230.09864 221.21553 213.41041 206.42530
 200.27219 195.22307 191.81796 189.87285 188.92273 188.99962 189.84751 191.16839
 192.90628 195.01417 197.29005 199.66194 202.11983 204.61271 206.71360 208.56849
 210.20737 211.36526 211.60715 211.84803 211.79792 211.51581 211.16169 210.80458
 210.43447 210.15736 209.97824 209.85513 209.79602 210.13990 210.53879 210.94068
 211.74656 212.93745 214.20034 215.99622 217.93711 219.99300 222.10088 224.19677
 226.26966 228.36654 230.47643 232.59532 234.73720 236.92209 239.19098 241.57386
 244.20775 246.47164 248.48652 250.26441 251.69430 252.83018 253.66507 253.99396
 254.04384 253.83073 253.20362 252.16450 250.78339 248.95728 246.87916 244.72505
 242.52894 240.34582 238.17871 236.03060 233.90348 231.78337 229.82226 227.99214
 226.28803 224.77292 223.41580 222.20069 221.09558 220.06846 219.18535 218.33924
 217.59412 216.78701 215.89790 215.27478 214.73767 214.85298 215.12143 215.21313
 215.02917 213.96495 213.20001 213.83415 216.62616 220.88327 225.77167 229.65166
 233.10275 237.10858 241.61137 246.16411 250.35489 254.07742 257.44464 260.58249
 263.51169 266.21176 268.60056 270.63376 272.53033 274.41165 276.05789 277.55182
 279.01422 280.35272 281.47751 282.51547 283.54034 284.43204 285.34235 286.18912
 286.95068 287.62888 288.22134 288.97635
 366.78100 356.34689 345.79078 334.66867 323.08356 311.28945 299.17134 286.98623
 274.71012 262.61901 250.63990 239.95279 230.08668 221.20257 213.39646 206.41035
 200.25624 195.20613 191.80002 189.85391 188.90280 188.97869 189.82558 191.14547
 192.88236 194.98925 197.26414 199.63503 202.09192 204.58381 206.68370 208.53759
 210.17548 211.33237 211.57325 211.81314 211.76203 211.47892 211.12381 210.76570
 210.39459 210.11648 209.93637 209.81226 209.75215 210.09504 210.49293 210.89382
 211.69871 212.88860 214.15049 215.94538 217.88527 219.94016 222.04705 224.14194
 226.21383 228.30972 230.41861 232.53650 234.67739 236.86128 239.12917 241.51106
 244.14395 246.40684 248.42073 250.19762 251.62651 252.76140 253.59529 253.92318
 253.97207 253.75796 253.12985 252.08974 250.70763 248.88052 246.80141 244.64630
 242.44919 240.26508 238.09697 235.94786 233.81975 231.69864 229.73653 227.90542
 226.20031 224.68420 223.32609 222.10998 221.00387 219.97576 219.09165 218.24454
 217.49843 216.69032 215.80021 215.17610 214.63799 214.80315 215.18352 215.14409
 215.14215 214.16606 213.23030 213.75606 216.54643 220.80388 225.71292 229.51598
 232.99823 237.03340 241.58240 246.16566 250.36583 254.10271 257.48657 260.63364
 263.55576 266.23730 268.60928 270.63611 272.54697 274.43906 276.06442 277.54166
 278.99548 280.29782 281.41815 282.41348 283.40271 284.15643 284.95667 285.80920
 286.57645 287.25970 287.85654 288.61719
 366.78100 356.34798 345.79297 334.67195 323.08794 311.29492 299.17791 286.99389
 274.71887 262.62886 250.65084 239.96483 230.09981 221.21679 213.41178 206.42676
 200.27375 195.22473 191.81972 189.87470 188.92468 189.00167 189.84965 191.17064
 192.90862 195.01661 197.29259 199.66457 202.12256 204.61554 206.71653 208.57151
 210.21049 211.36848 211.61046 211.85145 211.80143 211.51942 211.16540 210.80838
 210.43837 210.16135 209.98234 209.85932 209.80031 210.14429 210.54327 210.94526
 211.75124 212.94223 214.20521 216.00119 217.94218 219.99816 222.10615 224.20213
 226.27512 228.37210 230.48208 232.60107 234.74305 236.92804 239.19702 241.58001
 244.21399 246.47797 248.49296 250.27094 251.70093 252.83691 253.67189 254.00088
 254.05086 253.83785 253.21083 252.17182 250.79080 248.96478 246.88677 244.73275
 242.53674 240.35372 238.18671 236.03869 233.91167 231.79166 229.83064 228.00063
 226.29661 224.78159 223.42458 222.20956 221.10455 220.07753 219.19452 218.34850
 217.60348 216.79647 215.90745 215.28444 214.74742 214.85611 215.11122 215.18178
 215.26683 214.40427 213.27393 213.62953 216.45290 220.72485 225.65514 229.35539
 232.88866 236.96158 241.54910 246.14526 250.33963 254.08388 257.48520 260.65512
 263.59485 266.29175 268.68408 270.73474 272.65604 274.53094 276.15942 277.60986
 279.01727 280.26450 281.31021 282.29010 283.25308 284.01440 284.68420 285.47617
 286.25394 286.94656 287.55164 288.32269
 366.78100 356.34950 345.79599 334.67649 323.09398 311.30248 299.18697 287.00447
 274.73096 262.64246 250.66595 239.98145 230.11794 221.23644 213.43293 206.44943
 200.29792 195.25042 191.84692 189.90341 188.95491 189.03340 189.88290 191.20539
 192.94489 195.05438 197.33188 199.70537 202.16487 204.65936 206.76186 208.61835
 210.25885 211.41834 211.66184 211.90434 211.85583 211.57533 211.22282 210.86732
 210.49881 210.22331 210.04580 209.92430 209.86679 210.21229 210.61278 211.01628
 211.82377 213.01627 214.28076 216.07826 218.02076 220.07825 222.18775 224.28524
 226.35974 228.45823 230.56973 232.69022 234.83372 237.02021 239.29071 241.67520
 244.31070 246.57619 248.59269 250.37218 251.80368 252.94118 253.77767 254.10817
 254.15966 253.94816 253.32265 252.28515 250.90564 249.08114 247.00463 244.85213
 242.65762 240.47612 238.31061 236.16411 234.03860 231.92010 229.96059 228.13209
 226.42959 224.91608 223.56058 222.34707 221.24357 220.21806 219.33656 218.49205
 217.74855 216.94304 216.05554 215.43403 214.89853 214.93790 215.03278 215.19400
 215.35524 214.54237 213.27614 213.52234 216.38034 220.65326 225.54897 229.26555
 232.77367 236.91640 241.53102 246.12271 250.30153 254.03964 257.45175 260.63626
 263.58228 266.29221 268.70660 270.77847 272.72131 274.59744 276.21381 277.65640
 279.04724 280.25620 281.25107 282.17001 283.07141 283.76749 284.47330 285.30408
 286.07602 286.76343 287.36395 288.12924
 366.78100 356.34876 345.79451 334.67427 323.09103 311.29879 299.18254 286.99930
 274.72506 262.63582 250.65857 239.97333 230.10909 221.22685 213.42260 206.43836
 200.28612 195.23788 191.83363 189.88939 188.94015 189.01790 189.86666 191.18842
 192.92718 195.03593 197.31269 199.68545 202.14421 204.63796 206.73972 208.59548
 210.23524 211.39399 211.63675 211.87851 211.82927 211.54802 211.19478 210.83854
 210.46930 210.19305 210.01481 209.89257 209.83432 210.17908 210.57884 210.98160
 211.78835 212.98011 214.24387 216.04063 217.98238 220.03914 222.14790 224.24466
 226.31841 228.41617 230.52693 232.64669 234.78944 236.97520 239.24496 241.62871
 244.26347 246.52823 248.54399 250.32274 251.75350 252.89026 253.72602 254.05577
 254.10653 253.89429 253.26805 252.22980 250.84956 249.02432 246.94708 244.79383
 242.59859 240.41635 238.25010 236.10286 233.97662 231.85738 229.89713 228.06789
 226.36465 224.85041 223.49416 222.27992 221.17568 220.14944 219.26719 218.42195
 217.67771 216.87147 215.98322 215.36098 214.82474 214.90887 215.10379 215.14330
 215.19011 214.50008 213.33577 213.56931 216.39496 220.63890 225.48695 229.28001
 232.72989 236.91602 241.54802 246.14105 250.32480 254.06473 257.48489 260.66821
 263.60608 266.32135 268.75757 270.85577 272.81204 274.68021 276.28427 277.72284
 279.06155 280.22470 281.17645 282.03448 282.84473 283.64453 284.60104 285.50967
 286.32687 287.05460 287.69034 288.50049
 366.78100 356.34754 345.79209 334.67063 323.08617 311.29272 299.17526 286.99080
 274.71535 262.62489 250.64643 239.95998 230.09452 221.21106 213.40561 206.42015
 200.26669 195.21724 191.81178 189.86632 188.91587 188.99241 189.83995 191.16050
 192.89804 195.00558 197.28113 199.65267 202.11021 204.60276 206.70330 208.55784
 210.19639 211.35393 211.59548 211.83602 211.78556 211.50311 211.14865 210.79119
 210.42074 210.14328 209.96382 209.84037 209.78091 210.12445 210.52300 210.92454
 211.73008 212.92063 214.18317 215.97871 217.91926 219.97480 222.08234 224.17789
 226.25043 228.34697 230.45652 232.57506 234.71660 236.90115 239.16969 241.55223
 244.18578 246.44932 248.46386 250.24141 251.67095 252.80649 253.64104 253.96958
 254.01912 253.80567 253.17821 252.13875 250.75730 248.93084 246.85238 244.69793
 242.50147 240.31801 238.15056 236.00210 233.87464 231.75419 229.79273 227.96227
 226.25782 224.74236 223.38490 222.16945 221.06399 220.03653 219.15308 218.30662
 217.56117 216.75371 215.86425 215.24080 214.70334 214.84708 215.17764 215.16859
 215.04250 214.43355 213.41013 213.58192 216.36743 220.61740 225.46477 229.25430
 232.69519 236.90280 241.55760 246.16508 250.35434 254.09254 257.51263 260.69238
 263.62524 266.34933 268.82684 270.97412 272.95560 274.83572 276.43607 277.84100
 279.13974 280.25528 281.14764 281.92932 282.72342 283.64420 284.62186 285.54071
 286.36710 287.10303 287.74588 288.56516
 366.78100 356.34763 345.79225 334.67088 323.08650 311.29313 299.17576 286.99138
 274.71601 262.62564 250.64726 239.96089 230.09551 221.21214 213.40677 206.42139
 200.26802 195.21865 191.81327 189.86790 188.91752 188.99415 189.84178 191.16240
 192.90003 195.00766 197.28328 199.65491 202.11253 204.60516 206.70579 208.56041
 210.19904 211.35667 211.59829 211.83892 211.78854 211.50617 211.15180 210.79442
 210.42405 210.14668 209.96730 209.84393 209.78455 210.12818 210.52681 210.92843
 211.73406 212.92469 214.18731 215.98294 217.92356 219.97919 222.08682 224.18244
 226.25507 228.35170 230.46132 232.57995 234.72157 236.90620 239.17483 241.55745
 244.19108 246.45471 248.46933 250.24696 251.67658 252.81221 253.64684 253.97546
 254.02509 253.81172 253.18434 252.14497 250.76359 248.93722 246.85885 244.70447
 242.50810 240.32473 238.15735 236.00898 233.88160 231.76123 229.79986 227.96948
 226.26511 224.74974 223.39236 222.17699 221.07161 220.04424 219.16087 218.31449
 217.56912 216.76175 215.87237 215.24900 214.71162 214.84584 215.15878 215.22023
 215.09558 214.45386 213.44896 213.52646 216.27605 220.54491 225.41135 229.16559
 232.63333 236.86481 241.54491 246.16423 250.35219 254.08411 257.49554 260.66299
 263.58530 266.30981 268.81729 271.02975 273.06216 274.96732 276.57547 277.96054
 279.21802 280.26498 281.09576 281.84155 282.63516 283.56934 284.51440 285.39719
 286.19415 286.90387 287.52386 288.31396
 366.78100 356.34809 345.79318 334.67227 323.08836 311.29545 299.17854 286.99463
 274.71972 262.62981 250.65190 239.96599 230.10108 221.21817 213.41326 206.42835
 200.27544 195.22653 191.82162 189.87671 188.92680 189.00389 189.85198 191.17307
 192.91116 195.01925 197.29534 199.66743 202.12552 204.61861 206.71970 208.57479
 210.21388 211.37197 211.61406 211.85515 211.80524 211.52333 211.16942 210.81251
 210.44260 210.16569 209.98678 209.86387 209.80496 210.14905 210.54814 210.95024
 211.75633 212.94742 214.21051 216.00660 217.94769 220.00378 222.11187 224.20796
 226.28105 228.37814 230.48823 232.60732 234.74941 236.93450 239.20359 241.58668
 244.22077 246.48486 248.49995 250.27804 251.70813 252.84422 253.67931 254.00840
 254.05849 253.84558 253.21867 252.17976 250.79885 248.97294 246.89503 244.74112
 242.54521 240.36230 238.19539 236.04748 233.92057 231.80066 229.83975 228.00984
 226.30593 224.79102 223.43411 222.21920 221.11429 220.08738 219.20447 218.35856
 217.61365 216.80674 215.91783 215.29492 214.75801 214.86630 215.12122 215.25124
 215.11450 214.49838 213.51521 213.51451 216.20509 220.46492 225.32608 229.05591
 232.55876 236.82414 241.53389 246.16501 250.35738 254.09258 257.50330 260.66016
 263.56488 266.27631 268.79956 271.05740 273.13718 275.06421 276.66461 278.01801
 279.23154 280.21564 280.99796 281.71216 282.47116 283.31711 284.16660 284.91409
 285.56717 286.14871 286.65677 287.30420
 366.78100 356.34823 345.79345 334.67268 323.08890 311.29613 299.17936 286.99558
 274.72081 262.63104 250.65326 239.96749 230.10271 221.21994 213.41517 206.43039
 200.27762 195.22885 191.82407 189.87930 188.92952 189.00675 189.85498 191.17620
 192.91443 195.02266 197.29888 199.67111 202.12933 204.62256 206.72379 208.57901
 210.21824 211.37647 211.61869 211.85992 211.81014 211.52837 211.17460 210.81782
 210.44805 210.17127 209.99250 209.86973 209.81095 210.15518 210.55441 210.95663
 211.76286 212.95408 214.21731 216.01354 217.95476 220.01099 222.11922 224.21544
 226.28867 228.38589 230.49612 232.61535 234.75757 236.94280 239.21203 241.59525
 244.22948 246.49370 248.50893 250.28716 251.71738 252.85361 253.68884 254.01806
 254.06829 253.85551 253.22874 252.18997 250.80919 248.98342 246.90564 244.75187
 242.55610 240.37332 238.20655 236.05878 233.93200 231.81223 229.85145 228.02168
 226.31791 224.80313 223.44636 222.23159 221.12681 220.10004 219.21726 218.37149
 217.62672 216.81994 215.93117 215.30840 214.77162 214.87047 215.10461 215.30418
 215.03886 214.46292 213.62755 213.57082 216.17654 220.40422 225.23804 228.93967
 232.48264 236.78448 241.52307 246.16266 250.35719 254.09764 257.51254 260.66586
 263.56235 266.26999 268.81766 271.13049 273.26190 275.22311 276.84155 278.17111
 279.34332 280.29282 281.06259 281.75220 282.45685 283.23953 284.02667 284.78519
 285.47394 286.08731 286.62311 287.30594
 366.78100 356.34801 345.79302 334.67202 323.08803 311.29504 299.17805 286.99406
 274.71907 262.62907 250.65108 239.96509 230.10010 221.21711 213.41212 206.42712
 200.27413 195.22514 191.82015 189.87516 188.92517 189.00217 189.85018 191.17119
 192.90920 195.01721 197.29322 199.66522 202.12323 204.61624 206.71725 208.57226
 210.21127 211.36927 211.61128 211.85229 211.80230 211.52031 211.16632 210.80932
 210.43933 210.16234 209.98335 209.86036 209.80137 210.14537 210.54438 210.94639
 211.75240 212.94341 214.20642 216.00242 217.94343 219.99944 222.10745 224.20346
 226.27647 228.37347 230.48348 232.60249 234.74450 236.92951 239.19852 241.58152
 244.21553 246.47954 248.49455 250.27256 251.70257 252.83857 253.67358 254.00259
 254.05260 253.83961 253.21262 252.17362 250.79263 248.96664 246.88865 244.73466
 242.53867 240.35567 238.18868 236.04069 233.91370 231.79371 229.83272 228.00272
 226.29873 224.78374 223.42675 222.21176 221.10677 220.07977 219.19678 218.35079
 217.60580 216.79881 215.90982 215.28682 214.74983 214.85652 215.10867 215.31142
 215.08331 214.38792 213.65775 213.59401 216.17174 220.37784 225.19786 228.84389
 232.41722 236.74388 241.50868 246.14394 250.32195 254.04832 257.45367 260.60068
 263.49112 266.20105 268.78336 271.16800 273.37070 275.39099 277.06354 278.41119
 279.57303 280.52307 281.29309 282.01239 282.70370 283.38815 284.14139 284.86310
 285.50659 286.07404 286.56973 287.20148
 366.78100 356.34742 345.79183 334.67025 323.08567 311.29208 299.17450 286.98992
 274.71434 262.62375 250.64517 239.95859 230.09300 221.20942 213.40384 206.41825
 200.26467 195.21509 191.80950 189.86392 188.91334 188.98975 189.83717 191.15759
 192.89501 195.00242 197.27784 199.64926 202.10667 204.59909 206.69951 208.55392
 210.19234 211.34976 211.59117 211.83159 211.78101 211.49842 211.14384 210.78626
 210.41568 210.13809 209.95851 209.83493 209.77534 210.11876 210.51718 210.91859
 211.72401 212.91443 214.17684 215.97226 217.91268 219.96810 222.07551 224.17093
 226.24335 228.33976 230.44918 232.56760 234.70901 236.89343 239.16185 241.54426
 244.17768 246.44110 248.45551 250.23293 251.66235 252.79777 253.63218 253.96060
 254.01002 253.79643 253.16885 252.12927 250.74768 248.92110 246.84252 244.68793
 242.49135 240.30777 238.14019 235.99160 233.86402 231.74344 229.78185 227.95127
 226.24669 224.73110 223.37352 222.15794 221.05235 220.02477 219.14119 218.29460
 217.54902 216.74144 215.85186 215.22827 214.69069 214.82744 215.15051 215.23012
 215.22220 214.33083 213.51816 213.53206 216.18845 220.40752 225.21797 228.82718
 232.39871 236.72432 241.50961 246.13960 250.29768 254.00095 257.38486 260.51215
 263.37854 266.07001 268.66205 271.10831 273.38525 275.46317 277.17685 278.54630
 279.69928 280.64240 281.43634 282.20096 282.90207 283.55902 284.31256 285.05133
 285.65561 286.16986 286.61911 287.19162
 366.78100 356.34679 345.79058 334.66837 323.08316 311.28895 299.17074 286.98553
 274.70932 262.61811 250.63890 239.95169 230.08548 221.20127 213.39507 206.40886
 200.25465 195.20444 191.79823 189.85202 188.90081 188.97660 189.82339 191.14318
 192.87997 194.98676 197.26155 199.63234 202.08913 204.58092 206.68071 208.53450
 210.17229 211.32908 211.56987 211.80966 211.75845 211.47524 211.12003 210.76182
 210.39061 210.11240 209.93220 209.80799 209.74778 210.09057 210.48836 210.88915
 211.69394 212.88373 214.14552 215.94031 217.88010 219.93489 222.04168 224.13647
 226.20826 228.30405 230.41284 232.53063 234.67142 236.85521 239.12300 241.50479
 244.13758 246.40037 248.41416 250.19095 251.61974 252.75454 253.58833 253.91612
 253.96491 253.75070 253.12249 252.08228 250.70007 248.87286 246.79365 244.63844
 242.44123 240.25702 238.08881 235.93960 233.81139 231.69018 229.72797 227.89676
 226.19155 224.67534 223.31713 222.10092 220.99471 219.96650 219.08229 218.23508
 217.48888 216.68067 215.79046 215.16625 214.62804 214.79898 215.20285 215.15755
 215.29095 214.32832 213.32204 213.41212 216.20050 220.44234 225.24568 228.89394
 232.41559 236.72559 241.51932 246.15265 250.30678 254.00368 257.37509 260.48425
 263.32208 265.98166 268.56055 271.04037 273.37936 275.50159 277.23517 278.61200
 279.74689 280.68011 281.50644 282.26727 282.91470 283.60242 284.41199 285.16394
 285.75470 286.24496 286.67255 287.21744
 366.78100 356.34625 345.78950 334.66676 323.08101 311.28626 299.16751 286.98176
 274.70501 262.61327 250.63352 239.94577 230.07902 221.19427 213.38752 206.40078
 200.24603 195.19528 191.78853 189.84178 188.89003 188.96529 189.81154 191.13079
 192.86704 194.97329 197.24754 199.61780 202.07405 204.56530 206.66455 208.51780
 210.15506 211.31131 211.55156 211.79081 211.73906 211.45531 211.09957 210.74082
 210.36907 210.09032 209.90957 209.78482 209.72408 210.06633 210.46358 210.86383
 211.66808 212.85733 214.11859 215.91284 217.85209 219.90634 222.01259 224.10685
 226.17810 228.27335 230.38160 232.49885 234.63910 236.82236 239.08961 241.47086
 244.10311 246.36536 248.37861 250.15487 251.58312 252.71737 253.55062 253.87787
 253.92612 253.71138 253.08263 252.04188 250.65913 248.83138 246.75163 244.59589
 242.39814 240.21339 238.04464 235.89489 233.76615 231.64440 229.68165 227.84990
 226.14415 224.62740 223.26866 222.05191 220.94516 219.91641 219.03166 218.18391
 217.43717 216.62842 215.73767 215.11292 214.57417 214.77399 215.24606 215.14297
 215.23166 214.37328 213.22351 213.30846 216.17439 220.44102 225.22510 228.92645
 232.42622 236.72308 241.51663 246.14890 250.30382 254.00517 257.37961 260.48550
 263.30997 265.94608 268.50226 271.00192 273.39484 275.56271 277.32117 278.70279
 279.82584 280.77744 281.62991 282.31958 282.87692 283.53616 284.33926 285.09586
 285.69214 286.16296 286.57370 287.09711
 366.78100 356.34592 345.78883 334.66575 323.07966 311.28458 299.16550 286.97941
 274.70233 262.61024 250.63016 239.94207 230.07499 221.18991 213.38282 206.39574
 200.24065 195.18957 191.78249 189.83540 188.88332 188.95823 189.80415 191.12307
 192.85898 194.96490 197.23881 199.60873 202.06464 204.55556 206.65448 208.50739
 210.14431 211.30022 211.54014 211.77906 211.72697 211.44289 211.08680 210.72772
 210.35564 210.07655 209.89547 209.77038 209.70930 210.05121 210.44813 210.84805
 211.65196 212.84088 214.10179 215.89571 217.83463 219.88854 221.99446 224.08837
 226.15929 228.25421 230.36212 232.47904 234.61895 236.80187 239.06878 241.44970
 244.08162 246.34353 248.35645 250.13236 251.56028 252.69420 253.52711 253.85403
 253.90194 253.68686 253.05778 252.01669 250.63361 248.80552 246.72544 244.56935
 242.37127 240.18619 238.01710 235.86702 233.73793 231.61585 229.65277 227.82068
 226.11460 224.59751 223.23843 222.02135 220.91426 219.88518 219.00009 218.15201
 217.40492 216.59584 215.70476 215.07967 214.54059 214.75673 215.26740 215.18169
 215.10638 214.38371 213.25479 213.26758 216.13786 220.40523 225.17586 228.90956
 232.41615 236.71036 241.49994 246.12276 250.27324 253.98190 257.36664 260.47571
 263.29440 265.91440 268.44955 270.96530 273.41025 275.62833 277.41473 278.80334
 279.93884 280.92941 281.77405 282.38336 282.85330 283.41397 284.19141 284.94952
 285.55673 286.01456 286.40836 286.91019
 366.78100 356.34588 345.78877 334.66565 323.07953 311.28442 299.16530 286.97918
 274.70207 262.60995 250.62983 239.94172 230.07460 221.18948 213.38237 206.39525
 200.24013 195.18901 191.78190 189.83478 188.88266 188.95755 189.80343 191.12231
 192.85820 194.96408 197.23796 199.60785 202.06373 204.55461 206.65350 208.50638
 210.14326 211.29915 211.53903 211.77791 211.72580 211.44168 211.08556 210.72645
 210.35433 210.07521 209.89410 209.76898 209.70786 210.04975 210.44663 210.84651
 211.65040 212.83928 214.10016 215.89404 217.83293 219.88681 221.99269 224.08658
 226.15746 228.25234 230.36023 232.47711 234.61699 236.79988 239.06676 241.44764
 244.07953 246.34141 248.35429 250.13018 251.55806 252.69194 253.52483 253.85171
 253.89959 253.68448 253.05536 252.01424 250.63113 248.80301 246.72289 244.56678
 242.36866 240.18354 238.01442 235.86431 233.73519 231.61307 229.64996 227.81784
 226.11172 224.59461 223.23549 222.01837 220.91126 219.88214 218.99702 218.14891
 217.40179 216.59267 215.70156 215.07644 214.53732 214.75447 215.26752 215.23068
 215.03697 214.30371 213.28760 213.29881 216.10406 220.38205 225.11630 228.87299
 232.40147 236.69856 241.48158 246.09384 250.24178 253.96051 257.35602 260.46747
 263.28116 265.88599 268.39795 270.92490 273.41684 275.67911 277.48947 278.89026
 280.05673 281.07816 281.89368 282.44342 282.84683 283.32132 284.11270 284.87378
 285.49500 285.96927 286.36920 286.87885
 366.78100 356.34572 345.78844 334.66516 323.07888 311.28360 299.16432 286.97804
 274.70076 262.60848 250.62820 239.93991 230.07263 221.18735 213.38007 206.39279
 200.23751 195.18623 191.77895 189.83167 188.87939 188.95411 189.79983 191.11855
 192.85427 194.95999 197.23371 199.60343 202.05915 204.54987 206.64859 208.50130
 210.13802 211.29374 211.53346 211.77218 211.71990 211.43562 211.07934 210.72006
 210.34778 210.06850 209.88722 209.76194 209.70066 210.04238 210.43910 210.83882
 211.64254 212.83126 214.09198 215.88569 217.82441 219.87813 221.98385 224.07757
 226.14829 228.24301 230.35073 232.46745 234.60717 236.78989 239.05661 241.43733
 244.06905 246.33077 248.34349 250.11921 251.54693 252.68065 253.51337 253.84008
 253.88780 253.67252 253.04324 252.00196 250.61868 248.79040 246.71012 244.55384
 242.35556 240.17028 238.00100 235.85072 233.72144 231.59916 229.63588 227.80360
 226.09732 224.58004 223.22076 222.00347 220.89619 219.86691 218.98163 218.13335
 217.38607 216.57679 215.68551 215.06023 214.52095 214.74675 215.28026 215.24596
 215.03336 214.20345 213.27377 213.29131 216.07732 220.32941 225.06659 228.86148
 232.40414 236.70047 241.47339 246.07442 250.22307 253.95248 257.35635 260.46848
 263.27515 265.86444 268.35419 270.88483 273.41635 275.72192 277.55936 278.98413
 280.19495 281.23892 282.01633 282.52148 282.90790 283.31442 284.09628 284.85980
 285.49072 285.96399 286.35129 286.84488
 366.78100 356.34502 345.78703 334.66305 323.07607 311.28008 299.16010 286.97312
 274.69513 262.60215 250.62117 239.93218 230.06420 221.17822 213.37023 206.38225
 200.22627 195.17428 191.76630 189.81832 188.86533 188.93935 189.78437 191.10238
 192.83740 194.94242 197.21543 199.58445 202.03947 204.52948 206.62750 208.47952
 210.11553 211.27055 211.50957 211.74758 211.69460 211.40962 211.05263 210.69265
 210.31967 210.03968 209.85770 209.73172 209.66973 210.01075 210.40677 210.80578
 211.60880 212.79682 214.05683 215.84985 217.78787 219.84088 221.94590 224.03892
 226.10893 228.20295 230.30997 232.42598 234.56500 236.74702 239.01303 241.39305
 244.02407 246.28508 248.29710 250.07212 251.49913 252.63215 253.46417 253.79018
 253.83720 253.62122 252.99123 251.94925 250.56527 248.73628 246.65530 244.49832
 242.29933 240.11335 237.94337 235.79238 233.66240 231.53942 229.57543 227.74245
 226.03547 224.51748 223.15750 221.93952 220.83153 219.80155 218.91557 218.06658
 217.31860 216.50862 215.61663 214.99065 214.45067 214.71149 215.32771 215.23378
 215.03391 214.13197 213.21016 213.25343 216.05673 220.28481 225.03925 228.87143
 232.42215 236.70810 241.46458 246.05974 250.20969 253.94528 257.35257 260.46378
 263.26614 265.84525 268.31653 270.84818 273.41833 275.77032 277.63651 279.09659
 280.35110 281.39389 282.12466 282.60373 283.00293 283.39316 284.10699 284.86319
 285.49652 285.97397 286.35947 286.85077
 366.78100 356.34423 345.78546 334.66068 323.07291 311.27614 299.15537 286.96759
 274.68882 262.59505 250.61328 239.92351 230.05473 221.16796 213.35919 206.37042
 200.21364 195.16087 191.75210 189.80333 188.84956 188.92278 189.76701 191.08424
 192.81847 194.92270 197.19492 199.56315 202.01738 204.50661 206.60383 208.45506
 210.09029 211.24452 211.48275 211.71997 211.66620 211.38043 211.02266 210.66188
 210.28811 210.00734 209.82457 209.69780 209.63502 209.97525 210.37048 210.76871
 211.57093 212.75816 214.01739 215.80962 217.74685 219.79907 221.90330 223.99553
 226.06476 228.15798 230.26421 232.37944 234.51767 236.69890 238.96412 241.34335
 243.97358 246.23381 248.24504 250.01926 251.44549 252.57772 253.40895 253.73417
 253.78040 253.56363 252.93286 251.89009 250.50531 248.67554 246.59377 244.43600
 242.23622 240.04945 237.87868 235.72691 233.59614 231.47236 229.50759 227.67382
 225.96605 224.44727 223.08650 221.86773 220.75896 219.72819 218.84141 217.99164
 217.24287 216.43210 215.53932 214.91255 214.37178 214.67093 215.37773 215.24896
 214.98959 214.08293 213.14238 213.20050 216.03682 220.23656 225.00352 228.88673
 232.44864 236.72287 241.45541 246.04178 250.18436 253.92204 257.33563 260.45245
 263.25598 265.83008 268.29486 270.83008 273.43042 275.81760 277.72516 279.22665
 280.51129 281.53943 282.23764 282.69833 283.09637 283.51907 284.20831 284.95432
 285.57895 286.06992 286.47800 286.99808
 366.78100 356.34417 345.78534 334.66051 323.07268 311.27585 299.15502 286.96719
 274.68836 262.59453 250.61270 239.92287 230.05404 221.16721 213.35838 206.36955
 200.21271 195.15988 191.75105 189.80222 188.84839 188.92156 189.76573 191.08290
 192.81707 194.92124 197.19341 199.56158 202.01575 204.50492 206.60209 208.45326
 210.08843 211.24260 211.48077 211.71794 211.66411 211.37828 211.02045 210.65962
 210.28579 210.00496 209.82213 209.69530 209.63247 209.97264 210.36780 210.76597
 211.56814 212.75531 214.01448 215.80665 217.74382 219.79599 221.90016 223.99233
 226.06150 228.15467 230.26084 232.37601 234.51418 236.69535 238.96052 241.33969
 243.96986 246.23003 248.24120 250.01537 251.44154 252.57371 253.40488 253.73005
 253.77622 253.55939 252.92856 251.88573 250.50089 248.67106 246.58923 244.43140
 242.23157 240.04474 237.87391 235.72208 233.59125 231.46742 229.50259 227.66876
 225.96093 224.44210 223.08127 221.86244 220.75361 219.72278 218.83595 217.98612
 217.23729 216.42646 215.53363 214.90680 214.36597 214.66476 215.37068 215.32411
 214.94571 214.02199 213.04337 213.12970 215.99553 220.20068 224.99048 228.90675
 232.47594 236.73224 241.44711 246.02487 250.16962 253.91446 257.33127 260.44620
 263.24646 265.81308 268.26581 270.79608 273.43228 275.89325 277.84045 279.38647
 280.69284 281.69711 282.37497 282.83591 283.23376 283.64581 284.22101 284.88690
 285.49069 286.00845 286.42957 286.96619
 366.78100 356.34398 345.78496 334.65994 323.07193 311.27491 299.15389 286.96587
 274.68685 262.59283 250.61082 239.92080 230.05178 221.16476 213.35574 206.36672
 200.20970 195.15669 191.74767 189.79865 188.84463 188.91761 189.76159 191.07858
 192.81256 194.91654 197.18852 199.55650 202.01048 204.49946 206.59645 208.44743
 210.08241 211.23639 211.47437 211.71135 211.65733 211.37132 211.01330 210.65228
 210.27826 209.99724 209.81422 209.68721 209.62419 209.96417 210.35915 210.75713
 211.55911 212.74609 214.00508 215.79706 217.73404 219.78602 221.89000 223.98198
 226.05097 228.14395 230.24993 232.36491 234.50289 236.68387 238.94885 241.32784
 243.95782 246.21780 248.22878 250.00276 251.42874 252.56073 253.39171 253.71669
 253.76267 253.54565 252.91463 251.87161 250.48660 248.65658 246.57456 244.41654
 242.21652 240.02950 237.85849 235.70647 233.57545 231.45143 229.48641 227.65239
 225.94437 224.42536 223.06434 221.84532 220.73630 219.70528 218.81826 217.96825
 217.21923 216.40821 215.51519 214.88817 214.34715 214.65562 215.38443 215.35159
 214.99010 213.93625 212.90770 213.03578 215.96848 220.13902 224.92186 228.92334
 232.52022 236.77435 241.46161 246.04031 250.17033 253.90547 257.32059 260.44226
 263.24762 265.82111 268.29453 270.85727 273.50003 275.93246 277.87799 279.43536
 280.72287 281.68411 282.32855 282.80280 283.31302 283.90372 284.65515 285.40259
 286.02167 286.43826 286.79901 287.25876
 354.97500 345.04800 334.58700 324.11500 313.32600 302.53700 291.65000 280.76700
 269.93100 259.19300 248.62200 238.61700 229.08700 220.35500 212.54000 205.53500
 199.46400 194.49300 191.14300 189.19000 188.08900 188.01400 188.72400 189.90600
 191.46900 193.38200 195.40300 197.55600 199.80700 202.06000 204.28800 206.47900
 208.55200 210.37800 212.02500 213.65900 214.99800 216.11800 217.17200 218.25900
 219.49400 220.64500 221.67900 222.61400 223.54500 224.98200 226.57100 228.19000
 229.79700 231.81100 233.86500 235.97200 238.24200 240.55300 242.89900 245.25300
 247.48800 249.53500 251.36600 252.84800 254.09800 255.16700 256.02700 256.25300
 256.09500 255.54300 253.93500 252.56600 251.38400 250.24500 249.05200 247.70100
 246.01600 243.99600 241.78400 239.39300 236.81300 234.22300 231.65800 229.14400
 226.74000 224.47300 222.33500 220.32500 218.44000 216.67700 214.96200 213.47200
 212.20000 211.10800 210.26000 209.63900 209.24400 209.03100 209.05800 209.33300
 209.78400 210.62600 211.33100 212.39100 213.62500 214.84668 217.72949 219.47640
 220.32566 220.86828 220.88710 220.27371 219.43733 218.84250 219.04934 220.86203
 222.60583 225.72206 229.03064 232.61777 236.12270 239.51333 242.70767 245.68587
 248.41061 250.90679 253.19353 254.91714 256.48655 257.94920 259.39966 260.69384
 261.81714 262.77997 263.71679 264.54570 265.26305 265.89772 266.47676 267.00133
 267.47312 267.89325 268.26027 268.72800
