|-------------------------------------------------------------------------|
|   File Name : in_temp.dat
|   Subject   : temperature profiles used for initial guess atmosphere
|   File Type : input of gmtr
|   Data Type : atmospherical data
|   Author/s  : WRF-Chem
|   Date      : Fri Jul 26 15:39:24 2024
|-------------------------------------------------------------------------|

 WRF-Chem temperature
#
 values of T (K)    (8f10.5)
#
 354.97500 345.04800 334.58700 324.11500 313.32600 302.53700 291.65000 280.76700
 269.93100 259.19300 248.62200 238.61700 229.08700 220.35500 212.54000 205.53500
 199.46400 194.49300 191.14300 189.19000 188.08900 188.01400 188.72400 189.90600
 191.46900 193.38200 195.40300 197.55600 199.80700 202.06000 204.28800 206.47900
 208.55200 210.37800 212.02500 213.65900 214.99800 216.11800 217.17200 218.25900
 219.49400 220.64500 221.67900 222.61400 223.54500 224.98200 226.57100 228.19000
 229.79700 231.81100 233.86500 235.97200 238.24200 240.55300 242.89900 245.25300
 247.48800 249.53500 251.36600 252.84800 254.09800 255.16700 256.02700 256.25300
 256.09500 255.54300 253.93500 252.56600 251.38400 250.24500 249.05200 247.70100
 246.01600 243.99600 241.78400 239.39300 236.81300 234.22300 231.65800 229.14400
 226.74000 224.47300 222.33500 220.32500 218.44000 216.67700 214.96200 213.47200
 212.20000 211.10800 210.26000 209.63900 209.24400 209.03100 209.05800 209.33300
 209.78400 210.62600 211.33100 212.39100 213.62500 214.84668 217.72949 219.47640
 220.32566 220.86828 220.88710 220.27371 219.43733 218.84250 219.04934 220.86203
 222.60583 225.72206 229.03064 232.61777 236.12270 239.51333 242.70767 245.68587
 248.41061 250.90679 253.19353 254.91714 256.48655 257.94920 259.39966 260.69384
 261.81714 262.77997 263.71679 264.54570 265.26305 265.89772 266.47676 267.00133
 267.47312 267.89325 268.26027 268.72800
 366.78100 356.33500 345.76700 334.63300 323.03600 311.23000 299.10000 286.90300
 274.61500 262.51200 250.52100 239.82200 229.94400 221.04800 213.23000 206.23200
 200.06600 195.00400 191.58600 189.62800 188.66500 188.72900 189.56400 190.87200
 192.59700 194.69200 196.95500 199.31400 201.75900 204.23900 206.32700 208.16900
 209.79500 210.94000 211.16900 211.39700 211.33400 211.03900 210.67200 210.30200
 209.91900 209.62900 209.43700 209.30100 209.22900 209.56000 209.94600 210.33500
 211.12800 212.30600 213.55600 215.33900 217.26700 219.31000 221.40500 223.48800
 225.54800 227.63200 229.72900 231.83500 233.96400 236.13600 238.39200 240.76200
 243.38300 245.63400 247.63600 249.40100 250.81800 251.94100 252.76300 253.07900
 253.11600 252.89000 252.25000 251.19800 249.80400 247.96500 245.87400 243.70700
 241.49800 239.30200 237.12200 234.96100 232.82100 230.68800 228.71400 226.87100
 225.15400 223.62600 222.25600 221.02800 219.91000 218.87000 217.97400 217.11500
 216.35700 215.53700 214.63500 213.99900 213.44900 212.85855 212.01316 212.61654
 214.26826 216.08686 218.14273 220.53346 223.40855 226.78828 231.49734 235.90155
 239.42278 243.28576 247.23140 251.11907 254.80144 258.23331 261.38913 264.27520
 266.89312 269.26852 271.44504 273.08845 274.58484 275.98591 277.39845 278.65879
 279.75272 280.69038 281.56708 282.34086 283.01050 283.60295 284.14348 284.63317
 285.07358 285.46577 285.80838 286.24500
 381.81900 372.39900 361.20600 349.77600 337.62200 324.85300 311.81000 298.35300
 284.86000 271.32400 258.56100 246.30400 236.08700 226.79600 218.44800 211.29000
 205.52200 200.89400 197.38100 194.84800 193.01500 192.31500 192.25000 192.43100
 192.91200 193.53700 194.13600 194.71200 195.26200 195.83100 196.39300 196.97600
 197.60400 198.14900 198.58400 199.05700 199.69500 200.37800 201.05400 201.70800
 202.31300 202.85700 203.35500 203.86200 204.56900 205.29700 206.02600 206.98700
 208.19300 209.44100 210.96900 212.57600 214.46200 216.51300 218.63000 220.85300
 223.34100 225.96200 228.73900 231.69700 234.70600 237.70600 240.69200 243.65700
 246.73700 249.69900 252.52100 255.06300 257.29000 259.23300 260.63300 261.68000
 262.46100 262.79800 262.69100 262.22400 261.06900 259.52500 257.70700 255.50700
 253.00100 250.30200 247.39800 244.45200 241.65400 239.05400 236.73300 234.59000
 232.59500 230.72500 228.83400 226.82600 224.66600 222.38700 220.10400 217.71500
 215.45900 213.06600 210.54600 208.09300 205.35400 202.08130 196.05959 200.71215
 209.01611 216.90438 223.84126 229.78593 235.00632 240.20838 245.98943 250.68668
 254.32982 257.93487 261.55666 264.96801 268.15192 271.06452 273.76717 276.25691
 278.57680 280.74479 282.77456 284.60533 286.27232 287.81705 289.31715 290.65561
 291.81734 292.81312 293.70701 294.49387 295.17482 295.77730 296.32696 296.82492
 297.27278 297.67160 298.02000 298.46400
 399.33000 389.90700 379.81300 368.66800 357.52200 345.30100 333.07400 320.22700
 307.21600 293.84800 280.37600 267.29600 254.61000 242.98700 232.15100 221.97700
 212.67200 204.28600 197.66900 192.82100 189.48600 187.45200 186.81400 187.08900
 187.78100 189.05400 190.64800 192.54200 194.63000 196.75200 198.67100 200.15800
 201.53500 202.48700 202.97500 203.34000 203.53900 203.49700 203.38500 203.24700
 203.00500 202.78600 202.60300 202.43700 202.42600 202.88800 203.42000 203.95100
 204.89500 205.99200 207.30100 208.95800 210.73800 213.10000 215.56400 218.18000
 220.96600 223.91800 226.96100 230.09200 233.29300 236.55700 239.95500 243.53700
 246.84500 249.39000 251.54200 253.47400 255.19500 256.48400 257.43100 258.05900
 258.21200 258.04000 257.58200 256.64300 255.23900 253.50700 251.40800 249.05600
 246.57600 243.99400 241.38900 238.83000 236.34400 233.98600 231.96900 230.11800
 228.42300 226.89900 225.54800 224.29700 223.10500 221.96500 220.95800 220.11300
 219.49000 218.92000 218.32500 217.88100 217.42300 216.96366 216.35568 216.80261
 217.73415 218.28582 218.64258 219.10077 220.44626 222.53987 226.38451 230.35736
 233.59734 237.39164 241.29814 245.22796 248.98002 252.51130 255.78595 258.80109
 261.54781 264.05210 266.34239 268.04198 269.58951 271.01303 272.35754 273.55718
 274.59842 275.49092 276.28989 276.99307 277.60161 278.14001 278.63122 279.07623
 279.47646 279.83287 280.14422 280.54100
 399.73800 389.78500 379.66200 368.15100 356.64100 344.35000 331.79200 318.88800
 305.72600 292.49300 279.20900 266.73800 254.69600 244.21100 234.45700 225.43300
 217.56900 210.45100 204.30000 199.30600 195.45800 192.57600 191.02700 190.38600
 190.23900 190.53400 191.16600 191.92500 192.79500 193.76600 194.73200 195.31200
 195.80000 196.05200 196.11500 196.11500 196.03900 195.72300 195.34000 194.98900
 194.75100 194.79200 195.13300 195.59800 196.50600 198.13600 199.85800 201.56600
 204.17900 206.82300 209.89300 213.28400 216.82800 220.60500 224.38700 228.20900
 232.03200 235.82500 239.56000 243.25800 246.84500 250.20100 253.70900 257.46800
 261.53000 264.22100 266.60100 268.68100 270.32900 271.74100 272.83600 273.47400
 273.89800 274.00200 273.75700 273.28800 272.37100 271.10000 269.58900 267.77900
 265.81600 263.72100 261.39300 258.91600 256.29800 253.42300 250.33100 247.11400
 243.83700 240.52900 237.24900 233.99900 230.72800 227.51500 224.25400 220.95200
 217.62700 213.65600 210.12100 206.78900 204.01000 201.99491 199.07309 198.76551
 199.40006 200.48994 201.46112 202.31912 203.45100 204.96110 207.47502 210.85391
 213.70530 217.29629 220.99574 224.72316 228.28753 231.64854 234.68024 237.40893
 239.70644 241.60899 243.46854 245.67368 247.68154 249.52395 251.24767 252.78566
 254.12057 255.26479 256.23740 257.09036 257.82852 258.48160 259.07744 259.61723
 260.10271 260.53504 260.91270 261.39400
 399.73800 389.78500 379.66200 368.15100 356.64100 344.35000 331.79200 318.88800
 305.72600 292.49300 279.20900 266.73800 254.69600 244.21100 234.45700 225.43300
 217.56900 210.45100 204.30000 199.30600 195.45800 192.57600 191.02700 190.38600
 190.23900 190.53400 191.16600 191.92500 192.79500 193.76600 194.73200 195.31200
 195.80000 196.05200 196.11500 196.11500 196.03900 195.72300 195.34000 194.98900
 194.75100 194.79200 195.13300 195.59800 196.50600 198.13600 199.85800 201.56600
 204.17900 206.82300 209.89300 213.28400 216.82800 220.60500 224.38700 228.20900
 232.03200 235.82500 239.56000 243.25800 246.84500 250.20100 253.70900 257.46800
 261.53000 264.22100 266.60100 268.68100 270.32900 271.74100 272.83600 273.47400
 273.89800 274.00200 273.75700 273.28800 272.37100 271.10000 269.58900 267.77900
 265.81600 263.72100 261.39300 258.91600 256.29800 253.42300 250.33100 247.11400
 243.83700 240.52900 237.24900 233.99900 230.72800 227.51500 224.25400 220.95200
 217.62700 213.65600 210.12100 206.78900 204.01000 201.99491 199.07309 198.76551
 199.40006 200.48994 201.46112 202.31912 203.45100 204.96110 207.47502 210.85391
 213.70530 217.29629 220.99574 224.72316 228.28753 231.64854 234.68024 237.40893
 239.70644 241.60899 243.46854 245.67368 247.68154 249.52395 251.24767 252.78566
 254.12057 255.26479 256.23740 257.09036 257.82852 258.48160 259.07744 259.61723
 260.10271 260.53504 260.91270 261.39400
 399.33000 389.90700 379.81300 368.66800 357.52200 345.30100 333.07400 320.22700
 307.21600 293.84800 280.37600 267.29600 254.61000 242.98700 232.15100 221.97700
 212.67200 204.28600 197.66900 192.82100 189.48600 187.45200 186.81400 187.08900
 187.78100 189.05400 190.64800 192.54200 194.63000 196.75200 198.67100 200.15800
 201.53500 202.48700 202.97500 203.34000 203.53900 203.49700 203.38500 203.24700
 203.00500 202.78600 202.60300 202.43700 202.42600 202.88800 203.42000 203.95100
 204.89500 205.99200 207.30100 208.95800 210.73800 213.10000 215.56400 218.18000
 220.96600 223.91800 226.96100 230.09200 233.29300 236.55700 239.95500 243.53700
 246.84500 249.39000 251.54200 253.47400 255.19500 256.48400 257.43100 258.05900
 258.21200 258.04000 257.58200 256.64300 255.23900 253.50700 251.40800 249.05600
 246.57600 243.99400 241.38900 238.83000 236.34400 233.98600 231.96900 230.11800
 228.42300 226.89900 225.54800 224.29700 223.10500 221.96500 220.95800 220.11300
 219.49000 218.92000 218.32500 217.88100 217.42300 216.96366 216.35568 216.80261
 217.73415 218.28582 218.64258 219.10077 220.44626 222.53987 226.38451 230.35736
 233.59734 237.39164 241.29814 245.22796 248.98002 252.51130 255.78595 258.80109
 261.54781 264.05210 266.34239 268.04198 269.58951 271.01303 272.35754 273.55718
 274.59842 275.49092 276.28989 276.99307 277.60161 278.14001 278.63122 279.07623
 279.47646 279.83287 280.14422 280.54100
 381.81900 372.39900 361.20600 349.77600 337.62200 324.85300 311.81000 298.35300
 284.86000 271.32400 258.56100 246.30400 236.08700 226.79600 218.44800 211.29000
 205.52200 200.89400 197.38100 194.84800 193.01500 192.31500 192.25000 192.43100
 192.91200 193.53700 194.13600 194.71200 195.26200 195.83100 196.39300 196.97600
 197.60400 198.14900 198.58400 199.05700 199.69500 200.37800 201.05400 201.70800
 202.31300 202.85700 203.35500 203.86200 204.56900 205.29700 206.02600 206.98700
 208.19300 209.44100 210.96900 212.57600 214.46200 216.51300 218.63000 220.85300
 223.34100 225.96200 228.73900 231.69700 234.70600 237.70600 240.69200 243.65700
 246.73700 249.69900 252.52100 255.06300 257.29000 259.23300 260.63300 261.68000
 262.46100 262.79800 262.69100 262.22400 261.06900 259.52500 257.70700 255.50700
 253.00100 250.30200 247.39800 244.45200 241.65400 239.05400 236.73300 234.59000
 232.59500 230.72500 228.83400 226.82600 224.66600 222.38700 220.10400 217.71500
 215.45900 213.06600 210.54600 208.09300 205.35400 202.08130 196.05959 200.71215
 209.01611 216.90438 223.84126 229.78593 235.00632 240.20838 245.98943 250.68668
 254.32982 257.93487 261.55666 264.96801 268.15192 271.06452 273.76717 276.25691
 278.57680 280.74479 282.77456 284.60533 286.27232 287.81705 289.31715 290.65561
 291.81734 292.81312 293.70701 294.49387 295.17482 295.77730 296.32696 296.82492
 297.27278 297.67160 298.02000 298.46400
 366.78100 356.32759 345.75218 334.61077 323.00636 311.19295 299.05554 286.85113
 274.55572 262.44531 250.44691 239.74050 229.85509 220.95168 213.12627 206.12086
 199.94745 194.87804 191.45263 189.48722 188.51681 188.57340 189.40099 190.70158
 192.41917 194.50676 196.76235 199.11394 201.55154 204.02413 206.10472 207.93931
 209.55790 210.69549 210.91708 211.13767 211.06726 210.76485 210.39044 210.01303
 209.62262 209.32521 209.12580 208.98239 208.90298 209.22657 209.60516 209.98676
 210.77235 211.94294 213.18553 214.96112 216.88171 218.91730 221.00489 223.08048
 225.13307 227.20966 229.29925 231.39784 233.51943 235.68402 237.93261 240.29520
 242.90879 245.15238 247.14698 248.90457 250.31416 251.42975 252.24434 252.55293
 252.58252 252.34911 251.70170 250.64229 249.24088 247.39447 245.29606 243.12165
 240.90524 238.70183 236.51442 234.34601 232.19861 230.05820 228.07679 226.22638
 224.50197 222.96656 221.58915 220.35374 219.22833 218.18092 217.27751 216.41110
 215.64569 214.81828 213.90887 213.26546 212.70805 212.56525 212.24091 213.52023
 215.19380 217.07339 218.09431 218.22319 219.40027 222.93161 228.32895 233.02843
 236.79326 240.56078 244.24855 247.80817 251.17970 253.95296 256.38043 259.01263
 262.14526 264.82538 266.89218 268.75595 270.67596 272.65869 274.38919 275.95068
 277.43896 278.98364 280.51099 281.87717 283.06168 284.11536 285.08118 285.96271
 286.76004 287.47641 288.10876 288.94894
 366.78100 356.32728 345.75157 334.60985 323.00514 311.19142 299.05371 286.84899
 274.55327 262.44256 250.44384 239.73713 229.85141 220.94770 213.12198 206.11626
 199.94255 194.87283 191.44712 189.48140 188.51069 188.56697 189.39425 190.69454
 192.41182 194.49911 196.75439 199.10568 201.54296 204.01524 206.09553 207.92981
 209.54810 210.68538 210.90667 211.12695 211.05623 210.75352 210.37880 210.00109
 209.61037 209.31266 209.11294 208.96922 208.88951 209.21279 209.59108 209.97236
 210.75765 211.92793 213.17021 214.94550 216.86578 218.90107 220.98835 223.06364
 225.11592 227.19220 229.28149 231.37977 233.50106 235.66534 237.91363 240.27591
 242.88919 245.13248 247.12676 248.88405 250.29333 251.40862 252.22290 252.53118
 252.56047 252.32675 251.67904 250.61932 249.21761 247.37089 245.27217 243.09746
 240.88074 238.67703 236.48931 234.32060 232.17288 230.03216 228.05045 226.19973
 224.47502 222.93930 221.56159 220.32587 219.20015 218.15244 217.24872 216.38201
 215.61629 214.78858 213.87886 213.23514 212.67743 212.57597 212.34760 213.64218
 215.29083 217.13641 218.19199 218.36972 219.52829 222.96266 228.27583 232.91429
 236.65645 240.42430 244.12259 247.67647 250.99173 253.71454 256.17175 258.89117
 261.99731 264.63452 266.70251 268.59781 270.54047 272.52692 274.24652 275.80774
 277.31299 278.90308 280.43640 281.80289 282.98907 284.04205 285.00824 285.88925
 286.68756 287.40439 288.03702 288.87817
 366.78100 356.32728 345.75157 334.60985 323.00513 311.19142 299.05370 286.84898
 274.55326 262.44255 250.44383 239.73711 229.85140 220.94768 213.12196 206.11625
 199.94253 194.87281 191.44710 189.48138 188.51066 188.56694 189.39423 190.69451
 192.41179 194.49908 196.75436 199.10564 201.54293 204.01521 206.09549 207.92978
 209.54806 210.68534 210.90662 211.12691 211.05619 210.75347 210.37876 210.00104
 209.61032 209.31261 209.11289 208.96917 208.88946 209.21274 209.59102 209.97230
 210.75759 211.92787 213.17015 214.94544 216.86572 218.90100 220.98829 223.06357
 225.11585 227.19214 229.28142 231.37970 233.50098 235.66527 237.91355 240.27583
 242.88912 245.13240 247.12668 248.88397 250.29325 251.40853 252.22281 252.53110
 252.56038 252.32666 251.67895 250.61923 249.21751 247.37080 245.27208 243.09736
 240.88065 238.67693 236.48921 234.32049 232.17278 230.03206 228.05034 226.19963
 224.47491 222.93919 221.56148 220.32576 219.20004 218.15233 217.24861 216.38189
 215.61617 214.78846 213.87874 213.23502 212.67731 212.60417 212.44135 213.77522
 215.38332 217.17570 218.29875 218.53035 219.66783 223.00188 228.22867 232.80043
 236.51059 240.27878 243.99234 247.53769 250.79602 253.47408 255.96432 258.76648
 261.84442 264.43854 266.50659 268.43558 270.40494 272.39868 274.10886 275.67017
 277.19232 278.82797 280.36615 281.73175 282.91748 283.97086 284.93710 285.81802
 286.61682 287.33258 287.96585 288.80692
 366.78100 356.32731 345.75162 334.60993 323.00525 311.19156 299.05387 286.84918
 274.55349 262.44280 250.44412 239.73743 229.85174 220.94805 213.12236 206.11667
 199.94299 194.87330 191.44761 189.48192 188.51123 188.56754 189.39486 190.69517
 192.41248 194.49979 196.75510 199.10641 201.54372 204.01604 206.09635 207.93066
 209.54897 210.68628 210.90759 211.12791 211.05722 210.75453 210.37984 210.00215
 209.61146 209.31378 209.11409 208.97040 208.89071 209.21402 209.59233 209.97365
 210.75896 211.92927 213.17158 214.94689 216.86720 218.90252 220.98983 223.06514
 225.11745 227.19376 229.28307 231.38138 233.50270 235.66701 237.91532 240.27763
 242.89094 245.13425 247.12857 248.88588 250.29519 251.41050 252.22481 252.53312
 252.56244 252.32875 251.68106 250.62137 249.21968 247.37299 245.27431 243.09962
 240.88293 238.67924 236.49155 234.32286 232.17517 230.03449 228.05280 226.20211
 224.47742 222.94173 221.56404 220.32836 219.20267 218.15498 217.25129 216.38460
 215.61891 214.79123 213.88154 213.23785 212.68016 212.63553 212.53867 213.91380
 215.45430 217.21291 218.40343 218.70433 219.82883 223.05144 228.18222 232.68967
 236.36133 240.13002 243.85527 247.38510 250.58907 253.23222 255.75909 258.63889
 261.68787 264.23941 266.30600 268.26828 270.26886 272.27170 273.97678 275.53818
 277.06659 278.75934 280.30106 281.66656 282.85254 283.90439 284.86963 285.74966
 286.54736 287.26346 287.89508 288.73706
 366.78100 356.32732 345.75164 334.60995 323.00527 311.19159 299.05391 286.84922
 274.55354 262.44286 250.44418 239.73749 229.85181 220.94813 213.12245 206.11677
 199.94308 194.87340 191.44772 189.48204 188.51135 188.56767 189.39499 190.69531
 192.41263 194.49994 196.75526 199.10658 201.54390 204.01621 206.09653 207.93085
 209.54917 210.68648 210.90780 211.12812 211.05744 210.75476 210.38007 210.00239
 209.61171 209.31403 209.11434 208.97066 208.89098 209.21430 209.59261 209.97393
 210.75925 211.92957 213.17189 214.94720 216.86752 218.90284 220.99016 223.06547
 225.11779 227.19411 229.28343 231.38174 233.50306 235.66738 237.91570 240.27802
 242.89133 245.13465 247.12897 248.88629 250.29560 251.41092 252.22524 252.53356
 252.56288 252.32919 251.68151 250.62183 249.22015 247.37346 245.27478 243.10010
 240.88342 238.67973 236.49205 234.32337 232.17569 230.03501 228.05332 226.20264
 224.47796 222.94228 221.56459 220.32891 219.20323 218.15555 217.25186 216.38518
 215.61950 214.79182 213.88214 213.23845 212.68077 212.66763 212.64368 214.04608
 215.51352 217.24886 218.50742 218.88914 220.00880 223.10826 228.13834 232.57883
 236.21722 239.98430 243.70909 247.21425 250.36897 252.98883 255.55554 258.50647
 261.52676 264.03830 266.10159 268.09860 270.13290 272.14877 273.85083 275.40823
 276.95682 278.68250 280.23160 281.59805 282.78375 283.83710 284.80237 285.68216
 286.47971 287.19418 287.82745 288.67001
 366.78100 356.32737 345.75175 334.61012 323.00549 311.19187 299.05424 286.84961
 274.55399 262.44336 250.44474 239.73811 229.85248 220.94886 213.12323 206.11760
 199.94398 194.87435 191.44872 189.48310 188.51247 188.56884 189.39622 190.69659
 192.41397 194.50134 196.75671 199.10809 201.54546 204.01783 206.09821 207.93258
 209.55095 210.68833 210.90970 211.13007 211.05945 210.75682 210.38220 210.00457
 209.61394 209.31632 209.11669 208.97306 208.89344 209.21681 209.59518 209.97656
 210.76193 211.93230 213.17468 214.95005 216.87042 218.90580 220.99317 223.06855
 225.12092 227.19729 229.28667 231.38504 233.50641 235.67079 237.91916 240.28153
 242.89491 245.13828 247.13265 248.89003 250.29940 251.41478 252.22915 252.53752
 252.56690 252.33327 251.68564 250.62602 249.22439 247.37776 245.27914 243.10451
 240.88788 238.68426 236.49663 234.32801 232.18038 230.03975 228.05813 226.20750
 224.48287 222.94725 221.56962 220.33399 219.20837 218.16074 217.25711 216.39049
 215.62486 214.79723 213.88761 213.24398 212.68636 212.70390 212.75099 214.17403
 215.56749 217.28020 218.61426 219.07687 220.20163 223.17403 228.10117 232.47075
 236.08159 239.84343 243.55496 247.02666 250.13504 252.74086 255.34935 258.36432
 261.35757 263.83231 265.89444 267.92624 269.99777 272.03116 273.73657 275.29266
 276.86713 278.60059 280.15286 281.52054 282.70734 283.76154 284.72729 285.60760
 286.40488 287.12259 287.75394 288.59705
 366.78100 356.32749 345.75198 334.61048 323.00597 311.19246 299.05495 286.85044
 274.55494 262.44443 250.44592 239.73941 229.85390 220.95040 213.12489 206.11938
 199.94587 194.87636 191.45086 189.48535 188.51484 188.57133 189.39882 190.69932
 192.41681 194.50430 196.75979 199.11128 201.54877 204.02127 206.10176 207.93625
 209.55474 210.69223 210.91373 211.13422 211.06371 210.76120 210.38669 210.00919
 209.61868 209.32117 209.12166 208.97815 208.89865 209.22214 209.60063 209.98212
 210.76761 211.93811 213.18060 214.95609 216.87658 218.91207 220.99957 223.07506
 225.12755 227.20404 229.29353 231.39203 233.51352 235.67801 237.92650 240.28899
 242.90249 245.14598 247.14047 248.89796 250.30745 251.42295 252.23744 252.54593
 252.57542 252.34191 251.69441 250.63490 249.23339 247.38688 245.28837 243.11387
 240.89736 238.69385 236.50634 234.33783 232.19032 230.04982 228.06831 226.21780
 224.49329 222.95778 221.58028 220.34477 219.21926 218.17175 217.26824 216.40174
 215.63623 214.80872 213.89921 213.25570 212.69820 212.74438 212.85768 214.29724
 215.61812 217.31136 218.72551 219.25745 220.40059 223.24951 228.07118 232.37242
 235.95418 239.70940 243.39792 246.82596 249.88632 252.48412 255.13670 258.20895
 261.17844 263.62299 265.68802 267.75558 269.86557 271.91858 273.63293 275.19534
 276.78342 278.51825 280.07050 281.43875 282.62637 283.68045 284.64706 285.52795
 286.32584 287.04245 287.67484 288.51880
 366.78100 356.32764 345.75229 334.61093 323.00658 311.19322 299.05586 286.85151
 274.55615 262.44579 250.44744 239.74108 229.85573 220.95237 213.12701 206.12166
 199.94830 194.87894 191.45359 189.48823 188.51788 188.57452 189.40216 190.70281
 192.42045 194.50809 196.76374 199.11538 201.55303 204.02567 206.10631 207.94096
 209.55960 210.69725 210.91889 211.13953 211.06918 210.76682 210.39246 210.01511
 209.62475 209.32740 209.12804 208.98468 208.90533 209.22897 209.60761 209.98926
 210.77490 211.94555 213.18819 214.96383 216.88448 218.92012 221.00776 223.08341
 225.13605 227.21270 229.30234 231.40098 233.52263 235.68727 237.93591 240.29856
 242.91220 245.15585 247.15049 248.90813 250.31778 251.43342 252.24807 252.55671
 252.58635 252.35300 251.70564 250.64628 249.24493 247.39857 245.30022 243.12586
 240.90950 238.70615 236.51879 234.35043 232.20308 230.06272 228.08137 226.23101
 224.50665 222.97130 221.59394 220.35858 219.23323 218.18587 217.28252 216.41616
 215.65080 214.82345 213.91409 213.27074 212.71338 212.78755 212.96561 214.41129
 215.66649 217.35022 218.84103 219.43065 220.59959 223.32994 228.04558 232.28745
 235.83536 239.58104 243.23895 246.61244 249.62419 252.22182 254.92058 258.04144
 260.98972 263.41138 265.48834 267.59146 269.73929 271.81134 273.53839 275.11255
 276.70117 278.43610 279.98828 281.35632 282.54459 283.59933 284.56570 285.44553
 286.24649 286.96207 287.59503 288.43994
 366.78100 356.32782 345.75265 334.61147 323.00729 311.19412 299.05694 286.85277
 274.55759 262.44741 250.44924 239.74306 229.85788 220.95471 213.12953 206.12436
 199.95118 194.88200 191.45683 189.49165 188.52147 188.57830 189.40612 190.70694
 192.42477 194.51259 196.76842 199.12024 201.55806 204.03089 206.11171 207.94653
 209.56536 210.70318 210.92501 211.14583 211.07565 210.77348 210.39930 210.02212
 209.63195 209.33477 209.13559 208.99242 208.91324 209.23707 209.61589 209.99771
 210.78354 211.95436 213.19718 214.97301 216.89383 218.92966 221.01748 223.09330
 225.14613 227.22295 229.31277 231.41160 233.53342 235.69825 237.94707 240.30989
 242.92372 245.16754 247.16236 248.92019 250.33001 251.44583 252.26066 252.56948
 252.59931 252.36613 251.71895 250.65978 249.25860 247.41242 245.31425 243.14007
 240.92390 238.72072 236.53354 234.36537 232.21819 230.07801 228.09684 226.24666
 224.52248 222.98731 221.61013 220.37496 219.24978 218.20260 217.29943 216.43325
 215.66807 214.84090 213.93172 213.28855 212.73137 212.83284 213.07407 214.51669
 215.71396 217.39743 218.96162 219.60010 220.79543 223.41161 228.01996 232.21237
 235.72708 239.46002 243.08095 246.38914 249.35126 251.95546 254.70151 257.86353
 260.79453 263.20029 265.29474 267.43539 269.61920 271.70917 273.45428 275.04294
 276.62195 278.35364 279.90546 281.27420 282.46252 283.51776 284.48444 285.36484
 286.16412 286.88174 287.51511 288.36093
 366.78100 356.32802 345.75305 334.61207 323.00810 311.19512 299.05815 286.85417
 274.55920 262.44922 250.45125 239.74527 229.86030 220.95732 213.13235 206.12737
 199.95439 194.88542 191.46044 189.49547 188.52549 188.58252 189.41054 190.71157
 192.42959 194.51762 196.77364 199.12567 201.56369 204.03671 206.11774 207.95276
 209.57179 210.70981 210.93184 211.15286 211.08289 210.78091 210.40694 210.02996
 209.63999 209.34301 209.14404 209.00106 208.92208 209.24611 209.62513 210.00716
 210.79318 211.96421 213.20723 214.98326 216.90428 218.94031 221.02833 223.10436
 225.15738 227.23440 229.32443 231.42345 233.54548 235.71050 237.95953 240.32255
 242.93658 245.18060 247.17563 248.93365 250.34368 251.45970 252.27473 252.58375
 252.61377 252.38080 251.73382 250.67485 249.27387 247.42790 245.32992 243.15595
 240.93997 238.73700 236.55002 234.38205 232.23507 230.09510 228.11412 226.26414
 224.54017 223.00519 221.62822 220.39324 219.26827 218.22129 217.31832 216.45234
 215.68737 214.86039 213.95142 213.30844 212.75146 212.87962 213.18269 214.61473
 215.76286 217.44931 219.08585 219.76772 220.98996 223.49289 227.99652 232.14040
 235.62796 239.34700 242.92310 246.15704 249.07124 251.69046 254.48486 257.68036
 260.59296 262.98441 265.10263 267.28546 269.50620 271.61609 273.38199 274.98560
 276.54663 278.27405 279.82474 281.19312 282.38165 283.43732 284.40332 285.28537
 286.08405 286.80206 287.43533 288.28348
 366.78100 356.32827 345.75353 334.61280 323.00906 311.19633 299.05959 286.85586
 274.56113 262.45139 250.45366 239.74792 229.86319 220.96045 213.13572 206.13099
 199.95825 194.88952 191.46478 189.50005 188.53031 188.58758 189.41585 190.71711
 192.43538 194.52364 196.77991 199.13217 201.57044 204.04371 206.12497 207.96024
 209.57950 210.71777 210.94004 211.16130 211.09157 210.78983 210.41610 210.03936
 209.64963 209.35290 209.15416 209.01143 208.93269 209.25696 209.63622 210.01849
 210.80476 211.97602 213.21929 214.99555 216.91682 218.95308 221.04135 223.11762
 225.17088 227.24815 229.33841 231.43768 233.55994 235.72521 237.97448 240.33774
 242.95201 245.19627 247.19154 248.94980 250.36007 251.47634 252.29160 252.60087
 252.63113 252.39840 251.75166 250.69293 249.29220 247.44646 245.34873 243.17499
 240.95926 238.75652 236.56979 234.40206 232.25532 230.11559 228.13485 226.28512
 224.56138 223.02665 221.64992 220.41518 219.29045 218.24371 217.34098 216.47525
 215.71051 214.88378 213.97504 213.33231 212.77557 212.92801 213.28816 214.71454
 215.80180 217.50169 219.21976 219.94156 221.17661 223.57660 227.96446 232.07042
 235.54433 239.25092 242.77455 245.92560 248.78908 251.42264 254.26289 257.48386
 260.37503 262.76013 264.91599 267.14688 269.40561 271.53445 273.32217 274.94000
 276.48038 278.19788 279.74567 281.11313 282.30118 283.35696 284.32327 285.20386
 286.00330 286.72171 287.35690 288.20416
 366.78100 356.32861 345.75421 334.61382 323.01043 311.19803 299.06164 286.85825
 274.56385 262.45446 250.45707 239.75167 229.86728 220.96489 213.14049 206.13610
 199.96371 194.89532 191.47092 189.50653 188.53714 188.59474 189.42335 190.72496
 192.44356 194.53217 196.78878 199.14138 201.57999 204.05360 206.13520 207.97081
 209.59042 210.72902 210.95163 211.17324 211.10384 210.80245 210.42906 210.05266
 209.66327 209.36688 209.16848 209.02609 208.94770 209.27230 209.65191 210.03452
 210.82113 211.99273 213.23634 215.01295 216.93455 218.97116 221.05977 223.13637
 225.18998 227.26759 229.35819 231.45780 233.58041 235.74601 237.99562 240.35923
 242.97383 245.21844 247.21405 248.97265 250.38326 251.49987 252.31547 252.62508
 252.65569 252.42329 251.77690 250.71851 249.31811 247.47272 245.37533 243.20193
 240.98654 238.78415 236.59776 234.43036 232.28397 230.14458 228.16418 226.31479
 224.59140 223.05700 221.68061 220.44622 219.32182 218.27543 217.37304 216.50764
 215.74325 214.91686 214.00846 213.36607 212.80968 212.98065 213.38460 214.81676
 215.84669 217.53825 219.34918 220.10152 221.39555 223.66124 227.96550 232.02394
 235.46707 239.15489 242.61804 245.67877 248.48497 251.13362 254.02538 257.27386
 260.15244 262.54669 264.74713 267.02466 269.31674 271.46323 273.27383 274.90497
 276.42029 278.12296 279.66644 281.03455 282.22183 283.27664 284.24448 285.12469
 285.92432 286.64316 287.27670 288.12857
 366.78100 356.32893 345.75487 334.61480 323.01174 311.19967 299.06361 286.86054
 274.56648 262.45741 250.46035 239.75528 229.87122 220.96915 213.14509 206.14102
 199.96896 194.90089 191.47683 189.51276 188.54370 188.60163 189.43057 190.73250
 192.45144 194.54037 196.79731 199.15024 201.58918 204.06311 206.14505 207.98098
 209.60092 210.73985 210.96279 211.18472 211.11566 210.81459 210.44153 210.06546
 209.67640 209.38033 209.18227 209.04020 208.96214 209.28707 209.66701 210.04994
 210.83688 212.00881 213.25275 215.02968 216.95162 218.98855 221.07749 223.15442
 225.20836 227.28629 229.37723 231.47716 233.60010 235.76603 238.01597 240.37990
 242.99484 245.23977 247.23571 248.99464 250.40558 251.52251 252.33845 252.64838
 252.67932 252.44725 251.80119 250.74312 249.34306 247.49799 245.40093 243.22786
 241.01280 238.81073 236.62467 234.45760 232.31154 230.17247 228.19241 226.34334
 224.62028 223.08621 221.71015 220.47608 219.35202 218.30595 217.40389 216.53882
 215.77476 214.94869 214.04063 213.39856 212.84250 213.03221 213.48044 214.89983
 215.93597 217.55855 219.41341 220.36819 221.58066 223.81535 227.93887 231.93204
 235.37430 239.05309 242.45425 245.42017 248.16507 250.83292 253.78394 257.06400
 259.94150 262.35077 264.59656 266.91675 269.23837 271.40158 273.23386 274.87714
 276.36865 278.05063 279.58841 280.95468 282.14270 283.19763 284.16437 285.04633
 285.84433 286.56519 287.20142 288.05203
 366.78100 356.32942 345.75584 334.61626 323.01367 311.20209 299.06651 286.86393
 274.57035 262.46177 250.46519 239.76061 229.87702 220.97544 213.15186 206.14828
 199.97670 194.90912 191.48554 189.52196 188.55337 188.61179 189.44121 190.74363
 192.46305 194.55247 196.80989 199.16330 201.60272 204.07714 206.15956 207.99598
 209.61640 210.75582 210.97924 211.20165 211.13307 210.83249 210.45991 210.08433
 209.69575 209.40017 209.20259 209.06100 208.98342 209.30884 209.68926 210.07268
 210.86010 212.03252 213.27693 215.05435 216.97677 219.01419 221.10361 223.18103
 225.23545 227.31387 229.40528 231.50570 233.62912 235.79554 238.04596 240.41038
 243.02580 245.27121 247.26763 249.02705 250.43847 251.55589 252.37231 252.68273
 252.71415 252.48256 251.83698 250.77940 249.37982 247.53524 245.43866 243.26608
 241.05150 238.84991 236.66433 234.49775 232.35217 230.21359 228.23401 226.38543
 224.66284 223.12926 221.75368 220.52010 219.39652 218.35094 217.44936 216.58478
 215.82119 214.99561 214.08803 213.44645 212.89087 213.09073 213.56290 214.98480
 216.02875 217.60902 219.50124 220.60861 221.73363 223.93790 227.89803 231.84911
 235.29701 238.96300 242.29118 245.15080 247.83676 250.53510 253.55061 256.86279
 259.74039 262.16428 264.45724 266.82053 269.16992 271.34631 273.20035 274.85562
 276.33627 277.97519 279.50955 280.87555 282.06436 283.11841 284.08597 284.96796
 285.76959 286.48889 287.12476 287.97867
 366.78100 356.32979 345.75658 334.61737 323.01516 311.20395 299.06873 286.86652
 274.57331 262.46510 250.46889 239.76468 229.88147 220.98026 213.15705 206.15384
 199.98262 194.91541 191.49220 189.52899 188.56078 188.61957 189.44936 190.75215
 192.47194 194.56173 196.81951 199.17330 201.61309 204.08788 206.17067 208.00746
 209.62825 210.76804 210.99183 211.21462 211.14640 210.84619 210.47398 210.09877
 209.71056 209.41535 209.21814 209.07693 208.99972 209.32551 209.70630 210.09008
 210.87787 212.05066 213.29545 215.07324 216.99603 219.03382 221.12361 223.20140
 225.25619 227.33497 229.42676 231.52755 233.65134 235.81813 238.06892 240.43371
 243.04950 245.29529 247.29208 249.05186 250.46365 251.58144 252.39823 252.70902
 252.74081 252.50960 251.86439 250.80718 249.40797 247.56375 245.46754 243.29533
 241.08112 238.87991 236.69470 234.52849 232.38328 230.24507 228.26586 226.41764
 224.69543 223.16222 221.78701 220.55380 219.43059 218.38538 217.48417 216.61996
 215.85675 215.03154 214.12432 213.48311 212.92790 213.14182 213.64722 215.07184
 216.10326 217.68478 219.61104 220.82648 221.89766 224.03267 227.87689 231.79584
 235.22758 238.85931 242.09976 244.85422 247.49916 250.24083 253.32491 256.66696
 259.54657 261.99100 264.33038 266.73544 269.11130 271.30109 273.17459 274.84171
 276.33817 277.89371 279.42148 280.79062 281.98154 283.04041 284.00873 284.89084
 285.69339 286.41443 287.05423 287.90472
 366.78100 356.32996 345.75692 334.61788 323.01585 311.20481 299.06977 286.86773
 274.57469 262.46665 250.47062 239.76658 229.88354 220.98250 213.15946 206.15642
 199.98539 194.91835 191.49531 189.53227 188.56423 188.62319 189.45316 190.75612
 192.47608 194.56604 196.82400 199.17796 201.61792 204.09289 206.17585 208.01281
 209.63377 210.77373 210.99769 211.22066 211.15262 210.85258 210.48054 210.10550
 209.71746 209.42243 209.22539 209.08435 209.00731 209.33327 209.71423 210.09820
 210.88616 212.05912 213.30408 215.08204 217.00500 219.04296 221.13293 223.21089
 225.26585 227.34481 229.43677 231.53773 233.66170 235.82866 238.07962 240.44458
 243.06054 245.30650 247.30347 249.06343 250.47539 251.59335 252.41031 252.72127
 252.75324 252.52220 251.87716 250.82012 249.42108 247.57704 245.48100 243.30897
 241.09493 238.89389 236.70885 234.54281 232.39777 230.25974 228.28070 226.43266
 224.71062 223.17758 221.80254 220.56951 219.44647 218.40143 217.50039 216.63635
 215.87331 215.04828 214.14124 213.50020 212.94516 213.18126 213.73907 215.15155
 216.17012 217.79588 219.73274 221.01701 222.05972 224.11945 227.87834 231.74887
 235.14676 238.72549 241.87587 244.54395 247.16217 249.94984 253.10442 256.47571
 259.36322 261.83368 264.22046 266.66489 269.06158 271.26166 273.15305 274.82877
 276.31311 277.82944 279.35159 280.72110 281.91266 282.97092 283.94162 284.82397
 285.62698 286.34882 286.98853 287.84375
 366.78100 356.33010 345.75720 334.61830 323.01641 311.20551 299.07061 286.86871
 274.57581 262.46791 250.47202 239.76812 229.88522 220.98432 213.16142 206.15852
 199.98762 194.92073 191.49783 189.53493 188.56703 188.62613 189.45623 190.75934
 192.47944 194.56954 196.82764 199.18174 201.62184 204.09694 206.18005 208.01715
 209.63825 210.77835 211.00245 211.22555 211.15765 210.85776 210.48586 210.11096
 209.72306 209.42816 209.23126 209.09037 209.01347 209.33957 209.72067 210.10477
 210.89287 212.06597 213.31108 215.08918 217.01228 219.05038 221.14048 223.21858
 225.27369 227.35279 229.44489 231.54599 233.67009 235.83719 238.08829 240.45340
 243.06950 245.31560 247.31270 249.07280 250.48490 251.60301 252.42011 252.73121
 252.76331 252.53241 251.88751 250.83061 249.43172 247.58782 245.49192 243.32002
 241.10612 238.90522 236.72032 234.55443 232.40953 230.27163 228.29273 226.44483
 224.72293 223.19004 221.81514 220.58224 219.45934 218.41444 217.51354 216.64964
 215.88675 215.06185 214.15495 213.51405 212.95915 213.21783 213.82899 215.22479
 216.24869 217.92838 219.86526 221.17805 222.21904 224.20822 227.88881 231.69048
 235.05040 238.57069 241.63351 244.23044 246.82620 249.66183 252.88896 256.29141
 259.19165 261.69073 264.12527 266.60645 269.02127 271.22806 273.13092 274.81082
 276.28024 277.77121 279.29062 280.66046 281.85214 282.91104 283.88058 284.76392
 285.56601 286.28802 286.92981 287.78439
 366.78100 356.33020 345.75741 334.61861 323.01681 311.20602 299.07122 286.86942
 274.57663 262.46883 250.47303 239.76924 229.88644 220.98564 213.16285 206.16005
 199.98926 194.92246 191.49966 189.53687 188.56907 188.62827 189.45848 190.76168
 192.48188 194.57209 196.83029 199.18449 201.62470 204.09990 206.18310 208.02031
 209.64151 210.78171 211.00592 211.22912 211.16132 210.86153 210.48973 210.11493
 209.72714 209.43234 209.23554 209.09475 209.01795 209.34416 209.72536 210.10956
 210.89777 212.07097 213.31617 215.09438 217.01758 219.05578 221.14599 223.22419
 225.27939 227.35860 229.45080 231.55200 233.67621 235.84341 238.09461 240.45982
 243.07602 245.32222 247.31943 249.07963 250.49183 251.61004 252.42724 252.73845
 252.77065 252.53985 251.89506 250.83826 249.43946 247.59567 245.49987 243.32807
 241.11428 238.91348 236.72868 234.56289 232.41809 230.28029 228.30150 226.45370
 224.73190 223.19911 221.82431 220.59151 219.46872 218.42392 217.52312 216.65933
 215.89653 215.07173 214.16494 213.52414 212.96935 213.25090 213.91609 215.29448
 216.34473 218.06390 220.00153 221.32822 222.38971 224.29865 227.89583 231.62590
 234.94380 238.39961 241.37575 243.90570 246.48436 249.37807 252.68207 256.11774
 259.03482 261.56308 264.04214 266.55811 268.98853 271.20062 273.11240 274.79187
 276.24771 277.71994 279.23663 280.60580 281.79724 282.85645 283.82541 284.70953
 285.51175 286.23389 286.87509 287.73001
 366.78100 356.33014 345.75728 334.61842 323.01656 311.20571 299.07085 286.86899
 274.57613 262.46827 250.47241 239.76855 229.88569 220.98484 213.16198 206.15912
 199.98826 194.92140 191.49854 189.53568 188.56782 188.62697 189.45711 190.76025
 192.48039 194.57053 196.82867 199.18281 201.62295 204.09809 206.18124 208.01838
 209.63952 210.77966 211.00380 211.22694 211.15908 210.85922 210.48737 210.11251
 209.72465 209.42979 209.23293 209.09207 209.01521 209.34135 209.72249 210.10664
 210.89478 212.06792 213.31306 215.09120 217.01434 219.05248 221.14262 223.22077
 225.27591 227.35505 229.44719 231.54833 233.67247 235.83961 238.09075 240.45590
 243.07204 245.31818 247.31532 249.07546 250.48760 251.60574 252.42288 252.73402
 252.76617 252.53531 251.89045 250.83359 249.43473 247.59087 245.49501 243.32315
 241.10930 238.90844 236.72358 234.55772 232.41286 230.27500 228.29614 226.44828
 224.72643 223.19357 221.81871 220.58585 219.46299 218.41813 217.51727 216.65341
 215.89055 215.06570 214.15884 213.51798 212.96312 213.27356 214.00702 215.36240
 216.45016 218.20190 220.12947 221.47717 222.57701 224.39569 227.89587 231.56631
 234.83086 238.20735 241.09296 243.56393 246.14169 249.10184 252.48454 255.95515
 258.89160 261.44873 263.97125 266.51859 268.96320 271.17896 273.09396 274.77155
 276.21664 277.67422 279.18866 280.55670 281.74930 282.80780 283.77710 284.66064
 285.46393 286.18530 286.82523 287.68100
 366.78100 356.32990 345.75681 334.61771 323.01562 311.20452 299.06942 286.86733
 274.57423 262.46614 250.47004 239.76594 229.88285 220.98175 213.15866 206.15556
 199.98447 194.91737 191.49427 189.53118 188.56308 188.62199 189.45189 190.75479
 192.47470 194.56460 196.82251 199.17641 201.61631 204.09122 206.17412 208.01103
 209.63193 210.77183 210.99574 211.21864 211.15055 210.85045 210.47835 210.10326
 209.71516 209.42007 209.22297 209.08188 209.00478 209.33068 209.71159 210.09549
 210.88340 212.05630 213.30120 215.07911 217.00201 219.03992 221.12982 223.20772
 225.26263 227.34153 229.43344 231.53434 233.65824 235.82515 238.07605 240.44096
 243.05686 245.30276 247.29967 249.05957 250.47148 251.58938 252.40629 252.71719
 252.74909 252.51800 251.87290 250.81581 249.41671 247.57261 245.47652 243.30442
 241.09033 238.88923 236.70413 234.53804 232.39294 230.25485 228.27575 226.42765
 224.70556 223.17246 221.79737 220.56427 219.44117 218.39608 217.49498 216.63089
 215.86779 215.04270 214.13560 213.49450 212.93941 213.28494 214.10132 215.43410
 216.55821 218.34399 220.24974 221.61531 222.77104 224.51173 227.89507 231.51401
 234.71275 237.98669 240.77408 243.20398 245.80464 248.83809 252.29744 255.80482
 258.76120 261.34622 263.90472 266.48016 268.93719 271.15787 273.08136 274.77240
 276.22940 277.63440 279.13779 280.50650 281.69867 282.75626 283.72406 284.60742
 285.40894 286.13196 286.77243 287.63785
 366.78100 356.32956 345.75613 334.61669 323.01425 311.20282 299.06738 286.86495
 274.57151 262.46307 250.46664 239.76220 229.87876 220.97733 213.15389 206.15045
 199.97902 194.91158 191.48815 189.52471 188.55627 188.61484 189.44440 190.74696
 192.46653 194.55609 196.81365 199.16722 201.60678 204.08135 206.16391 208.00047
 209.62104 210.76060 210.98416 211.20673 211.13829 210.83786 210.46542 210.08998
 209.70155 209.40611 209.20867 209.06724 208.98980 209.31536 209.69593 210.07949
 210.86706 212.03962 213.28418 215.06175 216.98431 219.02187 221.11144 223.18900
 225.24356 227.32213 229.41369 231.51426 233.63782 235.80438 238.05495 240.41951
 243.03507 245.28064 247.27720 249.03676 250.44833 251.56589 252.38246 252.69302
 252.72458 252.49315 251.84771 250.79027 249.39084 247.54640 245.44996 243.27753
 241.06309 238.86166 236.67622 234.50978 232.36435 230.22591 228.24647 226.39804
 224.67560 223.14216 221.76673 220.53329 219.40986 218.36442 217.46298 216.59855
 215.83511 215.00967 214.10224 213.46080 212.90536 213.28879 214.19469 215.51566
 216.66905 218.48277 220.36673 221.74007 222.95610 224.65419 227.90915 231.46489
 234.58713 237.73756 240.41362 242.82237 245.47307 248.58965 252.12332 255.66989
 258.64789 261.25928 263.84436 266.44049 268.90424 271.12042 273.04001 274.73529
 276.18411 277.62778 279.13983 280.51016 281.70221 282.76425 283.73624 284.62579
 285.43796 286.17102 286.81680 287.67661
 366.78100 356.32913 345.75527 334.61540 323.01254 311.20067 299.06480 286.86194
 274.56807 262.45920 250.46234 239.75747 229.87361 220.97174 213.14787 206.14401
 199.97214 194.90427 191.48041 189.51654 188.54768 188.60581 189.43494 190.73708
 192.45621 194.54535 196.80248 199.15561 201.59475 204.06888 206.15101 207.98715
 209.60728 210.74642 210.96955 211.19168 211.12282 210.82195 210.44908 210.07322
 209.68435 209.38849 209.19062 209.04875 208.97089 209.29602 209.67616 210.05929
 210.84642 212.01856 213.26269 215.03982 216.96196 218.99909 221.08823 223.16536
 225.21949 227.29763 229.38876 231.48889 233.61203 235.77816 238.02830 240.39243
 243.00756 245.25270 247.24883 249.00797 250.41910 251.53623 252.35237 252.66250
 252.69363 252.46177 251.81590 250.75804 249.35817 247.51330 245.41644 243.24357
 241.02870 238.82684 236.64097 234.47411 232.32824 230.18937 228.20951 226.36064
 224.63778 223.10391 221.72804 220.49418 219.37031 218.32444 217.42258 216.55771
 215.79385 214.96798 214.06011 213.41825 212.86238 213.28529 214.28445 215.61029
 216.78250 218.61188 220.48177 221.85580 223.12788 224.81940 227.94913 231.41742
 234.44875 237.45476 240.01822 242.42465 245.14417 248.35236 251.95982 255.54677
 258.55240 261.18875 263.79590 266.40936 268.87521 271.08405 272.99289 274.67932
 276.12286 277.62097 279.14053 280.51019 281.70294 282.76419 283.73761 284.62857
 285.44147 286.17673 286.82327 287.68344
 366.78100 356.32856 345.75412 334.61368 323.01025 311.19781 299.06137 286.85793
 274.56349 262.45405 250.45661 239.75118 229.86674 220.96430 213.13986 206.13542
 199.96298 194.89454 191.47011 189.50567 188.53623 188.59379 189.42235 190.72391
 192.44247 194.53104 196.78760 199.14016 201.57872 204.05228 206.13384 207.96941
 209.58897 210.72753 210.95009 211.17165 211.10221 210.80077 210.42734 210.05090
 209.66146 209.36502 209.16658 209.02414 208.94570 209.27027 209.64983 210.03239
 210.81895 211.99051 213.23407 215.01063 216.93220 218.96876 221.05732 223.13388
 225.18744 227.26500 229.35556 231.45513 233.57769 235.74325 237.99281 240.35637
 242.97093 245.21549 247.21106 248.96962 250.38018 251.49674 252.31230 252.62186
 252.65242 252.41999 251.77355 250.71511 249.31467 247.46923 245.37179 243.19835
 240.98292 238.78048 236.59404 234.42660 232.28016 230.14072 228.16028 226.31085
 224.58741 223.05297 221.67653 220.44209 219.31765 218.27122 217.36878 216.50334
 215.73890 214.91246 214.00402 213.36158 212.80515 213.27162 214.37372 215.72208
 216.89784 218.72874 220.58542 221.96408 223.28879 224.99811 228.01292 231.37962
 234.29990 237.14465 239.59853 242.01967 244.82138 248.12794 251.80888 255.43488
 258.46439 261.12567 263.75159 266.38150 268.85263 271.05533 272.95233 274.62741
 276.08307 277.60577 279.13025 280.49927 281.69196 282.75378 283.72629 284.61755
 285.43225 286.16940 286.81598 287.67426
 366.78100 356.32805 345.75309 334.61214 323.00818 311.19523 299.05828 286.85432
 274.55937 262.44942 250.45146 239.74551 229.86055 220.95760 213.13265 206.12769
 199.95474 194.88578 191.46083 189.49588 188.52592 188.58297 189.41102 190.71206
 192.43011 194.51815 196.77420 199.12625 201.56429 204.03734 206.11838 207.95343
 209.57248 210.71052 210.93257 211.15362 211.08366 210.78171 210.40775 210.03080
 209.64085 209.34389 209.14494 209.00199 208.92303 209.24708 209.62612 210.00817
 210.79422 211.96526 213.20831 214.98435 216.90540 218.94145 221.02949 223.10554
 225.15859 227.23563 229.32568 231.42472 233.54677 235.71182 237.96086 240.32391
 242.93795 245.18200 247.17705 248.93509 250.34514 251.46119 252.27623 252.58528
 252.61532 252.38237 251.73542 250.67646 249.27551 247.42955 245.33160 243.15765
 240.94169 238.73874 236.55179 234.38383 232.23688 230.09692 228.11597 226.26602
 224.54206 223.00711 221.63015 220.39520 219.27025 218.22329 217.32034 216.45439
 215.68943 214.86248 213.95352 213.31057 212.75362 213.25841 214.45103 215.84747
 217.02924 218.83939 220.68089 222.06213 223.43456 225.17343 228.09528 231.34169
 234.13396 236.79703 239.13834 241.59518 244.50464 247.91980 251.66783 255.32855
 258.39478 261.08234 263.71878 266.35922 268.82837 271.01755 272.89655 274.55325
 275.98944 277.61374 279.14407 280.50876 281.69745 282.75540 283.72614 284.61609
 285.42859 286.16391 286.80975 287.66507
 366.78100 356.32701 345.75101 334.60902 323.00403 311.19003 299.05204 286.84705
 274.55105 262.44006 250.44106 239.73407 229.84808 220.94408 213.11809 206.11210
 199.93810 194.86811 191.44212 189.47612 188.50513 188.56114 189.38814 190.68815
 192.40515 194.49216 196.74717 199.09817 201.53518 204.00719 206.08719 207.92120
 209.53921 210.67621 210.89722 211.11723 211.04623 210.74324 210.36824 209.99025
 209.59926 209.30126 209.10127 208.95728 208.87728 209.20029 209.57830 209.95930
 210.74431 211.91432 213.15632 214.93133 216.85133 218.88634 220.97335 223.04835
 225.10036 227.17637 229.26537 231.36338 233.48439 235.64839 237.89640 240.25841
 242.87141 245.11442 247.10842 248.86543 250.27444 251.38944 252.20345 252.51146
 252.54046 252.30647 251.65848 250.59848 249.19649 247.34950 245.25050 243.07551
 240.85851 238.65452 236.46653 234.29753 232.14954 230.00855 228.02655 226.17556
 224.45057 222.91457 221.53658 220.30059 219.17459 218.12660 217.22260 216.35561
 215.58962 214.76162 213.85163 213.20764 212.64964 213.21600 214.55411 215.98213
 217.16124 218.94696 220.74413 222.13145 223.57811 225.36511 228.18602 231.32512
 233.98831 236.45787 238.68433 241.18909 244.20734 247.71922 251.53587 255.23178
 258.32312 261.03021 263.68396 266.34283 268.81647 271.00027 272.86829 274.50943
 275.98224 277.57553 279.09689 280.46155 281.64828 282.70306 283.67053 284.55814
 285.36807 286.09955 286.72592 287.56885
 366.78100 356.32639 345.74979 334.60718 323.00158 311.18697 299.04837 286.84276
 274.54616 262.43455 250.43495 239.72734 229.84073 220.93613 213.10952 206.10292
 199.92831 194.85771 191.43110 189.46450 188.49289 188.54829 189.37468 190.67407
 192.39047 194.47686 196.73126 199.08165 201.51805 203.98944 206.06884 207.90223
 209.51963 210.65602 210.87641 211.09581 211.02420 210.72060 210.34499 209.96639
 209.57478 209.27618 209.07557 208.93097 208.85036 209.17275 209.55015 209.93054
 210.71494 211.88433 213.12573 214.90012 216.81952 218.85391 220.94031 223.01470
 225.06609 227.14149 229.22988 231.32728 233.44767 235.61107 237.85846 240.21986
 242.83225 245.07465 247.06804 248.82443 250.23283 251.34722 252.16062 252.46801
 252.49641 252.26180 251.61320 250.55259 249.14999 247.30238 245.20278 243.02717
 240.80956 238.60496 236.41635 234.24675 232.09814 229.95654 227.97393 226.12233
 224.39672 222.86012 221.48151 220.24490 219.11830 218.06969 217.16509 216.29748
 215.53088 214.70227 213.79167 213.14706 212.58846 213.19847 214.64098 216.10172
 217.34468 219.08229 220.78984 222.12338 223.63528 225.44757 228.20662 231.31007
 233.79158 236.02724 238.16512 240.76933 243.93962 247.58971 251.47173 255.21733
 258.36816 261.07800 263.68225 266.31665 268.76205 270.89844 272.72266 274.37863
 275.88950 277.58594 279.10495 280.47183 281.66199 282.72125 283.69571 284.58990
 285.41046 286.15097 286.81998 287.67255
 366.78100 356.32668 345.75036 334.60804 323.00272 311.18840 299.05008 286.84476
 274.54844 262.43712 250.43780 239.73048 229.84416 220.93984 213.11352 206.10720
 199.93288 194.86256 191.43624 189.46992 188.49859 188.55427 189.38095 190.68063
 192.39731 194.48399 196.73867 199.08935 201.52603 203.99771 206.07739 207.91107
 209.52875 210.66543 210.88611 211.10579 211.03447 210.73115 210.35583 209.97751
 209.58619 209.28787 209.08755 208.94323 208.86291 209.18559 209.56327 209.94395
 210.72863 211.89831 213.13999 214.91467 216.83435 218.86903 220.95571 223.03039
 225.08207 227.15775 229.24642 231.34410 233.46478 235.62846 237.87614 240.23782
 242.85050 245.09318 247.08686 248.84354 250.25222 251.36690 252.18058 252.48826
 252.51694 252.28262 251.63430 250.57398 249.17166 247.32434 245.22502 243.04970
 240.83238 238.62806 236.43974 234.27042 232.12210 229.98078 227.99846 226.14714
 224.42182 222.88550 221.50718 220.27086 219.14454 218.09622 217.19190 216.32458
 215.55825 214.72993 213.81961 213.17529 212.61697 213.23505 214.70911 216.13489
 217.52625 219.23654 220.89388 222.17587 223.62531 225.55331 228.09608 231.19478
 233.51222 235.55537 237.56758 240.24745 243.59862 247.46802 251.48965 255.32690
 258.52075 261.20969 263.77072 266.30795 268.67563 270.73499 272.48328 274.16412
 275.78940 277.38623 278.85306 280.18793 281.37006 282.42471 283.40039 284.29980
 285.11887 285.84827 286.48544 287.29749
 366.78100 356.32645 345.74990 334.60735 323.00180 311.18726 299.04871 286.84316
 274.54661 262.43506 250.43551 239.72796 229.84141 220.93687 213.11032 206.10377
 199.92922 194.85867 191.43212 189.46557 188.49402 188.54947 189.37593 190.67538
 192.39183 194.47828 196.73273 199.08318 201.51963 203.99108 206.07053 207.90399
 209.52144 210.65789 210.87834 211.09779 211.02624 210.72269 210.34714 209.96860
 209.57705 209.27850 209.07795 208.93340 208.85285 209.17530 209.55275 209.93320
 210.71766 211.88711 213.12856 214.90301 216.82246 218.85691 220.94336 223.01781
 225.06927 227.14472 229.23317 231.33062 233.45107 235.61452 237.86197 240.22342
 242.83587 245.07833 247.07178 248.82823 250.23668 251.35113 252.16458 252.47203
 252.50048 252.26593 251.61739 250.55684 249.15429 247.30674 245.20719 243.03164
 240.81409 238.60954 236.42100 234.25145 232.10290 229.96135 227.97880 226.12725
 224.40170 222.86515 221.48660 220.25006 219.12351 218.07496 217.17041 216.30286
 215.53631 214.70776 213.79721 213.15267 212.59412 213.24442 214.79906 216.21910
 217.60449 219.28433 220.93335 222.26091 223.77232 225.74622 228.17737 231.13737
 233.28554 235.22711 237.17012 239.88609 243.35825 247.31786 251.42224 255.28229
 258.54318 261.24814 263.79407 266.30658 268.64001 270.63708 272.34286 274.03644
 275.68585 277.26807 278.74072 280.09763 281.29114 282.37033 283.42044 284.40280
 285.28629 286.07306 286.76035 287.63623
 366.78100 356.32489 345.74678 334.60267 322.99556 311.17945 299.03934 286.83223
 274.53412 262.42101 250.41990 239.71079 229.82268 220.91657 213.08846 206.08035
 199.90424 194.83213 191.40402 189.43591 188.46280 188.51669 189.34158 190.63947
 192.35436 194.43925 196.69214 199.04103 201.47592 203.94581 206.02370 207.85559
 209.47148 210.60637 210.82526 211.04315 210.97004 210.66493 210.28782 209.90771
 209.51460 209.21449 209.01238 208.86626 208.78415 209.10504 209.48093 209.85982
 210.64271 211.81060 213.05049 214.82338 216.74127 218.77416 220.85905 222.93194
 224.98183 227.05572 229.14261 231.23850 233.35739 235.51928 237.76517 240.12506
 242.73595 244.97684 246.96873 248.72362 250.13051 251.24340 252.05529 252.36118
 252.38807 252.15196 251.50185 250.43974 249.03563 247.18652 245.08541 242.90830
 240.68919 238.48308 236.29297 234.12186 231.97175 229.82864 227.84453 225.99142
 224.26431 222.72620 221.34609 220.10798 218.97987 217.92976 217.02365 216.15454
 215.38643 214.55632 213.64421 212.99810 212.43799 213.17212 214.91911 216.37563
 217.63545 219.31592 220.99695 222.39638 223.98695 225.96442 228.29352 231.19476
 233.22244 234.95776 236.71129 239.45740 243.05743 247.16043 251.34608 255.18469
 258.41687 261.15717 263.74719 266.29727 268.66293 270.67001 272.41592 274.10095
 275.71915 277.24686 278.68781 280.04440 281.23914 282.32175 283.36990 284.34341
 285.21899 285.99869 286.67981 287.54782
 366.78100 356.32365 345.74430 334.59895 322.99060 311.17325 299.03190 286.82355
 274.52420 262.40985 250.40750 239.69715 229.80780 220.90045 213.07110 206.06174
 199.88439 194.81104 191.38169 189.41234 188.43799 188.49064 189.31429 190.61094
 192.32459 194.40824 196.65989 199.00754 201.44119 203.90984 205.98649 207.81714
 209.43179 210.56544 210.78309 210.99974 210.92539 210.61904 210.24069 209.85934
 209.46499 209.16364 208.96029 208.81293 208.72958 209.04923 209.42388 209.80153
 210.58318 211.74983 212.98848 214.76013 216.67678 218.70843 220.79208 222.86373
 224.91238 226.98503 229.07068 231.16533 233.28298 235.44363 237.68828 240.04693
 242.65658 244.89623 246.88688 248.64053 250.04618 251.15783 251.96848 252.27313
 252.29877 252.06142 251.41007 250.34672 248.94137 247.09102 244.98867 242.81032
 240.58997 238.38262 236.19127 234.01892 231.86757 229.72322 227.73787 225.88352
 224.15517 222.61582 221.23447 219.99512 218.86577 217.81442 216.90707 216.03672
 215.26737 214.43602 213.52267 212.87532 212.31396 213.11000 215.00105 216.56264
 217.68755 219.39238 221.11249 222.55133 224.15466 226.12770 228.40710 231.27757
 233.19023 234.64355 236.18042 239.05595 242.79558 247.00719 251.19388 255.01239
 258.26028 261.05865 263.70312 266.29788 268.69440 270.76514 272.54767 274.25372
 275.83356 277.31464 278.73050 280.08856 281.27750 282.35004 283.35455 284.33139
 285.21890 286.00925 286.69965 287.57953
 366.78100 356.32273 345.74246 334.59619 322.98692 311.16865 299.02638 286.81710
 274.51683 262.40156 250.39829 239.68702 229.79675 220.88848 213.05821 206.04794
 199.86967 194.79540 191.36513 189.39486 188.41958 188.47131 189.29404 190.58977
 192.30250 194.38523 196.63596 198.98269 201.41542 203.88315 205.95888 207.78861
 209.40234 210.53506 210.75179 210.96752 210.89225 210.58498 210.20571 209.82344
 209.42817 209.12590 208.92163 208.77336 208.68909 209.00782 209.38154 209.75827
 210.53900 211.70473 212.94246 214.71319 216.62892 218.65965 220.74238 222.81311
 224.86084 226.93257 229.01730 231.11103 233.22775 235.38748 237.63121 239.98894
 242.59767 244.83640 246.82613 248.57886 249.98359 251.09432 251.90405 252.20778
 252.23251 251.99423 251.34196 250.27769 248.87142 247.02015 244.91688 242.73761
 240.51634 238.30807 236.11580 233.94253 231.79026 229.64499 227.65871 225.80344
 224.07417 222.53390 221.15163 219.91136 218.78109 217.72882 216.82055 215.94928
 215.17901 214.34674 213.43247 212.78419 212.22192 213.06290 215.06250 216.75502
 217.79462 219.46111 221.21638 222.65024 224.22771 226.16150 228.48512 231.25818
 233.01576 234.25526 235.74947 238.75858 242.64746 246.87300 251.06725 254.89519
 258.18515 261.02121 263.68942 266.30020 268.71817 270.81924 272.55902 274.28995
 275.90640 277.39798 278.83157 280.19250 281.38467 282.45367 283.45374 284.42078
 285.30991 286.10168 286.79337 287.67480
 366.78100 356.32087 345.73874 334.59061 322.97948 311.15935 299.01522 286.80409
 274.50196 262.38483 250.37970 239.66657 229.77444 220.86431 213.03218 206.02005
 199.83992 194.76379 191.33166 189.35953 188.38240 188.43227 189.25314 190.54701
 192.25788 194.33875 196.58762 198.93249 201.36336 203.82923 205.90310 207.73097
 209.34284 210.47371 210.68858 210.90245 210.82532 210.51619 210.13506 209.75093
 209.35380 209.04967 208.84354 208.69341 208.60728 208.92415 209.29602 209.67089
 210.44976 211.61363 212.84950 214.61837 216.53224 218.56111 220.64198 222.71085
 224.75672 226.82659 228.90946 231.00133 233.11620 235.27407 237.51594 239.87181
 242.47868 244.71555 246.70342 248.45429 249.85716 250.96603 251.77390 252.07577
 252.09864 251.85851 251.20438 250.13825 248.73012 246.87699 244.77186 242.59073
 240.36760 238.15747 235.96334 233.78821 231.63408 229.48695 227.49882 225.64169
 223.91056 222.36843 220.98430 219.74217 218.61004 217.55591 216.64578 215.77265
 215.00052 214.16639 213.25026 212.60013 212.03600 212.97183 215.18983 216.88443
 217.89104 219.54657 221.31767 222.75768 224.33505 226.23264 228.55251 231.25156
 232.77565 233.82884 235.33432 238.44865 242.49190 246.83311 251.03253 254.84239
 258.13705 260.99185 263.67233 266.29523 268.72849 270.82721 272.52847 274.25287
 275.88107 277.37845 278.79791 280.13730 281.32361 282.39386 283.40140 284.37100
 285.24307 286.01962 286.69803 287.56256
 366.78100 356.31954 345.73607 334.58661 322.97415 311.15268 299.00722 286.79476
 274.49129 262.37283 250.36636 239.65190 229.75844 220.84697 213.01351 206.00005
 199.81858 194.74112 191.30766 189.33419 188.35573 188.40427 189.22380 190.51634
 192.22588 194.30541 196.55295 198.89649 201.32602 203.79056 205.86309 207.68963
 209.30017 210.42970 210.64324 210.85578 210.77731 210.46685 210.08439 209.69892
 209.30046 208.99500 208.78753 208.63607 208.54861 208.86414 209.23468 209.60821
 210.38575 211.54829 212.78282 214.55036 216.46290 218.49043 220.56997 222.63751
 224.68204 226.75058 228.83212 230.92265 233.03619 235.19273 237.43326 239.78780
 242.39334 244.62887 246.61541 248.36494 249.76648 250.87402 251.68055 251.98109
 252.00263 251.76116 251.10570 250.03824 248.62877 246.77431 244.66785 242.48538
 240.26092 238.04946 235.85399 233.67753 231.52207 229.37360 227.38414 225.52567
 223.79321 222.24975 220.86428 219.62082 218.48736 217.43189 216.52043 215.64597
 214.87250 214.03704 213.11958 212.46811 211.90265 212.90773 215.28664 217.06412
 218.02559 219.60663 221.36177 222.82236 224.42757 226.30255 228.66249 231.33803
 232.66228 233.52220 234.94098 238.00798 242.30565 246.79234 250.89336 254.71556
 258.05591 260.96130 263.67111 266.29083 268.72339 270.81900 272.53415 274.21216
 275.84927 277.36722 278.75040 280.09146 281.27643 282.33667 283.32599 284.26028
 285.11118 285.86890 286.53085 287.37442
 366.78100 356.31948 345.73595 334.58643 322.97391 311.15238 299.00686 286.79434
 274.49082 262.37229 250.36577 239.65125 229.75772 220.84620 213.01268 205.99915
 199.81763 194.74011 191.30659 189.33306 188.35454 188.40302 189.22249 190.51497
 192.22445 194.30392 196.55140 198.89488 201.32436 203.78883 205.86131 207.68779
 209.29826 210.42774 210.64122 210.85369 210.77517 210.46465 210.08213 209.69660
 209.29808 208.99256 208.78503 208.63351 208.54599 208.86146 209.23194 209.60542
 210.38290 211.54537 212.77985 214.54733 216.45980 218.48728 220.56676 222.63423
 224.67871 226.74719 228.82866 230.91914 233.03262 235.18910 237.42957 239.78405
 242.38953 244.62500 246.61148 248.36096 249.76243 250.86991 251.67639 251.97687
 251.99834 251.75682 251.10130 250.03377 248.62425 246.76973 244.66320 242.48068
 240.25616 238.04464 235.84911 233.67259 231.51707 229.36854 227.37902 225.52050
 223.78797 222.24445 220.85893 219.61541 218.48188 217.42636 216.51484 215.64031
 214.86679 214.03127 213.11374 212.46222 211.89670 212.90582 215.29543 217.21873
 218.24248 219.77626 221.44514 222.85802 224.44193 226.25778 228.77464 231.20512
 232.37933 233.17540 234.63802 237.83900 242.23500 246.68787 250.82538 254.69128
 258.09241 261.02966 263.72150 266.29456 268.68713 270.76907 272.54599 274.21945
 275.84702 277.37460 278.75339 280.04495 281.22168 282.27512 283.24142 284.12357
 284.90256 285.58813 286.18707 286.95032
 366.78100 356.31839 345.73379 334.58318 322.96958 311.14697 299.00036 286.78676
 274.48215 262.36255 250.35494 239.63933 229.74473 220.83212 212.99752 205.98291
 199.80031 194.72170 191.28709 189.31249 188.33288 188.38028 189.19867 190.49006
 192.19846 194.27685 196.52325 198.86564 201.29403 203.75743 205.82882 207.65422
 209.26361 210.39200 210.60440 210.81579 210.73619 210.42458 210.04097 209.65437
 209.25476 208.94816 208.73955 208.58694 208.49834 208.81273 209.18213 209.55452
 210.33092 211.49231 212.72570 214.49210 216.40349 218.42989 220.50828 222.57467
 224.61807 226.68546 228.76586 230.85525 232.96764 235.12304 237.36243 239.71583
 242.32022 244.55461 246.54001 248.28840 249.68880 250.79519 251.60058 251.89998
 251.92037 251.67777 251.02116 249.95255 248.54195 246.68634 244.57874 242.39513
 240.16953 237.95692 235.76031 233.58271 231.42610 229.27650 227.28589 225.42628
 223.69268 222.14807 220.76147 219.51686 218.38225 217.32565 216.41304 215.53744
 214.76283 213.92622 213.00762 212.35501 211.78841 212.85150 215.36418 217.35034
 218.36909 219.92297 221.56612 222.98761 224.56190 226.32341 228.86252 231.06778
 232.10878 232.85039 234.44788 237.81738 242.14445 246.55276 250.75031 254.65961
 258.10501 261.08118 263.77689 266.35858 268.75638 270.84604 272.60593 274.24200
 275.89929 277.44977 278.86115 280.17902 281.36124 282.41895 283.40414 284.30225
 285.11310 285.85599 286.53568 287.40186
 366.78100 356.31684 345.73068 334.57852 322.96335 311.13919 298.99103 286.77587
 274.46971 262.34855 250.33939 239.62222 229.72606 220.81190 212.97574 205.95958
 199.77542 194.69526 191.25909 189.28293 188.30177 188.34761 189.16445 190.45429
 192.16113 194.23796 196.48280 198.82364 201.25048 203.71232 205.78216 207.60600
 209.21383 210.34067 210.55151 210.76135 210.68019 210.36703 209.98187 209.59370
 209.19254 208.88438 208.67422 208.52006 208.42990 208.74274 209.11057 209.48141
 210.25625 211.41609 212.64793 214.41277 216.32261 218.34744 220.42428 222.48912
 224.53096 226.59680 228.67564 230.76348 232.87431 235.02815 237.26599 239.61783
 242.22067 244.45351 246.43735 248.18419 249.58302 250.68786 251.49170 251.78954
 251.80838 251.56422 250.90606 249.83589 248.42373 246.56657 244.45741 242.27225
 240.04509 237.83093 235.63276 233.45360 231.29544 229.14428 227.15212 225.29096
 223.55580 222.00963 220.62147 219.37531 218.23915 217.18099 216.26683 215.38967
 214.61350 213.77534 212.85518 212.20102 211.63286 212.77534 215.47461 217.48776
 218.46657 220.02306 221.65857 223.12308 224.70821 226.43674 228.91826 230.91377
 231.85593 232.50391 234.20241 237.68236 242.02278 246.45343 250.65263 254.55833
 258.01648 261.04529 263.79581 266.40909 268.82391 270.93930 272.67584 274.24182
 275.90744 277.48813 278.93063 280.27011 281.44937 282.49731 283.45740 284.34695
 285.16837 285.88864 286.52380 287.39163
 366.78100 356.31668 345.73036 334.57804 322.96272 311.13840 298.99009 286.77477
 274.46845 262.34713 250.33781 239.62049 229.72417 220.80985 212.97353 205.95721
 199.77290 194.69258 191.25626 189.27994 188.29862 188.34430 189.16098 190.45066
 192.15734 194.23402 196.47870 198.81939 201.24607 203.70775 205.77743 207.60111
 209.20879 210.33547 210.54615 210.75583 210.67451 210.36120 209.97588 209.58756
 209.18624 208.87792 208.66760 208.51328 208.42296 208.73564 209.10332 209.47401
 210.24869 211.40837 212.64005 214.40473 216.31441 218.33909 220.41577 222.48045
 224.52213 226.58781 228.66650 230.75418 232.86486 235.01854 237.25622 239.60790
 242.21058 244.44326 246.42694 248.17362 249.57231 250.67699 251.48067 251.77835
 251.79703 251.55271 250.89439 249.82407 248.41175 246.55443 244.44511 242.25980
 240.03248 237.81816 235.61984 233.44052 231.28220 229.13088 227.13856 225.27724
 223.54192 221.99561 220.60729 219.36097 218.22465 217.16633 216.25201 215.37469
 214.59837 213.76005 212.83973 212.18541 211.61710 212.77711 215.51775 217.61549
 218.59094 220.14777 221.78011 223.22139 224.80530 226.46777 228.90479 230.75447
 231.56367 232.14680 233.95004 237.52635 241.92070 246.36403 250.55498 254.46577
 257.94260 261.00525 263.78400 266.40836 268.82440 270.94855 272.67413 274.22128
 275.87790 277.49417 278.98663 280.33783 281.51791 282.56622 283.52563 284.41000
 285.22549 285.94485 286.57089 287.43521
 366.78100 356.31705 345.73111 334.57916 322.96422 311.14027 298.99233 286.77738
 274.47144 262.35049 250.34155 239.62460 229.72866 220.81471 212.97877 205.96282
 199.77888 194.69893 191.26299 189.28704 188.30610 188.35215 189.16921 190.45926
 192.16632 194.24337 196.48842 198.82948 201.25653 203.71859 205.78864 207.61270
 209.22075 210.34781 210.55886 210.76892 210.68797 210.37503 209.99008 209.60214
 209.20119 208.89325 208.68330 208.52936 208.43941 208.75247 209.12052 209.49158
 210.26663 211.42669 212.65874 214.42379 216.33385 218.35890 220.43596 222.50101
 224.54307 226.60912 228.68818 230.77623 232.88729 235.04134 237.27940 239.63145
 242.23451 244.46756 246.45162 248.19867 249.59773 250.70278 251.50684 251.80489
 251.82395 251.58000 250.92206 249.85211 248.44016 246.58322 244.47427 242.28933
 240.06238 237.84844 235.65049 233.47155 231.31360 229.16266 227.17071 225.30977
 223.57482 222.02888 220.64093 219.39499 218.25904 217.20110 216.28715 215.41021
 214.63426 213.79632 212.87637 212.22243 211.65448 212.80865 215.53549 217.72186
 218.75179 220.26379 221.89276 223.32603 224.87129 226.47897 228.88295 230.58241
 231.26248 231.80977 233.71951 237.38469 241.83279 246.29285 250.49168 254.41222
 257.91251 261.00031 263.78741 266.39987 268.80759 270.93665 272.65842 274.20880
 275.85974 277.50394 279.02139 280.37814 281.55972 282.60864 283.57089 284.45581
 285.27029 285.99622 286.62317 287.48837
 366.78100 356.31709 345.73118 334.57926 322.96435 311.14044 298.99253 286.77762
 274.47171 262.35079 250.34188 239.62497 229.72906 220.81515 212.97924 205.96332
 199.77941 194.69950 191.26359 189.28768 188.30676 188.35285 189.16994 190.46003
 192.16712 194.24421 196.48929 198.83038 201.25747 203.71956 205.78965 207.61373
 209.22182 210.34891 210.56000 210.77009 210.68918 210.37626 209.99135 209.60344
 209.20253 208.89462 208.68471 208.53079 208.44088 208.75397 209.12206 209.49315
 210.26823 211.42832 212.66041 214.42550 216.33559 218.36068 220.43776 222.50285
 224.54494 226.61103 228.69012 230.77820 232.88929 235.04338 237.28147 239.63356
 242.23665 244.46973 246.45382 248.20091 249.60000 250.70509 251.50918 251.80726
 251.82635 251.58244 250.92453 249.85462 248.44270 246.58579 244.47688 242.29197
 240.06506 237.85115 235.65323 233.47432 231.31641 229.16550 227.17359 225.31267
 223.57776 222.03185 220.64394 219.39803 218.26212 217.20420 216.29029 215.41338
 214.63747 213.79956 212.87965 212.22573 211.65782 212.82167 215.57143 217.82961
 218.91052 220.38573 221.94328 223.35756 224.97346 226.57652 228.90637 230.40417
 230.92261 231.43916 233.42784 237.24124 241.77486 246.24904 250.45334 254.37790
 257.89310 260.99832 263.79129 266.38785 268.78870 270.92603 272.64273 274.19458
 275.84851 277.51608 279.04385 280.40366 281.58600 282.63678 283.60104 284.48599
 285.30099 286.03427 286.66287 287.53375
 366.78100 356.31693 345.73086 334.57878 322.96371 311.13964 298.99157 286.77649
 274.47042 262.34935 250.34028 239.62320 229.72713 220.81306 212.97699 205.96092
 199.77684 194.69677 191.26070 189.28463 188.30355 188.34948 189.16641 190.45634
 192.16326 194.24019 196.48512 198.82605 201.25298 203.71490 205.78483 207.60876
 209.21669 210.34361 210.55454 210.76447 210.68340 210.37032 209.98525 209.59718
 209.19611 208.88804 208.67796 208.52389 208.43382 208.74675 209.11467 209.48560
 210.26053 211.42046 212.65238 214.41731 216.32724 218.35217 220.42910 222.49402
 224.53595 226.60188 228.68081 230.76873 232.87966 235.03359 237.27152 239.62344
 242.22637 244.45930 246.44323 248.19016 249.58908 250.69401 251.49794 251.79587
 251.81479 251.57072 250.91265 249.84258 248.43050 246.57343 244.46436 242.27929
 240.05222 237.83814 235.64007 233.46100 231.30293 229.15185 227.15978 225.29871
 223.56364 222.01756 220.62949 219.38342 218.24735 217.18928 216.27520 215.39813
 214.62206 213.78399 212.86391 212.20984 211.64177 212.82376 215.61630 217.95871
 219.03142 220.48860 222.02060 223.46762 224.99391 226.57585 228.95616 230.41789
 230.60776 230.87004 233.17822 237.18890 241.74620 246.22440 250.42155 254.33412
 257.85831 260.98605 263.79736 266.38483 268.78342 270.93399 272.64096 274.17993
 275.83527 277.53128 279.06705 280.42813 281.61127 282.66306 283.62708 284.51401
 285.33035 286.06561 286.69598 287.57053
 366.78100 356.31660 345.73021 334.57781 322.96242 311.13802 298.98962 286.77423
 274.46783 262.34644 250.33704 239.61964 229.72325 220.80885 212.97246 205.95606
 199.77166 194.69127 191.25487 189.27848 188.29708 188.34269 189.15929 190.44889
 192.15550 194.23210 196.47671 198.81731 201.24391 203.70552 205.77512 207.59873
 209.20633 210.33293 210.54354 210.75314 210.67175 210.35835 209.97295 209.58456
 209.18316 208.87477 208.66437 208.50997 208.41958 208.73218 209.09979 209.47039
 210.24499 211.40460 212.63620 214.40081 216.31041 218.33501 220.41162 222.47622
 224.51783 226.58343 228.66204 230.74964 232.86024 235.01385 237.25145 239.60306
 242.20566 244.43826 246.42187 248.16847 249.56708 250.67168 251.47528 251.77289
 251.79149 251.54710 250.88870 249.81830 248.40591 246.54851 244.43912 242.25372
 240.02632 237.81193 235.61353 233.43414 231.27574 229.12434 227.13195 225.27055
 223.53516 221.98876 220.60036 219.35397 218.21757 217.15918 216.24478 215.36739
 214.59099 213.75259 212.83220 212.17780 211.60941 212.81821 215.67412 218.08887
 219.13438 220.56036 222.13620 223.63879 225.03470 226.53195 228.91182 230.33652
 230.32228 230.43454 232.99352 237.14423 241.71104 246.18706 250.37090 254.27284
 257.80923 260.96976 263.81070 266.39706 268.79758 270.96396 272.66144 274.18384
 275.82990 277.54666 279.08698 280.44962 281.63354 282.68707 283.65149 284.53918
 285.35385 286.09155 286.72534 287.60309
 366.78100 356.31624 345.72948 334.57671 322.96095 311.13619 298.98743 286.77166
 274.46490 262.34314 250.33338 239.61561 229.71885 220.80409 212.96733 205.95057
 199.76580 194.68504 191.24828 189.27152 188.28975 188.33499 189.15123 190.44047
 192.14670 194.22294 196.46718 198.80742 201.23366 203.69489 205.76413 207.58737
 209.19461 210.32084 210.53108 210.74032 210.65856 210.34479 209.95903 209.57027
 209.16851 208.85975 208.64898 208.49422 208.40346 208.71570 209.08293 209.45317
 210.22741 211.38665 212.61788 214.38212 216.29136 218.31560 220.39184 222.45607
 224.49731 226.56255 228.64079 230.72802 232.83826 234.99150 237.22874 239.57997
 242.18221 244.41445 246.39769 248.14393 249.54216 250.64640 251.44964 251.74688
 251.76511 251.52035 250.86159 249.79083 248.37806 246.52030 244.41054 242.22478
 239.99702 237.78225 235.58349 233.40373 231.24497 229.09320 227.10044 225.23868
 223.50292 221.95615 220.56739 219.32063 218.18387 217.12511 216.21034 215.33258
 214.55582 213.71706 212.79629 212.14153 211.57277 212.81248 215.74146 218.19891
 219.24686 220.61658 222.22314 223.82297 225.16223 226.54243 228.79498 230.09778
 230.01482 230.14641 232.84012 237.08231 241.66780 246.14619 250.31381 254.20946
 257.76202 260.95633 263.82877 266.41458 268.81671 270.99484 272.68188 274.18536
 275.83408 277.56714 279.11298 280.47824 281.66217 282.71707 283.68393 284.57135
 285.38681 286.12344 286.76892 287.65210
 366.78100 356.31601 345.72901 334.57602 322.96003 311.13503 298.98604 286.77005
 274.46305 262.34106 250.33107 239.61308 229.71608 220.80109 212.96410 205.94710
 199.76211 194.68112 191.24412 189.26713 188.28514 188.33014 189.14615 190.43516
 192.14116 194.21717 196.46118 198.80118 201.22719 203.68820 205.75720 207.58021
 209.18722 210.31323 210.52323 210.73224 210.65025 210.33625 209.95026 209.56127
 209.15927 208.85028 208.63929 208.48429 208.39330 208.70531 209.07231 209.44232
 210.21633 211.37533 212.60634 214.37035 216.27935 218.30336 220.37937 222.44338
 224.48438 226.54939 228.62740 230.71440 232.82441 234.97742 237.21442 239.56543
 242.16744 244.39944 246.38245 248.12846 249.52646 250.63047 251.43348 251.73048
 251.74849 251.50350 250.84451 249.77351 248.36052 246.50253 244.39253 242.20654
 239.97855 237.76355 235.56456 233.38457 231.22557 229.07358 227.08059 225.21859
 223.48260 221.93561 220.54661 219.29962 218.16263 217.10363 216.18864 215.31065
 214.53366 213.69466 212.77367 212.11868 211.54968 212.81633 215.80893 218.29187
 219.35428 220.70670 222.29370 223.95442 225.31665 226.60287 228.65977 229.80019
 229.70282 229.91826 232.69775 237.01610 241.62946 246.10475 250.25743 254.14758
 257.71884 260.94611 263.84705 266.43057 268.83267 271.02032 272.70218 274.19040
 275.84424 277.58600 279.13669 280.50415 281.69177 282.74841 283.71957 284.60815
 285.42703 286.16891 286.82278 287.73181
 366.78100 356.31603 345.72906 334.57609 322.96012 311.13515 298.98618 286.77021
 274.46324 262.34127 250.33130 239.61333 229.71635 220.80138 212.96441 205.94744
 199.76247 194.68150 191.24453 189.26756 188.28559 188.33062 189.14665 190.43568
 192.14171 194.21774 196.46177 198.80180 201.22783 203.68886 205.75789 207.58092
 209.18795 210.31398 210.52401 210.73303 210.65106 210.33709 209.95112 209.56215
 209.16018 208.85121 208.64024 208.48527 208.39430 208.70633 209.07336 209.44339
 210.21742 211.37645 212.60748 214.37151 216.28054 218.30457 220.38060 222.44463
 224.48566 226.55069 228.62871 230.71574 232.82577 234.97880 237.21583 239.56686
 242.16889 244.40092 246.38395 248.12998 249.52801 250.63204 251.43507 251.73210
 251.75013 251.50516 250.84619 249.77522 248.36225 246.50428 244.39431 242.20834
 239.98036 237.76539 235.56642 233.38645 231.22748 229.07551 227.08254 225.22057
 223.48460 221.93763 220.54866 219.30169 218.16472 217.10575 216.19078 215.31281
 214.53584 213.69687 212.77590 212.12093 211.55196 212.83530 215.86732 218.37485
 219.44928 220.82495 222.39087 224.03996 225.44061 226.67160 228.53732 229.51801
 229.39238 229.69923 232.55942 236.95100 241.60153 246.06969 250.20700 254.08978
 257.67493 260.93362 263.86142 266.44424 268.84799 271.04352 272.72598 274.21027
 275.85260 277.59390 279.14783 280.51678 281.70605 282.76382 283.73544 284.62613
 285.44418 286.18567 286.84009 287.75613
 366.78100 356.31622 345.72943 334.57665 322.96086 311.13608 298.98729 286.77151
 274.46472 262.34294 250.33315 239.61537 229.71858 220.80380 212.96701 205.95023
 199.76544 194.68466 191.24787 189.27109 188.28930 188.33452 189.15073 190.43995
 192.14616 194.22238 196.46659 198.80681 201.23302 203.69424 205.76345 207.58667
 209.19388 210.32010 210.53031 210.73953 210.65774 210.34396 209.95817 209.56939
 209.16760 208.85882 208.64803 208.49325 208.40246 208.71468 209.08189 209.45211
 210.22633 211.38554 212.61676 214.38097 216.29019 218.31440 220.39062 222.45483
 224.49605 226.56126 228.63948 230.72669 232.83691 234.99012 237.22734 239.57855
 242.18077 244.41298 246.39620 248.14241 249.54063 250.64484 251.44806 251.74527
 251.76349 251.51870 250.85992 249.78913 248.37635 246.51856 244.40878 242.22299
 239.99521 237.78042 235.58164 233.40185 231.24307 229.09128 227.09850 225.23671
 223.50093 221.95414 220.56536 219.31857 218.18179 217.12301 216.20822 215.33044
 214.55365 213.71487 212.79408 212.13930 211.57051 212.86443 215.92145 218.44524
 219.54099 220.94748 222.51402 224.11496 225.53090 226.72398 228.43352 229.26021
 229.07727 229.48418 232.43364 236.89238 241.57777 246.03703 250.16214 254.03658
 257.63147 260.91852 263.87198 266.45471 268.85910 271.05762 272.73984 274.22293
 275.85666 277.59662 279.15155 280.52252 281.71097 282.76944 283.74103 284.63080
 285.44968 286.18918 286.84366 287.76566
 366.78100 356.31642 345.72984 334.57725 322.96167 311.13709 298.98851 286.77293
 274.46634 262.34476 250.33518 239.61760 229.72101 220.80643 212.96985 205.95327
 199.76869 194.68810 191.25152 189.27494 188.29336 188.33878 189.15519 190.44461
 192.15103 194.22745 196.47187 198.81228 201.23870 203.70012 205.76954 207.59295
 209.20037 210.32679 210.53721 210.74663 210.66504 210.35146 209.96588 209.57730
 209.17572 208.86713 208.65655 208.50197 208.41139 208.72381 209.09122 209.46164
 210.23606 211.39548 212.62689 214.39131 216.30073 218.32515 220.40157 222.46598
 224.50740 226.57282 228.65124 230.73866 232.84907 235.00249 237.23991 239.59133
 242.19375 244.42616 246.40958 248.15600 249.55442 250.65883 251.46225 251.75967
 251.77809 251.53351 250.87492 249.80434 248.39176 246.53418 244.42460 242.23901
 240.01143 237.79685 235.59827 233.41869 231.26010 229.10852 227.11594 225.25436
 223.51878 221.97219 220.58361 219.33703 218.20045 217.14186 216.22728 215.34970
 214.57312 213.73454 212.81395 212.15937 211.59079 212.89584 215.97917 218.49910
 219.63452 221.07199 222.64058 224.19501 225.60321 226.75307 228.34520 229.01299
 228.76942 229.28957 232.32001 236.83347 241.54536 246.00284 250.12318 253.99037
 257.59171 260.90106 263.87872 266.46390 268.86789 271.06345 272.74295 274.22488
 275.85645 277.59781 279.15396 280.52390 281.71356 282.77075 283.74191 284.63309
 285.44812 286.18521 286.84186 287.76196
 366.78100 356.31666 345.73032 334.57798 322.96263 311.13829 298.98995 286.77461
 274.46827 262.34693 250.33758 239.62024 229.72390 220.80956 212.97322 205.95688
 199.77253 194.69219 191.25585 189.27951 188.29817 188.34383 189.16048 190.45014
 192.15680 194.23346 196.47812 198.81878 201.24543 203.70709 205.77675 207.60041
 209.20807 210.33473 210.54538 210.75504 210.67370 210.36036 209.97502 209.58668
 209.18534 208.87699 208.66665 208.51231 208.42197 208.73463 209.10229 209.47294
 210.24760 211.40726 212.63892 214.40358 216.31324 218.33789 220.41455 222.47921
 224.52087 226.58653 228.66519 230.75284 232.86350 235.01716 237.25482 239.60648
 242.20914 244.44179 246.42545 248.17211 249.57077 250.67543 251.47909 251.77674
 251.79540 251.55106 250.89272 249.82238 248.41004 246.55269 244.44335 242.25801
 240.03067 237.81633 235.61799 233.43865 231.28030 229.12896 227.13662 225.27528
 223.53994 221.99360 220.60525 219.35891 218.22257 217.16423 216.24989 215.37255
 214.59620 213.75786 212.83752 212.18318 211.61484 212.92995 216.03700 218.54362
 219.72949 221.19853 222.76221 224.28439 225.66309 226.76170 228.26836 228.76843
 228.48180 229.12289 232.21396 236.76988 241.50426 245.96642 250.08820 253.95137
 257.55542 260.88083 263.87946 266.47095 268.87491 271.06577 272.74200 274.22293
 275.85489 277.59680 279.15341 280.52371 281.71396 282.77222 283.74387 284.63257
 285.44815 286.18591 286.84027 287.76578
 366.78100 356.31698 345.73097 334.57895 322.96393 311.13992 298.99190 286.77689
 274.47087 262.34985 250.34084 239.62382 229.72780 220.81379 212.97777 205.96176
 199.77774 194.69772 191.26171 189.28569 188.30467 188.35066 189.16764 190.45762
 192.16461 194.24159 196.48658 198.82756 201.25454 203.71653 205.78651 207.61049
 209.21848 210.34546 210.55645 210.76643 210.68541 210.37240 209.98738 209.59936
 209.19835 208.89033 208.68032 208.52630 208.43628 208.74927 209.11725 209.48823
 210.26322 211.42320 212.65518 214.42017 216.33015 218.35514 220.43212 222.49710
 224.53909 226.60507 228.68405 230.77204 232.88302 235.03701 237.27499 239.62697
 242.22996 244.46294 246.44692 248.19391 249.59289 250.69787 251.50186 251.79984
 251.81883 251.57481 250.91679 249.84678 248.43476 246.57774 244.46873 242.28371
 240.05670 237.84268 235.64466 233.46565 231.30763 229.15661 227.16460 225.30358
 223.56857 222.02255 220.63453 219.38852 218.25250 217.19448 216.28047 215.40345
 214.62743 213.78942 212.86940 212.21539 211.64737 212.96848 216.08975 218.58664
 219.82356 221.31870 222.88182 224.38458 225.70662 226.75798 228.19832 228.52730
 228.21434 228.98201 232.11728 236.70320 241.45772 245.92790 250.05545 253.91689
 257.52124 260.85770 263.87256 266.47482 268.87863 271.06012 272.73602 274.21774
 275.85394 277.59772 279.15472 280.52621 281.71695 282.77539 283.74835 284.63849
 285.45486 286.19205 286.84952 287.77576
 366.78100 356.31736 345.73172 334.58008 322.96544 311.14180 298.99416 286.77952
 274.47388 262.35324 250.34460 239.62796 229.73232 220.81868 212.98304 205.96740
 199.78376 194.70412 191.26849 189.29285 188.31221 188.35857 189.17593 190.46629
 192.17365 194.25101 196.49637 198.83773 201.26509 203.72745 205.79781 207.62217
 209.23053 210.35789 210.56925 210.77961 210.69897 210.38633 210.00169 209.61405
 209.21341 208.90577 208.69613 208.54249 208.45285 208.76621 209.13457 209.50593
 210.28129 211.44165 212.67401 214.43937 216.34973 218.37509 220.45246 222.51782
 224.56018 226.62654 228.70590 230.79426 232.90562 235.05998 237.29834 239.65070
 242.25406 244.48742 246.47178 248.21914 249.61850 250.72386 251.52822 251.82658
 251.84594 251.60230 250.94466 249.87502 248.46338 246.60674 244.49810 242.31346
 240.08682 237.87318 235.67554 233.49690 231.33926 229.18862 227.19698 225.33634
 223.60170 222.05606 220.66843 219.42279 218.28715 217.22951 216.31587 215.43923
 214.66359 213.82595 212.90631 212.25267 211.68503 213.00920 216.13768 218.62985
 219.91325 221.43321 222.99846 224.48663 225.74251 226.75363 228.12871 228.29544
 227.96375 228.85941 232.03320 236.63744 241.40785 245.88707 250.02237 253.88405
 257.48770 260.83112 263.86032 266.47610 268.87875 271.04553 272.72141 274.21158
 275.85422 277.60046 279.15891 280.53009 281.72198 282.78290 283.75375 284.64542
 285.46146 286.20203 286.85678 287.78824
 366.78100 356.31777 345.73254 334.58131 322.96708 311.14385 298.99663 286.78240
 274.47717 262.35694 250.34871 239.63248 229.73725 220.82402 212.98879 205.97356
 199.79033 194.71111 191.27588 189.30065 188.32042 188.36719 189.18496 190.47573
 192.18350 194.26127 196.50704 198.84881 201.27659 203.73936 205.81013 207.63490
 209.24367 210.37144 210.58321 210.79398 210.71375 210.40152 210.01729 209.63006
 209.22984 208.92261 208.71338 208.56015 208.47092 208.78469 209.15346 209.52523
 210.30100 211.46177 212.69454 214.46032 216.37109 218.39686 220.47463 222.54040
 224.58317 226.64994 228.72971 230.81848 232.93025 235.08502 237.32380 239.67657
 242.28034 244.51411 246.49888 248.24665 249.64642 250.75219 251.55696 251.85573
 251.87550 251.63228 250.97505 249.90582 248.49459 246.63836 244.53013 242.34590
 240.11967 237.90644 235.70921 233.53098 231.37376 229.22353 227.23230 225.37207
 223.63784 222.09261 220.70538 219.46015 218.32492 217.26769 216.35446 215.47824
 214.70301 213.86578 212.94655 212.29332 211.72609 213.05113 216.18170 218.67502
 219.99403 221.54285 223.11795 224.58289 225.76945 226.76033 228.06194 228.06874
 227.72353 228.75330 231.96487 236.57472 241.35384 245.84291 249.98927 253.85316
 257.45340 260.80087 263.84195 266.47540 268.87488 271.02313 272.69916 274.20059
 275.85754 277.60654 279.16647 280.53802 281.73071 282.79169 283.76385 284.65558
 285.47104 286.21326 286.86737 287.80026
 366.78100 356.31816 345.73333 334.58249 322.96865 311.14581 298.99898 286.78514
 274.48030 262.36046 250.35263 239.63679 229.74195 220.82912 212.99428 205.97944
 199.79660 194.71777 191.28293 189.30809 188.32825 188.37542 189.19358 190.48474
 192.19291 194.27107 196.51723 198.85939 201.28756 203.75072 205.82188 207.64704
 209.25621 210.38437 210.59653 210.80770 210.72786 210.41602 210.03218 209.64535
 209.24551 208.93867 208.72984 208.57700 208.48816 208.80232 209.17149 209.54365
 210.31981 211.48097 212.71414 214.48030 216.39146 218.41763 220.49579 222.56195
 224.60511 226.67228 228.75244 230.84160 232.95376 235.10893 237.34809 239.70125
 242.30542 244.53958 246.52474 248.27290 249.67307 250.77923 251.58439 251.88355
 251.90372 251.66088 251.00404 249.93521 248.52437 246.66853 244.56069 242.37686
 240.15102 237.93818 235.74134 233.56351 231.40667 229.25683 227.26600 225.40616
 223.67232 222.12748 220.74065 219.49581 218.36097 217.30413 216.39130 215.51546
 214.74062 213.90379 212.98495 212.33211 211.76527 213.09180 216.22586 218.71855
 220.06955 221.64973 223.23502 224.67792 225.81024 226.76744 227.98502 227.85547
 227.49936 228.65967 231.90694 236.51350 241.29987 245.79903 249.95677 253.82193
 257.41794 260.76611 263.81854 266.47205 268.86725 270.99384 272.67212 274.19351
 275.86151 277.61267 279.17310 280.54694 281.73953 282.80011 283.77399 284.66620
 285.47989 286.22198 286.87704 287.81189
 366.78100 356.31874 345.73448 334.58423 322.97097 311.14871 299.00245 286.78919
 274.48493 262.36568 250.35842 239.64316 229.74890 220.83664 213.00239 205.98813
 199.80587 194.72761 191.29335 189.31909 188.33984 188.38758 189.20632 190.49806
 192.20680 194.28555 196.53229 198.87503 201.30377 203.76751 205.83925 207.66500
 209.27474 210.40348 210.61622 210.82796 210.74871 210.43745 210.05419 209.66793
 209.26867 208.96241 208.75416 208.60190 208.51364 208.82838 209.19812 209.57087
 210.34761 211.50935 212.74309 214.50983 216.42157 218.44832 220.52706 222.59380
 224.63754 226.70528 228.78603 230.87577 232.98851 235.14425 237.38399 239.73773
 242.34248 244.57722 246.56296 248.31170 249.71244 250.81918 251.62493 251.92467
 251.94541 251.70315 251.04689 249.97864 248.56838 246.71312 244.60586 242.42260
 240.19734 237.98509 235.78883 233.61157 231.45531 229.30605 227.31580 225.45654
 223.72328 222.17902 220.79276 219.54850 218.41425 217.35799 216.44573 215.57047
 214.79621 213.95996 213.04170 212.38944 211.82318 213.14203 216.25793 218.76534
 220.15407 221.74452 223.34657 224.76897 225.83919 226.78937 227.91908 227.64522
 227.28131 228.57468 231.86324 236.45718 241.24197 245.74971 249.92252 253.79323
 257.38229 260.72864 263.78983 266.46558 268.85730 270.96368 272.64627 274.16882
 275.87067 277.62595 279.18619 280.55939 281.75290 282.81409 283.78720 284.67920
 285.49515 286.23581 286.89194 287.82709
 366.78100 356.31925 345.73551 334.58576 322.97302 311.15127 299.00553 286.79278
 274.48904 262.37029 250.36355 239.64880 229.75506 220.84331 213.00957 205.99582
 199.81408 194.73633 191.30259 189.32884 188.35010 188.39835 189.21761 190.50986
 192.21912 194.29837 196.54563 198.88888 201.31813 203.78239 205.85464 207.68090
 209.29115 210.42041 210.63366 210.84592 210.76717 210.45643 210.07368 209.68794
 209.28919 208.98345 208.77570 208.62396 208.53621 208.85147 209.22172 209.59498
 210.37223 211.53449 212.76874 214.53600 216.44825 218.47551 220.55476 222.62201
 224.66627 226.73452 228.81578 230.90603 233.01929 235.17554 237.41580 239.77005
 242.37531 244.61056 246.59682 248.34607 249.74733 250.85458 251.66084 251.96109
 251.98235 251.74060 251.08486 250.01711 248.60737 246.75262 244.64588 242.46313
 240.23838 238.02664 235.83089 233.65415 231.49840 229.34966 227.35991 225.50117
 223.76842 222.22468 220.83893 219.59519 218.46144 217.40570 216.49395 215.61921
 214.84546 214.00972 213.09197 212.44023 211.87448 213.18872 216.29376 218.80356
 220.22755 221.87639 223.43565 224.81293 225.90140 226.83748 227.84175 227.43875
 227.07893 228.50237 231.81451 236.39352 241.18074 245.70572 249.89873 253.77312
 257.35239 260.69083 263.75580 266.45337 268.83890 270.91879 272.60052 274.07919
 275.89844 277.65976 279.21225 280.58139 281.77188 282.83118 283.80319 284.69403
 285.51080 286.25061 286.90591 287.84207
 366.78100 356.31980 345.73659 334.58739 322.97518 311.15398 299.00877 286.79657
 274.49336 262.37516 250.36895 239.65475 229.76154 220.85034 213.01713 206.00393
 199.82272 194.74552 191.31232 189.33911 188.36091 188.40970 189.22950 190.52229
 192.23209 194.31188 196.55968 198.90347 201.33327 203.79806 205.87086 207.69765
 209.30845 210.43824 210.65204 210.86483 210.78663 210.47643 210.09422 209.70902
 209.31081 209.00561 208.79840 208.64720 208.55999 208.87579 209.24658 209.62038
 210.39817 211.56097 212.79576 214.56356 216.47635 218.50415 220.58395 222.65174
 224.69654 226.76533 228.84713 230.93792 233.05172 235.20851 237.44931 239.80410
 242.40990 244.64569 246.63249 248.38228 249.78408 250.89187 251.69867 251.99946
 252.02126 251.78006 251.12485 250.05765 248.64844 246.79424 244.68803 242.50583
 240.28162 238.07042 235.87521 233.69901 231.54380 229.39560 227.40639 225.54819
 223.81598 222.27278 220.88758 219.64437 218.51117 217.45596 216.54476 215.67055
 214.89735 214.06214 213.14494 212.49373 211.92853 213.23610 216.32539 218.84984
 220.27948 221.98033 223.61148 224.93184 225.87534 226.79315 227.77617 227.32790
 226.92151 228.37682 231.75743 236.34215 241.13045 245.67467 249.88011 253.75285
 257.32028 260.64841 263.71649 266.43594 268.81589 270.87378 272.55756 273.98752
 275.92017 277.69040 279.23685 280.60358 281.79218 282.85031 283.82071 284.71024
 285.52280 286.26447 286.91824 287.85355
 366.78100 356.32039 345.73779 334.58918 322.97758 311.15697 299.01236 286.80076
 274.49815 262.38054 250.37494 239.66133 229.76873 220.85812 213.02551 206.01291
 199.83230 194.75570 191.32309 189.35048 188.37288 188.42227 189.24267 190.53606
 192.24645 194.32685 196.57524 198.91963 201.35003 203.81542 205.88882 207.71621
 209.32760 210.45800 210.67239 210.88579 210.80818 210.49857 210.11697 209.73236
 209.33476 209.03015 208.82354 208.67294 208.58633 208.90272 209.27412 209.64851
 210.42691 211.59030 212.82569 214.59409 216.50748 218.53588 220.61627 222.68466
 224.73006 226.79945 228.88185 230.97324 233.08763 235.24503 237.48642 239.84181
 242.44821 244.68460 246.67200 248.42239 249.82478 250.93318 251.74057 252.04197
 252.06436 251.82375 251.16915 250.10254 248.69393 246.84033 244.73472 242.55312
 240.32951 238.11890 235.92430 233.74869 231.59409 229.44648 227.45787 225.60027
 223.86866 222.32606 220.94145 219.69884 218.56624 217.51163 216.60102 215.72742
 214.95481 214.12021 213.20360 212.55299 211.98839 213.28584 216.35123 218.89337
 220.35266 222.03999 223.76868 225.08289 225.88622 226.74767 227.67703 227.22508
 226.79573 228.25876 231.71439 236.30194 241.08656 245.64372 249.85789 253.73143
 257.28870 260.60614 263.67667 266.41708 268.79172 270.82559 272.51056 273.95499
 275.91373 277.69510 279.24542 280.61398 281.80328 282.86154 283.83221 284.72229
 285.53482 286.27396 286.92776 287.86447
 366.78100 356.32100 345.73899 334.59099 322.97999 311.15998 299.01598 286.80498
 274.50297 262.38597 250.38097 239.66796 229.77596 220.86596 213.03395 206.02195
 199.84195 194.76594 191.33394 189.36194 188.38494 188.43493 189.25593 190.54993
 192.26092 194.34192 196.59092 198.93591 201.36691 203.83291 205.90690 207.73490
 209.34690 210.47789 210.69289 210.90689 210.82988 210.52088 210.13988 209.75587
 209.35887 209.05487 208.84886 208.69886 208.61286 208.92985 209.30185 209.67685
 210.45584 211.61984 212.85584 214.62483 216.53883 218.56783 220.64882 222.71782
 224.76382 226.83382 228.91681 231.00881 233.12381 235.28180 237.52380 239.87980
 242.48679 244.72379 246.71179 248.46278 249.86578 250.97478 251.78277 252.08477
 252.10777 251.86776 251.21376 250.14776 248.73975 246.88675 244.78175 242.60074
 240.37774 238.16774 235.97373 233.79873 231.64473 229.49772 227.50972 225.65272
 223.92171 222.37971 220.99571 219.75370 218.62170 217.56770 216.65770 215.78469
 215.01269 214.17869 213.26268 212.61268 212.04868 213.33607 216.37770 218.92241
 220.44247 222.11528 223.85298 225.20384 225.99213 226.77306 227.52481 227.08936
 226.69765 228.16054 231.67653 236.26683 241.04202 245.60803 249.83423 253.71278
 257.26071 260.56711 263.63733 266.39731 268.76538 270.77499 272.46289 273.94897
 275.90536 277.69193 279.24677 280.61646 281.80643 282.86539 283.83588 284.72531
 285.53851 286.27762 286.92984 287.86441
 366.78100 356.32163 345.74026 334.59288 322.98251 311.16314 299.01977 286.80940
 274.50803 262.39165 250.38728 239.67491 229.78354 220.87417 213.04279 206.03142
 199.85205 194.77668 191.34531 189.37394 188.39756 188.44819 189.26982 190.56445
 192.27608 194.35770 196.60733 198.95296 201.38459 203.85122 205.92584 207.75447
 209.36710 210.49873 210.71436 210.92899 210.85261 210.54424 210.16387 209.78050
 209.38413 209.08075 208.87538 208.72601 208.64064 208.95827 209.33090 209.70652
 210.48615 211.65078 212.88741 214.65704 216.57166 218.60129 220.68292 222.75255
 224.79918 226.86981 228.95343 231.04606 233.16169 235.32032 237.56295 239.91957
 242.52720 244.76483 246.75346 248.50509 249.90872 251.01834 251.82697 252.12960
 252.15323 251.91386 251.26048 250.19511 248.78774 246.93537 244.83100 242.65062
 240.42825 238.21888 236.02551 233.85114 231.69777 229.55139 227.56402 225.70765
 223.97728 222.43591 221.05253 219.81116 218.67979 217.62642 216.71705 215.84468
 215.07330 214.23993 213.32456 212.67519 212.11182 213.38750 216.40143 218.94897
 220.52533 222.21237 223.90024 225.28409 226.13556 226.84346 227.36737 226.95154
 226.61865 228.07245 231.63597 236.22989 240.99419 245.56914 249.80966 253.69266
 257.22980 260.52396 263.59274 266.36987 268.73203 270.72015 272.41147 273.96985
 275.89795 277.68353 279.24033 280.61090 281.80392 282.86237 283.83475 284.72379
 285.53601 286.27411 286.92627 287.86188
 366.78100 356.32227 345.74155 334.59482 322.98509 311.16637 299.02364 286.81392
 274.51319 262.39746 250.39374 239.68201 229.79128 220.88256 213.05183 206.04110
 199.86238 194.78765 191.35692 189.38620 188.41047 188.46175 189.28402 190.57929
 192.29157 194.37384 196.62411 198.97039 201.40266 203.86993 205.94521 207.77448
 209.38776 210.52003 210.73630 210.95158 210.87585 210.56812 210.18840 209.80567
 209.40994 209.10722 208.90249 208.75377 208.66904 208.98731 209.36059 209.73686
 210.51713 211.68241 212.91968 214.68995 216.60523 218.63550 220.71777 222.78805
 224.83532 226.90660 228.99087 231.08414 233.20042 235.35969 237.60296 239.96024
 242.56851 244.80678 246.79606 248.54833 249.95261 251.06288 251.87215 252.17543
 252.19970 251.96097 251.30825 250.24352 248.83679 246.98507 244.88134 242.70162
 240.47989 238.27116 236.07844 233.90471 231.75198 229.60626 227.61953 225.76380
 224.03408 222.49335 221.11062 219.86990 218.73917 217.68645 216.77772 215.90599
 215.13527 214.30254 213.38781 212.73909 212.17636 213.43867 216.42104 218.98125
 220.59911 222.30266 223.94669 225.34479 226.26633 226.91856 227.24779 226.83028
 226.53310 227.98434 231.59592 236.19275 240.94754 245.53174 249.78487 253.67072
 257.19608 260.47580 263.54214 266.33313 268.68588 270.65274 272.34308 274.01135
 275.87436 277.65793 279.22150 280.59781 281.79337 282.85373 283.82715 284.71649
 285.52686 286.26431 286.91492 287.85187
 366.78100 356.32292 345.74285 334.59677 322.98769 311.16962 299.02754 286.81846
 274.51838 262.40331 250.40023 239.68915 229.79908 220.89100 213.06092 206.05085
 199.87277 194.79869 191.36861 189.39854 188.42346 188.47538 189.29831 190.59423
 192.30715 194.39008 196.64100 198.98792 201.42084 203.88877 205.96469 207.79461
 209.40854 210.54146 210.75838 210.97431 210.89923 210.59215 210.21307 209.83100
 209.43592 209.13384 208.92977 208.78169 208.69761 209.01654 209.39046 209.76738
 210.54831 211.71423 212.95215 214.72307 216.63900 218.66992 220.75284 222.82377
 224.87169 226.94361 229.02854 231.12246 233.23938 235.39930 237.64323 240.00115
 242.61007 244.84900 246.83892 248.59184 249.99677 251.10769 251.91761 252.22153
 252.24646 252.00838 251.35630 250.29223 248.88615 247.03507 244.93200 242.75292
 240.53184 238.32377 236.13169 233.95861 231.80653 229.66146 227.67538 225.82030
 224.09123 222.55115 221.16907 219.92900 218.79892 217.74684 216.83876 215.96769
 215.19761 214.36553 213.45146 212.80338 212.24130 213.48944 216.43831 219.01494
 220.67435 222.38033 223.99976 225.39796 226.37296 226.98653 227.17274 226.71590
 226.42290 227.89481 231.56206 236.16057 240.90680 245.49883 249.76141 253.64868
 257.16409 260.43008 263.49142 266.29291 268.63733 270.58466 272.27432 274.01190
 275.84576 277.62778 279.19449 280.57422 281.77054 282.83432 283.80679 284.69720
 285.50854 286.24448 286.89636 287.82935
 366.78100 356.32362 345.74424 334.59885 322.99047 311.17309 299.03171 286.82332
 274.52394 262.40956 250.40718 239.69679 229.80741 220.90003 213.07065 206.06126
 199.88388 194.81050 191.38112 189.41173 188.43735 188.48997 189.31359 190.61020
 192.32382 194.40744 196.65906 199.00668 201.44029 203.90891 205.98553 207.81615
 209.43076 210.56438 210.78200 210.99862 210.92423 210.61785 210.23947 209.85809
 209.46370 209.16232 208.95894 208.81156 208.72817 209.04779 209.42241 209.80003
 210.58165 211.74826 212.98688 214.75850 216.67512 218.70673 220.79035 222.86197
 224.91059 226.98320 229.06882 231.16344 233.28106 235.44167 237.68629 240.04491
 242.65453 244.89414 246.88476 248.63838 250.04400 251.15561 251.96623 252.27085
 252.29647 252.05909 251.40770 250.34432 248.93894 247.08856 244.98617 242.80779
 240.58741 238.38003 236.18864 234.01626 231.86488 229.72050 227.73511 225.88073
 224.15235 222.61297 221.23158 219.99220 218.86282 217.81144 216.90405 216.03367
 215.26429 214.43291 213.51953 212.87214 212.31076 213.54182 216.45033 219.04599
 220.75406 222.45532 224.05441 225.44203 226.46013 227.05090 227.12865 226.59401
 226.28563 227.80684 231.53410 236.13380 240.87183 245.46902 249.73938 253.62814
 257.13416 260.38696 263.44263 266.25076 268.58600 270.51389 272.20505 273.99942
 275.81415 277.59311 279.16275 280.54147 281.73972 282.80344 283.77805 284.66882
 285.47821 286.21506 286.86481 287.79886
 366.78100 356.32439 345.74578 334.60116 322.99355 311.17694 299.03633 286.82872
 274.53011 262.41649 250.41488 239.70527 229.81666 220.91005 213.08144 206.07282
 199.89621 194.82360 191.39499 189.42638 188.45277 188.50615 189.33054 190.62793
 192.34232 194.42671 196.67910 199.02748 201.46187 203.93126 206.00865 207.84004
 209.45543 210.58981 210.80820 211.02559 210.95198 210.64637 210.26876 209.88814
 209.49453 209.19392 208.99131 208.84470 208.76209 209.08247 209.45786 209.83625
 210.61864 211.78603 213.02542 214.79780 216.71519 218.74758 220.83197 222.90436
 224.95375 227.02713 229.11352 231.20891 233.32730 235.48869 237.73408 240.09346
 242.70385 244.94424 246.93563 248.69002 250.09641 251.20879 252.02018 252.32557
 252.35196 252.11535 251.46474 250.40212 248.99751 247.14790 245.04629 242.86868
 240.64907 238.44245 236.25184 234.08023 231.92962 229.78601 227.80140 225.94778
 224.22017 222.68156 221.30095 220.06234 218.93373 217.88311 216.97650 216.10689
 215.33828 214.50767 213.59506 212.94844 212.38783 213.59848 216.45874 219.07469
 220.83470 222.52887 224.10487 225.47879 226.53499 227.12120 227.10956 226.46483
 226.12941 227.72177 231.50851 236.11086 240.84052 245.43881 249.71475 253.60338
 257.10077 260.34253 263.39197 266.20496 268.53339 270.44885 272.13849 273.97571
 275.77274 277.54813 279.11789 280.49872 281.69727 282.76172 283.73602 284.62561
 285.43640 286.17114 286.82129 287.75314
 366.78100 356.32519 345.74738 334.60358 322.99677 311.18096 299.04115 286.83435
 274.53654 262.42373 250.42292 239.71412 229.82631 220.92050 213.09269 206.08489
 199.90908 194.83727 191.40946 189.44166 188.46885 188.52304 189.34823 190.64643
 192.36162 194.44681 196.70000 199.04920 201.48439 203.95458 206.03277 207.86497
 209.48116 210.61635 210.83554 211.05374 210.98093 210.67612 210.29931 209.91951
 209.52670 209.22689 209.02508 208.87928 208.79747 209.11866 209.49485 209.87405
 210.65724 211.82543 213.06562 214.83882 216.75701 218.79020 220.87539 222.94859
 224.99878 227.07297 229.16016 231.25636 233.37555 235.53774 237.78393 240.14413
 242.75532 244.99651 246.98870 248.74390 250.15109 251.26428 252.07647 252.38266
 252.40986 252.17405 251.52424 250.46243 249.05863 247.20982 245.10901 242.93220
 240.71340 238.50759 236.31778 234.14697 231.99717 229.85436 227.87055 226.01774
 224.29094 222.75313 221.37332 220.13551 219.00771 217.95790 217.05209 216.18328
 215.41548 214.58567 213.67386 213.02805 212.46825 213.65654 216.46404 219.09882
 220.92050 222.60431 224.15057 225.51134 226.60095 227.19437 227.10165 226.33112
 225.96608 227.64545 231.48909 236.09415 240.81516 245.41096 249.68871 253.57767
 257.06650 260.29642 263.33813 266.15332 268.47525 270.37836 272.07626 273.95288
 275.72864 277.49930 279.06857 280.44910 281.64764 282.71219 283.68765 284.57620
 285.38770 286.11996 286.77258 287.70331
 366.78100 356.32605 345.74910 334.60615 323.00020 311.18525 299.04630 286.84035
 274.54340 262.43145 250.43150 239.72355 229.83660 220.93165 213.10470 206.09775
 199.92281 194.85186 191.42491 189.45796 188.48601 188.54106 189.36711 190.66616
 192.38221 194.46826 196.72231 199.07236 201.50841 203.97946 206.05851 207.89156
 209.50861 210.64466 210.86471 211.08376 211.01181 210.70786 210.33191 209.95296
 209.56101 209.26206 209.06111 208.91616 208.83521 209.15726 209.53431 209.91436
 210.69842 211.86747 213.10852 214.88257 216.80162 218.83567 220.92172 222.99577
 225.04682 227.12187 229.20992 231.30697 233.42702 235.59007 237.83712 240.19817
 242.81022 245.05227 247.04532 248.80137 250.20942 251.32347 252.13652 252.44357
 252.47162 252.23667 251.58772 250.52677 249.12382 247.27587 245.17592 242.99997
 240.78203 238.57708 236.38813 234.21818 232.06923 229.92728 227.94433 226.09238
 224.36643 222.82948 221.45053 220.21358 219.08663 218.03768 217.13273 216.26478
 215.49783 214.66888 213.75793 213.11298 212.55403 213.71736 216.46584 219.12166
 221.00121 222.67470 224.19228 225.53784 226.65877 227.27867 227.10825 226.20000
 225.80072 227.57137 231.46941 236.08012 240.79153 245.37981 249.65764 253.54610
 257.02747 260.24670 263.28339 266.10486 268.42725 270.32120 272.00711 273.90988
 275.68115 277.44873 279.01666 280.39630 281.59357 282.65771 283.63177 284.52197
 285.33286 286.06857 286.71927 287.65021
 366.78100 356.32685 345.75070 334.60855 323.00340 311.18925 299.05109 286.84594
 274.54979 262.43864 250.43949 239.73234 229.84619 220.94204 213.11589 206.10974
 199.93559 194.86543 191.43928 189.47313 188.50198 188.55783 189.38468 190.68453
 192.40138 194.48823 196.74308 199.09393 201.53078 204.00262 206.08247 207.91632
 209.53417 210.67102 210.89187 211.11172 211.04057 210.73742 210.36227 209.98412
 209.59296 209.29481 209.09466 208.95051 208.87036 209.19321 209.57106 209.95191
 210.73676 211.90661 213.14846 214.92330 216.84315 218.87800 220.96485 223.03970
 225.09155 227.16740 229.25625 231.35410 233.47495 235.63880 237.88664 240.24849
 242.86134 245.10419 247.09804 248.85489 250.26374 251.37859 252.19244 252.50029
 252.52914 252.29499 251.64683 250.58668 249.18453 247.33738 245.23823 243.06308
 240.84593 238.64178 236.45363 234.28448 232.13633 229.99517 228.01302 226.16187
 224.43672 222.90057 221.52242 220.28627 219.16012 218.11197 217.20782 216.34067
 215.57451 214.74636 213.83621 213.19206 212.63391 213.77443 216.46899 219.13939
 221.08601 222.73477 224.22614 225.56480 226.70792 227.36658 227.12555 226.07790
 225.64340 227.50403 231.45303 236.07069 240.77148 245.34760 249.62335 253.51164
 256.98575 260.19437 263.22519 266.05402 268.37958 270.26953 271.93784 273.84180
 275.62991 277.39587 278.95999 280.33658 281.53262 282.59671 283.57120 284.46198
 285.27164 286.01160 286.65894 287.59189
 366.78100 356.32764 345.75228 334.61092 323.00656 311.19320 299.05584 286.85149
 274.55613 262.44577 250.44741 239.74105 229.85569 220.95233 213.12697 206.12161
 199.94825 194.87889 191.45353 189.48817 188.51781 188.57446 189.40210 190.70274
 192.42038 194.50802 196.76366 199.11530 201.55294 204.02558 206.10622 207.94086
 209.55950 210.69714 210.91879 211.13943 211.06907 210.76671 210.39235 210.01499
 209.62463 209.32727 209.12791 208.98455 208.90519 209.22883 209.60747 209.98911
 210.77476 211.94540 213.18804 214.96368 216.88432 218.91996 221.00760 223.08324
 225.13588 227.21252 229.30216 231.40080 233.52244 235.68708 237.93573 240.29837
 242.91201 245.15565 247.15029 248.90793 250.31757 251.43321 252.24785 252.55649
 252.58613 252.35277 251.70541 250.64606 249.24470 247.39834 245.29998 243.12562
 240.90926 238.70590 236.51854 234.35018 232.20282 230.06246 228.08110 226.23074
 224.50638 222.97103 221.59367 220.35831 219.23295 218.18559 217.28223 216.41587
 215.65051 214.82315 213.91379 213.27043 212.71307 213.83017 216.46944 219.15878
 221.16603 222.80237 224.24300 225.57365 226.75989 227.46214 227.14912 225.97427
 225.50446 227.43968 231.43513 236.06247 240.75107 245.31258 249.58452 253.47008
 256.93707 260.13541 263.16122 265.99915 268.33350 270.22595 271.90482 273.78629
 275.57004 277.33188 278.89343 280.26834 281.46378 282.52646 283.50064 284.39233
 285.20456 285.94373 286.59686 287.52902
 366.78100 356.32856 345.75413 334.61369 323.01026 311.19782 299.06139 286.85795
 274.56352 262.45408 250.45665 239.75121 229.86677 220.96434 213.13990 206.13547
 199.96303 194.89460 191.47016 189.50573 188.53629 188.59385 189.42242 190.72398
 192.44255 194.53111 196.78768 199.14024 201.57881 204.05237 206.13394 207.96950
 209.58906 210.72763 210.95019 211.17176 211.10232 210.80089 210.42745 210.05102
 209.66158 209.36514 209.16671 209.02427 208.94584 209.27040 209.64997 210.03253
 210.81910 211.99066 213.23423 215.01079 216.93235 218.96892 221.05748 223.13405
 225.18761 227.26518 229.35574 231.45531 233.57787 235.74343 237.99300 240.35656
 242.97113 245.21569 247.21126 248.96982 250.38039 251.49695 252.31252 252.62208
 252.65264 252.42021 251.77377 250.71534 249.31490 247.46947 245.37203 243.19860
 240.98316 238.78072 236.59429 234.42685 232.28042 230.14098 228.16055 226.31111
 224.58768 223.05324 221.67681 220.44237 219.31793 218.27150 217.36906 216.50363
 215.73919 214.91276 214.00432 213.36189 212.80545 213.89243 216.46053 219.18513
 221.24884 222.84630 224.27083 225.57893 226.79060 227.56581 227.19168 225.87491
 225.36536 227.37596 231.41801 236.05878 240.73601 245.28006 249.54599 253.42870
 256.88940 260.07706 263.09622 265.94064 268.27725 270.16788 271.86163 273.76913
 275.49741 277.25198 278.81415 280.19016 281.38370 282.44699 283.42148 284.31293
 285.12744 285.86572 286.52002 287.45111
 366.78100 356.32929 345.75557 334.61586 323.01314 311.20143 299.06571 286.86300
 274.56929 262.46057 250.46386 239.75914 229.87543 220.97371 213.15000 206.14628
 199.97457 194.90686 191.48314 189.51943 188.55071 188.60900 189.43828 190.74057
 192.45986 194.54914 196.80643 199.15971 201.59900 204.07328 206.15557 207.99185
 209.61214 210.75143 210.97471 211.19700 211.12828 210.82757 210.45485 210.07914
 209.69043 209.39471 209.19700 209.05528 208.97757 209.30285 209.68314 210.06642
 210.85371 212.02600 213.27028 215.04757 216.96985 219.00714 221.09642 223.17371
 225.22800 227.30628 229.39757 231.49785 233.62114 235.78742 238.03771 240.40199
 243.01728 245.26257 247.25885 249.01814 250.42942 251.54671 252.36299 252.67328
 252.70457 252.47285 251.82714 250.76942 249.36971 247.52499 245.42828 243.25557
 241.04085 238.83914 236.65342 234.48671 232.34099 230.20228 228.22256 226.37385
 224.65114 223.11742 221.74171 220.50799 219.38428 218.33856 217.43685 216.57214
 215.80842 214.98271 214.07499 213.43328 212.87756 213.94411 216.46396 219.18896
 221.36029 222.89751 224.21983 225.59007 226.88678 227.67657 227.21394 225.77773
 225.23926 227.32053 231.40375 236.06001 240.72394 245.24611 249.50383 253.38622
 256.84564 260.02679 263.04163 265.89816 268.24918 270.14462 271.87482 273.49750
 275.44144 277.18063 278.72543 280.09369 281.28552 282.34756 283.32120 284.21255
 285.02872 285.77158 286.42892 287.35687
 366.78100 356.32994 345.75689 334.61783 323.01578 311.20472 299.06966 286.86761
 274.57455 262.46650 250.47044 239.76638 229.88333 220.98227 213.15922 206.15616
 199.98510 194.91805 191.49499 189.53194 188.56388 188.62283 189.45277 190.75571
 192.47566 194.56560 196.82355 199.17749 201.61743 204.09238 206.17532 208.01227
 209.63321 210.77315 210.99710 211.22004 211.15199 210.85193 210.47987 210.10482
 209.71676 209.42171 209.22465 209.08359 209.00654 209.33248 209.71343 210.09737
 210.88531 212.05826 213.30320 215.08115 217.00409 219.04203 221.13198 223.20992
 225.26487 227.34381 229.43575 231.53670 233.66064 235.82759 238.07853 240.44348
 243.05942 245.30536 247.30231 249.06225 250.47420 251.59214 252.40908 252.72003
 252.75197 252.52092 251.87586 250.81880 249.41975 247.57569 245.47964 243.30758
 241.09352 238.89247 236.70741 234.54136 232.39630 230.25824 228.27919 226.43113
 224.70908 223.17602 221.80096 220.56791 219.44485 218.39980 217.49874 216.63468
 215.87163 215.04657 214.13952 213.49846 212.94341 213.99141 216.46744 219.19556
 221.44328 222.97977 224.21884 225.60365 226.94339 227.72285 227.21370 225.72447
 225.16548 227.27953 231.38933 236.05873 240.70728 245.20599 249.45665 253.34079
 256.79932 259.97128 262.97971 265.84488 268.20496 270.10175 271.85004 273.49835
 275.34491 277.07437 278.61771 279.98584 281.17825 282.23849 283.21454 284.10583
 284.92267 285.66928 286.32748 287.25653
 366.78100 356.33072 345.75844 334.62016 323.01888 311.20860 299.07432 286.87304
 274.58076 262.47348 250.47820 239.77491 229.89263 220.99235 213.17007 206.16779
 199.99751 194.93123 191.50895 189.54667 188.57939 188.63911 189.46983 190.77355
 192.49427 194.58499 196.84371 199.19843 201.63915 204.11487 206.19859 208.03630
 209.65802 210.79874 211.02346 211.24718 211.17990 210.88062 210.50934 210.13506
 209.74778 209.45350 209.25722 209.11694 209.04066 209.36738 209.74910 210.13382
 210.92254 212.09626 213.34198 215.12069 217.04441 219.08313 221.17385 223.25257
 225.30829 227.38801 229.48073 231.58245 233.70717 235.87489 238.12661 240.49233
 243.10905 245.35577 247.35349 249.11421 250.52693 251.64565 252.46337 252.77508
 252.80780 252.57752 251.93324 250.87696 249.47868 247.63540 245.54012 243.36884
 241.15556 238.95528 236.77100 234.60572 232.46144 230.32416 228.34588 226.49860
 224.77732 223.24504 221.87076 220.63847 219.51619 218.47191 217.57163 216.70835
 215.94607 215.12179 214.21551 213.57523 213.02095 214.04373 216.46016 219.21761
 221.50909 223.04866 224.24686 225.61520 226.96750 227.73724 227.21693 225.72316
 225.14171 227.24232 231.36592 236.05165 240.68803 245.16603 249.41177 253.29950
 256.75604 259.91653 262.91626 265.78687 268.15427 270.05194 271.80646 273.50491
 275.24918 276.97073 278.51584 279.88464 281.07639 282.13788 283.11313 284.00577
 284.82190 285.56802 286.22638 287.15344
 366.78100 356.33149 345.75998 334.62246 323.02195 311.21244 299.07893 286.87842
 274.58690 262.48039 250.48588 239.78337 229.90186 221.00234 213.18083 206.17932
 200.00981 194.94429 191.52278 189.56127 188.59476 188.65525 189.48673 190.79122
 192.51271 194.60420 196.86369 199.21917 201.66066 204.13715 206.22164 208.06013
 209.68261 210.82410 211.04959 211.27408 211.20757 210.90905 210.53854 210.16503
 209.77852 209.48501 209.28949 209.14998 209.07447 209.40196 209.78445 210.16993
 210.95942 212.13391 213.38040 215.15988 217.08437 219.12386 221.21535 223.29484
 225.35132 227.43181 229.52530 231.62779 233.75328 235.92176 238.17425 240.54074
 243.15823 245.40572 247.40420 249.16569 250.57918 251.69867 252.51716 252.82964
 252.86313 252.63362 251.99011 250.93460 249.53708 247.69457 245.60006 243.42955
 241.21703 239.01752 236.83401 234.66950 232.52599 230.38947 228.41196 226.56545
 224.84494 223.31343 221.93991 220.70840 219.58689 218.54338 217.64387 216.78135
 216.01984 215.19633 214.29082 213.65131 213.09779 214.09537 216.45222 219.23846
 221.57962 223.10471 224.27045 225.61458 226.97861 227.75423 227.22546 225.74556
 225.14626 227.20441 231.33400 236.04176 240.67026 245.13065 249.37212 253.26118
 256.71396 259.86478 262.85608 265.73273 268.10941 270.01047 271.76392 273.46124
 275.16721 276.87515 278.41763 279.78616 280.97614 282.03781 283.01193 283.90375
 284.72250 285.46619 286.12512 287.05142
 366.78100 356.33217 345.76134 334.62451 323.02468 311.21585 299.08302 286.88319
 274.59236 262.48653 250.49270 239.79087 229.91004 221.01121 213.19038 206.18955
 200.02072 194.95588 191.53505 189.57422 188.60839 188.66956 189.50173 190.80690
 192.52907 194.62124 196.88141 199.23758 201.67975 204.15692 206.24209 208.08126
 209.70443 210.84660 211.07277 211.29794 211.23211 210.93428 210.56445 210.19162
 209.80579 209.51296 209.31813 209.17930 209.10447 209.43264 209.81581 210.20198
 210.99215 212.16732 213.41448 215.19465 217.11982 219.15999 221.25216 223.33233
 225.38950 227.47067 229.56484 231.66801 233.79418 235.96335 238.21652 240.58369
 243.20186 245.45003 247.44920 249.21137 250.62554 251.74571 252.56488 252.87805
 252.91222 252.68339 252.04056 250.98573 249.58890 247.74707 245.65324 243.48341
 241.27158 239.07275 236.88992 234.72608 232.58325 230.44742 228.47059 226.62476
 224.90493 223.37410 222.00127 220.77044 219.64961 218.60678 217.70795 216.84612
 216.08529 215.26246 214.35763 213.71880 213.16597 214.14233 216.44908 219.25436
 221.65410 223.15942 224.28584 225.60286 226.97865 227.77435 227.23488 225.77489
 225.16679 227.17229 231.30083 236.03424 240.65765 245.10074 249.33603 253.22493
 256.67459 259.81540 262.79822 265.67966 268.06635 269.97202 271.72223 273.40573
 275.09073 276.78040 278.31702 279.68454 280.87433 281.93442 282.90948 283.80069
 284.61578 285.36108 286.02066 286.93552
 366.78100 356.33280 345.76260 334.62640 323.02719 311.21899 299.08679 286.88759
 274.59739 262.49219 250.49899 239.79778 229.91758 221.01938 213.19918 206.19898
 200.03078 194.96657 191.54637 189.58617 188.62097 188.68277 189.51557 190.82137
 192.54416 194.63696 196.89776 199.25456 201.69736 204.17516 206.26096 208.10075
 209.72455 210.86735 211.09415 211.31995 211.25475 210.95754 210.58834 210.21614
 209.83094 209.53874 209.34454 209.20634 209.13213 209.46093 209.84473 210.23153
 211.02233 212.19813 213.44593 215.22672 217.15252 219.19332 221.28612 223.36692
 225.42472 227.50652 229.60131 231.70511 233.83191 236.00171 238.25551 240.62331
 243.24210 245.49090 247.49070 249.25350 250.66830 251.78910 252.60890 252.92269
 252.95749 252.72929 252.08709 251.03289 249.63669 247.79549 245.70228 243.53308
 241.32188 239.12368 236.94148 234.77828 232.63608 230.50087 228.52467 226.67947
 224.96027 223.43007 222.05787 220.82766 219.70746 218.66526 217.76706 216.90586
 216.14566 215.32346 214.41925 213.78105 213.22885 214.18626 216.44827 219.26999
 221.72426 223.21423 224.29906 225.58582 226.96515 227.78378 227.24109 225.80798
 225.19867 227.15213 231.27415 236.03078 240.64987 245.07552 249.30313 253.19156
 256.63882 259.77002 262.74399 265.62814 268.02179 269.93051 271.67590 273.34897
 275.01416 276.68576 278.21878 279.58365 280.77295 281.83185 282.80551 283.69543
 284.51221 285.25366 285.91049 286.82462
 366.78100 356.33339 345.76379 334.62818 323.02958 311.22197 299.09037 286.89176
 274.60215 262.49755 250.50494 239.80434 229.92473 221.02713 213.20752 206.20792
 200.04031 194.97670 191.55710 189.59749 188.63289 188.69528 189.52868 190.83507
 192.55846 194.65186 196.91325 199.27065 201.71404 204.19244 206.27883 208.11923
 209.74362 210.88701 211.11441 211.34080 211.27620 210.97959 210.61099 210.23938
 209.85477 209.56317 209.36956 209.23196 209.15835 209.48775 209.87214 210.25954
 211.05093 212.22732 213.47572 215.25711 217.18351 219.22490 221.31830 223.39969
 225.45808 227.54048 229.63587 231.74027 233.86766 236.03806 238.29245 240.66085
 243.28024 245.52963 247.53003 249.29342 250.70882 251.83021 252.65061 252.96500
 253.00039 252.77279 252.13118 251.07758 249.68197 247.84137 245.74876 243.58016
 241.36955 239.17194 236.99034 234.82773 232.68613 230.55152 228.57592 226.73131
 225.01270 223.48310 222.11149 220.88189 219.76228 218.72068 217.82307 216.96247
 216.20286 215.38125 214.47765 213.84004 213.28844 214.22852 216.44955 219.28265
 221.78830 223.27057 224.31355 225.56728 226.93860 227.77495 227.24216 225.84470
 225.24013 227.14607 231.25642 236.03197 240.64714 245.05614 249.27614 253.16386
 256.60907 259.72992 262.69229 265.57654 267.97583 269.88779 271.62836 273.29367
 274.94226 276.59253 278.11859 279.48285 280.67087 281.72812 282.69907 283.58896
 284.40125 285.14243 285.79605 286.70596
 366.78100 356.33392 345.76485 334.62977 323.03170 311.22462 299.09355 286.89547
 274.60640 262.50232 250.51025 239.81017 229.93110 221.03402 213.21495 206.21587
 200.04880 194.98572 191.56665 189.60757 188.64350 188.70642 189.54035 190.84727
 192.57120 194.66512 196.92705 199.28497 201.72890 204.20782 206.29475 208.13567
 209.76060 210.90452 211.13245 211.35937 211.29530 210.99922 210.63115 210.26007
 209.87600 209.58492 209.39185 209.25477 209.18170 209.51162 209.89655 210.28447
 211.07640 212.25332 213.50225 215.28417 217.21110 219.25302 221.34695 223.42887
 225.48780 227.57072 229.66665 231.77157 233.89950 236.07042 238.32534 240.69427
 243.31419 245.56412 247.56504 249.32897 250.74489 251.86682 252.68774 253.00267
 253.03859 252.81152 252.17044 251.11737 249.72229 247.88222 245.79014 243.62207
 241.41199 239.21492 237.03384 234.87177 232.73069 230.59662 228.62154 226.77747
 225.05939 223.53032 222.15924 220.93017 219.81109 218.77002 217.87294 217.01287
 216.25379 215.43272 214.52964 213.89257 213.34149 214.26749 216.45525 219.29149
 221.84431 223.33073 224.33641 225.55301 226.89989 227.73950 227.23193 225.88728
 225.29332 227.15279 231.24771 236.03708 240.64926 245.04350 249.25609 253.14224
 256.58383 259.69382 262.64465 265.52393 267.92456 269.83679 271.57193 273.22958
 274.86908 276.50668 278.02826 279.39114 280.57892 281.63516 282.60559 283.49594
 284.30750 285.05038 285.70999 286.61414
 366.78100 356.33441 345.76581 334.63122 323.03363 311.22704 299.09644 286.89885
 274.61026 262.50667 250.51507 239.81548 229.93689 221.04030 213.22170 206.22311
 200.05652 194.99393 191.57533 189.61674 188.65315 188.71656 189.55096 190.85837
 192.58278 194.67718 196.93959 199.29800 201.74241 204.22181 206.30922 208.15063
 209.77604 210.92044 211.14885 211.37626 211.31267 211.01707 210.64948 210.27889
 209.89530 209.60470 209.41211 209.27552 209.20293 209.53333 209.91874 210.30715
 211.09956 212.27696 213.52637 215.30878 217.23618 219.27859 221.37300 223.45541
 225.51481 227.59822 229.69463 231.80004 233.92844 236.09985 238.35526 240.72467
 243.34507 245.59548 247.59689 249.36130 250.77770 251.90011 252.72152 253.03693
 253.07333 252.84674 252.20615 251.15355 249.75896 247.91937 245.82778 243.66018
 241.45059 239.25400 237.07341 234.91181 232.77122 230.63763 228.66304 226.81944
 225.10185 223.57326 222.20267 220.97407 219.85548 218.81489 217.91830 217.05870
 216.30011 215.47952 214.57693 213.94033 213.38974 214.30380 216.46335 219.29788
 221.89522 223.39209 224.36436 225.54175 226.85564 227.68597 227.20522 225.91777
 225.34569 227.17252 231.24907 236.04738 240.66116 245.04485 249.24966 253.13255
 256.56827 259.66486 262.59842 265.46774 267.86520 269.77570 271.50620 273.16135
 274.79608 276.42029 277.93744 279.29980 280.48618 281.54184 282.51041 283.39767
 284.21518 284.96411 285.62717 286.50925
 366.78100 356.33482 345.76663 334.63245 323.03526 311.22908 299.09889 286.90171
 274.61352 262.51034 250.51916 239.81997 229.94179 221.04560 213.22742 206.22923
 200.06305 195.00086 191.58268 189.62450 188.66131 188.72513 189.55994 190.86776
 192.59257 194.68739 196.95020 199.30902 201.75384 204.23365 206.32147 208.16328
 209.78910 210.93391 211.16273 211.39055 211.32736 211.03218 210.66499 210.29481
 209.91162 209.62144 209.42925 209.29307 209.22089 209.55170 209.93752 210.32633
 211.11915 212.29696 213.54678 215.32959 217.25741 219.30023 221.39504 223.47786
 225.53767 227.62149 229.71830 231.82412 233.95293 236.12475 238.38057 240.75038
 243.37120 245.62201 247.62383 249.38864 250.80546 251.92827 252.75009 253.06591
 253.10272 252.87654 252.23635 251.18417 249.78998 247.95080 245.85961 243.69243
 241.48325 239.28706 237.10688 234.94569 232.80551 230.67232 228.69814 226.85495
 225.13777 223.60959 222.23940 221.01122 219.89303 218.85285 217.95666 217.09748
 216.33929 215.51911 214.61693 213.98074 213.43056 214.33630 216.47621 219.30089
 221.93517 223.45718 224.40182 225.53177 226.79713 227.60603 227.16469 225.95287
 225.40269 227.18987 231.25455 236.06490 240.67984 245.05406 249.24956 253.12805
 256.55914 259.64514 262.56436 265.42526 267.81851 269.71884 271.43283 273.07846
 274.71445 276.33646 277.84988 279.21082 280.39554 281.44867 282.41144 283.29767
 284.11969 284.88458 285.53516 286.41107
 366.78100 356.33503 345.76705 334.63308 323.03610 311.23013 299.10015 286.90318
 274.61521 262.51223 250.52126 239.82228 229.94431 221.04833 213.23036 206.23239
 200.06641 195.00444 191.58646 189.62849 188.66551 188.72954 189.56457 190.87259
 192.59762 194.69264 196.95567 199.31469 201.75972 204.23974 206.32777 208.16980
 209.79582 210.94085 211.16987 211.39790 211.33492 211.03995 210.67298 210.30300
 209.92003 209.63005 209.43808 209.30210 209.23013 209.56116 209.94718 210.33621
 211.12923 212.30726 213.55728 215.34031 217.26834 219.31136 221.40639 223.48941
 225.54944 227.63346 229.73049 231.83652 233.96554 236.13757 238.39359 240.76362
 243.38464 245.63567 247.63770 249.40272 250.81975 251.94277 252.76480 253.08082
 253.11785 252.89188 252.25190 251.19993 249.80595 247.96698 245.87600 243.70903
 241.50005 239.30408 237.12411 234.96313 232.82316 230.69018 228.71621 226.87323
 225.15626 223.62829 222.25831 221.03034 219.91236 218.87239 217.97641 217.11744
 216.35947 215.53949 214.63752 214.00154 213.45157 214.35791 216.49924 219.30711
 221.95576 223.52222 224.46069 225.54628 226.75050 227.50490 227.08475 225.94246
 225.44173 227.23555 231.27354 236.07806 240.70886 245.08374 249.26871 253.14163
 256.56577 259.64093 262.53738 265.38577 267.77582 269.67068 271.36819 273.00299
 274.63507 276.24747 277.76126 279.12512 280.31229 281.37180 282.35696 283.26196
 284.08301 284.81424 285.44681 286.31381
 366.78100 356.33534 345.76767 334.63401 323.03735 311.23168 299.10202 286.90535
 274.61769 262.51503 250.52436 239.82570 229.94804 221.05237 213.23471 206.23705
 200.07138 195.00972 191.59205 189.63439 188.67173 188.73606 189.57140 190.87974
 192.60507 194.70041 196.96375 199.32308 201.76842 204.24875 206.33709 208.17943
 209.80576 210.95110 211.18044 211.40877 211.34611 211.05145 210.68478 210.31512
 209.93245 209.64279 209.45113 209.31546 209.24380 209.57514 209.96147 210.35081
 211.14415 212.32248 213.57282 215.35615 217.28449 219.32783 221.42316 223.50650
 225.56684 227.65117 229.74851 231.85484 233.98418 236.15652 238.41285 240.78319
 243.40453 245.65586 247.65820 249.42354 250.84087 251.96421 252.78654 253.10288
 253.14022 252.91455 252.27489 251.22323 249.82956 247.99090 245.90024 243.73357
 241.52491 239.32924 237.14958 234.98892 232.84925 230.71659 228.74293 226.90026
 225.18360 223.65594 222.28627 221.05861 219.94094 218.90128 218.00562 217.14695
 216.38929 215.56963 214.66796 214.03230 213.48264 214.38484 216.51640 219.31128
 221.97003 223.57018 224.51093 225.56639 226.72237 227.43124 227.01236 225.88716
 225.41327 227.22702 231.30534 236.14761 240.77808 245.14818 249.32381 253.18265
 256.59122 259.64682 262.51447 265.32144 267.68106 269.55334 271.22980 272.87479
 274.53610 276.15170 277.66345 279.02472 280.20807 281.26645 282.25656 283.16425
 283.97302 284.67233 285.28497 286.08295
 366.78100 356.33635 345.76970 334.63704 323.04139 311.23674 299.10809 286.91244
 274.62578 262.52413 250.53448 239.83683 229.96017 221.06552 213.24887 206.25222
 200.08757 195.02691 191.61026 189.65361 188.69196 188.75731 189.59365 190.90300
 192.62935 194.72570 196.99004 199.35039 201.79674 204.27809 206.36744 208.21078
 209.83813 210.98448 211.21483 211.44418 211.38252 211.08887 210.72322 210.35457
 209.97291 209.68426 209.49361 209.35896 209.28831 209.62065 210.00800 210.39835
 211.19270 212.37205 213.62339 215.40774 217.33709 219.38144 221.47778 223.56213
 225.62348 227.70883 229.80718 231.91452 234.04487 236.21822 238.47557 240.84692
 243.46926 245.72161 247.72496 249.49131 250.90965 252.03400 252.85735 253.17470
 253.21305 252.98839 252.34974 251.29909 249.90644 248.06879 245.97913 243.81348
 241.60583 239.41118 237.23252 235.07287 232.93422 230.80257 228.82992 226.98826
 225.27261 223.74596 222.37731 221.15066 220.03400 218.99535 218.10070 217.24305
 216.48639 215.66774 214.76709 214.13244 213.58379 214.45100 216.49989 219.30247
 222.03822 223.65234 224.54909 225.54034 226.63376 227.33223 226.99057 225.90639
 225.42441 227.22617 231.31683 236.17542 240.82002 245.18852 249.35487 253.20404
 256.62842 259.66949 262.51373 265.28015 267.58871 269.42828 271.08594 272.75607
 274.40848 276.04465 277.53546 278.84940 280.03140 281.08572 282.06366 282.92950
 283.55072 284.23254 284.84024 285.64182
 366.78100 356.33757 345.77214 334.64071 323.04627 311.24284 299.11541 286.92098
 274.63555 262.53512 250.54669 239.85026 229.97482 221.08139 213.26596 206.27053
 200.10710 195.04767 191.63224 189.67681 188.71637 188.78294 189.62051 190.93108
 192.65865 194.75622 197.02179 199.38336 201.83092 204.31349 206.40406 208.24863
 209.87720 211.02477 211.25634 211.48691 211.42647 211.13404 210.76961 210.40218
 210.02175 209.73432 209.54489 209.41145 209.34202 209.67559 210.06416 210.45573
 211.25130 212.43187 213.68444 215.47000 217.40057 219.44614 221.54371 223.62928
 225.69185 227.77842 229.87799 231.98655 234.11812 236.29269 238.55126 240.92383
 243.54740 245.80097 247.80554 249.57310 250.99267 252.11824 252.94281 253.26138
 253.30095 253.07752 252.44008 251.39065 249.99922 248.16279 246.07436 243.90993
 241.70350 239.51007 237.33263 235.17420 233.03677 230.90634 228.93491 227.09448
 225.38005 223.85462 222.48718 221.26175 220.14632 219.10889 218.21546 217.35903
 216.60360 215.78617 214.88673 214.25330 213.70587 214.53468 216.50020 219.23360
 222.06992 223.63229 224.45454 225.45830 226.58871 227.30206 226.93187 226.12836
 225.45241 227.13242 231.22818 236.17642 240.86755 245.24178 249.39865 253.24489
 256.67218 259.73273 262.58102 265.30493 267.60870 269.42273 270.99109 272.67319
 274.31314 275.81772 277.28900 278.30469 279.35327 280.34290 281.27930 282.13751
 282.90500 283.60806 284.22226 285.00497
 366.78100 356.33817 345.77334 334.64251 323.04868 311.24585 299.11902 286.92519
 274.64036 262.54053 250.55269 239.85686 229.98203 221.08920 213.27437 206.27954
 200.11671 195.05788 191.64305 189.68822 188.72839 188.79556 189.63373 190.94490
 192.67307 194.77124 197.03741 199.39958 201.84774 204.33091 206.42208 208.26725
 209.89642 211.04459 211.27676 211.50793 211.44810 211.15627 210.79244 210.42561
 210.04578 209.75895 209.57012 209.43729 209.36846 209.70263 210.09179 210.48396
 211.28013 212.46130 213.71447 215.50064 217.43181 219.47798 221.57615 223.66232
 225.72549 227.81266 229.91283 232.02200 234.15417 236.32934 238.58851 240.96168
 243.58585 245.84001 247.84518 249.61335 251.03352 252.15969 252.98486 253.30403
 253.34420 253.12137 252.48454 251.43571 250.04488 248.20905 246.12122 243.95739
 241.75156 239.55873 237.38190 235.22406 233.08723 230.95740 228.98657 227.14674
 225.43291 223.90808 222.54125 221.31642 220.20159 219.16476 218.27193 217.41610
 216.66127 215.84444 214.94561 214.31278 213.76595 214.59184 216.63293 219.21973
 221.94122 223.47505 224.49652 225.59956 226.75064 227.36230 226.84914 226.28358
 225.45293 227.27548 231.27919 236.10060 240.81900 245.24998 249.41026 253.23285
 256.65524 259.73389 262.63770 265.30548 267.52490 269.30829 270.91391 272.62500
 274.21555 275.59772 276.81183 278.10248 279.37271 280.60843 281.73584 282.75720
 283.67578 284.49380 285.20840 286.11908
 366.78100 356.33637 345.76974 334.63711 323.04148 311.23685 299.10822 286.91259
 274.62596 262.52432 250.53469 239.83706 229.96043 221.06580 213.24917 206.25254
 200.08791 195.02728 191.61065 189.65402 188.69239 188.75776 189.59413 190.90350
 192.62986 194.72623 196.99060 199.35097 201.79734 204.27871 206.36808 208.21145
 209.83882 210.98519 211.21556 211.44493 211.38330 211.08967 210.72404 210.35541
 209.97378 209.68514 209.49451 209.35988 209.28925 209.62162 210.00899 210.39936
 211.19373 212.37310 213.62447 215.40884 217.33821 219.38258 221.47895 223.56332
 225.62468 227.71005 229.80842 231.91579 234.04616 236.21953 238.47690 240.84827
 243.47064 245.72301 247.72638 249.49275 250.91112 252.03549 252.85886 253.17623
 253.21460 252.98996 252.35133 251.30070 249.90807 248.07044 245.98081 243.81518
 241.60755 239.41292 237.23429 235.07466 232.93603 230.80440 228.83177 226.99014
 225.27450 223.74787 222.37924 221.15261 220.03598 218.99735 218.10272 217.24509
 216.48846 215.66983 214.76920 214.13457 213.58594 214.51534 216.78104 219.19609
 221.82556 223.54254 224.71187 225.74524 226.76321 227.24522 226.83096 226.20415
 225.47408 227.28235 231.29588 236.12672 240.84523 245.26993 249.42551 253.24590
 256.66757 259.74539 262.67383 265.41620 267.75198 269.60214 271.14740 272.66034
 274.24420 275.58405 277.03979 278.49252 279.93469 281.21777 282.38843 283.44891
 284.40274 285.25211 285.99411 286.93970
 366.78100 356.33590 345.76880 334.63570 323.03959 311.23449 299.10539 286.90929
 274.62219 262.52009 250.52999 239.83189 229.95478 221.05968 213.24258 206.24548
 200.08038 195.01928 191.60218 189.64507 188.68297 188.74787 189.58377 190.89267
 192.61857 194.71447 196.97836 199.33826 201.78416 204.26506 206.35396 208.19686
 209.82376 210.96966 211.19955 211.42845 211.36635 211.07225 210.70615 210.33705
 209.95495 209.66584 209.47474 209.33964 209.26854 209.60044 209.98734 210.37724
 211.17113 212.35003 213.60093 215.38483 217.31373 219.35763 221.45353 223.53743
 225.59832 227.68322 229.78112 231.88802 234.01792 236.19082 238.44772 240.81861
 243.44051 245.69241 247.69531 249.46121 250.87911 252.00301 252.82590 253.14280
 253.18070 252.95560 252.31650 251.26540 249.87230 248.03420 245.94409 243.77799
 241.56989 239.37479 237.19569 235.03559 232.89649 230.76438 228.79128 226.94918
 225.23308 223.70598 222.33688 221.10978 219.99268 218.95357 218.05847 217.20037
 216.44327 215.62417 214.72307 214.08797 213.53886 214.48792 216.76846 219.28476
 221.65872 223.38997 224.66783 225.75085 226.58409 227.03847 226.90221 226.04742
 225.33629 227.17151 231.24403 236.10132 240.88510 245.28525 249.39757 253.16658
 256.55670 259.64560 262.53278 265.22626 267.57236 269.51797 271.19940 272.78751
 274.33206 275.82358 277.20984 278.52399 279.72803 280.80975 281.82446 282.77161
 283.62347 284.38205 285.04474 285.88925
 366.78100 356.33750 345.77200 334.64050 323.04600 311.24250 299.11500 286.92050
 274.63500 262.53450 250.54600 239.84950 229.97400 221.08050 213.26500 206.26951
 200.10601 195.04651 191.63101 189.67551 188.71501 188.78151 189.61901 190.92951
 192.65701 194.75451 197.02001 199.38151 201.82901 204.31151 206.40201 208.24651
 209.87501 211.02251 211.25401 211.48451 211.42401 211.13151 210.76701 210.39951
 210.01901 209.73151 209.54201 209.40852 209.33902 209.67252 210.06102 210.45252
 211.24802 212.42852 213.68102 215.46652 217.39702 219.44252 221.54002 223.62552
 225.68802 227.77452 229.87402 231.98252 234.11402 236.28852 238.54702 240.91952
 243.54302 245.79652 247.80102 249.56852 250.98802 252.11352 252.93802 253.25653
 253.29603 253.07253 252.43503 251.38553 249.99403 248.15753 246.06903 243.90453
 241.69803 239.50453 237.32703 235.16853 233.03103 230.90053 228.92903 227.08853
 225.37403 223.84853 222.48103 221.25553 220.14003 219.10253 218.20903 217.35253
 216.59703 215.77953 214.88003 214.24654 213.69904 214.57692 216.69061 219.38878
 221.72226 223.42192 224.67465 225.74734 226.46768 226.88791 226.87239 226.07851
 225.42210 227.23804 231.26892 236.10497 240.89667 245.32613 249.42030 253.18826
 256.55536 259.59750 262.47345 265.18381 267.52502 269.40140 270.97592 272.43588
 273.99866 275.50180 276.83923 278.07553 279.27325 280.33047 281.29626 282.24338
 283.09515 283.85370 284.51633 285.36081
 366.78100 356.33868 345.77437 334.64405 323.05073 311.24842 299.12210 286.92878
 274.64446 262.54515 250.55783 239.86251 229.98820 221.09588 213.28156 206.28725
 200.12493 195.06661 191.65230 189.69798 188.73866 188.80634 189.64503 190.95671
 192.68539 194.78408 197.05076 199.41344 201.86213 204.34581 206.43749 208.28318
 209.91286 211.06154 211.29422 211.52591 211.46659 211.17527 210.81196 210.44564
 210.06632 209.78001 209.59169 209.45937 209.39105 209.72574 210.11542 210.50810
 211.30479 212.48647 213.74015 215.52684 217.45852 219.50520 221.60389 223.69057
 225.75425 227.84193 229.94262 232.05230 234.18498 236.36067 238.62035 240.99403
 243.61872 245.87340 247.87908 249.64777 251.06845 252.19513 253.02081 253.34050
 253.38118 253.15886 252.52255 251.47423 250.08391 248.24860 246.16128 243.99796
 241.79265 239.60033 237.42401 235.26669 233.13038 231.00106 229.03074 227.19143
 225.47811 223.95379 222.58748 221.36316 220.24884 219.21253 218.32021 217.46489
 216.71057 215.89426 214.99594 214.36362 213.81731 214.65355 216.72768 219.41206
 221.68275 223.43495 224.85770 225.80963 226.48853 226.86565 226.70213 226.11386
 225.57114 227.48979 231.40268 236.15738 240.91603 245.36060 249.48163 253.24753
 256.59183 259.61639 262.46393 265.15833 267.48447 269.37387 270.92560 272.40244
 273.90564 275.35950 276.73056 278.10535 279.39563 280.71140 281.91183 282.99936
 283.97745 284.84845 285.60934 286.57904
 366.78100 356.33799 345.77298 334.64197 323.04796 311.24496 299.11795 286.92394
 274.63893 262.53892 250.55091 239.85490 229.97989 221.08689 213.27188 206.27687
 200.11386 195.05485 191.63984 189.68483 188.72482 188.79182 189.62981 190.94080
 192.66879 194.76678 197.03277 199.39476 201.84275 204.32575 206.41674 208.26173
 209.89072 211.03871 211.27070 211.50169 211.44168 211.14968 210.78567 210.41866
 210.03865 209.75164 209.56263 209.42962 209.36061 209.69461 210.08360 210.47559
 211.27158 212.45257 213.70556 215.49155 217.42254 219.46854 221.56653 223.65252
 225.71551 227.80250 229.90249 232.01148 234.14347 236.31847 238.57746 240.95045
 243.57444 245.82843 247.83342 249.60141 251.02140 252.14739 252.97239 253.29138
 253.33137 253.10836 252.47135 251.42234 250.03133 248.19532 246.10732 243.94331
 241.73730 239.54429 237.36728 235.20927 233.07226 230.94225 228.97125 227.13124
 225.41723 223.89222 222.52521 221.30020 220.18519 219.14818 218.25518 217.39917
 216.64416 215.82715 214.92814 214.29513 213.74812 214.63809 216.83974 219.35582
 221.72549 223.48508 224.96565 225.90286 226.54286 226.79793 226.58824 225.89957
 225.60889 227.56485 231.46132 236.22200 240.98944 245.44269 249.56197 253.31024
 256.61130 259.61310 262.45609 265.15884 267.54709 269.50443 271.10883 272.55020
 273.98254 275.56210 277.15280 278.71365 280.29440 281.69296 282.96893 284.12488
 285.16455 286.09036 286.89911 287.92981
 366.78100 356.33779 345.77257 334.64136 323.04715 311.24394 299.11672 286.92251
 274.63730 262.53708 250.54887 239.85266 229.97745 221.08423 213.26902 206.27381
 200.11060 195.05138 191.63617 189.68096 188.72074 188.78753 189.62532 190.93611
 192.66389 194.76168 197.02747 199.38925 201.83704 204.31983 206.41062 208.25540
 209.88419 211.03198 211.26377 211.49455 211.43434 211.14213 210.77791 210.41070
 210.03049 209.74328 209.55406 209.42085 209.35164 209.68542 210.07421 210.46600
 211.26179 212.44257 213.69536 215.48115 217.41194 219.45772 221.55551 223.64130
 225.70408 227.79087 229.89066 231.99945 234.13123 236.30602 238.56481 240.93759
 243.56138 245.81517 247.81996 249.58774 251.00753 252.13332 252.95811 253.27689
 253.31668 253.09347 252.45625 251.40704 250.01583 248.17962 246.09140 243.92719
 241.72098 239.52776 237.35055 235.19234 233.05513 230.92491 228.95370 227.11349
 225.39928 223.87406 222.50685 221.28164 220.16642 219.12921 218.23600 217.37979
 216.62457 215.80736 214.90815 214.27493 213.72772 214.64349 216.89227 219.32195
 221.76218 223.46053 224.97406 225.99983 226.55484 226.69897 226.52188 225.79428
 225.58408 227.57509 231.48399 236.25317 241.03528 245.48914 249.58743 253.30811
 256.59711 259.60889 262.43542 265.10123 267.49240 269.50500 271.20251 272.69632
 274.17062 275.88660 277.51895 279.14764 280.65042 281.97998 283.19302 284.29196
 285.28033 286.16049 286.92935 287.90921
 366.78100 356.33820 345.77340 334.64260 323.04880 311.24600 299.11920 286.92540
 274.64060 262.54080 250.55300 239.85720 229.98241 221.08961 213.27481 206.28001
 200.11721 195.05841 191.64361 189.68881 188.72901 188.79621 189.63441 190.94561
 192.67381 194.77201 197.03821 199.40041 201.84861 204.33181 206.42301 208.26821
 209.89741 211.04561 211.27781 211.50902 211.44922 211.15742 210.79362 210.42682
 210.04702 209.76022 209.57142 209.43862 209.36982 209.70402 210.09322 210.48542
 211.28162 212.46282 213.71602 215.50222 217.43342 219.47962 221.57782 223.66402
 225.72722 227.81442 229.91462 232.02383 234.15603 236.33123 238.59043 240.96363
 243.58783 245.84203 247.84723 249.61543 251.03563 252.16183 252.98703 253.30623
 253.34643 253.12363 252.48683 251.43803 250.04723 248.21143 246.12363 243.95983
 241.75403 239.56123 237.38444 235.22664 233.08984 230.96004 228.98924 227.14944
 225.43564 223.91084 222.54404 221.31924 220.20444 219.16764 218.27484 217.41904
 216.66424 215.84744 214.94864 214.31584 213.76904 214.67462 216.91066 219.33597
 221.72041 223.53508 225.03307 226.01071 226.45757 226.59038 226.53810 225.77866
 225.56656 227.57341 231.49382 236.26176 241.04128 245.48628 249.56032 253.26932
 256.57211 259.61115 262.44897 265.09637 267.43451 269.41821 271.11444 272.66293
 274.28806 276.10858 277.78979 279.44360 280.88846 282.16678 283.33304 284.38959
 285.33987 286.18607 286.92529 287.86737
 366.78100 356.33835 345.77371 334.64306 323.04942 311.24677 299.12013 286.92648
 274.64184 262.54219 250.55454 239.85890 229.98425 221.09161 213.27696 206.28232
 200.11967 195.06102 191.64638 189.69173 188.73209 188.79944 189.63780 190.94915
 192.67751 194.77586 197.04221 199.40457 201.85292 204.33628 206.42763 208.27299
 209.90234 211.05069 211.28305 211.51440 211.45476 211.16311 210.79947 210.43282
 210.05318 209.76653 209.57788 209.44524 209.37659 209.71095 210.10030 210.49266
 211.28901 212.47037 213.72372 215.51007 217.44143 219.48778 221.58614 223.67249
 225.73585 227.82320 229.92355 232.03291 234.16526 236.34062 238.59997 240.97333
 243.59768 245.85204 247.85739 249.62574 251.04610 252.17245 252.99781 253.31716
 253.35752 253.13487 252.49822 251.44958 250.05893 248.22329 246.13564 243.97200
 241.76635 239.57371 237.39706 235.23941 233.10277 230.97312 229.00248 227.16283
 225.44919 223.92454 222.55790 221.33325 220.21860 219.18196 218.28931 217.43367
 216.67902 215.86238 214.96373 214.33108 213.78444 214.69307 216.94501 219.35123
 221.65480 223.62494 225.12355 225.96318 226.35204 226.49513 226.52592 225.74409
 225.55339 227.59088 231.51689 236.27409 241.05215 245.48308 249.54539 253.23145
 256.52921 259.57693 262.43143 265.09552 267.43771 269.40546 271.07800 272.66745
 274.47018 276.32446 278.07083 279.73129 281.16830 282.43970 283.59964 284.65045
 285.59558 286.43719 287.17242 288.10938
 366.78100 356.33800 345.77299 334.64199 323.04799 311.24499 299.11798 286.92398
 274.63898 262.53898 250.55097 239.85497 229.97997 221.08697 213.27196 206.27696
 200.11396 195.05496 191.63995 189.68495 188.72495 188.79195 189.62994 190.94094
 192.66894 194.76694 197.03293 199.39493 201.84293 204.32593 206.41692 208.26192
 209.89092 211.03892 211.27091 211.50191 211.44191 211.14991 210.78590 210.41890
 210.03890 209.75190 209.56289 209.42989 209.36089 209.69489 210.08388 210.47588
 211.27188 212.45288 213.70587 215.49187 217.42287 219.46887 221.56686 223.65286
 225.71586 227.80286 229.90285 232.01185 234.14385 236.31885 238.57784 240.95084
 243.57484 245.82884 247.83383 249.60183 251.02183 252.14783 252.97282 253.29182
 253.33182 253.10882 252.47181 251.42281 250.03181 248.19581 246.10780 243.94380
 241.73780 239.54480 237.36779 235.20979 233.07279 230.94279 228.97178 227.13178
 225.41778 223.89278 222.52577 221.30077 220.18577 219.14877 218.25576 217.39976
 216.64476 215.82776 214.92875 214.29575 213.74875 214.68697 216.99185 219.34541
 221.64098 223.58673 225.13397 225.95335 226.32501 226.44820 226.39516 225.66573
 225.58357 227.64122 231.56296 236.30190 241.07877 245.52446 249.58429 253.25706
 256.52966 259.52530 262.35736 265.03378 267.42477 269.44473 271.10767 272.71048
 274.61288 276.46652 278.20294 279.85101 281.27728 282.53918 283.69046 284.73343
 285.67148 286.50681 287.23654 288.16650
 366.78100 356.33883 345.77466 334.64449 323.05132 311.24915 299.12298 286.92981
 274.64564 262.54647 250.55930 239.86413 229.98996 221.09779 213.28362 206.28945
 200.12728 195.06910 191.65493 189.70076 188.74159 188.80942 189.64825 190.96008
 192.68891 194.78774 197.05457 199.41740 201.86623 204.35006 206.44189 208.28772
 209.91755 211.06638 211.29921 211.53104 211.47187 211.18070 210.81753 210.45136
 210.07219 209.78602 209.59785 209.46568 209.39751 209.73234 210.12217 210.51500
 211.31183 212.49366 213.74749 215.53431 217.46614 219.51297 221.61180 223.69863
 225.76246 227.85029 229.95112 232.06095 234.19378 236.36961 238.62944 241.00327
 243.62810 245.88293 247.88876 249.65759 251.07842 252.20525 253.03108 253.35091
 253.39174 253.16957 252.53340 251.48523 250.09506 248.25989 246.17272 244.00955
 241.80438 239.61221 237.43604 235.27887 233.14269 231.01352 229.04335 227.20418
 225.49101 223.96684 222.60067 221.37650 220.26233 219.22616 218.33399 217.47882
 216.72465 215.90848 215.01031 214.37814 213.83197 214.73923 216.97513 219.35431
 221.67667 223.47745 225.06076 225.95628 226.31432 226.43097 226.30182 225.59703
 225.61470 227.67615 231.59383 236.31561 241.08467 245.55531 249.62628 253.31046
 256.58795 259.54819 262.30875 264.90396 267.26520 269.35135 271.15881 272.78845
 274.69025 276.52722 278.20877 279.83743 281.24689 282.49387 283.63159 284.66226
 285.58923 286.41473 287.13583 288.05484
 366.78100 356.34042 345.77785 334.64927 323.05770 311.25712 299.13254 286.94097
 274.65839 262.56081 250.57524 239.88166 230.00909 221.11851 213.30593 206.31336
 200.15278 195.09620 191.68363 189.73105 188.77348 188.84290 189.68332 190.99675
 192.72717 194.82759 197.09602 199.46044 201.91087 204.39629 206.48971 208.33714
 209.96856 211.11898 211.35341 211.58683 211.52926 211.23968 210.87810 210.51353
 210.13595 209.85138 209.66480 209.53422 209.46765 209.80407 210.19549 210.58992
 211.38834 212.57177 213.82719 215.61561 217.54904 219.59746 221.69788 223.78631
 225.85173 227.94116 230.04358 232.15500 234.28943 236.46685 238.72827 241.10370
 243.73012 245.98655 247.99397 249.76439 251.18682 252.31524 253.14267 253.46409
 253.50651 253.28594 252.65136 251.60478 250.21621 248.38263 246.29706 244.13548
 241.93190 239.74133 237.56675 235.41117 233.27660 231.14902 229.18045 227.34287
 225.63129 224.10872 222.74414 221.52156 220.40899 219.37441 218.48384 217.63026
 216.87768 216.06311 215.16653 214.53595 213.99138 214.83446 216.95415 219.37509
 221.70396 223.49126 225.08205 225.98662 226.25819 226.32791 226.31821 225.55212
 225.55809 227.61990 231.53001 236.28816 241.07690 245.55244 249.64377 253.34673
 256.64444 259.60721 262.32761 264.84686 267.11850 269.14511 270.98877 272.77246
 274.86929 276.77695 278.62991 280.28125 281.71036 282.97473 284.12830 285.17334
 286.11325 286.95026 287.68143 288.61322
 366.78100 356.34107 345.77914 334.65121 323.06028 311.26035 299.13642 286.94549
 274.66356 262.56663 250.58170 239.88877 230.01684 221.12691 213.31498 206.32305
 200.16312 195.10719 191.69526 189.74333 188.78640 188.85647 189.69754 191.01161
 192.74268 194.84375 197.11282 199.47789 201.92896 204.41503 206.50910 208.35717
 209.98924 211.14031 211.37538 211.60945 211.55252 211.26359 210.90266 210.53873
 210.16180 209.87787 209.69194 209.56201 209.49608 209.83315 210.22522 210.62029
 211.41936 212.60343 213.85950 215.64857 217.58264 219.63171 221.73278 223.82185
 225.88792 227.97799 230.08106 232.19313 234.32820 236.50627 238.76834 241.14441
 243.77148 246.02855 248.03662 249.80769 251.23076 252.35983 253.18790 253.50997
 253.55304 253.33311 252.69918 251.65325 250.26532 248.43239 246.34746 244.18653
 241.98360 239.79367 237.61974 235.46481 233.33088 231.20395 229.23602 227.39909
 225.68816 224.16623 222.80230 221.58037 220.46844 219.43451 218.54458 217.69165
 216.93972 216.12579 215.22986 214.59993 214.05600 214.88470 217.00308 219.38570
 221.65009 223.59758 225.18282 226.00510 226.17873 226.16393 226.49019 225.52803
 225.66434 227.68756 231.56670 236.28033 241.04781 245.53049 249.65065 253.37433
 256.70215 259.68903 262.40979 264.88614 267.08450 269.03815 270.81595 273.13519
 275.51138 277.72595 279.64230 281.32498 282.78119 284.06958 285.24503 286.30991
 287.26764 288.12051 288.86557 289.81506
 366.78100 356.34107 345.77913 334.65120 323.06027 311.26034 299.13640 286.94547
 274.66354 262.56660 250.58167 239.88874 230.01681 221.12687 213.31494 206.32301
 200.16307 195.10714 191.69521 189.74327 188.78634 188.85641 189.69748 191.01154
 192.74261 194.84368 197.11274 199.47781 201.92888 204.41495 206.50901 208.35708
 209.98915 211.14021 211.37528 211.60935 211.55242 211.26348 210.90255 210.53862
 210.16168 209.87775 209.69182 209.56189 209.49595 209.83302 210.22509 210.62015
 211.41922 212.60329 213.85935 215.64842 217.58249 219.63156 221.73262 223.82169
 225.88776 227.97782 230.08089 232.19296 234.32803 236.50609 238.76816 241.14423
 243.77129 246.02836 248.03643 249.80750 251.23056 252.35963 253.18770 253.50976
 253.55283 253.33290 252.69897 251.65303 250.26510 248.43217 246.34723 244.18630
 241.98337 239.79343 237.61950 235.46457 233.33064 231.20370 229.23577 227.39884
 225.68790 224.16597 222.80204 221.58011 220.46817 219.43424 218.54431 217.69137
 216.93944 216.12551 215.22958 214.59964 214.05571 214.89421 217.04332 219.38287
 221.59329 223.63501 225.16731 225.92926 226.12891 226.10716 226.37968 225.58104
 225.78929 227.75912 231.59201 236.29292 241.04768 245.51620 249.61452 253.36201
 256.72888 259.75620 262.51608 265.04642 267.26031 269.16895 271.01865 273.49942
 276.02246 278.26276 280.20135 281.90359 283.37674 284.68008 285.86917 286.94644
 287.91528 288.77808 289.53180 290.49231
 366.78100 356.34047 345.77794 334.64941 323.05788 311.25736 299.13283 286.94130
 274.65877 262.56124 250.57571 239.88218 230.00965 221.11913 213.30660 206.31407
 200.15354 195.09701 191.68448 189.73195 188.77442 188.84390 189.68437 190.99784
 192.72831 194.82878 197.09725 199.46172 201.91219 204.39767 206.49114 208.33861
 209.97008 211.12055 211.35502 211.58849 211.53096 211.24144 210.87991 210.51538
 210.13785 209.85332 209.66679 209.53626 209.46973 209.80621 210.19768 210.59215
 211.39062 212.57409 213.82956 215.61803 217.55150 219.59998 221.70045 223.78892
 225.85439 227.94386 230.04633 232.15780 234.29227 236.46975 238.73122 241.10669
 243.73316 245.98963 247.99710 249.76757 251.19004 252.31852 253.14599 253.46746
 253.50993 253.28940 252.65487 251.60834 250.21981 248.38629 246.30076 244.13923
 241.93570 239.74517 237.57064 235.41511 233.28058 231.15306 229.18453 227.34700
 225.63547 224.11294 222.74841 221.52588 220.41335 219.37883 218.48830 217.63477
 216.88224 216.06771 215.17118 214.54065 213.99612 214.87444 217.07745 219.35861
 221.58928 223.64728 225.10945 225.78323 225.97589 226.10802 226.08025 225.57620
 225.76343 227.77063 231.60915 236.30487 241.06076 245.52275 249.62814 253.36954
 256.70471 259.70087 262.46848 265.06500 267.37772 269.30344 271.16290 273.58023
 275.87860 278.07968 279.98434 281.65680 283.10413 284.38467 285.55298 286.61136
 287.56326 288.41095 289.15146 290.09518
 366.78100 356.34056 345.77812 334.64969 323.05825 311.25781 299.13337 286.94194
 274.65950 262.56206 250.57662 239.88319 230.01075 221.12031 213.30787 206.31544
 200.15500 195.09856 191.68612 189.73368 188.77625 188.84581 189.68637 190.99993
 192.73050 194.83106 197.09962 199.46418 201.91475 204.40031 206.49387 208.34143
 209.97299 211.12356 211.35812 211.59168 211.53424 211.24481 210.88337 210.51893
 210.14149 209.85706 209.67062 209.54018 209.47374 209.81031 210.20187 210.59643
 211.39499 212.57855 213.83412 215.62268 217.55624 219.60480 221.70537 223.79393
 225.85949 227.94905 230.05162 232.16318 234.29774 236.47530 238.73686 241.11243
 243.73899 245.99555 248.00311 249.77368 251.19624 252.32480 253.15236 253.47393
 253.51649 253.29605 252.66161 251.61518 250.22674 248.39330 246.30786 244.14642
 241.94299 239.75255 237.57811 235.42267 233.28824 231.16080 229.19236 227.35492
 225.64349 224.12105 222.75661 221.53417 220.42174 219.38730 218.49686 217.64342
 216.89098 216.07655 215.18011 214.54967 214.00523 214.88550 217.07828 219.34882
 221.56097 223.61026 225.08238 225.68918 225.83174 226.00426 225.89561 225.53583
 225.78041 227.75932 231.59067 236.30672 241.08072 245.54897 249.67323 253.43298
 256.78217 259.72290 262.41275 264.96881 267.28848 269.27612 271.19644 273.57037
 275.73395 277.75061 279.58603 281.19763 282.59235 283.82632 284.95215 285.97205
 286.88934 287.70618 288.41977 289.32916
 366.78100 356.34147 345.77994 334.65240 323.06187 311.26234 299.13881 286.94827
 274.66674 262.57021 250.58568 239.89315 230.02161 221.13208 213.32055 206.32902
 200.16948 195.11395 191.70242 189.75089 188.79436 188.86482 189.70629 191.02076
 192.75223 194.85369 197.12316 199.48863 201.94010 204.42657 206.52103 208.36950
 210.00197 211.15344 211.38891 211.62337 211.56684 211.27831 210.91778 210.55424
 210.17771 209.89418 209.70865 209.57912 209.51358 209.85105 210.24352 210.63899
 211.43845 212.62292 213.87939 215.66886 217.60333 219.65279 221.75426 223.84373
 225.91020 228.00066 230.10413 232.21660 234.35207 236.53054 238.79300 241.16947
 243.79694 246.05441 248.06287 249.83434 251.25781 252.38728 253.21575 253.53821
 253.58168 253.36215 252.72862 251.68308 250.29555 248.46302 246.37849 244.21796
 242.01542 239.82589 237.65236 235.49783 233.36429 231.23776 229.27023 227.43370
 225.72317 224.20163 222.83810 221.61657 220.50504 219.47150 218.58197 217.72944
 216.97791 216.16438 215.26884 214.63931 214.09578 214.93451 217.04099 219.37447
 221.51828 223.51671 225.03729 225.64101 225.76186 225.86411 225.74648 225.50543
 225.97038 227.97855 231.66139 236.31821 241.09830 245.56805 249.71503 253.50212
 256.85590 259.78824 262.41891 264.91446 267.20764 269.21713 271.20300 273.53091
 275.66742 277.55472 279.32425 280.90903 282.28049 283.49390 284.60095 285.60385
 286.50586 287.30911 288.01080 288.90503
 366.78100 356.34194 345.78088 334.65383 323.06377 311.26471 299.14165 286.95159
 274.67053 262.57448 250.59042 239.89836 230.02730 221.13824 213.32718 206.33613
 200.17707 195.12201 191.71095 189.75989 188.80383 188.87478 189.71672 191.03166
 192.76360 194.86554 197.13549 199.50143 201.95337 204.44031 206.53525 208.38419
 210.01714 211.16908 211.40502 211.63996 211.58390 211.29584 210.93579 210.57273
 210.19667 209.91361 209.72855 209.59949 209.53444 209.87238 210.26532 210.66126
 211.46120 212.64614 213.90309 215.69303 217.62797 219.67791 221.77985 223.86980
 225.93674 228.02768 230.13162 232.24456 234.38050 236.55945 238.82239 241.19933
 243.82727 246.08521 248.09415 249.86610 251.29004 252.41998 253.24892 253.57186
 253.61580 253.39675 252.76369 251.71863 250.33157 248.49951 246.41546 244.25540
 242.05334 239.86428 237.69122 235.53716 233.40411 231.27805 229.31099 227.47493
 225.76487 224.24381 222.88076 221.65970 220.54864 219.51558 218.62652 217.77446
 217.02341 216.21035 215.31529 214.68623 214.14317 214.96815 217.03853 219.37044
 221.51604 223.44400 224.97231 225.59282 225.69138 225.73901 225.62512 225.46964
 226.06284 228.07718 231.71475 236.35184 241.12392 245.59525 249.75868 253.58232
 256.97336 259.89310 262.41434 264.91989 267.15533 269.14215 271.15207 273.51846
 275.64471 277.51355 279.24347 280.81442 282.17395 283.37677 284.47418 285.46835
 286.36249 287.15875 287.85431 288.74075
 366.78100 356.34191 345.78081 334.65372 323.06363 311.26454 299.14144 286.95135
 274.67026 262.57416 250.59007 239.89798 230.02689 221.13779 213.32670 206.33561
 200.17651 195.12142 191.71033 189.75923 188.80314 188.87405 189.71596 191.03086
 192.76277 194.86468 197.13458 199.50049 201.95240 204.43931 206.53421 208.38312
 210.01603 211.16793 211.40384 211.63875 211.58266 211.29456 210.93447 210.57138
 210.19528 209.91219 209.72710 209.59801 209.53291 209.87082 210.26373 210.65963
 211.45954 212.64445 213.90135 215.69126 217.62617 219.67608 221.77798 223.86789
 225.93480 228.02570 230.12961 232.24252 234.37843 236.55733 238.82024 241.19715
 243.82505 246.08296 248.09187 249.86378 251.28768 252.41759 253.24650 253.56940
 253.61331 253.39422 252.76113 251.71603 250.32894 248.49685 246.41275 244.25266
 242.05057 239.86147 237.68838 235.53429 233.40120 231.27510 229.30801 227.47192
 225.76182 224.24073 222.87764 221.65655 220.54545 219.51236 218.62327 217.77117
 217.02008 216.20699 215.31190 214.68280 214.13971 214.97990 217.07489 219.33928
 221.51454 223.45099 224.92883 225.52652 225.58183 225.61015 225.47916 225.46039
 226.12491 228.11540 231.73579 236.38571 241.15480 245.62683 249.78981 253.62457
 257.05499 260.03302 262.49890 265.04593 267.24551 269.18726 271.15762 273.51898
 275.64633 277.52609 279.28674 280.85501 282.21219 283.41296 284.50848 285.50095
 286.39355 287.18845 287.88284 288.76776
 366.78100 356.34160 345.78019 334.65279 323.06239 311.26298 299.13958 286.94917
 274.66777 262.57137 250.58696 239.89456 230.02316 221.13375 213.32235 206.33094
 200.17154 195.11614 191.70473 189.75333 188.79693 188.86752 189.70912 191.02371
 192.75531 194.85691 197.12650 199.49210 201.94370 204.43029 206.52489 208.37348
 210.00608 211.15768 211.39327 211.62787 211.57147 211.28306 210.92266 210.55925
 210.18285 209.89945 209.71404 209.58464 209.51924 209.85683 210.24943 210.64502
 211.44462 212.62922 213.88581 215.67541 217.61001 219.65960 221.76120 223.85080
 225.91739 228.00799 230.11158 232.22418 234.35978 236.53837 238.80097 241.17757
 243.80516 246.06276 248.07135 249.84295 251.26655 252.39614 253.22474 253.54734
 253.59093 253.37153 252.73812 251.69272 250.30532 248.47291 246.38851 244.22811
 242.02570 239.83630 237.66289 235.50849 233.37509 231.24868 229.28128 227.44488
 225.73447 224.21307 222.84966 221.62826 220.51686 219.48345 218.59405 217.74165
 216.99024 216.17684 215.28143 214.65203 214.10863 214.97734 217.12352 219.30769
 221.49173 223.49506 224.90598 225.41045 225.44736 225.48712 225.28470 225.41870
 226.17790 228.17297 231.76704 236.44901 241.21434 245.68222 249.82755 253.63376
 257.05865 260.08591 262.70209 265.15924 267.36221 269.30054 271.25034 273.58569
 275.75052 277.68472 279.49667 281.08771 282.46460 283.68277 284.79419 285.80109
 286.70663 287.51306 288.21753 289.11526
 366.78100 356.34136 345.77973 334.65209 323.06145 311.26182 299.13818 286.94754
 274.66591 262.56927 250.58463 239.89200 230.02036 221.13072 213.31909 206.32745
 200.16781 195.11218 191.70054 189.74891 188.79227 188.86263 189.70400 191.01836
 192.74972 194.85109 197.12045 199.48581 201.93718 204.42354 206.51790 208.36627
 209.99863 211.14999 211.38536 211.61972 211.56308 211.27445 210.91381 210.55017
 210.17354 209.88990 209.70426 209.57463 209.50899 209.84635 210.23872 210.63408
 211.43344 212.61781 213.87417 215.66353 217.59790 219.64726 221.74862 223.83799
 225.90435 227.99472 230.09808 232.21044 234.34581 236.52417 238.78653 241.16290
 243.79026 246.04762 248.05599 249.82735 251.25071 252.38008 253.20844 253.53080
 253.57417 253.35453 252.72089 251.67526 250.28762 248.45498 246.37035 244.20971
 242.00707 239.81744 237.64380 235.48916 233.35553 231.22889 229.26125 227.42462
 225.71398 224.19234 222.82871 221.60707 220.49544 219.46180 218.57216 217.71953
 216.96789 216.15425 215.25862 214.62898 214.08534 214.97128 217.14297 219.29518
 221.42581 223.47037 224.87549 225.28703 225.27437 225.32486 225.17024 225.30080
 226.21892 228.36662 231.94835 236.53917 241.30635 245.78166 249.93570 253.71585
 257.03647 259.99161 262.71051 265.20862 267.47632 269.47476 271.39383 273.68765
 275.83679 277.70523 279.42795 280.99722 282.35532 283.55685 284.65308 285.64621
 286.53940 287.33481 288.02963 288.91513
 366.78100 356.34154 345.78008 334.65261 323.06215 311.26269 299.13923 286.94877
 274.66731 262.57084 250.58638 239.89392 230.02246 221.13300 213.32154 206.33007
 200.17061 195.11515 191.70369 189.75223 188.79577 188.86630 189.70784 191.02238
 192.75392 194.85546 197.12500 199.49053 201.94207 204.42861 206.52315 208.37169
 210.00423 211.15576 211.39130 211.62584 211.56938 211.28092 210.92046 210.55699
 210.18053 209.89707 209.71161 209.58215 209.51668 209.85422 210.24676 210.64230
 211.44184 212.62638 213.88291 215.67245 217.60699 219.65653 221.75807 223.84761
 225.91414 228.00468 230.10822 232.22076 234.35630 236.53484 238.79737 241.17391
 243.80145 246.05899 248.06753 249.83907 251.26260 252.39214 253.22068 253.54322
 253.58676 253.36730 252.73383 251.68837 250.30091 248.46845 246.38399 244.22352
 242.02106 239.83160 237.65814 235.50368 233.37022 231.24375 229.27629 227.43983
 225.72937 224.20791 222.84445 221.62298 220.51152 219.47806 218.58860 217.73614
 216.98468 216.17121 215.27575 214.64629 214.10283 214.98271 217.13391 219.31459
 221.33043 223.37274 224.81810 225.19078 225.11490 225.08699 225.09444 225.18542
 226.26619 228.50824 232.12280 236.65887 241.38974 245.88383 250.04768 253.84915
 257.17471 260.01855 262.63208 265.14914 267.46524 269.53690 271.52380 273.68207
 275.77194 277.59433 279.20911 280.70615 282.02493 283.19171 284.25623 285.22061
 286.08795 286.86035 287.53506 288.39496
 366.78100 356.34203 345.78107 334.65410 323.06414 311.26517 299.14221 286.95224
 274.67128 262.57531 250.59135 239.89938 230.02842 221.13945 213.32849 206.33752
 200.17856 195.12359 191.71263 189.76166 188.80570 188.87673 189.71877 191.03380
 192.76584 194.86787 197.13791 199.50394 201.95597 204.44301 206.53804 208.38708
 210.02011 211.17215 211.40818 211.64322 211.58725 211.29929 210.93932 210.57636
 210.20039 209.91743 209.73246 209.60350 209.53853 209.87657 210.26960 210.66564
 211.46567 212.65071 213.90774 215.69778 217.63281 219.68284 221.78488 223.87491
 225.94195 228.03298 230.13702 232.25005 234.38609 236.56512 238.82816 241.20519
 243.83323 246.09126 248.10030 249.87233 251.29637 252.42640 253.25544 253.57847
 253.62251 253.40354 252.77058 251.72561 250.33865 248.50668 246.42272 244.26275
 242.06078 239.87182 237.69885 235.54489 233.41192 231.28596 229.31899 227.48303
 225.77306 224.25210 222.88913 221.66817 220.55720 219.52424 218.63527 217.78331
 217.03234 216.21938 215.32441 214.69545 214.15248 215.01161 217.10963 219.34917
 221.25623 223.23878 224.70605 225.07925 225.00340 224.88600 224.94231 225.12657
 226.27956 228.61586 232.25008 236.77483 241.49814 245.98540 250.14200 253.94321
 257.29630 260.16705 262.67944 265.12308 267.42960 269.53815 271.61383 273.67532
 275.67682 277.46994 279.04724 280.46945 281.75281 282.89725 283.94138 284.88730
 285.73804 286.49564 287.15744 288.00085
 366.78100 356.34231 345.78162 334.65493 323.06524 311.26655 299.14386 286.95417
 274.67348 262.57779 250.59409 239.90240 230.03171 221.14302 213.33233 206.34164
 200.18295 195.12826 191.71757 189.76688 188.81119 188.88250 189.72481 191.04012
 192.77243 194.87474 197.14505 199.51136 201.96367 204.45097 206.54628 208.39559
 210.02890 211.18121 211.41752 211.65283 211.59714 211.30945 210.94976 210.58707
 210.21138 209.92869 209.74400 209.61531 209.55062 209.88893 210.28224 210.67855
 211.47885 212.66416 213.92147 215.71178 217.64709 219.69740 221.79971 223.89002
 225.95733 228.04864 230.15295 232.26626 234.40257 236.58188 238.84519 241.22250
 243.85081 246.10912 248.11842 249.89073 251.31504 252.44535 253.27466 253.59797
 253.64228 253.42359 252.79090 251.74621 250.35952 248.52783 246.44414 244.28445
 242.08276 239.89407 237.72138 235.56769 233.43500 231.30930 229.34261 227.50692
 225.79723 224.27654 222.91385 221.69316 220.58247 219.54978 218.66109 217.80940
 217.05871 216.24602 215.35133 214.72264 214.17995 215.03178 217.10190 219.35463
 221.23409 223.10420 224.55830 224.99895 224.90356 224.69211 224.75273 225.09357
 226.24011 228.68246 232.36847 236.90038 241.61983 246.09685 250.24034 254.01288
 257.34467 260.25473 262.77557 265.18179 267.46979 269.59924 271.70547 273.78210
 275.62189 277.25031 278.75650 280.13547 281.39322 282.56134 283.62704 284.59253
 285.46085 286.23410 286.90961 287.77045
 366.78100 356.34198 345.78096 334.65394 323.06392 311.26489 299.14187 286.95185
 274.67083 262.57481 250.59079 239.89877 230.02775 221.13873 213.32771 206.33668
 200.17766 195.12264 191.71162 189.76060 188.80458 188.87556 189.71754 191.03252
 192.76450 194.86647 197.13645 199.50243 201.95441 204.44139 206.53637 208.38535
 210.01833 211.17031 211.40628 211.64126 211.58524 211.29722 210.93720 210.57418
 210.19816 209.91514 209.73012 209.60110 209.53607 209.87405 210.26703 210.66301
 211.46299 212.64797 213.90495 215.69493 217.62991 219.67989 221.78186 223.87184
 225.93882 228.02980 230.13378 232.24676 234.38274 236.56172 238.82470 241.20167
 243.82965 246.08763 248.09661 249.86859 251.29257 252.42255 253.25153 253.57451
 253.61849 253.39946 252.76644 251.72142 250.33440 248.50238 246.41836 244.25834
 242.05632 239.86730 237.69428 235.54025 233.40723 231.28121 229.31419 227.47817
 225.76815 224.24713 222.88411 221.66309 220.55206 219.51904 218.63002 217.77800
 217.02698 216.21396 215.31894 214.68992 214.14690 215.02313 217.13698 219.32355
 221.22281 223.02559 224.43735 224.91473 224.80898 224.49226 224.56606 225.02577
 226.18143 228.72888 232.50317 237.04558 241.75047 246.21455 250.33757 254.08174
 257.38806 260.27939 262.84265 265.27078 267.56616 269.70010 271.84033 273.92377
 275.70563 277.14124 278.50281 279.86829 281.10849 282.29059 283.38165 284.37006
 285.25903 286.05066 286.74222 287.62354
 366.78100 356.34190 345.78080 334.65369 323.06359 311.26449 299.14139 286.95129
 274.67019 262.57408 250.58998 239.89788 230.02678 221.13768 213.32658 206.33547
 200.17637 195.12127 191.71017 189.75907 188.80296 188.87386 189.71576 191.03066
 192.76256 194.86446 197.13435 199.50025 201.95215 204.43905 206.53395 208.38285
 210.01574 211.16764 211.40354 211.63844 211.58234 211.29424 210.93413 210.57103
 210.19493 209.91183 209.72673 209.59762 209.53252 209.87042 210.26332 210.65922
 211.45912 212.64401 213.90091 215.69081 217.62571 219.67561 221.77751 223.86740
 225.93430 228.02520 230.12910 232.24200 234.37789 236.55679 238.81969 241.19659
 243.82449 246.08239 248.09128 249.86318 251.28708 252.41698 253.24588 253.56878
 253.61267 253.39357 252.76047 251.71537 250.32827 248.49616 246.41206 244.25196
 242.04986 239.86076 237.68766 235.53355 233.40045 231.27435 229.30725 227.47115
 225.76105 224.23994 222.87684 221.65574 220.54464 219.51154 218.62243 217.77033
 217.01923 216.20613 215.31103 214.68193 214.13882 215.02159 217.13953 219.34572
 221.16420 222.86783 224.32755 224.84338 224.66786 224.27039 224.38373 224.90794
 226.04337 228.76701 232.66394 237.20493 241.89111 246.33766 250.43518 254.14839
 257.42676 260.29654 262.88080 265.32669 267.64764 269.82233 271.99567 274.10394
 275.88782 277.26312 278.39352 279.61902 280.83051 281.95190 282.99158 283.93365
 284.78094 285.53546 286.19458 287.03458
 366.78100 356.34286 345.78272 334.65658 323.06744 311.26930 299.14716 286.95802
 274.67788 262.58274 250.59960 239.90847 230.03833 221.15019 213.34005 206.34991
 200.19177 195.13763 191.72749 189.77735 188.82221 188.89407 189.73693 191.05279
 192.78565 194.88851 197.15937 199.52623 201.97909 204.46695 206.56281 208.41267
 210.04653 211.19940 211.43626 211.67212 211.61698 211.32984 210.97070 210.60856
 210.23342 209.95128 209.76714 209.63900 209.57486 209.91372 210.30758 210.70444
 211.50530 212.69116 213.94902 215.73988 217.67574 219.72660 221.82947 223.92033
 225.98819 228.08005 230.18491 232.29877 234.43563 236.61549 238.87935 241.25721
 243.88607 246.14493 248.15479 249.92765 251.35251 252.48337 253.31323 253.63709
 253.68195 253.46381 252.83167 251.78753 250.40140 248.57026 246.48712 244.32798
 242.12684 239.93870 237.76656 235.61342 233.48128 231.35614 229.39000 227.55486
 225.84572 224.32558 222.96344 221.74330 220.63316 219.60102 218.71288 217.86174
 217.11160 216.29946 215.40533 214.77719 214.23505 215.07124 217.06898 219.42126
 221.20671 222.77400 224.27164 224.77301 224.46393 224.06175 224.12965 224.91571
 225.98312 228.80618 232.82124 237.37570 242.04485 246.47278 250.53676 254.22417
 257.48587 260.35666 262.94318 265.36200 267.66049 269.87384 272.09506 274.22879
 275.97375 277.31476 278.42422 279.58032 280.77374 281.86032 282.86304 283.79248
 284.63138 285.37842 286.03101 286.86267
 366.78100 356.34356 345.78412 334.65868 323.07024 311.27280 299.15135 286.96291
 274.68347 262.58903 250.60659 239.91615 230.04671 221.15927 213.34983 206.36039
 200.20295 195.14951 191.74006 189.79062 188.83618 188.90874 189.75230 191.06886
 192.80242 194.90598 197.17754 199.54510 201.99866 204.48722 206.58377 208.43433
 210.06889 211.22245 211.46001 211.69657 211.64213 211.35569 210.99725 210.63581
 210.26137 209.97993 209.79648 209.66904 209.60560 209.94516 210.33972 210.73728
 211.53884 212.72540 213.98396 215.77552 217.71208 219.76364 221.86719 223.95875
 226.02731 228.11987 230.22543 232.33999 234.47755 236.65811 238.92267 241.30123
 243.93079 246.19035 248.20090 249.97446 251.40002 252.53158 253.36214 253.68670
 253.73226 253.51482 252.88338 251.83994 250.45450 248.62406 246.54161 244.38317
 242.18273 239.99529 237.82385 235.67141 233.53997 231.41553 229.45009 227.61565
 225.90721 224.38777 223.02632 221.80688 220.69744 219.66600 218.77856 217.92812
 217.17868 216.36724 215.47380 214.84636 214.30492 215.11119 217.02107 219.44304
 221.29099 222.81227 224.17976 224.62280 224.30348 223.88402 223.91753 224.85037
 226.09674 228.95035 232.98618 237.54555 242.20164 246.61606 250.65004 254.31487
 257.55820 260.43222 263.03583 265.44171 267.70547 269.91534 272.18301 274.31979
 276.02988 277.32370 278.40842 279.46155 280.56970 281.62802 282.64087 283.55865
 284.38422 285.12488 285.77188 286.59644
 366.78100 356.34360 345.78420 334.65880 323.07040 311.27299 299.15159 286.96319
 274.68379 262.58939 250.60699 239.91659 230.04719 221.15978 213.35038 206.36098
 200.20358 195.15018 191.74078 189.79138 188.83698 188.90958 189.75317 191.06977
 192.80337 194.90697 197.17857 199.54617 201.99977 204.48837 206.58497 208.43556
 210.07016 211.22376 211.46136 211.69796 211.64356 211.35716 210.99876 210.63735
 210.26295 209.98155 209.79815 209.67075 209.60735 209.94695 210.34155 210.73915
 211.54074 212.72734 213.98594 215.77754 217.71414 219.76574 221.86934 223.96094
 226.02953 228.12213 230.22773 232.34233 234.47993 236.66053 238.92513 241.30373
 243.93333 246.19292 248.20352 249.97712 251.40272 252.53432 253.36492 253.68952
 253.73512 253.51772 252.88631 251.84291 250.45751 248.62711 246.54471 244.38631
 242.18591 239.99851 237.82710 235.67470 233.54330 231.41890 229.45350 227.61910
 225.91070 224.39130 223.02990 221.81049 220.70109 219.66969 218.78229 217.93189
 217.18249 216.37109 215.47769 214.85028 214.30888 215.12149 217.04135 219.41562
 221.33047 222.85565 224.05438 224.41638 224.16924 223.72717 223.75365 224.71747
 226.14470 229.06186 233.15137 237.72116 242.35036 246.75089 250.76833 254.41081
 257.63525 260.50790 263.12180 265.53787 267.79291 269.98770 272.25513 274.38739
 276.02335 277.24652 278.28635 279.31470 280.45535 281.51038 282.50589 283.42615
 284.22531 284.95468 285.59186 286.40384
 366.78100 356.34348 345.78396 334.65843 323.06991 311.27239 299.15087 286.96234
 274.68282 262.58830 250.60578 239.91525 230.04573 221.15821 213.34869 206.35916
 200.20164 195.14812 191.73860 189.78907 188.83455 188.90703 189.75051 191.06698
 192.80046 194.90394 197.17542 199.54289 201.99637 204.48485 206.58133 208.43180
 210.06628 211.21976 211.45724 211.69371 211.63919 211.35267 210.99415 210.63262
 210.25810 209.97658 209.79306 209.66553 209.60201 209.94149 210.33597 210.73344
 211.53492 212.72140 213.97988 215.77135 217.70783 219.75931 221.86279 223.95426
 226.02274 228.11522 230.22070 232.33517 234.47265 236.65313 238.91761 241.29608
 243.92556 246.18504 248.19552 249.96899 251.39447 252.52595 253.35643 253.68090
 253.72638 253.50886 252.87734 251.83381 250.44829 248.61777 246.53525 244.37672
 242.17620 239.98868 237.81716 235.66463 233.53311 231.40859 229.44307 227.60855
 225.90002 224.38050 223.01898 221.79946 220.68993 219.65841 218.77089 217.92037
 217.17084 216.35932 215.46580 214.83828 214.29675 215.12457 217.08040 219.38377
 221.35095 222.87575 223.94414 224.21803 223.99391 223.55472 223.61378 224.58163
 226.13765 229.17587 233.32759 237.90094 242.50290 246.87637 250.87390 254.49710
 257.71402 260.59326 263.21347 265.62988 267.88278 270.07825 272.35458 274.47079
 276.04901 277.18726 278.18866 279.23511 280.35757 281.41516 282.40585 283.32251
 284.14062 284.86774 285.51300 286.33533
 366.78100 356.34359 345.78418 334.65877 323.07036 311.27296 299.15155 286.96314
 274.68373 262.58932 250.60691 239.91650 230.04709 221.15968 213.35027 206.36087
 200.20346 195.15005 191.74064 189.79123 188.83682 188.90941 189.75300 191.06959
 192.80319 194.90678 197.17837 199.54596 201.99955 204.48814 206.58473 208.43532
 210.06991 211.22350 211.46110 211.69769 211.64328 211.35687 210.99846 210.63705
 210.26264 209.98123 209.79782 209.67042 209.60701 209.94660 210.34119 210.73878
 211.54037 212.72696 213.98555 215.77714 217.71373 219.76533 221.86892 223.96051
 226.02910 228.12169 230.22728 232.34187 234.47946 236.66005 238.92465 241.30324
 243.93283 246.19242 248.20301 249.97660 251.40219 252.53378 253.36437 253.68896
 253.73456 253.51715 252.88574 251.84233 250.45692 248.62651 246.54410 244.38569
 242.18528 239.99788 237.82647 235.67406 233.54265 231.41824 229.45283 227.61842
 225.91001 224.39060 223.02919 221.80979 220.70038 219.66897 218.78156 217.93115
 217.18174 216.37033 215.47692 214.84951 214.30811 215.13814 217.09920 219.36884
 221.36714 222.87648 223.86110 224.05789 223.78519 223.34914 223.46307 224.45064
 226.11655 229.29752 233.51645 238.08037 242.65193 246.99867 250.97644 254.57558
 257.78485 260.67847 263.31808 265.72415 267.96524 270.16071 272.46964 274.56894
 276.07440 277.13635 278.10852 279.16504 280.33157 281.38895 282.37460 283.27917
 284.09402 284.80942 285.44885 286.26877
 366.78100 356.34375 345.78451 334.65926 323.07102 311.27377 299.15253 286.96428
 274.68504 262.59079 250.60854 239.91830 230.04905 221.16181 213.35256 206.36332
 200.20607 195.15283 191.74358 189.79434 188.84009 188.91284 189.75660 191.07335
 192.80711 194.91086 197.18262 199.55037 202.00413 204.49288 206.58963 208.44039
 210.07514 211.22890 211.46665 211.70341 211.64916 211.36292 211.00467 210.64342
 210.26918 209.98793 209.80469 209.67744 209.61420 209.95395 210.34871 210.74646
 211.54821 212.73497 213.99372 215.78548 217.72223 219.77399 221.87774 223.96950
 226.03825 228.13101 230.23676 232.35151 234.48927 236.67002 238.93478 241.31353
 243.94329 246.20304 248.21380 249.98755 251.41330 252.54506 253.37581 253.70057
 253.74632 253.52908 252.89783 251.85459 250.46934 248.63909 246.55685 244.39860
 242.19836 240.01111 237.83987 235.68762 233.55638 231.43213 229.46688 227.63264
 225.92439 224.40515 223.04390 221.82466 220.71541 219.68417 218.79692 217.94668
 217.19743 216.38618 215.49294 214.86569 214.32445 215.15192 217.10690 219.35992
 221.37233 222.87198 223.78012 223.90837 223.57741 223.12321 223.28130 224.31511
 226.09508 229.41713 233.70804 238.26054 242.80052 247.12331 251.08354 254.66364
 257.87012 260.77844 263.43509 265.83502 268.06689 270.27313 272.58765 274.66269
 276.10968 277.12418 278.03668 279.05322 280.23267 281.28741 282.25339 283.13519
 283.94919 284.67960 285.32498 286.14700
 366.78100 356.34377 345.78454 334.65931 323.07107 311.27384 299.15261 286.96438
 274.68515 262.59092 250.60869 239.91846 230.04922 221.16199 213.35276 206.36353
 200.20630 195.15307 191.74384 189.79460 188.84037 188.91314 189.75691 191.07368
 192.80745 194.91122 197.18299 199.55075 202.00452 204.49329 206.59006 208.44083
 210.07560 211.22937 211.46713 211.70390 211.64967 211.36344 211.00521 210.64398
 210.26975 209.98852 209.80528 209.67805 209.61482 209.95459 210.34936 210.74713
 211.54890 212.73566 213.99443 215.78620 217.72297 219.77474 221.87851 223.97028
 226.03905 228.13181 230.23758 232.35235 234.49012 236.67089 238.93566 241.31443
 243.94419 246.20396 248.21473 249.98850 251.41427 252.54604 253.37681 253.70158
 253.74734 253.53011 252.89888 251.85565 250.47042 248.64019 246.55796 244.39972
 242.19949 240.01226 237.84103 235.68880 233.55757 231.43334 229.46811 227.63387
 225.92564 224.40641 223.04518 221.82595 220.71672 219.68549 218.79825 217.94802
 217.19879 216.38756 215.49433 214.86710 214.32587 215.15761 217.12267 219.34337
 221.37415 222.86880 223.69356 223.75067 223.37057 222.88794 223.08258 224.18201
 226.07657 229.53271 233.89409 238.44196 242.95381 247.25562 251.19928 254.76410
 257.97134 260.89545 263.56628 265.95840 268.17780 270.37766 272.68689 274.73502
 276.12564 277.10800 277.98209 279.03995 280.19235 281.24689 282.21729 283.10083
 283.90463 284.62943 285.26663 286.08029
 366.78100 356.34387 345.78473 334.65960 323.07147 311.27433 299.15320 286.96507
 274.68593 262.59180 250.60967 239.91953 230.05040 221.16327 213.35413 206.36500
 200.20787 195.15473 191.74560 189.79647 188.84233 188.91520 189.75907 191.07593
 192.80980 194.91367 197.18553 199.55340 202.00727 204.49613 206.59300 208.44387
 210.07873 211.23260 211.47047 211.70733 211.65320 211.36707 211.00893 210.64780
 210.27367 209.99253 209.80940 209.68227 209.61913 209.95900 210.35386 210.75173
 211.55360 212.74046 213.99933 215.79120 217.72806 219.77993 221.88380 223.97566
 226.04453 228.13740 230.24326 232.35813 234.49600 236.67686 238.94173 241.32060
 243.95046 246.21033 248.22120 249.99506 251.42093 252.55280 253.38366 253.70853
 253.75440 253.53726 252.90613 251.86300 250.47786 248.64773 246.56560 244.40746
 242.20733 240.02020 237.84906 235.69693 233.56580 231.44166 229.47653 227.64240
 225.93426 224.41513 223.05400 221.83486 220.72573 219.69460 218.80746 217.95733
 217.20820 216.39706 215.50393 214.87680 214.33566 215.16934 217.13902 219.32587
 221.36446 222.84866 223.61307 223.59323 223.15768 222.64507 222.86867 224.05057
 226.06364 229.64943 234.07182 238.61983 243.11215 247.39481 251.32315 254.87523
 258.08475 261.02206 263.70438 266.08972 268.29361 270.47931 272.77560 274.81100
 276.16016 277.11691 277.96426 279.02948 280.17807 281.23560 282.20593 283.09131
 283.89334 284.61481 285.24585 286.06381
 366.78100 356.34416 345.78532 334.66048 323.07263 311.27579 299.15495 286.96711
 274.68827 262.59443 250.61259 239.92275 230.05390 221.16706 213.35822 206.36938
 200.21254 195.15970 191.75086 189.80201 188.84817 188.92133 189.76549 191.08265
 192.81681 194.92097 197.19313 199.56128 202.01544 204.50460 206.60176 208.45292
 210.08808 211.24224 211.48040 211.71755 211.66371 211.37787 211.02003 210.65919
 210.28535 210.00451 209.82166 209.69482 209.63198 209.97214 210.36730 210.76546
 211.56762 212.75478 214.01393 215.80609 217.74325 219.79541 221.89957 223.99173
 226.06089 228.15404 230.26020 232.37536 234.51352 236.69468 238.95984 241.33900
 243.96916 246.22931 248.24047 250.01463 251.44079 252.57295 253.40411 253.72927
 253.77543 253.55858 252.92774 251.88490 250.50006 248.67022 246.58838 244.43054
 242.23069 240.04385 237.87301 235.72117 233.59033 231.46649 229.50165 227.66781
 225.95996 224.44112 223.08028 221.86144 220.75260 219.72176 218.83492 217.98507
 217.23623 216.42539 215.53255 214.90571 214.36487 215.19249 217.14783 219.31229
 221.34604 222.81679 223.54224 223.43877 222.93826 222.40164 222.64613 223.91490
 226.05351 229.76434 234.24861 238.79115 243.27206 247.54070 251.45604 254.99678
 258.20865 261.15723 263.84863 266.22412 268.41098 270.57794 272.85425 274.87189
 276.18771 277.12903 277.97446 279.05478 280.20834 281.26480 282.23813 283.12476
 283.92862 284.65182 285.28702 286.10516
 366.78100 356.34459 345.78618 334.66177 323.07437 311.27796 299.15755 286.97014
 274.69173 262.59832 250.61691 239.92751 230.05910 221.17269 213.36428 206.37587
 200.21946 195.16705 191.75865 189.81024 188.85683 188.93042 189.77501 191.09260
 192.82719 194.93179 197.20438 199.57297 202.02756 204.51715 206.61474 208.46633
 210.10193 211.25652 211.49511 211.73270 211.67929 211.39388 211.03647 210.67607
 210.30266 210.02225 209.83984 209.71343 209.65102 209.99161 210.38721 210.78580
 211.58839 212.77598 214.03557 215.82816 217.76575 219.81835 221.92294 224.01553
 226.08512 228.17871 230.28530 232.40089 234.53949 236.72108 238.98667 241.36626
 243.99685 246.25744 248.26903 250.04363 251.47022 252.60281 253.43440 253.75999
 253.80658 253.59017 252.95977 251.91736 250.53295 248.70354 246.62213 244.46472
 242.26531 240.07891 237.90850 235.75709 233.62668 231.50327 229.53886 227.70545
 225.99805 224.47964 223.11923 221.90082 220.79241 219.76200 218.87559 218.02618
 217.27778 216.46737 215.57496 214.94855 214.40814 215.22166 217.14372 219.30406
 221.32661 222.78822 223.47766 223.28766 222.71251 222.15401 222.41098 223.76932
 226.04083 229.87460 234.42281 238.97273 243.43506 247.68892 251.59477 255.12793
 258.34439 261.30322 263.99481 266.36493 268.53198 270.67667 272.92291 274.91602
 276.20593 277.14160 277.99423 279.10916 280.26868 281.32858 282.30206 283.18912
 283.99713 284.72095 285.35944 286.17621
 366.78100 356.34508 345.78716 334.66324 323.07632 311.28040 299.16048 286.97356
 274.69564 262.60272 250.62180 239.93288 230.06496 221.17904 213.37112 206.38320
 200.22728 195.17537 191.76745 189.81953 188.86661 188.94069 189.78577 191.10385
 192.83893 194.94401 197.21709 199.58617 202.04125 204.53133 206.62941 208.48149
 210.11757 211.27265 211.51173 211.74981 211.69689 211.41197 211.05505 210.69513
 210.32221 210.04229 209.86037 209.73445 209.67253 210.01361 210.40969 210.80877
 211.61185 212.79994 214.06002 215.85310 217.79118 219.84426 221.94934 224.04242
 226.11250 228.20658 230.31366 232.42974 234.56882 236.75090 239.01698 241.39706
 244.02814 246.28922 248.30130 250.07638 251.50346 252.63654 253.46862 253.79470
 253.84178 253.62586 252.99594 251.95402 250.57010 248.74118 246.66026 244.50334
 242.30442 240.11851 237.94859 235.79767 233.66775 231.54483 229.58091 227.74799
 226.04107 224.52315 223.16323 221.94531 220.83739 219.80747 218.92155 218.07263
 217.32471 216.51479 215.62287 214.99695 214.45703 215.25310 217.13393 219.29796
 221.31071 222.76248 223.41663 223.13214 222.48264 221.90143 222.16217 223.61505
 226.03207 229.98534 234.58931 239.16171 243.60561 247.83984 251.73709 255.26593
 258.49014 261.45627 264.14554 266.50195 268.65988 270.77560 272.98047 274.94302
 276.21802 277.16013 278.02313 279.18289 280.35153 281.41101 282.38672 283.27661
 284.08350 284.81281 285.45001 286.26779
 366.78100 356.34538 345.78775 334.66413 323.07750 311.28188 299.16225 286.97563
 274.69800 262.60538 250.62475 239.93613 230.06850 221.18288 213.37525 206.38763
 200.23200 195.18038 191.77275 189.82513 188.87251 188.94688 189.79226 191.11063
 192.84601 194.95138 197.22476 199.59413 202.04951 204.53988 206.63826 208.49063
 210.12701 211.28238 211.52176 211.76013 211.70751 211.42288 211.06626 210.70664
 210.33401 210.05439 209.87276 209.74714 209.68551 210.02689 210.42326 210.82264
 211.62601 212.81439 214.07476 215.86814 217.80651 219.85989 221.96526 224.05864
 226.12901 228.22339 230.33077 232.44714 234.58652 236.76889 239.03527 241.41564
 244.04702 246.30839 248.32077 250.09614 251.52352 252.65689 253.48927 253.81564
 253.86302 253.64739 253.01777 251.97614 250.59252 248.76390 246.68327 244.52665
 242.32802 240.14240 237.97277 235.82215 233.69252 231.56990 229.60627 227.77365
 226.06702 224.54940 223.18977 221.97215 220.86452 219.83490 218.94927 218.10065
 217.35303 216.54340 215.65178 215.02615 214.48653 215.27466 217.13670 219.27957
 221.29001 222.74724 223.35077 222.97650 222.24370 221.64087 221.91243 223.47487
 226.02803 230.08398 234.75494 239.35577 243.77843 247.99486 251.88107 255.40428
 258.63486 261.60919 264.30243 266.62839 268.79242 270.87921 273.03146 274.94971
 276.21774 277.18314 278.06604 279.27057 280.44641 281.50842 282.48526 283.37753
 284.18564 284.91562 285.55402 286.37463
 366.78100 356.34563 345.78825 334.66488 323.07851 311.28313 299.16376 286.97739
 274.70002 262.60764 250.62727 239.93890 230.07152 221.18615 213.37878 206.39140
 200.23603 195.18466 191.77728 189.82991 188.87754 188.95216 189.79779 191.11642
 192.85205 194.95767 197.23130 199.60093 202.05655 204.54718 206.64581 208.49843
 210.13506 211.29069 211.53031 211.76894 211.71657 211.43219 211.07582 210.71645
 210.34408 210.06470 209.88333 209.75796 209.69658 210.03821 210.43484 210.83446
 211.63809 212.82672 214.08734 215.88097 217.81960 219.87322 221.97885 224.07248
 226.14311 228.23773 230.34536 232.46199 234.60161 236.78424 239.05087 241.43149
 244.06312 246.32475 248.33737 250.11300 251.54063 252.67425 253.50688 253.83351
 253.88114 253.66576 253.03639 251.99502 250.61164 248.78327 246.70290 244.54652
 242.34815 240.16278 237.99340 235.84303 233.71366 231.59128 229.62791 227.79554
 226.08917 224.57179 223.21242 221.99505 220.88767 219.85830 218.97293 218.12455
 217.37718 216.56781 215.67643 215.05106 214.51169 215.29320 217.13957 219.26784
 221.24484 222.73991 223.31827 222.80795 221.98935 221.36746 221.66376 223.34993
 226.03641 230.17845 234.90463 239.56157 243.97656 248.13634 252.00427 255.53197
 258.78323 261.77505 264.46747 266.75049 268.92438 270.99252 273.08246 274.93533
 276.19321 277.18887 278.11569 279.37335 280.55823 281.61948 282.59790 283.48938
 284.29736 285.02921 285.66919 286.49313
 366.78100 356.34605 345.78910 334.66615 323.08020 311.28525 299.16631 286.98036
 274.70341 262.61146 250.63151 239.94356 230.07661 221.19166 213.38471 206.39776
 200.24281 195.19187 191.78492 189.83797 188.88602 188.96107 189.80712 191.12617
 192.86222 194.96827 197.24232 199.61237 202.06843 204.55948 206.65853 208.51158
 210.14863 211.30468 211.54473 211.78378 211.73183 211.44788 211.09194 210.73299
 210.36104 210.08209 209.90114 209.77619 209.71524 210.05729 210.45434 210.85439
 211.65844 212.84750 214.10855 215.90260 217.84165 219.89570 222.00175 224.09580
 226.16685 228.26190 230.36995 232.48700 234.62706 236.81011 239.07716 241.45821
 244.09026 246.35231 248.36536 250.14141 251.56946 252.70351 253.53656 253.86362
 253.91167 253.69672 253.06777 252.02682 250.64387 248.81592 246.73597 244.58002
 242.38207 240.19712 238.02818 235.87823 233.74928 231.62733 229.66438 227.83243
 226.12648 224.60953 223.25058 222.03363 220.92669 219.89774 219.01279 218.16484
 217.41789 216.60894 215.71799 215.09304 214.55409 215.31943 217.12762 219.27287
 221.20232 222.68655 223.32158 222.71872 221.69841 221.02448 221.40227 223.27048
 226.08638 230.27950 235.03241 239.73717 244.17766 248.29512 252.12784 255.66309
 258.92877 261.94818 264.63858 266.87473 269.02948 271.10605 273.14059 274.92023
 276.13571 277.12912 278.17303 279.46671 280.65598 281.71863 282.69757 283.59088
 284.40204 285.13290 285.77612 286.61008
 366.78100 356.34637 345.78974 334.66711 323.08148 311.28685 299.16822 286.98259
 274.70596 262.61433 250.63470 239.94707 230.08044 221.19581 213.38918 206.40255
 200.24792 195.19729 191.79067 189.84404 188.89241 188.96778 189.81415 191.13352
 192.86989 194.97626 197.25063 199.62100 202.07737 204.56874 206.66811 208.52148
 210.15885 211.31522 211.55559 211.79496 211.74333 211.45970 211.10407 210.74544
 210.37381 210.09518 209.91455 209.78992 209.72929 210.07166 210.46903 210.86940
 211.67377 212.86314 214.12451 215.91888 217.85826 219.91263 222.01900 224.11337
 226.18474 228.28011 230.38848 232.50585 234.64622 236.82959 239.09696 241.47833
 244.11070 246.37307 248.38644 250.16281 251.59118 252.72555 253.55892 253.88629
 253.93466 253.72003 253.09140 252.05077 250.66814 248.84051 246.76088 244.60525
 242.40762 240.22299 238.05436 235.90473 233.77610 231.65447 229.69184 227.86022
 226.15459 224.63796 223.27933 222.06270 220.95607 219.92744 219.04281 218.19518
 217.44855 216.63992 215.74929 215.12466 214.58603 215.33987 217.12093 219.26518
 221.19073 222.61070 223.23985 222.68782 221.57761 220.60120 221.05113 223.26169
 226.18089 230.38579 235.17406 239.90648 244.35846 248.46593 252.26353 255.79224
 259.08206 262.10941 264.79544 266.99677 269.11731 271.20322 273.18304 274.90353
 276.09082 277.07919 278.21500 279.52582 280.71384 281.77719 282.75500 283.64883
 284.46094 285.19608 285.83859 286.68069
 366.78100 356.34647 345.78995 334.66742 323.08189 311.28737 299.16884 286.98331
 274.70679 262.61526 250.63573 239.94821 230.08168 221.19715 213.39063 206.40410
 200.24957 195.19905 191.79252 189.84599 188.89447 188.96994 189.81641 191.13589
 192.87236 194.97883 197.25331 199.62378 202.08025 204.57173 206.67120 208.52467
 210.16215 211.31862 211.55909 211.79857 211.74704 211.46351 211.10798 210.74946
 210.37793 210.09940 209.91888 209.79435 209.73382 210.07630 210.47377 210.87424
 211.67872 212.86819 214.12966 215.92414 217.86361 219.91808 222.02456 224.11903
 226.19050 228.28598 230.39445 232.51192 234.65240 236.83587 239.10334 241.48482
 244.11729 246.37976 248.39324 250.16971 251.59818 252.73266 253.56613 253.89360
 253.94208 253.72755 253.09902 252.05850 250.67597 248.84844 246.76892 244.61339
 242.41586 240.23134 238.06281 235.91328 233.78476 231.66323 229.70070 227.86918
 226.16365 224.64712 223.28860 222.07207 220.96554 219.93702 219.05249 218.20496
 217.45844 216.64991 215.75938 215.13486 214.59633 215.34787 217.12347 219.23872
 221.18796 222.57939 223.10733 222.55708 221.46458 220.29205 220.74390 223.16414
 226.22169 230.50220 235.32405 240.08202 244.52960 248.64557 252.43069 255.93613
 259.23984 262.25861 264.91794 267.10895 269.20013 271.26410 273.18420 274.87036
 276.08807 277.09692 278.25449 279.56604 280.75211 281.81320 282.78854 283.68021
 284.49130 285.22610 285.86737 286.72421
 366.78100 356.34655 345.79010 334.66765 323.08220 311.28774 299.16929 286.98384
 274.70739 262.61594 250.63649 239.94904 230.08259 221.19813 213.39168 206.40523
 200.25078 195.20033 191.79388 189.84743 188.89598 188.97153 189.81807 191.13762
 192.87417 194.98072 197.25527 199.62582 202.08237 204.57392 206.67346 208.52701
 210.16456 211.32111 211.56166 211.80121 211.74976 211.46631 211.11086 210.75240
 210.38095 210.10250 209.92205 209.79760 209.73715 210.07970 210.47725 210.87779
 211.68234 212.87189 214.13344 215.92799 217.86754 219.92209 222.02864 224.12319
 226.19473 228.29028 230.39883 232.51638 234.65693 236.84048 239.10803 241.48958
 244.12212 246.38467 248.39822 250.17477 251.60332 252.73787 253.57142 253.89897
 253.94751 253.73306 253.10461 252.06416 250.68171 248.85426 246.77481 244.61936
 242.42191 240.23745 238.06900 235.91955 233.79110 231.66965 229.70720 227.87575
 226.17030 224.65384 223.29539 222.07894 220.97249 219.94404 219.05959 218.21214
 217.46569 216.65724 215.76678 215.14233 214.60388 215.35408 217.12650 219.21576
 221.16240 222.56094 223.01237 222.37076 221.28978 220.02403 220.46225 223.01871
 226.25047 230.64352 235.48953 240.26093 244.70486 248.83269 252.61784 256.06824
 259.37378 262.42212 265.03250 267.21017 269.28162 271.29388 273.16183 274.82251
 276.10297 277.18994 278.28937 279.58466 280.76730 281.82477 282.79938 283.69177
 284.50415 285.24301 285.89102 286.74915
 366.78100 356.34669 345.79037 334.66806 323.08274 311.28843 299.17012 286.98480
 274.70849 262.61717 250.63786 239.95055 230.08423 221.19992 213.39360 206.40729
 200.25298 195.20266 191.79635 189.85003 188.89872 188.97441 189.82109 191.14078
 192.87746 194.98415 197.25884 199.62952 202.08621 204.57789 206.67758 208.53127
 210.16895 211.32564 211.56632 211.80601 211.75470 211.47138 211.11607 210.75775
 210.38644 210.10813 209.92781 209.80350 209.74318 210.08587 210.48356 210.88424
 211.68893 212.87861 214.14030 215.93499 217.87467 219.92936 222.03604 224.13073
 226.20242 228.29810 230.40679 232.52447 234.66516 236.84885 239.11653 241.49822
 244.13090 246.39359 248.40728 250.18396 251.61265 252.74733 253.58102 253.90871
 253.95739 253.74308 253.11476 252.07445 250.69214 248.86482 246.78551 244.63019
 242.43288 240.24857 238.08025 235.93094 233.80262 231.68131 229.71900 227.88768
 226.18237 224.66605 223.30774 222.09143 220.98511 219.95680 219.07248 218.22517
 217.47886 216.67054 215.78023 215.15591 214.61760 215.36171 217.11975 219.20535
 221.12982 222.53114 222.94818 222.19395 221.06921 219.75139 220.19385 222.87354
 226.27780 230.78813 235.66866 240.45093 244.88907 249.00363 252.81039 256.24667
 259.46652 262.49994 265.12180 267.32809 269.36823 271.31949 273.13458 274.77765
 276.15820 277.36227 278.46390 279.57184 280.72208 281.77701 282.75003 283.64441
 284.45865 285.19769 285.85352 286.72726
 366.78100 356.34672 345.79045 334.66817 323.08290 311.28862 299.17035 286.98507
 274.70879 262.61752 250.63824 239.95097 230.08469 221.20042 213.39414 206.40786
 200.25359 195.20331 191.79704 189.85076 188.89949 188.97521 189.82193 191.14166
 192.87838 194.98511 197.25983 199.63056 202.08728 204.57900 206.67873 208.53245
 210.17018 211.32690 211.56763 211.80735 211.75607 211.47280 211.11752 210.75925
 210.38797 210.10970 209.92942 209.80514 209.74487 210.08759 210.48532 210.88604
 211.69077 212.88049 214.14221 215.93694 217.87666 219.93139 222.03811 224.13284
 226.20456 228.30028 230.40901 232.52673 234.66746 236.85118 239.11891 241.50063
 244.13335 246.39608 248.40980 250.18653 251.61525 252.74998 253.58370 253.91142
 253.96015 253.74587 253.11760 252.07732 250.69505 248.86777 246.78849 244.63322
 242.43594 240.25167 238.08339 235.93412 233.80584 231.68457 229.72229 227.89101
 226.18574 224.66946 223.31119 222.09491 220.98864 219.96036 219.07608 218.22881
 217.48253 216.67426 215.78398 215.15971 214.62143 215.36264 217.11383 219.19121
 221.10287 222.49640 222.88771 222.03383 220.80963 219.50804 219.95805 222.73090
 226.29436 230.91023 235.83044 240.62718 245.06409 249.16272 252.97951 256.45682
 259.63678 262.56207 265.16873 267.41138 269.43387 271.34186 273.10104 274.72165
 276.14423 277.37943 278.42136 279.65488 280.80115 281.84402 282.80835 283.69431
 284.50607 285.24210 285.89676 286.77576
 366.78100 356.34667 345.79035 334.66802 323.08269 311.28837 299.17004 286.98471
 274.70838 262.61706 250.63773 239.95040 230.08408 221.19975 213.39342 206.40710
 200.25277 195.20244 191.79611 189.84979 188.89846 188.97413 189.82081 191.14048
 192.87715 194.98383 197.25850 199.62917 202.08584 204.57752 206.67719 208.53086
 210.16854 211.32521 211.56588 211.80556 211.75423 211.47090 211.11557 210.75725
 210.38592 210.10759 209.92727 209.80294 209.74261 210.08529 210.48296 210.88363
 211.68831 212.87798 214.13965 215.93432 217.87400 219.92867 222.03534 224.13002
 226.20169 228.29736 230.40604 232.52371 234.66438 236.84805 239.11573 241.49740
 244.13007 246.39275 248.40642 250.18309 251.61177 252.74644 253.58011 253.90778
 253.95646 253.74213 253.11380 252.07348 250.69115 248.86382 246.78450 244.62917
 242.43184 240.24752 238.07919 235.92986 233.80153 231.68021 229.71788 227.88655
 226.18123 224.66490 223.30657 222.09025 220.98392 219.95559 219.07126 218.22394
 217.47761 216.66928 215.77896 215.15463 214.61630 215.35806 217.11055 219.18054
 221.06464 222.46404 222.81241 221.88344 220.54250 219.29150 219.72395 222.58463
 226.31772 231.03294 235.98427 240.79843 245.23117 249.32652 253.14645 256.63290
 259.81314 262.67166 265.21713 267.44412 269.46362 271.35834 273.07675 274.62051
 276.03094 277.24091 278.47659 279.73300 280.89648 281.94391 282.90842 283.79294
 284.60129 285.33487 285.98666 286.86972
 354.97500 345.04800 334.58700 324.11500 313.32600 302.53700 291.65000 280.76700
 269.93100 259.19300 248.62200 238.61700 229.08700 220.35500 212.54000 205.53500
 199.46400 194.49300 191.14300 189.19000 188.08900 188.01400 188.72400 189.90600
 191.46900 193.38200 195.40300 197.55600 199.80700 202.06000 204.28800 206.47900
 208.55200 210.37800 212.02500 213.65900 214.99800 216.11800 217.17200 218.25900
 219.49400 220.64500 221.67900 222.61400 223.54500 224.98200 226.57100 228.19000
 229.79700 231.81100 233.86500 235.97200 238.24200 240.55300 242.89900 245.25300
 247.48800 249.53500 251.36600 252.84800 254.09800 255.16700 256.02700 256.25300
 256.09500 255.54300 253.93500 252.56600 251.38400 250.24500 249.05200 247.70100
 246.01600 243.99600 241.78400 239.39300 236.81300 234.22300 231.65800 229.14400
 226.74000 224.47300 222.33500 220.32500 218.44000 216.67700 214.96200 213.47200
 212.20000 211.10800 210.26000 209.63900 209.24400 209.03100 209.05800 209.33300
 209.78400 210.62600 211.33100 212.39100 213.62500 214.84668 217.72949 219.47640
 220.32566 220.86828 220.88710 220.27371 219.43733 218.84250 219.04934 220.86203
 222.60583 225.72206 229.03064 232.61777 236.12270 239.51333 242.70767 245.68587
 248.41061 250.90679 253.19353 254.91714 256.48655 257.94920 259.39966 260.69384
 261.81714 262.77997 263.71679 264.54570 265.26305 265.89772 266.47676 267.00133
 267.47312 267.89325 268.26027 268.72800
