|-------------------------------------------------------------------------|
|   File Name : in_temp.dat
|   Subject   : temperature profiles used for initial guess atmosphere
|   File Type : input of gmtr
|   Data Type : atmospherical data
|   Author/s  : WRF-Chem
|   Date      : Fri Jul 26 15:39:24 2024
|-------------------------------------------------------------------------|

 WRF-Chem temperature
#
 values of T (K)    (8f10.5)
#
 354.97500 345.04800 334.58700 324.11500 313.32600 302.53700 291.65000 280.76700
 269.93100 259.19300 248.62200 238.61700 229.08700 220.35500 212.54000 205.53500
 199.46400 194.49300 191.14300 189.19000 188.08900 188.01400 188.72400 189.90600
 191.46900 193.38200 195.40300 197.55600 199.80700 202.06000 204.28800 206.47900
 208.55200 210.37800 212.02500 213.65900 214.99800 216.11800 217.17200 218.25900
 219.49400 220.64500 221.67900 222.61400 223.54500 224.98200 226.57100 228.19000
 229.79700 231.81100 233.86500 235.97200 238.24200 240.55300 242.89900 245.25300
 247.48800 249.53500 251.36600 252.84800 254.09800 255.16700 256.02700 256.25300
 256.09500 255.54300 253.93500 252.56600 251.38400 250.24500 249.05200 247.70100
 246.01600 243.99600 241.78400 239.39300 236.81300 234.22300 231.65800 229.14400
 226.74000 224.47300 222.33500 220.32500 218.44000 216.67700 214.96200 213.47200
 212.20000 211.10800 210.26000 209.63900 209.24400 209.03100 209.05800 209.33300
 209.78400 210.62600 211.33100 212.39100 213.62500 214.84668 217.72949 219.47640
 220.32566 220.86828 220.88710 220.27371 219.43733 218.84250 219.04934 220.86203
 222.60583 225.72206 229.03064 232.61777 236.12270 239.51333 242.70767 245.68587
 248.41061 250.90679 253.19353 254.91714 256.48655 257.94920 259.39966 260.69384
 261.81714 262.77997 263.71679 264.54570 265.26305 265.89772 266.47676 267.00133
 267.47312 267.89325 268.26027 268.72800
 366.78100 356.33500 345.76700 334.63300 323.03600 311.23000 299.10000 286.90300
 274.61500 262.51200 250.52100 239.82200 229.94400 221.04800 213.23000 206.23200
 200.06600 195.00400 191.58600 189.62800 188.66500 188.72900 189.56400 190.87200
 192.59700 194.69200 196.95500 199.31400 201.75900 204.23900 206.32700 208.16900
 209.79500 210.94000 211.16900 211.39700 211.33400 211.03900 210.67200 210.30200
 209.91900 209.62900 209.43700 209.30100 209.22900 209.56000 209.94600 210.33500
 211.12800 212.30600 213.55600 215.33900 217.26700 219.31000 221.40500 223.48800
 225.54800 227.63200 229.72900 231.83500 233.96400 236.13600 238.39200 240.76200
 243.38300 245.63400 247.63600 249.40100 250.81800 251.94100 252.76300 253.07900
 253.11600 252.89000 252.25000 251.19800 249.80400 247.96500 245.87400 243.70700
 241.49800 239.30200 237.12200 234.96100 232.82100 230.68800 228.71400 226.87100
 225.15400 223.62600 222.25600 221.02800 219.91000 218.87000 217.97400 217.11500
 216.35700 215.53700 214.63500 213.99900 213.44900 212.85855 212.01316 212.61654
 214.26826 216.08686 218.14273 220.53346 223.40855 226.78828 231.49734 235.90155
 239.42278 243.28576 247.23140 251.11907 254.80144 258.23331 261.38913 264.27520
 266.89312 269.26852 271.44504 273.08845 274.58484 275.98591 277.39845 278.65879
 279.75272 280.69038 281.56708 282.34086 283.01050 283.60295 284.14348 284.63317
 285.07358 285.46577 285.80838 286.24500
 381.81900 372.39900 361.20600 349.77600 337.62200 324.85300 311.81000 298.35300
 284.86000 271.32400 258.56100 246.30400 236.08700 226.79600 218.44800 211.29000
 205.52200 200.89400 197.38100 194.84800 193.01500 192.31500 192.25000 192.43100
 192.91200 193.53700 194.13600 194.71200 195.26200 195.83100 196.39300 196.97600
 197.60400 198.14900 198.58400 199.05700 199.69500 200.37800 201.05400 201.70800
 202.31300 202.85700 203.35500 203.86200 204.56900 205.29700 206.02600 206.98700
 208.19300 209.44100 210.96900 212.57600 214.46200 216.51300 218.63000 220.85300
 223.34100 225.96200 228.73900 231.69700 234.70600 237.70600 240.69200 243.65700
 246.73700 249.69900 252.52100 255.06300 257.29000 259.23300 260.63300 261.68000
 262.46100 262.79800 262.69100 262.22400 261.06900 259.52500 257.70700 255.50700
 253.00100 250.30200 247.39800 244.45200 241.65400 239.05400 236.73300 234.59000
 232.59500 230.72500 228.83400 226.82600 224.66600 222.38700 220.10400 217.71500
 215.45900 213.06600 210.54600 208.09300 205.35400 202.08130 196.05959 200.71215
 209.01611 216.90438 223.84126 229.78593 235.00632 240.20838 245.98943 250.68668
 254.32982 257.93487 261.55666 264.96801 268.15192 271.06452 273.76717 276.25691
 278.57680 280.74479 282.77456 284.60533 286.27232 287.81705 289.31715 290.65561
 291.81734 292.81312 293.70701 294.49387 295.17482 295.77730 296.32696 296.82492
 297.27278 297.67160 298.02000 298.46400
 399.33000 389.90700 379.81300 368.66800 357.52200 345.30100 333.07400 320.22700
 307.21600 293.84800 280.37600 267.29600 254.61000 242.98700 232.15100 221.97700
 212.67200 204.28600 197.66900 192.82100 189.48600 187.45200 186.81400 187.08900
 187.78100 189.05400 190.64800 192.54200 194.63000 196.75200 198.67100 200.15800
 201.53500 202.48700 202.97500 203.34000 203.53900 203.49700 203.38500 203.24700
 203.00500 202.78600 202.60300 202.43700 202.42600 202.88800 203.42000 203.95100
 204.89500 205.99200 207.30100 208.95800 210.73800 213.10000 215.56400 218.18000
 220.96600 223.91800 226.96100 230.09200 233.29300 236.55700 239.95500 243.53700
 246.84500 249.39000 251.54200 253.47400 255.19500 256.48400 257.43100 258.05900
 258.21200 258.04000 257.58200 256.64300 255.23900 253.50700 251.40800 249.05600
 246.57600 243.99400 241.38900 238.83000 236.34400 233.98600 231.96900 230.11800
 228.42300 226.89900 225.54800 224.29700 223.10500 221.96500 220.95800 220.11300
 219.49000 218.92000 218.32500 217.88100 217.42300 216.96366 216.35568 216.80261
 217.73415 218.28582 218.64258 219.10077 220.44626 222.53987 226.38451 230.35736
 233.59734 237.39164 241.29814 245.22796 248.98002 252.51130 255.78595 258.80109
 261.54781 264.05210 266.34239 268.04198 269.58951 271.01303 272.35754 273.55718
 274.59842 275.49092 276.28989 276.99307 277.60161 278.14001 278.63122 279.07623
 279.47646 279.83287 280.14422 280.54100
 399.73800 389.78500 379.66200 368.15100 356.64100 344.35000 331.79200 318.88800
 305.72600 292.49300 279.20900 266.73800 254.69600 244.21100 234.45700 225.43300
 217.56900 210.45100 204.30000 199.30600 195.45800 192.57600 191.02700 190.38600
 190.23900 190.53400 191.16600 191.92500 192.79500 193.76600 194.73200 195.31200
 195.80000 196.05200 196.11500 196.11500 196.03900 195.72300 195.34000 194.98900
 194.75100 194.79200 195.13300 195.59800 196.50600 198.13600 199.85800 201.56600
 204.17900 206.82300 209.89300 213.28400 216.82800 220.60500 224.38700 228.20900
 232.03200 235.82500 239.56000 243.25800 246.84500 250.20100 253.70900 257.46800
 261.53000 264.22100 266.60100 268.68100 270.32900 271.74100 272.83600 273.47400
 273.89800 274.00200 273.75700 273.28800 272.37100 271.10000 269.58900 267.77900
 265.81600 263.72100 261.39300 258.91600 256.29800 253.42300 250.33100 247.11400
 243.83700 240.52900 237.24900 233.99900 230.72800 227.51500 224.25400 220.95200
 217.62700 213.65600 210.12100 206.78900 204.01000 201.99491 199.07309 198.76551
 199.40006 200.48994 201.46112 202.31912 203.45100 204.96110 207.47502 210.85391
 213.70530 217.29629 220.99574 224.72316 228.28753 231.64854 234.68024 237.40893
 239.70644 241.60899 243.46854 245.67368 247.68154 249.52395 251.24767 252.78566
 254.12057 255.26479 256.23740 257.09036 257.82852 258.48160 259.07744 259.61723
 260.10271 260.53504 260.91270 261.39400
 399.73800 389.78500 379.66200 368.15100 356.64100 344.35000 331.79200 318.88800
 305.72600 292.49300 279.20900 266.73800 254.69600 244.21100 234.45700 225.43300
 217.56900 210.45100 204.30000 199.30600 195.45800 192.57600 191.02700 190.38600
 190.23900 190.53400 191.16600 191.92500 192.79500 193.76600 194.73200 195.31200
 195.80000 196.05200 196.11500 196.11500 196.03900 195.72300 195.34000 194.98900
 194.75100 194.79200 195.13300 195.59800 196.50600 198.13600 199.85800 201.56600
 204.17900 206.82300 209.89300 213.28400 216.82800 220.60500 224.38700 228.20900
 232.03200 235.82500 239.56000 243.25800 246.84500 250.20100 253.70900 257.46800
 261.53000 264.22100 266.60100 268.68100 270.32900 271.74100 272.83600 273.47400
 273.89800 274.00200 273.75700 273.28800 272.37100 271.10000 269.58900 267.77900
 265.81600 263.72100 261.39300 258.91600 256.29800 253.42300 250.33100 247.11400
 243.83700 240.52900 237.24900 233.99900 230.72800 227.51500 224.25400 220.95200
 217.62700 213.65600 210.12100 206.78900 204.01000 201.99491 199.07309 198.76551
 199.40006 200.48994 201.46112 202.31912 203.45100 204.96110 207.47502 210.85391
 213.70530 217.29629 220.99574 224.72316 228.28753 231.64854 234.68024 237.40893
 239.70644 241.60899 243.46854 245.67368 247.68154 249.52395 251.24767 252.78566
 254.12057 255.26479 256.23740 257.09036 257.82852 258.48160 259.07744 259.61723
 260.10271 260.53504 260.91270 261.39400
 399.33000 389.90700 379.81300 368.66800 357.52200 345.30100 333.07400 320.22700
 307.21600 293.84800 280.37600 267.29600 254.61000 242.98700 232.15100 221.97700
 212.67200 204.28600 197.66900 192.82100 189.48600 187.45200 186.81400 187.08900
 187.78100 189.05400 190.64800 192.54200 194.63000 196.75200 198.67100 200.15800
 201.53500 202.48700 202.97500 203.34000 203.53900 203.49700 203.38500 203.24700
 203.00500 202.78600 202.60300 202.43700 202.42600 202.88800 203.42000 203.95100
 204.89500 205.99200 207.30100 208.95800 210.73800 213.10000 215.56400 218.18000
 220.96600 223.91800 226.96100 230.09200 233.29300 236.55700 239.95500 243.53700
 246.84500 249.39000 251.54200 253.47400 255.19500 256.48400 257.43100 258.05900
 258.21200 258.04000 257.58200 256.64300 255.23900 253.50700 251.40800 249.05600
 246.57600 243.99400 241.38900 238.83000 236.34400 233.98600 231.96900 230.11800
 228.42300 226.89900 225.54800 224.29700 223.10500 221.96500 220.95800 220.11300
 219.49000 218.92000 218.32500 217.88100 217.42300 216.96366 216.35568 216.80261
 217.73415 218.28582 218.64258 219.10077 220.44626 222.53987 226.38451 230.35736
 233.59734 237.39164 241.29814 245.22796 248.98002 252.51130 255.78595 258.80109
 261.54781 264.05210 266.34239 268.04198 269.58951 271.01303 272.35754 273.55718
 274.59842 275.49092 276.28989 276.99307 277.60161 278.14001 278.63122 279.07623
 279.47646 279.83287 280.14422 280.54100
 381.81900 372.39900 361.20600 349.77600 337.62200 324.85300 311.81000 298.35300
 284.86000 271.32400 258.56100 246.30400 236.08700 226.79600 218.44800 211.29000
 205.52200 200.89400 197.38100 194.84800 193.01500 192.31500 192.25000 192.43100
 192.91200 193.53700 194.13600 194.71200 195.26200 195.83100 196.39300 196.97600
 197.60400 198.14900 198.58400 199.05700 199.69500 200.37800 201.05400 201.70800
 202.31300 202.85700 203.35500 203.86200 204.56900 205.29700 206.02600 206.98700
 208.19300 209.44100 210.96900 212.57600 214.46200 216.51300 218.63000 220.85300
 223.34100 225.96200 228.73900 231.69700 234.70600 237.70600 240.69200 243.65700
 246.73700 249.69900 252.52100 255.06300 257.29000 259.23300 260.63300 261.68000
 262.46100 262.79800 262.69100 262.22400 261.06900 259.52500 257.70700 255.50700
 253.00100 250.30200 247.39800 244.45200 241.65400 239.05400 236.73300 234.59000
 232.59500 230.72500 228.83400 226.82600 224.66600 222.38700 220.10400 217.71500
 215.45900 213.06600 210.54600 208.09300 205.35400 202.08130 196.05959 200.71215
 209.01611 216.90438 223.84126 229.78593 235.00632 240.20838 245.98943 250.68668
 254.32982 257.93487 261.55666 264.96801 268.15192 271.06452 273.76717 276.25691
 278.57680 280.74479 282.77456 284.60533 286.27232 287.81705 289.31715 290.65561
 291.81734 292.81312 293.70701 294.49387 295.17482 295.77730 296.32696 296.82492
 297.27278 297.67160 298.02000 298.46400
 366.78100 356.33639 345.76978 334.63718 323.04157 311.23696 299.10835 286.91275
 274.62614 262.52453 250.53492 239.83732 229.96071 221.06610 213.24949 206.25289
 200.08828 195.02767 191.61106 189.65446 188.69285 188.75824 189.59463 190.90403
 192.63042 194.72681 196.99120 199.35160 201.79799 204.27938 206.36877 208.21216
 209.83956 210.98595 211.21634 211.44573 211.38413 211.09052 210.72491 210.35630
 209.97470 209.68609 209.49548 209.36087 209.29027 209.62266 210.01005 210.40044
 211.19484 212.37423 213.62562 215.41001 217.33941 219.38380 221.48019 223.56458
 225.62598 227.71137 229.80976 231.91715 234.04754 236.22094 238.47833 240.84972
 243.47211 245.72451 247.72790 249.49429 250.91268 252.03708 252.86047 253.17786
 253.21625 252.99165 252.35304 251.30243 249.90982 248.07222 245.98261 243.81700
 241.60939 239.41479 237.23618 235.07657 232.93796 230.80636 228.83375 226.99214
 225.27653 223.74993 222.38132 221.15471 220.03810 218.99949 218.10489 217.24728
 216.49067 215.67206 214.77146 214.13685 213.58824 212.75139 210.78172 210.33621
 210.66595 211.52209 213.18799 215.59550 219.20404 223.87589 229.64876 234.80367
 238.71805 242.63899 246.70103 250.79378 254.62560 258.38110 261.20239 262.93317
 265.60114 268.43820 270.87128 272.73911 274.73599 276.73801 278.25287 279.73813
 281.37668 282.91733 284.38455 285.74210 286.92325 287.96820 288.92303 289.79089
 290.57663 291.27942 291.90030 292.72272
 366.78100 356.33698 345.77096 334.63893 323.04391 311.23989 299.11187 286.91685
 274.63082 262.52980 250.54078 239.84376 229.96774 221.07371 213.25769 206.26167
 200.09765 195.03763 191.62160 189.66558 188.70456 188.77054 189.60752 190.91750
 192.64447 194.74145 197.00643 199.36741 201.81439 204.29636 206.38634 208.23032
 209.85830 211.00528 211.23625 211.46623 211.40521 211.11219 210.74717 210.37914
 209.99812 209.71010 209.52008 209.38606 209.31603 209.64901 210.03699 210.42797
 211.22295 212.40292 213.65490 215.43988 217.36986 219.41484 221.51181 223.59679
 225.65877 227.74475 229.84373 231.95170 234.08268 236.25666 238.51464 240.88662
 243.50960 245.76257 247.76655 249.53353 250.95251 252.07749 252.90146 253.21944
 253.25842 253.03440 252.39638 251.34635 249.95433 248.11731 246.02829 243.86327
 241.65624 239.46222 237.28420 235.12518 232.98716 230.85613 228.88411 227.04309
 225.32807 223.80205 222.43402 221.20800 220.09198 219.05396 218.15994 217.30291
 216.54689 215.72887 214.82885 214.19483 213.64680 212.81416 210.85411 210.45567
 210.65320 211.62071 213.26161 215.56526 219.08969 223.80817 229.60184 234.75182
 238.65623 242.55975 246.61243 250.71141 254.56409 258.32242 261.14572 262.88818
 265.56360 268.40778 270.83670 272.66006 274.64053 276.65829 278.16391 279.63599
 281.28409 282.83398 284.30029 285.65814 286.83890 287.88297 288.83899 289.70718
 290.49161 291.19748 291.81818 292.64172
 366.78100 356.33702 345.77104 334.63907 323.04409 311.24011 299.11213 286.91716
 274.63118 262.53020 250.54122 239.84425 229.96827 221.07429 213.25831 206.26234
 200.09836 195.03838 191.62240 189.66643 188.70545 188.77147 189.60849 190.91852
 192.64554 194.74256 197.00758 199.36861 201.81563 204.29765 206.38767 208.23170
 209.85972 211.00674 211.23776 211.46779 211.40681 211.11383 210.74885 210.38088
 209.99990 209.71192 209.52194 209.38797 209.31799 209.65101 210.03903 210.43006
 211.22508 212.40510 213.65712 215.44215 217.37217 219.41719 221.51421 223.59923
 225.66126 227.74728 229.84630 231.95432 234.08535 236.25937 238.51739 240.88941
 243.51244 245.76546 247.76948 249.53650 250.95553 252.08055 252.90457 253.22259
 253.26162 253.03764 252.39966 251.34968 249.95771 248.12073 246.03175 243.86677
 241.65980 239.46582 237.28784 235.12886 232.99089 230.85991 228.88793 227.04695
 225.33198 223.80600 222.43802 221.21204 220.09607 219.05809 218.16411 217.30713
 216.55116 215.73318 214.83320 214.19922 213.65125 212.84958 210.96159 210.54395
 210.66455 211.70522 213.31734 215.55199 219.00262 223.72928 229.55348 234.69540
 238.58824 242.47729 246.52219 250.62936 254.50589 258.26666 261.09256 262.84708
 265.52319 268.37210 270.79724 272.58038 274.54602 276.57837 278.07602 279.53448
 281.19229 282.75143 284.21826 285.57587 286.75577 287.80127 288.75522 289.62482
 290.41095 291.11795 291.73792 292.55878
 366.78100 356.33679 345.77058 334.63838 323.04317 311.23896 299.11075 286.91555
 274.62934 262.52813 250.53892 239.84171 229.96551 221.07130 213.25509 206.25888
 200.09468 195.03447 191.61826 189.66205 188.70084 188.76664 189.60343 190.91322
 192.64001 194.73680 197.00160 199.36239 201.80918 204.29097 206.38077 208.22456
 209.85235 210.99914 211.22993 211.45973 211.39852 211.10531 210.74010 210.37190
 209.99069 209.70248 209.51227 209.37806 209.30786 209.64065 210.02844 210.41923
 211.21403 212.39382 213.64561 215.43040 217.36019 219.40499 221.50178 223.58657
 225.64836 227.73416 229.83295 231.94074 234.07153 236.24532 238.50312 240.87491
 243.49770 245.75049 247.75428 249.52108 250.93987 252.06466 252.88845 253.20625
 253.24504 253.02083 252.38262 251.33241 249.94021 248.10300 246.01379 243.84858
 241.64138 239.44717 237.26896 235.10975 232.97154 230.84034 228.86813 227.02692
 225.31171 223.78551 222.41730 221.19109 220.07488 219.03667 218.14247 217.28526
 216.52905 215.71084 214.81064 214.17643 213.62822 212.87070 211.08574 210.62190
 210.69644 211.76950 213.36589 215.55157 218.92781 223.64944 229.50237 234.63402
 238.51617 242.39394 246.43292 250.54930 254.45140 258.21307 261.03879 262.80411
 265.47696 268.32867 270.75156 272.50070 274.45300 276.49951 277.99353 279.43903
 281.10321 282.67020 284.13687 285.49414 286.67480 287.72006 288.67703 289.54462
 290.33112 291.03867 291.65735 292.48853
 366.78100 356.33654 345.77008 334.63762 323.04216 311.23770 299.10924 286.91378
 274.62732 262.52586 250.53640 239.83894 229.96248 221.06802 213.25156 206.25509
 200.09063 195.03017 191.61371 189.65725 188.69579 188.76133 189.59787 190.90741
 192.63395 194.73049 196.99503 199.35557 201.80211 204.28365 206.37319 208.21673
 209.84427 210.99081 211.22135 211.45089 211.38943 211.09597 210.73051 210.36205
 209.98059 209.69213 209.50167 209.36721 209.29675 209.62928 210.01682 210.40736
 211.20190 212.38144 213.63298 215.41752 217.34706 219.39160 221.48814 223.57268
 225.63422 227.71976 229.81830 231.92584 234.05638 236.22992 238.48746 240.85900
 243.48154 245.73408 247.73762 249.50416 250.92270 252.04724 252.87078 253.18832
 253.22686 253.00240 252.36394 251.31347 249.92101 248.08355 245.99409 243.82863
 241.62117 239.42671 237.24825 235.08879 232.95033 230.81887 228.84641 227.00495
 225.28949 223.76303 222.39457 221.16811 220.05165 219.01319 218.11873 217.26127
 216.50481 215.68635 214.78589 214.15143 213.60297 212.88979 211.20845 210.70683
 210.74142 211.81129 213.40816 215.56265 218.86597 223.56761 229.44926 234.56929
 238.44200 242.31013 246.34430 250.46967 254.39905 258.16031 260.98331 262.75909
 265.42386 268.27609 270.69894 272.42050 274.36197 276.42209 277.91678 279.35165
 281.01889 282.58972 284.05933 285.41602 286.59558 287.64249 288.59756 289.46744
 290.25357 290.95972 291.58145 292.41257
 366.78100 356.33628 345.76955 334.63683 323.04111 311.23639 299.10766 286.91194
 274.62522 262.52350 250.53377 239.83605 229.95933 221.06461 213.24788 206.25116
 200.08644 195.02572 191.60899 189.65227 188.69055 188.75582 189.59210 190.90138
 192.62766 194.72393 196.98821 199.34849 201.79477 204.27604 206.36532 208.20860
 209.83588 210.98215 211.21243 211.44171 211.37999 211.08626 210.72054 210.35182
 209.97009 209.68137 209.49065 209.35593 209.28520 209.61748 210.00476 210.39504
 211.18931 212.36859 213.61987 215.40415 217.33342 219.37770 221.47398 223.55826
 225.61953 227.70481 229.80309 231.91036 234.04064 236.21392 238.47120 240.84247
 243.46475 245.71703 247.72031 249.48658 250.90486 252.02914 252.85242 253.16969
 253.20797 252.98325 252.34452 251.29380 249.90108 248.06336 245.97363 243.80791
 241.60019 239.40547 237.22674 235.06702 232.92830 230.79658 228.82385 226.98213
 225.26641 223.73969 222.37096 221.14424 220.02752 218.98879 218.09407 217.23635
 216.47963 215.66090 214.76018 214.12546 213.57674 212.90710 211.32779 210.80220
 210.79420 211.83838 213.44321 215.57872 218.81747 223.48589 229.39313 234.50220
 238.36584 242.22522 246.25522 250.38948 254.34895 258.10938 260.92859 262.71381
 265.36566 268.21469 270.63889 272.33801 274.27164 276.34470 277.84451 279.26990
 280.93814 282.51065 283.98181 285.33878 286.52042 287.56534 288.52057 289.38913
 290.17725 290.88434 291.50610 292.33600
 366.78100 356.33593 345.76885 334.63578 323.03971 311.23464 299.10556 286.90949
 274.62242 262.52034 250.53027 239.83220 229.95512 221.06005 213.24298 206.24591
 200.08083 195.01976 191.60269 189.64561 188.68354 188.74847 189.58439 190.89332
 192.61925 194.71518 196.97910 199.33903 201.78496 204.26588 206.35481 208.19774
 209.82466 210.97059 211.20052 211.42945 211.36737 211.07330 210.70723 210.33815
 209.95608 209.66701 209.47593 209.34086 209.26979 209.60172 209.98864 210.37857
 211.17250 212.35142 213.60235 215.38628 217.31521 219.35913 221.45506 223.53899
 225.59991 227.68484 229.78277 231.88969 234.01962 236.19255 238.44948 240.82040
 243.44233 245.69426 247.69718 249.46311 250.88104 252.00496 252.82789 253.14482
 253.18275 252.95767 252.31860 251.26753 249.87445 248.03638 245.94631 243.78023
 241.57216 239.37709 237.19802 235.03794 232.89887 230.76680 228.79372 226.95165
 225.23558 223.70851 222.33943 221.11236 219.99529 218.95621 218.06114 217.20307
 216.44599 215.62692 214.72585 214.09078 213.54170 212.91867 211.44873 210.90474
 210.85132 211.85934 213.47113 215.59560 218.77484 223.40811 229.33298 234.43221
 238.28831 242.14035 246.16603 250.31093 254.30214 258.06174 260.87579 262.67151
 265.30368 268.14374 270.56873 272.25092 274.18109 276.26544 277.77594 279.19778
 280.86243 282.43472 283.90790 285.26352 286.44397 287.48920 288.44473 289.31393
 290.10242 290.80978 291.43204 292.26144
 366.78100 356.33566 345.76831 334.63497 323.03863 311.23329 299.10394 286.90760
 274.62026 262.51792 250.52757 239.82923 229.95189 221.05654 213.23920 206.24186
 200.07652 195.01517 191.59783 189.64049 188.67814 188.74280 189.57846 190.88712
 192.61277 194.70843 196.97209 199.33175 201.77740 204.25806 206.34672 208.18937
 209.81603 210.96169 211.19135 211.42000 211.35766 211.06332 210.69698 210.32763
 209.94529 209.65595 209.46460 209.32926 209.25792 209.58958 209.97623 210.36589
 211.15955 212.33821 213.58886 215.37252 217.30118 219.34483 221.44049 223.52415
 225.58481 227.66946 229.76712 231.87378 234.00343 236.17609 238.43275 240.80341
 243.42506 245.67672 247.67938 249.44504 250.86269 251.98635 252.80901 253.12566
 253.16332 252.93798 252.29864 251.24729 249.85395 248.01561 245.92527 243.75892
 241.55058 239.35524 237.17589 235.01555 232.87621 230.74387 228.77052 226.92818
 225.21184 223.68450 222.31515 221.08781 219.97047 218.93112 218.03578 217.17744
 216.42010 215.60075 214.69941 214.06407 213.51472 212.93309 211.56044 211.02103
 210.91414 211.86810 213.49730 215.61485 218.73082 223.33867 229.27222 234.35716
 238.20412 242.04942 246.07365 250.23157 254.25945 258.01682 260.82547 262.63544
 265.23834 268.06403 270.48962 272.16122 274.08936 276.18567 277.71143 279.13507
 280.79263 282.36383 283.83221 285.18860 286.36948 287.41458 288.37009 289.23947
 290.02582 290.73450 291.35834 292.18900
 366.78100 356.33524 345.76747 334.63371 323.03695 311.23119 299.10142 286.90466
 274.61690 262.51414 250.52337 239.82461 229.94685 221.05109 213.23332 206.23556
 200.06980 195.00804 191.59027 189.63251 188.66975 188.73399 189.56922 190.87746
 192.60270 194.69794 196.96117 199.32041 201.76565 204.24589 206.33412 208.17636
 209.80260 210.94784 211.17707 211.40531 211.34255 211.04779 210.68102 210.31126
 209.92850 209.63874 209.44697 209.31121 209.23945 209.57069 209.95692 210.34616
 211.13940 212.31764 213.56787 215.35111 217.27935 219.32259 221.41782 223.50106
 225.56130 227.64554 229.74277 231.84901 233.97825 236.15049 238.40672 240.77696
 243.39820 245.64944 247.65167 249.41691 250.83415 251.95739 252.77962 253.09586
 253.13310 252.90734 252.26757 251.21581 249.82205 247.98329 245.89252 243.72576
 241.51700 239.32124 237.14147 234.98071 232.84095 230.70819 228.73442 226.89166
 225.17490 223.64714 222.27737 221.04961 219.93185 218.89209 217.99632 217.13756
 216.37980 215.56004 214.65827 214.02251 213.47275 212.93962 211.68103 211.13068
 210.98180 211.88841 213.51697 215.63292 218.69652 223.27150 229.20634 234.27693
 238.11385 241.95403 245.97888 250.15350 254.22179 257.97656 260.77969 262.60684
 265.17163 267.97589 270.40204 272.06683 273.99609 276.10272 277.64865 279.07898
 280.72699 282.29257 283.75699 285.11221 286.29236 287.33936 288.29489 289.16568
 289.95291 290.66058 291.28537 292.11664
 366.78100 356.33505 345.76709 334.63314 323.03618 311.23023 299.10027 286.90332
 274.61536 262.51241 250.52145 239.82250 229.94454 221.04859 213.23063 206.23268
 200.06672 195.00477 191.58681 189.62886 188.66590 188.72995 189.56499 190.87304
 192.59809 194.69313 196.95618 199.31522 201.76027 204.24031 206.32836 208.17040
 209.79645 210.94149 211.17054 211.39858 211.33563 211.04067 210.67372 210.30376
 209.92081 209.63085 209.43890 209.30294 209.23099 209.56203 209.94808 210.33713
 211.13017 212.30822 213.55826 215.34131 217.26935 219.31240 221.40744 223.49049
 225.55053 227.63458 229.73162 231.83767 233.96671 236.13876 238.39480 240.76485
 243.38589 245.63694 247.63898 249.40403 250.82107 251.94412 252.76617 253.08221
 253.11926 252.89330 252.25335 251.20139 249.80744 247.96848 245.87753 243.71057
 241.50162 239.30566 237.12571 234.96475 232.82480 230.69184 228.71789 226.87493
 225.15798 223.63002 222.26007 221.03211 219.91416 218.87421 217.97825 217.11930
 216.36134 215.54139 214.63943 214.00348 213.45352 212.95651 211.78299 211.26488
 211.04848 211.88806 213.56009 215.65236 218.63715 223.21097 229.14877 234.19783
 238.02208 241.85611 245.88275 250.07603 254.18857 257.93924 260.73157 262.57959
 265.10114 267.87918 270.30542 271.96841 273.90189 276.02023 277.59103 279.03207
 280.66733 282.22601 283.68127 285.03726 286.21765 287.26385 288.22012 289.08987
 289.87875 290.58688 291.21286 292.04471
 366.78100 356.33486 345.76672 334.63258 323.03544 311.22930 299.09916 286.90202
 274.61388 262.51074 250.51960 239.82046 229.94232 221.04618 213.22804 206.22990
 200.06376 195.00162 191.58349 189.62535 188.66221 188.72607 189.56093 190.86879
 192.59365 194.68851 196.95137 199.31023 201.75509 204.23495 206.32281 208.16467
 209.79053 210.93539 211.16425 211.39211 211.32897 211.03383 210.66669 210.29655
 209.91341 209.62327 209.43113 209.29499 209.22285 209.55371 209.93957 210.32843
 211.12129 212.29915 213.54901 215.33187 217.25973 219.30259 221.39746 223.48032
 225.54018 227.62404 229.72090 231.82676 233.95562 236.12748 238.38334 240.75320
 243.37406 245.62492 247.62678 249.39164 250.80850 251.93136 252.75322 253.06908
 253.10594 252.87980 252.23966 251.18752 249.79338 247.95424 245.86310 243.69596
 241.48682 239.29068 237.11054 234.94940 232.80926 230.67612 228.70198 226.85884
 225.14170 223.61356 222.24343 221.01529 219.89715 218.85701 217.96087 217.10173
 216.34359 215.52345 214.62131 213.98517 213.43503 212.97293 211.88168 211.39651
 211.15025 211.89983 213.53323 215.67670 218.64056 223.15298 229.08385 234.10336
 237.91164 241.74167 245.77567 249.99361 254.15637 257.90195 260.68295 262.55997
 265.03418 267.78082 270.21021 271.87686 273.81299 275.94095 277.54190 278.99442
 280.61438 282.16263 283.60654 284.96185 286.14206 287.18909 288.14453 289.01682
 289.80420 290.51462 291.13953 291.97003
 366.78100 356.33438 345.76575 334.63113 323.03350 311.22688 299.09625 286.89863
 274.61000 262.50638 250.51475 239.81513 229.93650 221.03988 213.22125 206.22263
 200.05600 194.99338 191.57475 189.61613 188.65250 188.71588 189.55025 190.85763
 192.58200 194.67638 196.93876 199.29713 201.74151 204.22088 206.30826 208.14963
 209.77501 210.91938 211.14776 211.37513 211.31151 211.01588 210.64826 210.27763
 209.89401 209.60338 209.41076 209.27413 209.20151 209.53188 209.91726 210.30563
 211.09801 212.27538 213.52476 215.30714 217.23451 219.27689 221.37126 223.45364
 225.51301 227.59639 229.69276 231.79814 233.92651 236.09789 238.35326 240.72264
 243.34301 245.59339 247.59476 249.35914 250.77551 251.89789 252.71926 253.03464
 253.07101 252.84439 252.20377 251.15114 249.75652 247.91689 245.82527 243.65764
 241.44802 239.25139 237.07077 234.90914 232.76852 230.63489 228.66027 226.81664
 225.09902 223.57039 222.19977 220.97114 219.85252 218.81189 217.91527 217.05564
 216.29702 215.47639 214.57377 213.93715 213.38652 212.97299 211.99626 211.52643
 211.24402 211.93407 213.63028 215.65935 218.51477 223.05879 228.99632 233.99352
 237.79501 241.62701 245.67270 249.91919 254.13618 257.87778 260.65167 262.56079
 264.97720 267.68420 270.11365 271.78671 273.72412 275.85925 277.48901 278.95810
 280.56348 282.09909 283.53308 284.88849 286.06915 287.11475 288.07205 288.94220
 289.73395 290.44077 291.06891 291.90131
 366.78100 356.33427 345.76555 334.63082 323.03310 311.22637 299.09565 286.89792
 274.60919 262.50547 250.51374 239.81402 229.93529 221.03857 213.21984 206.22112
 200.05439 194.99166 191.57294 189.61421 188.65049 188.71376 189.54804 190.85531
 192.57958 194.67386 196.93613 199.29441 201.73868 204.21796 206.30523 208.14650
 209.77178 210.91605 211.14433 211.37160 211.30788 211.01215 210.64443 210.27370
 209.88997 209.59925 209.40652 209.26980 209.19707 209.52735 209.91262 210.30089
 211.09317 212.27044 213.51972 215.30199 217.22927 219.27154 221.36581 223.44809
 225.50736 227.59064 229.68691 231.79219 233.92046 236.09173 238.34701 240.71628
 243.33656 245.58683 247.58811 249.35238 250.76866 251.89093 252.71220 253.02748
 253.06375 252.83703 252.19630 251.14358 249.74885 247.90912 245.81740 243.64967
 241.43995 239.24322 237.06250 234.90077 232.76004 230.62632 228.65159 226.80787
 225.09014 223.56142 222.19069 220.96197 219.84324 218.80251 217.90579 217.04606
 216.28734 215.46661 214.56389 213.92716 213.37643 212.99142 212.08195 211.64923
 211.44635 212.00525 213.54996 215.55540 218.40909 222.98233 228.93802 233.91133
 237.70174 241.53214 245.58482 249.85568 254.12617 257.85995 260.62634 262.56488
 264.91940 267.58075 270.00705 271.68625 273.62842 275.77145 277.42960 278.91687
 280.51096 282.03638 283.46155 284.81735 285.99774 287.04523 288.00177 288.87180
 289.66409 290.37051 290.99762 291.83517
 366.78100 356.33350 345.76401 334.62851 323.03002 311.22252 299.09103 286.89253
 274.60304 262.49854 250.50605 239.80555 229.92606 221.02856 213.20907 206.20957
 200.04208 194.97858 191.55908 189.59959 188.63509 188.69760 189.53110 190.83761
 192.56111 194.65462 196.91612 199.27363 201.71713 204.19564 206.28214 208.12265
 209.74715 210.89065 211.11816 211.34466 211.28017 210.98367 210.61518 210.24368
 209.85919 209.56769 209.37420 209.23670 209.16321 209.49271 209.87722 210.26472
 211.05623 212.23273 213.48123 215.26274 217.18924 219.23075 221.32425 223.40576
 225.46426 227.54677 229.64227 231.74678 233.87428 236.04479 238.29929 240.66780
 243.28730 245.53680 247.53731 249.30081 250.71632 251.83782 252.65833 252.97283
 253.00834 252.78084 252.13935 251.08585 249.69036 247.84986 245.75737 243.58887
 241.37838 239.18088 236.99938 234.83689 232.69539 230.56090 228.58540 226.74091
 225.02241 223.49292 222.12142 220.89193 219.77243 218.73094 217.83344 216.97295
 216.21345 215.39195 214.48846 213.85096 213.29947 212.97997 212.22514 211.71970
 211.50005 212.07901 213.52489 215.55582 218.42680 222.92726 228.89615 233.83670
 237.60742 241.43549 245.49527 249.79160 254.11473 257.83621 260.58911 262.55582
 264.85391 267.46939 269.89203 271.58188 273.53278 275.68420 277.37070 278.87772
 280.46228 281.97424 283.39319 284.74728 285.92886 286.97534 287.93387 288.80478
 289.59393 290.30402 290.93060 291.76923
 366.78100 356.33272 345.76245 334.62617 323.02689 311.21862 299.08634 286.88706
 274.59679 262.49151 250.49823 239.79696 229.91668 221.01840 213.19813 206.19785
 200.02957 194.96530 191.54502 189.58474 188.61947 188.68119 189.51391 190.81964
 192.54236 194.63508 196.89581 199.25253 201.69525 204.17298 206.25870 208.09842
 209.72215 210.86487 211.09159 211.31732 211.25204 210.95476 210.58548 210.21321
 209.82793 209.53565 209.34138 209.20310 209.12882 209.45755 209.84127 210.22799
 211.01872 212.19444 213.44216 215.22289 217.14861 219.18933 221.28206 223.36278
 225.42050 227.50223 229.59695 231.70067 233.82740 235.99712 238.25084 240.61857
 243.23729 245.48601 247.48574 249.24846 250.66318 251.78391 252.60363 252.91735
 252.95208 252.72380 252.08152 251.02725 249.63097 247.78969 245.69642 243.52714
 241.31586 239.11759 236.93531 234.77203 232.62976 230.49448 228.51820 226.67293
 224.95365 223.42337 222.05110 220.82082 219.70054 218.65827 217.75999 216.89871
 216.13844 215.31616 214.41188 213.77361 213.22133 212.96785 212.36896 211.81508
 211.50720 212.11314 213.55383 215.62285 218.47720 222.86008 228.83307 233.74362
 237.50047 241.33022 245.40230 249.72641 254.10133 257.80582 260.54181 262.53778
 264.78479 267.35608 269.77805 271.48349 273.44266 275.60181 277.31766 278.84467
 280.41730 281.91550 283.32629 284.68112 285.86264 286.90924 287.86826 288.73962
 289.52985 290.23947 290.86432 291.70721
 366.78100 356.33243 345.76185 334.62528 323.02571 311.21713 299.08456 286.88498
 274.59441 262.48884 250.49526 239.79369 229.91312 221.01454 213.19397 206.19340
 200.02482 194.96025 191.53967 189.57910 188.61353 188.67495 189.50738 190.81281
 192.53523 194.62766 196.88809 199.24451 201.68694 204.16436 206.24979 208.08922
 209.71264 210.85507 211.08150 211.30692 211.24135 210.94377 210.57420 210.20163
 209.81605 209.52348 209.32891 209.19033 209.11576 209.44419 209.82761 210.21404
 211.00446 212.17989 213.42732 215.20774 217.13317 219.17360 221.26602 223.34645
 225.40388 227.48530 229.57973 231.68315 233.80958 235.97901 238.23243 240.59986
 243.21829 245.46671 247.46614 249.22857 250.64299 251.76342 252.58284 252.89627
 252.93070 252.70212 252.05955 251.00498 249.60840 247.76683 245.67326 243.50368
 241.29211 239.09353 236.91096 234.74739 232.60481 230.46924 228.49267 226.64709
 224.92752 223.39695 222.02437 220.79380 219.67322 218.63065 217.73208 216.87050
 216.10993 215.28736 214.38278 213.74421 213.19164 212.97949 212.47832 211.93628
 211.52992 212.13295 213.60048 215.68806 218.49942 222.78937 228.75894 233.64745
 237.39435 241.22809 245.31320 249.66502 254.08740 257.77301 260.48859 262.51315
 264.71570 267.24448 269.66617 271.39093 273.35904 275.52356 277.26587 278.81100
 280.37445 281.85681 283.26404 284.61765 285.79926 286.84720 287.80536 288.67850
 289.46960 290.17679 290.80615 291.64676
 366.78100 356.33238 345.76176 334.62514 323.02552 311.21690 299.08428 286.88465
 274.59403 262.48841 250.49479 239.79317 229.91255 221.01393 213.19331 206.19269
 200.02407 194.95945 191.53883 189.57820 188.61258 188.67396 189.50634 190.81172
 192.53410 194.62648 196.88686 199.24324 201.68562 204.16300 206.24838 208.08776
 209.71113 210.85351 211.07989 211.30527 211.23965 210.94203 210.57241 210.19979
 209.81417 209.52155 209.32693 209.18831 209.11368 209.44206 209.82544 210.21182
 211.00220 212.17758 213.42496 215.20534 217.13072 219.17110 221.26348 223.34386
 225.40124 227.48261 229.57699 231.68037 233.80675 235.97613 238.22951 240.59689
 243.21527 245.46365 247.46303 249.22541 250.63979 251.76016 252.57954 252.89292
 252.92730 252.69868 252.05606 251.00144 249.60482 247.76320 245.66958 243.49996
 241.28834 239.08972 236.90709 234.74347 232.60085 230.46523 228.48861 226.64299
 224.92337 223.39275 222.02013 220.78951 219.66889 218.62627 217.72764 216.86602
 216.10540 215.28278 214.37816 213.73954 213.18692 213.00342 212.56985 212.06496
 211.56807 212.14876 213.65550 215.74202 218.49452 222.72774 228.69235 233.55580
 237.29016 241.12724 245.22745 249.60707 254.07246 257.73621 260.42902 262.48175
 264.64542 267.13437 269.55594 271.30261 273.27887 275.44690 277.21277 278.77487
 280.33249 281.80276 283.20422 284.55951 285.74069 286.78806 287.74734 288.61945
 289.41092 290.12134 290.74762 291.59186
 366.78100 356.33237 345.76173 334.62510 323.02546 311.21683 299.08419 286.88456
 274.59392 262.48829 250.49465 239.79302 229.91239 221.01375 213.19312 206.19248
 200.02385 194.95921 191.53858 189.57794 188.61231 188.67367 189.50604 190.81141
 192.53377 194.62614 196.88650 199.24287 201.68523 204.16260 206.24796 208.08733
 209.71069 210.85306 211.07943 211.30479 211.23916 210.94152 210.57189 210.19925
 209.81362 209.52098 209.32635 209.18772 209.11308 209.44145 209.82481 210.21118
 211.00154 212.17691 213.42427 215.20464 217.13000 219.17037 221.26274 223.34310
 225.40047 227.48183 229.57620 231.67956 233.80593 235.97529 238.22866 240.59602
 243.21439 245.46276 247.46212 249.22449 250.63885 251.75922 252.57858 252.89195
 252.92631 252.69768 252.05504 251.00041 249.60378 247.76214 245.66851 243.49887
 241.28724 239.08860 236.90597 234.74233 232.59970 230.46406 228.48743 226.64180
 224.92216 223.39153 222.01889 220.78826 219.66762 218.62499 217.72635 216.86472
 216.10408 215.28145 214.37682 213.73818 213.18555 213.02902 212.65919 212.18816
 211.61823 212.16777 213.70845 215.78760 218.48592 222.67453 228.63376 233.46651
 237.18311 241.02419 245.14326 249.55196 254.05435 257.69492 260.36279 262.44238
 264.57272 267.02533 269.44678 271.21631 273.20206 275.37350 277.15744 278.73517
 280.29074 281.75079 283.15140 284.50589 285.68738 286.73434 287.69614 288.56870
 289.35938 290.07181 290.69678 291.54089
 366.78100 356.33238 345.76177 334.62515 323.02554 311.21692 299.08430 286.88469
 274.59407 262.48845 250.49484 239.79322 229.91261 221.01399 213.19337 206.19276
 200.02414 194.95952 191.53891 189.57829 188.61268 188.67406 189.50644 190.81183
 192.53421 194.62659 196.88698 199.24336 201.68575 204.16313 206.24851 208.08790
 209.71128 210.85366 211.08005 211.30543 211.23982 210.94220 210.57258 210.19997
 209.81435 209.52173 209.32712 209.18850 209.11389 209.44227 209.82565 210.21204
 211.00242 212.17781 213.42519 215.20557 217.13096 219.17134 221.26372 223.34411
 225.40149 227.48288 229.57726 231.68064 233.80703 235.97641 238.22979 240.59718
 243.21556 245.46395 247.46333 249.22571 250.64010 251.76048 252.57986 252.89325
 252.92763 252.69902 252.05640 251.00178 249.60517 247.76355 245.66993 243.50032
 241.28870 239.09009 236.90747 234.74385 232.60124 230.46562 228.48901 226.64339
 224.92377 223.39316 222.02054 220.78992 219.66931 218.62669 217.72808 216.86646
 216.10584 215.28323 214.37861 213.73999 213.18738 213.05632 212.74664 212.30292
 211.67989 212.19321 213.75432 215.82774 218.48340 222.62692 228.57710 233.37642
 237.07434 240.92258 245.06238 249.50038 254.03325 257.64664 260.28931 262.39105
 264.49579 266.91730 269.33954 271.13477 273.13202 275.30582 277.10345 278.69327
 280.24777 281.69940 283.10388 284.46027 285.64072 286.69086 287.64978 288.52390
 289.31509 290.02573 290.65356 291.49930
 366.78100 356.33248 345.76197 334.62545 323.02594 311.21742 299.08491 286.88539
 274.59488 262.48936 250.49585 239.79433 229.91382 221.01530 213.19478 206.19427
 200.02575 194.96124 191.54072 189.58021 188.61469 188.67618 189.50866 190.81415
 192.53663 194.62912 196.88960 199.24609 201.68857 204.16605 206.25154 208.09102
 209.71451 210.85699 211.08348 211.30896 211.24345 210.94593 210.57642 210.20390
 209.81839 209.52587 209.33135 209.19284 209.11832 209.44681 209.83029 210.21678
 211.00726 212.18275 213.43023 215.21072 217.13620 219.17669 221.26917 223.34966
 225.40714 227.48862 229.58311 231.68659 233.81308 235.98256 238.23605 240.60353
 243.22202 245.47050 247.46999 249.23247 250.64696 251.76744 252.58692 252.90041
 252.93489 252.70638 252.06386 251.00935 249.61283 247.77132 245.67780 243.50829
 241.29677 239.09826 236.91574 234.75223 232.60971 230.47419 228.49768 226.65216
 224.93265 223.40213 222.02962 220.79910 219.67859 218.63607 217.73756 216.87604
 216.11553 215.29301 214.38849 213.74998 213.19746 213.08818 212.82997 212.41287
 211.75195 212.22264 213.79326 215.86742 218.49200 222.58298 228.51645 233.28537
 236.96844 240.82562 244.98802 249.45267 254.00691 257.59064 260.20505 262.32440
 264.41293 266.81161 269.23630 271.05939 273.06805 275.24414 277.05099 278.64786
 280.20425 281.64627 283.06384 284.42133 285.60229 286.65057 287.61099 288.48438
 289.27707 289.98856 290.61557 291.46085
 366.78100 356.33271 345.76242 334.62614 323.02685 311.21856 299.08627 286.88698
 274.59669 262.49141 250.49812 239.79683 229.91654 221.01825 213.19797 206.19768
 200.02939 194.96510 191.54481 189.58453 188.61924 188.68095 189.51366 190.81937
 192.54208 194.63480 196.89551 199.25222 201.69493 204.17264 206.25836 208.09807
 209.72178 210.86449 211.09120 211.31691 211.25163 210.95434 210.58505 210.21276
 209.82747 209.53519 209.34090 209.20261 209.12832 209.45703 209.84074 210.22746
 211.01817 212.19388 213.44159 215.22230 217.14802 219.18873 221.28144 223.36215
 225.41986 227.50158 229.59629 231.70000 233.82671 235.99642 238.25013 240.61785
 243.23656 245.48527 247.48498 249.24769 250.66241 251.78312 252.60283 252.91654
 252.95125 252.72296 252.08068 251.02639 249.63010 247.78881 245.69552 243.52624
 241.31495 239.11666 236.93437 234.77108 232.62879 230.49351 228.51722 226.67193
 224.95264 223.42235 222.05007 220.81978 219.69949 218.65720 217.75891 216.89763
 216.13734 215.31505 214.41076 213.77247 213.22018 213.12625 212.90431 212.52145
 211.83304 212.24963 213.82626 215.91190 218.50743 222.54434 228.45435 233.19347
 236.86659 240.73488 244.92122 249.41032 253.97653 257.52704 260.10938 262.23941
 264.32129 266.70663 269.13516 270.98795 273.01242 275.18951 277.00067 278.60117
 280.16235 281.60052 283.03107 284.38910 285.56973 286.61957 287.58054 288.45395
 289.24643 289.95621 290.58557 291.43076
 366.78100 356.33304 345.76308 334.62712 323.02817 311.22021 299.08825 286.88929
 274.59933 262.49437 250.50141 239.80046 229.92050 221.02254 213.20258 206.20262
 200.03466 194.97070 191.55075 189.59079 188.62583 188.68787 189.52091 190.82695
 192.54999 194.64304 196.90408 199.26112 201.70416 204.18220 206.26824 208.10828
 209.73233 210.87537 211.10241 211.32845 211.26349 210.96653 210.59757 210.22562
 209.84066 209.54870 209.35474 209.21678 209.14282 209.47186 209.85591 210.24295
 211.03399 212.21003 213.45807 215.23911 217.16515 219.20620 221.29924 223.38028
 225.43832 227.52036 229.61540 231.71944 233.84649 236.01653 238.27057 240.63861
 243.25765 245.50669 247.50673 249.26978 250.68482 251.80586 252.62590 252.93994
 252.97498 252.74702 252.10507 251.05111 249.65515 247.81419 245.72123 243.55227
 241.34131 239.14336 236.96140 234.79844 232.65648 230.52152 228.54556 226.70060
 224.98165 223.45169 222.07973 220.84977 219.72981 218.68785 217.78989 216.92894
 216.16898 215.34702 214.44306 213.80510 213.25314 213.16978 212.97281 212.62663
 211.92154 212.27831 213.85406 215.95895 218.52834 222.50932 228.39058 233.10321
 236.76967 240.65102 244.86301 249.37314 253.94127 257.45456 260.00031 262.13309
 264.21973 266.60162 269.03400 270.92087 272.96289 275.14215 276.95206 278.55521
 280.12415 281.56421 283.00763 284.36536 285.54724 286.59589 287.55725 288.43039
 289.22348 289.93530 290.56265 291.40979
 366.78100 356.33363 345.76427 334.62890 323.03054 311.22317 299.09181 286.89344
 274.60408 262.49971 250.50735 239.80698 229.92762 221.03025 213.21089 206.21152
 200.04416 194.98079 191.56142 189.60206 188.63769 188.70033 189.53396 190.84060
 192.56423 194.65787 196.91950 199.27714 201.72077 204.19941 206.28604 208.12668
 209.75131 210.89494 211.12258 211.34921 211.28485 210.98848 210.62012 210.24875
 209.86439 209.57302 209.37966 209.24229 209.16893 209.49856 209.88320 210.27083
 211.06247 212.23910 213.48773 215.26937 217.19600 219.23764 221.33127 223.41291
 225.47154 227.55418 229.64981 231.75445 233.88208 236.05272 238.30735 240.67599
 243.29562 245.54526 247.54589 249.30952 250.72516 251.84679 252.66743 252.98206
 253.01770 252.79033 252.14897 251.09560 249.70024 247.85987 245.76751 243.59914
 241.38878 239.19141 237.01004 234.84768 232.70631 230.57195 228.59658 226.75222
 225.03385 223.50449 222.13312 220.90376 219.78439 218.74303 217.84566 216.98530
 216.22593 215.40457 214.50120 213.86383 213.31247 213.22659 213.02370 212.73892
 212.01309 212.30107 213.89110 216.00934 218.54276 222.47571 228.33194 233.01649
 236.67551 240.57089 244.81099 249.34077 253.90010 257.37408 259.88046 262.00873
 264.10953 266.49625 268.93365 270.85480 272.91928 275.09909 276.90393 278.50739
 280.08969 281.53857 282.99194 284.35062 285.53430 286.58167 287.54297 288.41818
 289.21014 289.92331 290.55008 291.39838
 366.78100 356.33407 345.76515 334.63022 323.03230 311.22537 299.09444 286.89652
 274.60759 262.50366 250.51174 239.81181 229.93289 221.03596 213.21703 206.21811
 200.05118 194.98826 191.56933 189.61040 188.64648 188.70955 189.54362 190.85070
 192.57477 194.66885 196.93092 199.28899 201.73307 204.21214 206.29922 208.14029
 209.76536 210.90944 211.13751 211.36458 211.30066 211.00473 210.63681 210.26588
 209.88195 209.59103 209.39810 209.26118 209.18825 209.51832 209.90340 210.29147
 211.08354 212.26062 213.50969 215.29177 217.21884 219.26091 221.35499 223.43706
 225.49614 227.57921 229.67528 231.78036 233.90843 236.07950 238.33458 240.70365
 243.32373 245.57380 247.57487 249.33895 250.75502 251.87710 252.69817 253.01324
 253.04932 252.82239 252.18146 251.12854 249.73361 247.89369 245.80176 243.63383
 241.42391 239.22698 237.04606 234.88413 232.74320 230.60928 228.63435 226.79042
 225.07250 223.54357 222.17265 220.94372 219.82479 218.78387 217.88694 217.02702
 216.26809 215.44716 214.54424 213.90731 213.35638 213.27609 213.08638 212.82533
 212.11809 212.33704 213.92166 216.06401 218.56726 222.44254 228.26695 232.92590
 236.58109 240.49455 244.76540 249.31282 253.85530 257.28717 259.75241 261.86746
 263.99152 266.39020 268.83203 270.79138 272.88120 275.06201 276.85782 278.45786
 280.05948 281.52011 282.98758 284.34683 285.52921 286.57800 287.53888 288.41406
 289.20645 289.91837 290.54697 291.39276
 366.78100 356.33527 345.76754 334.63381 323.03708 311.23135 299.10162 286.90489
 274.61716 262.51443 250.52370 239.82497 229.94724 221.05151 213.23378 206.23605
 200.07032 195.00859 191.59086 189.63313 188.67040 188.73467 189.56994 190.87821
 192.60348 194.69875 196.96202 199.32129 201.76656 204.24683 206.33510 208.17737
 209.80364 210.94891 211.17818 211.40645 211.34372 211.04899 210.68227 210.31254
 209.92981 209.64008 209.44835 209.31262 209.24089 209.57216 209.95843 210.34770
 211.14097 212.31924 213.56951 215.35278 217.28105 219.32432 221.41959 223.50286
 225.56313 227.64740 229.74467 231.85094 233.98021 236.15248 238.40875 240.77902
 243.40029 245.65156 247.65383 249.41910 250.83637 251.95964 252.78191 253.09818
 253.13545 252.90972 252.26999 251.21826 249.82453 247.98580 245.89507 243.72834
 241.51961 239.32388 237.14415 234.98342 232.84369 230.71096 228.73723 226.89450
 225.17777 223.65004 222.28031 221.05258 219.93485 218.89512 217.99939 217.14066
 216.38293 215.56320 214.66147 214.02574 213.47601 213.36397 213.09926 212.93811
 212.22693 212.38106 213.96059 216.11182 218.58614 222.40602 228.20419 232.83842
 236.49107 240.42262 244.72502 249.28903 253.80305 257.18918 259.61053 261.70703
 263.86444 266.28397 268.73233 270.73401 272.85184 275.03336 276.81821 278.41434
 280.03378 281.50851 282.98996 284.35062 285.53189 286.58127 287.54324 288.41739
 289.20993 289.92099 290.54849 291.39801
 366.78100 356.33633 345.76966 334.63698 323.04131 311.23664 299.10797 286.91229
 274.62562 262.52395 250.53428 239.83660 229.95993 221.06526 213.24859 206.25191
 200.08724 195.02657 191.60990 189.65322 188.69155 188.75688 189.59321 190.90253
 192.62886 194.72519 196.98952 199.34984 201.79617 204.27750 206.36683 208.21015
 209.83748 210.98381 211.21414 211.44346 211.38179 211.08812 210.72245 210.35378
 209.97210 209.68343 209.49276 209.35809 209.28741 209.61974 210.00707 210.39740
 211.19172 212.37105 213.62238 215.40671 217.33603 219.38036 221.47669 223.56102
 225.62234 227.70767 229.80600 231.91333 234.04365 236.21698 238.47431 240.84564
 243.46796 245.72029 247.72362 249.48995 250.90827 252.03260 252.85593 253.17326
 253.21158 252.98691 252.34824 251.29757 249.90490 248.06722 245.97755 243.81188
 241.60421 239.40953 237.23086 235.07119 232.93252 230.80084 228.82817 226.98650
 225.27083 223.74415 222.37548 221.14881 220.03214 218.99346 218.09879 217.24112
 216.48445 215.66577 214.76510 214.13043 213.58176 213.44620 213.12593 213.00746
 212.38635 212.41451 214.00517 216.17499 218.60132 222.37361 228.13560 232.74065
 236.39584 240.34932 244.68646 249.26553 253.74126 257.07794 259.45682 261.53290
 263.73428 266.18109 268.63724 270.68533 272.83218 275.01382 276.78546 278.37280
 280.01227 281.50278 282.99988 284.35999 285.54272 286.59076 287.55145 288.42661
 289.21912 289.93100 290.55896 291.40683
 366.78100 356.33704 345.77107 334.63911 323.04414 311.24018 299.11221 286.91725
 274.63128 262.53032 250.54135 239.84439 229.96842 221.07446 213.25849 206.26253
 200.09856 195.03860 191.62263 189.66667 188.70571 188.77174 189.60878 190.91881
 192.64585 194.74288 197.00792 199.36895 201.81599 204.29802 206.38806 208.23209
 209.86013 211.00716 211.23820 211.46823 211.40727 211.11430 210.74934 210.38138
 210.00041 209.71245 209.52248 209.38852 209.31855 209.65159 210.03962 210.43066
 211.22569 212.40573 213.65776 215.44280 217.37283 219.41787 221.51490 223.59994
 225.66198 227.74801 229.84705 231.95508 234.08612 236.26015 238.51819 240.89022
 243.51326 245.76629 247.77033 249.53736 250.95640 252.08143 252.90547 253.22350
 253.26254 253.03857 252.40061 251.35065 249.95868 248.12172 246.03275 243.86779
 241.66082 239.46686 237.28889 235.12993 232.99196 230.86100 228.88903 227.04807
 225.33310 223.80714 222.43917 221.21321 220.09724 219.05928 218.16532 217.30835
 216.55239 215.73442 214.83446 214.20049 213.65253 213.51280 213.18268 213.01089
 212.55214 212.60341 213.98241 216.16786 218.65115 222.31949 228.05730 232.63699
 236.29568 240.27641 244.65166 249.24397 253.67448 256.96359 259.30316 261.35620
 263.60614 266.08331 268.54654 270.64172 272.81662 274.99731 276.75278 278.33115
 279.99213 281.49945 283.01285 284.37439 285.55637 286.60498 287.56555 288.44055
 289.23318 289.94577 290.57239 291.42145
 366.78100 356.33798 345.77296 334.64195 323.04793 311.24491 299.11789 286.92387
 274.63885 262.53884 250.55082 239.85480 229.97978 221.08676 213.27174 206.27673
 200.11371 195.05469 191.63967 189.68465 188.72464 188.79162 189.62960 190.94058
 192.66856 194.76654 197.03253 199.39451 201.84249 204.32547 206.41645 208.26143
 209.89042 211.03840 211.27038 211.50136 211.44134 211.14933 210.78531 210.41829
 210.03827 209.75125 209.56223 209.42922 209.36020 209.69418 210.08316 210.47514
 211.27113 212.45211 213.70509 215.49107 217.42205 219.46803 221.56602 223.65200
 225.71498 227.80196 229.90194 232.01092 234.14291 236.31789 238.57687 240.94985
 243.57383 245.82782 247.83280 249.60078 251.02076 252.14674 252.97172 253.29071
 253.33069 253.10767 252.47065 251.42163 250.03061 248.19460 246.10658 243.94256
 241.73654 239.54352 237.36651 235.20849 233.07147 230.94145 228.97043 227.13041
 225.41640 223.89138 222.52436 221.29934 220.18432 219.14730 218.25429 217.39827
 216.64325 215.82623 214.92721 214.29420 213.74718 213.59142 213.22343 213.06165
 212.60448 212.76064 214.02751 216.19611 218.71188 222.27522 227.98352 232.53868
 236.20274 240.21193 244.62457 249.22531 253.60666 256.85022 259.15094 261.17654
 263.47681 265.98602 268.45551 270.59784 272.80136 274.98035 276.71667 278.28607
 279.97122 281.49707 283.03040 284.39246 285.57309 286.62238 287.58179 288.45734
 289.24896 289.96011 290.58826 291.43378
 366.78100 356.33911 345.77522 334.64532 323.05243 311.25054 299.12465 286.93176
 274.64787 262.54897 250.56208 239.86719 229.99330 221.10141 213.28752 206.29362
 200.13173 195.07384 191.65995 189.70606 188.74717 188.81527 189.65438 190.96649
 192.69560 194.79471 197.06182 199.42492 201.87403 204.35814 206.45025 208.29636
 209.92647 211.07557 211.30868 211.54079 211.48190 211.19101 210.82812 210.46222
 210.08333 209.79744 209.60955 209.47766 209.40977 209.74487 210.13498 210.52809
 211.32520 212.50731 213.76142 215.54852 217.48063 219.52774 221.62685 223.71396
 225.77807 227.86617 229.96728 232.07739 234.21050 236.38661 238.64672 241.02082
 243.64593 245.90104 247.90715 249.67626 251.09737 252.22447 253.05058 253.37069
 253.41180 253.18991 252.55402 251.50612 250.11623 248.28134 246.19445 244.03156
 241.82667 239.63477 237.45888 235.30199 233.16610 231.03721 229.06732 227.22842
 225.51553 223.99164 222.62575 221.40186 220.28797 219.25207 218.36018 217.50529
 216.75140 215.93551 215.03762 214.40572 213.85983 213.67827 213.24934 213.13960
 212.61536 212.87497 214.14772 216.25099 218.75766 222.22733 227.90506 232.44081
 236.11510 240.15494 244.60281 249.20790 253.53404 256.73111 258.99277 260.98981
 263.34433 265.88821 268.36273 270.55292 272.78638 274.96384 276.67969 278.23911
 279.95053 281.50378 283.04489 284.40765 285.58850 286.63809 287.59811 288.47180
 289.26508 289.97617 290.60287 291.44943
 366.78100 356.33987 345.77674 334.64761 323.05548 311.25435 299.12922 286.93709
 274.65396 262.55583 250.56970 239.87557 230.00244 221.11131 213.29818 206.30506
 200.14393 195.08680 191.67367 189.72054 188.76241 188.83128 189.67115 190.98402
 192.71389 194.81376 197.08163 199.44550 201.89537 204.38024 206.47311 208.31998
 209.95085 211.10072 211.33459 211.56746 211.50933 211.21920 210.85707 210.49194
 210.11381 209.82868 209.64155 209.51043 209.44330 209.77917 210.17004 210.56391
 211.36178 212.54465 213.79952 215.58739 217.52026 219.56813 221.66800 223.75587
 225.82074 227.90961 230.01148 232.12235 234.25622 236.43309 238.69396 241.06883
 243.69470 245.95057 247.95744 249.72731 251.14918 252.27705 253.10392 253.42479
 253.46667 253.24554 252.61041 251.56328 250.17415 248.34002 246.25389 244.09176
 241.88763 239.69650 237.52137 235.36524 233.23011 231.10198 229.13285 227.29472
 225.58259 224.05946 222.69433 221.47120 220.35807 219.32294 218.43181 217.57768
 216.82455 216.00942 215.11229 214.48116 213.93604 213.74689 213.29999 213.18285
 212.65331 212.97655 214.28044 216.31828 218.79309 222.17657 227.82048 232.34552
 236.03482 240.10574 244.58563 249.19003 253.45448 256.60349 258.82730 260.79895
 263.21146 265.79266 268.27173 270.51019 272.77332 274.94794 276.64160 278.19327
 279.93045 281.51526 283.05765 284.42068 285.60281 286.65155 287.61209 288.48679
 289.27939 289.99170 290.61520 291.46356
 366.78100 356.34046 345.77791 334.64937 323.05782 311.25728 299.13273 286.94119
 274.65865 262.56110 250.57556 239.88201 230.00947 221.11892 213.30638 206.31384
 200.15329 195.09675 191.68420 189.73166 188.77411 188.84357 189.68402 190.99748
 192.72794 194.82839 197.09685 199.46130 201.91176 204.39721 206.49067 208.33813
 209.96958 211.12004 211.35449 211.58795 211.53040 211.24086 210.87932 210.51477
 210.13723 209.85268 209.66614 209.53559 209.46905 209.80551 210.19696 210.59142
 211.38987 212.57333 213.82878 215.61724 217.55070 219.59915 221.69961 223.78806
 225.85352 227.94297 230.04543 232.15689 234.29134 236.46880 238.73025 241.10571
 243.73216 245.98862 247.99607 249.76653 251.18899 252.31744 253.14490 253.46635
 253.50881 253.28826 252.65372 251.60718 250.21863 248.38509 246.29954 244.13800
 241.93445 239.74391 237.56937 235.41382 233.27928 231.15173 229.18319 227.34564
 225.63410 224.11156 222.74701 221.52447 220.41192 219.37738 218.48683 217.63329
 216.88075 216.06620 215.16966 214.53911 213.99457 213.80685 213.36337 213.19760
 212.71863 213.07706 214.40009 216.39577 218.81567 222.12781 227.74142 232.25623
 235.96130 240.06241 244.57066 249.16846 253.36656 256.46631 258.65665 260.60941
 263.08170 265.70023 268.18527 270.46997 272.76022 274.93219 276.60458 278.14743
 279.90894 281.52414 283.06787 284.43118 285.61298 286.66238 287.62283 288.49768
 289.28989 290.00082 290.62714 291.47327
 366.78100 356.34125 345.77950 334.65175 323.06100 311.26125 299.13751 286.94676
 274.66501 262.56826 250.58351 239.89076 230.01901 221.12926 213.31751 206.32576
 200.16602 195.11027 191.69852 189.74677 188.79002 188.86027 189.70152 191.01577
 192.74702 194.84827 197.11753 199.48278 201.93403 204.42028 206.51453 208.36278
 209.99503 211.14628 211.38153 211.61578 211.55903 211.27029 210.90954 210.54579
 210.16904 209.88529 209.69954 209.56979 209.50404 209.84129 210.23354 210.62880
 211.42805 212.61230 213.86855 215.65780 217.59205 219.64130 221.74255 223.83180
 225.89805 227.98831 230.09156 232.20381 234.33906 236.51731 238.77956 241.15581
 243.78306 246.04031 248.04856 249.81981 251.24307 252.37232 253.20057 253.52282
 253.56607 253.34632 252.71257 251.66682 250.27907 248.44632 246.36158 244.20083
 241.99808 239.80833 237.63458 235.47983 233.34608 231.21933 229.25158 227.41483
 225.70409 224.18234 222.81859 221.59684 220.48509 219.45134 218.56159 217.70884
 216.95709 216.14334 215.24759 214.61785 214.07410 213.87726 213.41220 213.21251
 212.79678 213.17561 214.51031 216.47652 218.82837 222.08429 227.67001 232.17171
 235.89189 240.02283 244.55528 249.14026 253.26741 256.31882 258.48221 260.42395
 262.95605 265.61185 268.10333 270.43253 272.74646 274.91550 276.56506 278.09958
 279.88449 281.52823 283.07397 284.43741 285.62085 286.66876 287.62906 288.50336
 289.29565 290.00681 290.63165 291.47714
 366.78100 356.34230 345.78160 334.65490 323.06521 311.26651 299.14381 286.95411
 274.67341 262.57771 250.59401 239.90232 230.03162 221.14292 213.33222 206.34152
 200.18282 195.12812 191.71742 189.76673 188.81103 188.88233 189.72463 191.03993
 192.77223 194.87453 197.14484 199.51114 201.96344 204.45074 206.54604 208.39534
 210.02864 211.18095 211.41725 211.65255 211.59685 211.30915 210.94945 210.58675
 210.21106 209.92836 209.74366 209.61496 209.55026 209.88856 210.28186 210.67816
 211.47847 212.66377 213.92107 215.71137 217.64667 219.69697 221.79927 223.88958
 225.95688 228.04818 230.15248 232.26578 234.40208 236.58138 238.84469 241.22199
 243.85029 246.10859 248.11789 249.89019 251.31449 252.44480 253.27410 253.59740
 253.64170 253.42300 252.79030 251.74560 250.35891 248.52721 246.44351 244.28381
 242.08211 239.89341 237.72071 235.56701 233.43432 231.30862 229.34192 227.50622
 225.79652 224.27582 222.91312 221.69243 220.58173 219.54903 218.66033 217.80863
 217.05793 216.24523 215.35054 214.72184 214.17914 213.95995 213.44209 213.23573
 212.88287 213.26932 214.61714 216.55519 218.83545 222.04750 227.60306 232.08887
 235.82632 239.98724 244.53865 249.10397 253.15804 256.16287 258.30637 260.24576
 262.83630 265.52661 268.02600 270.39655 272.73224 274.89905 276.53000 278.05612
 279.85831 281.52646 283.07224 284.43573 285.61856 286.66763 287.62732 288.50223
 289.29266 290.00372 290.63007 291.47321
 366.78100 356.34342 345.78383 334.65825 323.06967 311.27209 299.15050 286.96192
 274.68234 262.58776 250.60517 239.91459 230.04501 221.15743 213.34784 206.35826
 200.20068 195.14710 191.73751 189.78793 188.83335 188.90577 189.74918 191.06560
 192.79902 194.90244 197.17385 199.54127 201.99469 204.48310 206.57952 208.42994
 210.06436 211.21777 211.45519 211.69161 211.63703 211.35044 210.99186 210.63028
 210.25570 209.97411 209.79053 209.66295 209.59937 209.93878 210.33320 210.73062
 211.53204 212.71845 213.97687 215.76829 217.70471 219.75612 221.85954 223.95096
 226.01937 228.11179 230.21721 232.33163 234.46904 236.64946 238.91388 241.29230
 243.92171 246.18113 248.19155 249.96497 251.39038 252.52180 253.35222 253.67664
 253.72205 253.50447 252.87289 251.82931 250.44372 248.61314 246.53056 244.37198
 242.17139 239.98381 237.81223 235.65965 233.52806 231.40348 229.43790 227.60331
 225.89473 224.37515 223.01357 221.79398 220.68440 219.65282 218.76524 217.91465
 217.16507 216.35349 215.45991 214.83232 214.29074 214.04477 213.46364 213.26089
 212.97516 213.36084 214.72084 216.62677 218.84010 222.01613 227.53610 232.00807
 235.76668 239.95695 244.52037 249.05798 253.03854 255.99968 258.13077 260.07886
 262.72351 265.44595 267.95480 270.36203 272.71631 274.88077 276.49701 278.01840
 279.83054 281.51486 283.06253 284.42572 285.60779 286.65610 287.61658 288.49008
 289.28183 289.99207 290.61807 291.45682
 366.78100 356.34446 345.78592 334.66138 323.07384 311.27729 299.15675 286.96921
 274.69067 262.59713 250.61559 239.92605 230.05751 221.17096 213.36242 206.37388
 200.21734 195.16480 191.75626 189.80772 188.85418 188.92764 189.77209 191.08955
 192.82401 194.92847 197.20093 199.56939 202.02385 204.51331 206.61076 208.46222
 210.09768 211.25214 211.49060 211.72806 211.67452 211.38898 211.03144 210.67089
 210.29735 210.01681 209.83427 209.70773 209.64519 209.98565 210.38111 210.77956
 211.58202 212.76948 214.02894 215.82140 217.75886 219.81132 221.91578 224.00824
 226.07769 228.17115 230.27761 232.39307 234.53153 236.71299 238.97845 241.35791
 243.98836 246.24882 248.26028 250.03474 251.46120 252.59366 253.42512 253.75058
 253.79704 253.58049 252.94995 251.90741 250.52287 248.69333 246.61179 244.45425
 242.25471 240.06816 237.89762 235.74608 233.61554 231.49200 229.52746 227.69392
 225.98638 224.46784 223.10729 221.88875 220.78021 219.74967 218.86313 218.01359
 217.26505 216.45451 215.56196 214.93542 214.39488 214.12454 213.48581 213.28525
 213.07378 213.44826 214.82388 216.69353 218.84061 221.98796 227.46860 231.92940
 235.71310 239.93199 244.49960 249.00139 252.90828 255.82790 257.95486 259.92407
 262.62015 265.37225 267.89169 270.33078 272.70007 274.86163 276.46304 277.97888
 279.79636 281.49387 283.04178 284.40506 285.58731 286.63550 287.59656 288.46790
 289.26035 289.97171 290.59549 291.43835
 366.78100 356.34547 345.78794 334.66441 323.07788 311.28235 299.16282 286.97629
 274.69877 262.60624 250.62571 239.93718 230.06965 221.18412 213.37659 206.38906
 200.23353 195.18200 191.77447 189.82694 188.87441 188.94888 189.79435 191.11282
 192.84830 194.95377 197.22724 199.59671 202.05218 204.54265 206.64112 208.49359
 210.13006 211.28553 211.52500 211.76347 211.71094 211.42641 211.06988 210.71035
 210.33783 210.05830 209.87677 209.75124 209.68971 210.03118 210.42765 210.82712
 211.63059 212.81906 214.07953 215.87300 217.81147 219.86494 221.97041 224.06388
 226.13436 228.22883 230.33630 232.45277 234.59224 236.77471 239.04118 241.42165
 244.05312 246.31459 248.32706 250.10253 251.53000 252.66347 253.49594 253.82241
 253.86989 253.65436 253.02483 251.98330 250.59977 248.77124 246.69071 244.53418
 242.33565 240.15012 237.98059 235.83006 233.70053 231.57800 229.61447 227.78195
 226.07542 224.55789 223.19836 221.98083 220.87330 219.84377 218.95824 218.10971
 217.36218 216.55265 215.66112 215.03559 214.49606 214.20128 213.50484 213.31448
 213.17250 213.53276 214.92230 216.75586 218.84482 221.95842 227.39691 231.85527
 235.66814 239.91394 244.47678 248.93373 252.76653 255.64572 257.77548 259.78055
 262.52496 265.30585 267.84021 270.30609 272.68781 274.84644 276.43399 277.94098
 279.75430 281.46167 283.00925 284.37228 285.55487 286.60226 287.56256 288.43530
 289.22540 289.93576 290.56128 291.40109
 366.78100 356.34636 345.78973 334.66709 323.08146 311.28682 299.16819 286.98255
 274.70592 262.61428 250.63465 239.94701 230.08038 221.19574 213.38911 206.40247
 200.24783 195.19720 191.79056 189.84393 188.89229 188.96766 189.81402 191.13339
 192.86975 194.97612 197.25048 199.62085 202.07721 204.56857 206.66794 208.52130
 210.15867 211.31503 211.55540 211.79476 211.74313 211.45949 211.10386 210.74522
 210.37359 210.09495 209.91432 209.78968 209.72904 210.07141 210.46877 210.86914
 211.67350 212.86287 214.12423 215.91860 217.85796 219.91233 222.01869 224.11306
 226.18442 228.27978 230.38815 232.50551 234.64588 236.82924 239.09661 241.47797
 244.11034 246.37270 248.38607 250.16243 251.59080 252.72516 253.55853 253.88589
 253.93425 253.71962 253.09098 252.05035 250.66771 248.84008 246.76044 244.60481
 242.40717 240.22254 238.05390 235.90427 233.77563 231.65399 229.69136 227.85972
 226.15409 224.63745 223.27882 222.06218 220.95555 219.92691 219.04228 218.19464
 217.44801 216.63937 215.74874 215.12410 214.58546 214.27063 213.52679 213.34332
 213.27800 213.61435 215.02179 216.80899 218.83250 221.92923 227.33023 231.78979
 235.63145 239.90105 244.45094 248.85313 252.61153 255.45114 257.59174 259.64764
 262.43829 265.24704 267.79962 270.28934 272.68106 274.83829 276.41452 277.90729
 279.70926 281.41574 282.96243 284.32565 285.50800 286.55447 287.51419 288.38748
 289.17834 289.88748 290.51086 291.35233
 366.78100 356.34740 345.79179 334.67019 323.08558 311.29198 299.17438 286.98977
 274.71417 262.62357 250.64496 239.95836 230.09275 221.20915 213.40355 206.41794
 200.26434 195.21473 191.80913 189.86353 188.91292 188.98932 189.83672 191.15711
 192.89451 195.00190 197.27730 199.64870 202.10609 204.59849 206.69888 208.55328
 210.19168 211.34907 211.59047 211.83086 211.78026 211.49766 211.14305 210.78545
 210.41485 210.13724 209.95764 209.83403 209.77443 210.11783 210.51622 210.91762
 211.72301 212.91341 214.17581 215.97120 217.91160 219.96700 222.07439 224.16979
 226.24218 228.33858 230.44798 232.56637 234.70777 236.89216 239.16056 241.54296
 244.17635 246.43975 248.45415 250.23154 251.66094 252.79633 253.63073 253.95913
 254.00852 253.79492 253.16731 252.12771 250.74611 248.91950 246.84090 244.68629
 242.48969 240.30609 238.13848 235.98988 233.86228 231.74167 229.78007 227.94946
 226.24486 224.72926 223.37165 222.15605 221.05044 220.02284 219.13924 218.29263
 217.54703 216.73943 215.84982 215.22622 214.68861 214.34560 213.53517 213.38614
 213.39188 213.68353 215.09882 216.85997 218.84247 221.89882 227.25296 231.72644
 235.60255 239.89456 244.42245 248.76213 252.44852 255.25102 257.40945 259.52658
 262.35965 265.19452 267.76819 270.27689 272.67688 274.83377 276.40070 277.87781
 279.66098 281.35880 282.90387 284.26712 285.44806 286.49680 287.45398 288.32697
 289.11929 289.82803 290.45319 291.29037
 366.78100 356.34847 345.79394 334.67342 323.08989 311.29736 299.18083 286.99731
 274.72278 262.63325 250.65572 239.97020 230.10567 221.22314 213.41861 206.43409
 200.28156 195.23303 191.82850 189.88398 188.93445 189.01192 189.86039 191.18187
 192.92034 195.02881 197.30528 199.67776 202.13623 204.62970 206.73117 208.58665
 210.22612 211.38459 211.62706 211.86854 211.81901 211.53748 211.18395 210.82743
 210.45790 210.18137 210.00284 209.88032 209.82179 210.16626 210.56573 210.96821
 211.77468 212.96615 214.22962 216.02610 217.96757 220.02404 222.13251 224.22899
 226.30246 228.39993 230.51040 232.62988 234.77235 236.95782 239.22729 241.61077
 244.24524 246.50971 248.52518 250.30366 251.73413 252.87060 253.70607 254.03555
 254.08602 253.87349 253.24696 252.20844 250.82791 249.00238 246.92485 244.77133
 242.57580 240.39327 238.22674 236.07922 233.95269 231.83316 229.87263 228.04311
 226.33958 224.82505 223.46852 222.25400 221.14947 220.12294 219.24041 218.39489
 217.65036 216.84383 215.95530 215.33278 214.79625 214.42162 213.53648 213.44173
 213.49054 213.75894 215.19438 216.90654 218.81265 221.85971 227.19368 231.68123
 235.58482 239.89470 244.39168 248.66037 252.27376 255.03877 257.22055 259.41199
 262.28540 265.14560 267.74405 270.26910 272.67581 274.83438 276.39615 277.85516
 279.61353 281.29263 282.83591 284.19870 285.38068 286.42715 287.38574 288.25934
 289.04965 289.75928 290.38318 291.22217
 366.78100 356.34900 345.79501 334.67501 323.09202 311.30002 299.18403 287.00103
 274.72704 262.63804 250.66105 239.97605 230.11206 221.23006 213.42607 206.44207
 200.29008 195.24208 191.83808 189.89409 188.94509 189.02310 189.87210 191.19411
 192.93311 195.04212 197.31912 199.69213 202.15113 204.64514 206.74714 208.60315
 210.24315 211.40216 211.64516 211.88717 211.83817 211.55717 211.20418 210.84818
 210.47919 210.20319 210.02520 209.90320 209.84521 210.19021 210.59022 210.99322
 211.80023 212.99223 214.25624 216.05324 217.99525 220.05225 222.16125 224.25826
 226.33226 228.43027 230.54127 232.66128 234.80428 236.99029 239.26029 241.64430
 244.27930 246.54431 248.56031 250.33932 251.77032 252.90733 253.74333 254.07334
 254.12434 253.91234 253.28635 252.24835 250.86836 249.04336 246.96637 244.81337
 242.61838 240.43638 238.27039 236.12339 233.99740 231.87840 229.91841 228.08941
 226.38642 224.87242 223.51642 222.30243 221.19843 220.17244 219.29044 218.44545
 217.70145 216.89546 216.00746 215.38547 214.84947 214.47064 213.57561 213.44083
 213.64923 213.83015 215.26900 216.94553 218.81129 221.83746 227.11409 231.62106
 235.56302 239.89096 244.35007 248.54068 252.08360 254.81494 257.03024 259.30728
 262.22031 265.10760 267.73288 270.27148 272.68518 274.84875 276.41101 277.84772
 279.56787 281.22043 282.76068 284.12302 285.30505 286.35178 287.31125 288.18317
 288.97592 289.68301 290.30817 291.14273
 366.78100 356.34886 345.79473 334.67459 323.09146 311.29932 299.18319 287.00005
 274.72592 262.63678 250.65965 239.97451 230.11038 221.22824 213.42411 206.43997
 200.28784 195.23970 191.83557 189.89143 188.94230 189.02016 189.86903 191.19089
 192.92976 195.03862 197.31548 199.68835 202.14721 204.64108 206.74294 208.59881
 210.23867 211.39754 211.64040 211.88227 211.83313 211.55200 211.19886 210.84273
 210.47359 210.19746 210.01932 209.89719 209.83905 210.18392 210.58378 210.98665
 211.79351 212.98538 214.24924 216.04610 217.98797 220.04483 222.15370 224.25056
 226.32443 228.42229 230.53316 232.65302 234.79589 236.98175 239.25162 241.63548
 244.27035 246.53521 248.55108 250.32994 251.76081 252.89767 253.73354 254.06340
 254.11427 253.90213 253.27600 252.23786 250.85772 249.03259 246.95545 244.80232
 242.60718 240.42505 238.25891 236.11178 233.98564 231.86651 229.90637 228.07724
 226.37410 224.85997 223.50383 222.28970 221.18556 220.15943 219.27729 218.43216
 217.68802 216.88189 215.99375 215.37161 214.83548 214.48535 213.65813 213.41397
 213.76155 213.95753 215.29460 217.00653 218.83713 221.76636 227.02739 231.57066
 235.55049 239.89388 244.30957 248.41954 251.89793 254.60141 256.85519 259.22141
 262.16763 265.07855 267.73154 270.28040 272.69998 274.86749 276.43390 277.84732
 279.52319 281.14539 282.68225 284.04514 285.22690 286.27399 287.23248 288.10614
 288.89429 289.60562 290.22964 291.06558
 366.78100 356.34911 345.79523 334.67534 323.09245 311.30057 299.18468 287.00180
 274.72791 262.63902 250.66214 239.97725 230.11336 221.23148 213.42759 206.44371
 200.29182 195.24393 191.84005 189.89616 188.94727 189.02539 189.87450 191.19661
 192.93573 195.04484 197.32196 199.69507 202.15418 204.64830 206.75041 208.60652
 210.24664 211.40575 211.64886 211.89098 211.84209 211.56121 211.20832 210.85243
 210.48355 210.20766 210.02977 209.90789 209.85000 210.19512 210.59523 210.99834
 211.80546 212.99757 214.26168 216.05880 218.00091 220.05802 222.16714 224.26425
 226.33837 228.43648 230.54759 232.66771 234.81082 236.99693 239.26705 241.65116
 244.28627 246.55139 248.56750 250.34662 251.77773 252.91484 253.75096 254.08107
 254.13218 253.92030 253.29441 252.25653 250.87664 249.05175 246.97487 244.82198
 242.62709 240.44521 238.27932 236.13243 234.00655 231.88766 229.92778 228.09889
 226.39600 224.88212 223.52623 222.31234 221.20846 220.18257 219.30068 218.45580
 217.71191 216.90603 216.01814 215.39625 214.86037 214.51662 213.70444 213.45686
 213.82127 214.07051 215.29822 217.05238 218.86595 221.69670 226.96007 231.54181
 235.55348 239.90642 244.27203 248.29887 251.71625 254.39287 256.68573 259.14304
 262.11801 265.04953 267.72925 270.28586 272.70981 274.88174 276.45050 277.84366
 279.47955 281.07007 282.60342 283.96597 285.14682 286.19415 287.15411 288.02603
 288.81616 289.52634 290.15060 290.98615
 366.78100 356.34944 345.79589 334.67633 323.09377 311.30221 299.18666 287.00410
 274.73054 262.64198 250.66543 239.98087 230.11731 221.23575 213.43220 206.44864
 200.29708 195.24953 191.84597 189.90241 188.95385 189.03230 189.88174 191.20418
 192.94362 195.05307 197.33051 199.70395 202.16339 204.65784 206.76028 208.61672
 210.25716 211.41661 211.66005 211.90249 211.85394 211.57338 211.22082 210.86526
 210.49671 210.22115 210.04359 209.92203 209.86448 210.20992 210.61036 211.01380
 211.82125 213.01369 214.27813 216.07558 218.01802 220.07546 222.18490 224.28235
 226.35679 228.45523 230.56667 232.68712 234.83056 237.01700 239.28744 241.67189
 244.30733 246.57277 248.58921 250.36866 251.80010 252.93754 253.77399 254.10443
 254.15587 253.94431 253.31876 252.28120 250.90164 249.07708 247.00053 244.84797
 242.65341 240.47185 238.30630 236.15974 234.03418 231.91563 229.95607 228.12751
 226.42495 224.91140 223.55584 222.34228 221.23872 220.21317 219.33161 218.48705
 217.74349 216.93794 216.05038 215.42882 214.89326 214.54922 213.73642 213.52954
 213.86240 214.16010 215.32214 217.08937 218.87256 221.64175 226.91263 231.52641
 235.56277 239.92050 244.23051 248.17081 251.52901 254.17973 256.51306 259.06570
 262.06747 265.01727 267.72333 270.28732 272.71567 274.89291 276.46606 277.84409
 279.43893 280.99854 282.52472 283.88779 285.06763 286.11588 287.07382 287.94754
 288.73770 289.44662 290.07095 290.90768
 366.78100 356.34950 345.79600 334.67650 323.09400 311.30250 299.18700 287.00449
 274.73099 262.64249 250.66599 239.98149 230.11799 221.23649 213.43299 206.44949
 200.29799 195.25049 191.84699 189.90349 188.95499 189.03348 189.88298 191.20548
 192.94498 195.05448 197.33198 199.70548 202.16498 204.65948 206.76198 208.61848
 210.25898 211.41848 211.66197 211.90447 211.85597 211.57547 211.22297 210.86747
 210.49897 210.22347 210.04597 209.92447 209.86697 210.21247 210.61297 211.01647
 211.82396 213.01646 214.28096 216.07846 218.02096 220.07846 222.18796 224.28546
 226.35996 228.45846 230.56996 232.69046 234.83396 237.02045 239.29095 241.67545
 244.31095 246.57645 248.59295 250.37245 251.80395 252.94145 253.77795 254.10845
 254.15995 253.94845 253.32295 252.28544 250.90594 249.08144 247.00494 244.85244
 242.65794 240.47644 238.31094 236.16444 234.03894 231.92044 229.96094 228.13244
 226.42993 224.91643 223.56093 222.34743 221.24393 220.21843 219.33693 218.49243
 217.74893 216.94343 216.05593 215.43443 214.89893 214.56630 213.78043 213.59654
 213.91042 214.23616 215.36458 217.11931 218.85645 221.60072 226.87285 231.51361
 235.57108 239.93040 244.18185 248.03418 251.33615 253.96378 256.34036 258.99026
 262.01718 264.98413 267.71497 270.28635 272.72098 274.90561 276.48550 277.85165
 279.40616 280.93158 282.45120 283.81314 284.99579 286.04169 287.00113 287.87500
 288.66412 289.37292 289.99731 290.83527
 366.78100 356.34940 345.79581 334.67621 323.09361 311.30202 299.18642 287.00382
 274.73023 262.64163 250.66503 239.98044 230.11684 221.23524 213.43165 206.44805
 200.29645 195.24886 191.84526 189.90167 188.95307 189.03147 189.88088 191.20328
 192.94268 195.05209 197.32949 199.70289 202.16230 204.65670 206.75910 208.61551
 210.25591 211.41531 211.65872 211.90112 211.85252 211.57193 211.21933 210.86373
 210.49514 210.21954 210.04194 209.92035 209.86275 210.20815 210.60856 211.01196
 211.81936 213.01177 214.27617 216.07358 218.01598 220.07338 222.18279 224.28019
 226.35459 228.45300 230.56440 232.68480 234.82821 237.01461 239.28501 241.66942
 244.30482 246.57022 248.58663 250.36603 251.79743 252.93484 253.77124 254.10164
 254.15305 253.94145 253.31585 252.27826 250.89866 249.07406 246.99747 244.84487
 242.65027 240.46868 238.30308 236.15648 234.03089 231.91229 229.95270 228.12410
 226.42150 224.90791 223.55231 222.33871 221.23512 220.20952 219.32792 218.48333
 217.73973 216.93413 216.04654 215.42494 214.88934 214.57414 213.82942 213.65849
 213.97197 214.30716 215.40565 217.14014 218.83611 221.57320 226.83344 231.50063
 235.57938 239.93666 244.12633 247.89125 251.14030 253.74748 256.17014 258.91620
 261.96695 264.94821 267.70389 270.28320 272.72549 274.91919 276.50992 277.86801
 279.38135 280.87570 282.38416 283.74631 284.92838 285.97546 286.93427 287.80707
 288.59705 289.30609 289.93127 290.76611
 366.78100 356.34933 345.79566 334.67599 323.09332 311.30164 299.18597 287.00330
 274.72963 262.64096 250.66429 239.97962 230.11595 221.23427 213.43060 206.44693
 200.29526 195.24759 191.84392 189.90025 188.95158 189.02991 189.87923 191.20156
 192.94089 195.05022 197.32755 199.70088 202.16021 204.65454 206.75686 208.61319
 210.25352 211.41285 211.65618 211.89851 211.84984 211.56917 211.21650 210.86082
 210.49215 210.21648 210.03881 209.91714 209.85947 210.20480 210.60513 211.00845
 211.81578 213.00811 214.27244 216.06977 218.01210 220.06943 222.17876 224.27608
 226.35041 228.44874 230.56007 232.68040 234.82373 237.01006 239.28039 241.66472
 244.30004 246.56537 248.58170 250.36103 251.79236 252.92969 253.76602 254.09635
 254.14767 253.93600 253.31033 252.27266 250.89299 249.06832 246.99165 244.83898
 242.64431 240.46263 238.29696 236.15029 234.02462 231.90595 229.94628 228.11761
 226.41494 224.90126 223.54559 222.33192 221.22825 220.20258 219.32091 218.47624
 217.73257 216.92690 216.03922 215.41755 214.88188 214.58176 213.87268 213.72450
 214.04379 214.37759 215.43799 217.15410 218.82108 221.55403 226.79256 231.48956
 235.58873 239.93869 244.06349 247.74214 250.94171 253.53276 256.00415 258.84329
 261.91568 264.90994 267.68848 270.27576 272.72623 274.93011 276.53143 277.88419
 279.36368 280.82919 282.32748 283.68857 284.87128 285.91766 286.87692 287.74896
 288.53976 289.24863 289.87463 290.70541
 366.78100 356.34927 345.79554 334.67581 323.09308 311.30135 299.18562 287.00289
 274.72916 262.64043 250.66370 239.97897 230.11524 221.23351 213.42978 206.44605
 200.29432 195.24659 191.84286 189.89913 188.95040 189.02867 189.87794 191.20022
 192.93949 195.04876 197.32603 199.69930 202.15857 204.65284 206.75511 208.61138
 210.25165 211.41092 211.65419 211.89646 211.84773 211.56700 211.21427 210.85854
 210.48981 210.21408 210.03635 209.91462 209.85689 210.20216 210.60243 211.00570
 211.81297 213.00524 214.26951 216.06678 218.00905 220.06632 222.17559 224.27286
 226.34713 228.44540 230.55667 232.67694 234.82021 237.00648 239.27675 241.66102
 244.29629 246.56156 248.57783 250.35710 251.78838 252.92565 253.76192 254.09219
 254.14346 253.93173 253.30600 252.26827 250.88854 249.06381 246.98708 244.83435
 242.63962 240.45789 238.29216 236.14543 234.01970 231.90097 229.94124 228.11251
 226.40978 224.89605 223.54032 222.32659 221.22286 220.19713 219.31540 218.47067
 217.72694 216.92121 216.03348 215.41175 214.87602 214.58876 213.91011 213.79370
 214.12355 214.44922 215.46657 217.16211 218.81181 221.53653 226.75215 231.48047
 235.59718 239.93324 243.99139 247.58595 250.74081 253.32153 255.84454 258.77130
 261.86374 264.86905 267.66663 270.26126 272.72128 274.93460 276.54700 277.89944
 279.35202 280.79449 282.28070 283.64236 284.82446 285.87192 286.83041 287.70486
 288.49414 289.20218 289.82614 290.66003
 366.78100 356.34920 345.79540 334.67560 323.09281 311.30101 299.18521 287.00241
 274.72861 262.63981 250.66301 239.97821 230.11442 221.23262 213.42882 206.44502
 200.29322 195.24542 191.84162 189.89782 188.94903 189.02723 189.87643 191.19863
 192.93783 195.04703 197.32423 199.69743 202.15664 204.65084 206.75304 208.60924
 210.24944 211.40864 211.65184 211.89404 211.84525 211.56445 211.21165 210.85585
 210.48705 210.21125 210.03345 209.91165 209.85386 210.19906 210.59926 211.00246
 211.80966 213.00186 214.26606 216.06326 218.00547 220.06267 222.17187 224.26907
 226.34327 228.44147 230.55267 232.67287 234.81608 237.00228 239.27248 241.65668
 244.29188 246.55708 248.57328 250.35248 251.78369 252.92089 253.75709 254.08729
 254.13849 253.92669 253.30089 252.26309 250.88330 249.05850 246.98170 244.82890
 242.63410 240.45230 238.28650 236.13970 234.01391 231.89511 229.93531 228.10651
 226.40371 224.88991 223.53411 222.32031 221.21652 220.19072 219.30892 218.46412
 217.72032 216.91452 216.02672 215.40492 214.86913 214.59372 213.94301 213.86415
 214.20941 214.52342 215.50148 217.17178 218.80338 221.51764 226.71434 231.47266
 235.60207 239.91821 243.90744 247.42210 250.53786 253.11555 255.69301 258.69998
 261.80991 264.82370 267.63586 270.23807 272.70892 274.93295 276.55679 277.91406
 279.34796 280.77173 282.25037 283.61075 284.79297 285.83994 286.80026 287.67307
 288.46338 289.17203 289.79755 290.62949
 366.78100 356.34914 345.79529 334.67543 323.09258 311.30072 299.18486 287.00201
 274.72815 262.63929 250.66244 239.97758 230.11373 221.23187 213.42801 206.44416
 200.29230 195.24445 191.84059 189.89673 188.94788 189.02602 189.87517 191.19731
 192.93645 195.04560 197.32274 199.69588 202.15503 204.64917 206.75132 208.60746
 210.24760 211.40675 211.64989 211.89204 211.84318 211.56232 211.20947 210.85361
 210.48476 210.20890 210.03104 209.90919 209.85133 210.19647 210.59662 210.99976
 211.80691 212.99905 214.26319 216.06034 218.00248 220.05963 222.16877 224.26591
 226.34006 228.43820 230.54935 232.66949 234.81263 236.99878 239.26892 241.65306
 244.28821 246.55335 248.56950 250.34864 251.77978 252.91693 253.75307 254.08322
 254.13436 253.92250 253.29665 252.25879 250.87893 249.05408 246.97722 244.82437
 242.62951 240.44765 238.28180 236.13494 234.00909 231.89023 229.93037 228.10152
 226.39866 224.88481 223.52895 222.31509 221.21124 220.18538 219.30352 218.45867
 217.71481 216.90896 216.02110 215.39924 214.86339 214.59743 213.96910 213.93723
 214.29955 214.59904 215.54446 217.18681 218.79953 221.49976 226.67908 231.46593
 235.60347 239.89388 243.81287 247.25137 250.33191 252.91344 255.54704 258.62631
 261.75253 264.77100 267.59396 270.20596 272.69019 274.92636 276.56314 277.92944
 279.35263 280.76562 282.23318 283.59332 284.77625 285.82385 286.78293 287.65530
 288.44376 289.15253 289.77759 290.60938
 366.78100 356.34904 345.79509 334.67513 323.09217 311.30021 299.18426 287.00130
 274.72734 262.63838 250.66143 239.97647 230.11251 221.23056 213.42660 206.44264
 200.29068 195.24273 191.83877 189.89481 188.94585 189.02390 189.87294 191.19498
 192.93403 195.04307 197.32011 199.69315 202.15220 204.64624 206.74828 208.60432
 210.24437 211.40341 211.64645 211.88850 211.83954 211.55858 211.20562 210.84967
 210.48071 210.20475 210.02679 209.90484 209.84688 210.19192 210.59196 210.99501
 211.80205 212.99409 214.25814 216.05518 217.99722 220.05426 222.16331 224.26035
 226.33439 228.43243 230.54348 232.66352 234.80656 236.99261 239.26265 241.64669
 244.28173 246.54678 248.56282 250.34186 251.77290 252.90995 253.74599 254.07603
 254.12708 253.91512 253.28916 252.25120 250.87125 249.04629 246.96933 244.81637
 242.62142 240.43946 238.27350 236.12655 234.00059 231.88163 229.92167 228.09272
 226.38976 224.87580 223.51984 222.30589 221.20193 220.17597 219.29402 218.44906
 217.70510 216.89914 216.01119 215.38923 214.85327 214.59755 213.99341 214.00896
 214.39622 214.68085 215.59645 217.20714 218.79300 221.48865 226.65096 231.46304
 235.60243 239.86069 243.70708 247.07156 250.11987 252.71112 255.40465 258.54919
 261.68985 264.71133 267.54245 270.16791 272.66687 274.91650 276.56931 277.94913
 279.36859 280.77451 282.23303 283.59290 284.77527 285.82553 286.78433 287.66003
 288.45209 289.16699 289.79922 290.63144
 366.78100 356.34905 345.79511 334.67516 323.09222 311.30027 299.18432 287.00138
 274.72743 262.63848 250.66154 239.97659 230.11265 221.23070 213.42675 206.44281
 200.29086 195.24292 191.83897 189.89502 188.94608 189.02413 189.87318 191.19524
 192.93429 195.04335 197.32040 199.69345 202.15251 204.64656 206.74862 208.60467
 210.24472 211.40378 211.64683 211.88888 211.83994 211.55899 211.20605 210.85010
 210.48115 210.20521 210.02726 209.90532 209.84737 210.19242 210.59248 210.99553
 211.80258 212.99464 214.25869 216.05575 217.99780 220.05485 222.16391 224.26096
 226.33502 228.43307 230.54412 232.66418 234.80723 236.99329 239.26334 241.64739
 244.28245 246.54750 248.56355 250.34261 251.77366 252.91072 253.74677 254.07682
 254.12788 253.91593 253.28999 252.25204 250.87209 249.04715 246.97020 244.81725
 242.62231 240.44036 238.27442 236.12747 234.00152 231.88258 229.92263 228.09369
 226.39074 224.87679 223.52085 222.30690 221.20295 220.17701 219.29506 218.45012
 217.70617 216.90022 216.01228 215.39033 214.85439 214.60202 214.00578 214.08495
 214.49811 214.77156 215.64383 217.23668 218.80292 221.47874 226.62480 231.46100
 235.59714 239.81656 243.58885 246.88339 249.90364 252.51302 255.26936 258.47189
 261.62506 264.64709 267.48331 270.12347 272.63773 274.89926 276.56448 277.96185
 279.38593 280.79019 282.24957 283.61069 284.79282 285.84360 286.80441 287.68076
 288.47675 289.19662 289.82455 290.66019
 366.78100 356.34911 345.79521 334.67532 323.09242 311.30053 299.18464 287.00174
 274.72785 262.63895 250.66206 239.97717 230.11327 221.23138 213.42748 206.44359
 200.29170 195.24380 191.83991 189.89601 188.94712 189.02523 189.87433 191.19644
 192.93554 195.04465 197.32176 199.69486 202.15397 204.64808 206.75018 208.60629
 210.24639 211.40550 211.64861 211.89071 211.84182 211.56092 211.20803 210.85214
 210.48324 210.20735 210.02945 209.90756 209.84967 210.19477 210.59488 210.99798
 211.80509 212.99720 214.26130 216.05841 218.00051 220.05762 222.16673 224.26383
 226.33794 228.43604 230.54715 232.66726 234.81036 236.99647 239.26657 241.65068
 244.28579 246.55089 248.56700 250.34610 251.77721 252.91432 253.75042 254.08053
 254.13163 253.91974 253.29385 252.25595 250.87606 249.05116 246.97427 244.82138
 242.62648 240.44459 238.27870 236.13180 234.00591 231.88701 229.92712 228.09823
 226.39533 224.88144 223.52554 222.31165 221.20776 220.18186 219.29997 218.45507
 217.71118 216.90529 216.01739 215.39550 214.85960 214.60826 214.01442 214.15981
 214.59572 214.87141 215.72112 217.27074 218.79233 221.47461 226.61162 231.46323
 235.58955 239.76395 243.46045 246.68752 249.68280 252.31743 255.13921 258.39288
 261.55612 264.57642 267.41568 270.07150 272.60312 274.87219 276.54956 277.96487
 279.40170 280.81082 282.27850 283.63962 284.82349 285.87500 286.83539 287.71155
 288.50995 289.22800 289.85767 290.69305
 366.78100 356.34888 345.79477 334.67465 323.09154 311.29942 299.18331 287.00019
 274.72608 262.63696 250.65984 239.97473 230.11061 221.22850 213.42438 206.44027
 200.28815 195.24004 191.83592 189.89181 188.94269 189.02057 189.86946 191.19134
 192.93023 195.03911 197.31600 199.68888 202.14777 204.64165 206.74353 208.59942
 210.23930 211.39819 211.64107 211.88296 211.83384 211.55273 211.19961 210.84349
 210.47438 210.19826 210.02015 209.89803 209.83992 210.18480 210.58469 210.98757
 211.79446 212.98634 214.25022 216.04711 217.98899 220.04588 222.15476 224.25165
 226.32553 228.42342 230.53430 232.65418 234.79707 236.98295 239.25284 241.63672
 244.27161 246.53649 248.55238 250.33126 251.76214 252.89903 253.73491 254.06480
 254.11568 253.90357 253.27745 252.23934 250.85922 249.03411 246.95699 244.80387
 242.60876 240.42664 238.26053 236.11341 233.98730 231.86818 229.90807 228.07895
 226.37583 224.86172 223.50560 222.29149 221.18737 220.16126 219.27914 218.43403
 217.68991 216.88379 215.99568 215.37356 214.83745 214.60129 214.04337 214.20296
 214.70944 214.98300 215.78070 217.32755 218.83548 221.47789 226.59807 231.46039
 235.57033 239.69037 243.30789 246.47214 249.44829 252.11954 255.01308 258.31247
 261.48566 264.50406 267.34601 270.02094 272.57013 274.84561 276.53860 277.97467
 279.42603 280.84079 282.31451 283.67505 284.85953 285.90982 286.87088 287.74652
 288.54541 289.26520 289.89499 290.72833
 366.78100 356.34855 345.79411 334.67366 323.09021 311.29776 299.18132 286.99787
 274.72342 262.63397 250.65653 239.97108 230.10663 221.22418 213.41974 206.43529
 200.28284 195.23439 191.82995 189.88550 188.93605 189.01360 189.86216 191.18371
 192.92226 195.03082 197.30737 199.67992 202.13847 204.63203 206.73358 208.58913
 210.22868 211.38724 211.62979 211.87134 211.82189 211.54045 211.18700 210.83055
 210.46110 210.18466 210.00621 209.88376 209.82531 210.16987 210.56942 210.97197
 211.77852 212.97008 214.23363 216.03018 217.97174 220.02829 222.13684 224.23339
 226.30695 228.40450 230.51505 232.63460 234.77716 236.96271 239.23226 241.61581
 244.25037 246.51492 248.53047 250.30902 251.73958 252.87613 253.71168 254.04123
 254.09179 253.87934 253.25289 252.21445 250.83400 249.00855 246.93110 244.77766
 242.58221 240.39976 238.23331 236.08587 233.95942 231.83997 229.87952 228.05008
 226.34663 224.83218 223.47573 222.26129 221.15684 220.13039 219.24794 218.40250
 217.65805 216.85160 215.96316 215.34071 214.80426 214.58905 214.08060 214.23491
 214.79129 215.13623 215.90346 217.36931 218.83942 221.47125 226.57533 231.44511
 235.53802 239.59962 243.14084 246.25243 249.22023 251.94016 254.90532 258.24347
 261.42474 264.43997 267.28424 269.97476 272.53885 274.82159 276.53134 277.98944
 279.45728 280.87967 282.35318 283.71487 284.90002 285.94986 286.91013 287.78650
 288.58392 289.30487 289.93317 290.76871
 366.78100 356.34849 345.79399 334.67348 323.08998 311.29747 299.18097 286.99746
 274.72295 262.63345 250.65594 239.97044 230.10593 221.22343 213.41892 206.43441
 200.28191 195.23340 191.82890 189.88439 188.93489 189.01238 189.86087 191.18237
 192.92086 195.02936 197.30585 199.67835 202.13684 204.63034 206.73183 208.58732
 210.22682 211.38531 211.62781 211.86930 211.81980 211.53829 211.18478 210.82828
 210.45877 210.18227 210.00376 209.88126 209.82275 210.16724 210.56674 210.96923
 211.77573 212.96722 214.23072 216.02721 217.96870 220.02520 222.13369 224.23019
 226.30368 228.40118 230.51167 232.63116 234.77366 236.95915 239.22865 241.61214
 244.24664 246.51113 248.52662 250.30512 251.73561 252.87211 253.70760 254.03710
 254.08759 253.87508 253.24858 252.21007 250.82957 249.00406 246.92656 244.77305
 242.57755 240.39504 238.22853 236.08103 233.95452 231.83502 229.87451 228.04501
 226.34150 224.82699 223.47049 222.25598 221.15148 220.12497 219.24247 218.39696
 217.65245 216.84595 215.95744 215.33494 214.79843 214.58957 214.09613 214.29509
 214.84409 215.26543 216.04816 217.41052 218.82262 221.46657 226.55739 231.43318
 235.50679 239.50981 242.98138 246.04918 249.01726 251.78996 254.81973 258.18677
 261.37253 264.38123 267.22229 269.92587 272.50320 274.78510 276.50870 277.99368
 279.48221 280.92114 282.39444 283.75513 284.93921 285.98978 286.94931 287.82602
 288.62347 289.34262 289.97446 290.80392
 366.78100 356.34871 345.79441 334.67412 323.09083 311.29854 299.18224 286.99895
 274.72466 262.63536 250.65807 239.97278 230.10849 221.22619 213.42190 206.43761
 200.28531 195.23702 191.83273 189.88844 188.93914 189.01685 189.86556 191.18727
 192.92597 195.03468 197.31139 199.68409 202.14280 204.63651 206.73822 208.59392
 210.23363 211.39234 211.63504 211.87675 211.82746 211.54617 211.19287 210.83658
 210.46729 210.19099 210.01270 209.89041 209.83212 210.17682 210.57653 210.97924
 211.78594 212.97765 214.24136 216.03807 217.97977 220.03648 222.14519 224.24189
 226.31560 228.41331 230.52402 232.64372 234.78643 236.97214 239.24184 241.62555
 244.26026 246.52497 248.54067 250.31938 251.75009 252.88680 253.72250 254.05221
 254.10292 253.89062 253.26433 252.22604 250.84575 249.02045 246.94316 244.78987
 242.59457 240.41228 238.24599 236.09870 233.97240 231.85311 229.89282 228.06352
 226.36023 224.84594 223.48965 222.27535 221.17106 220.14477 219.26247 218.41718
 217.67289 216.86660 215.97830 215.35601 214.81972 214.60222 214.08836 214.37067
 214.90773 215.36626 216.17313 217.45258 218.81863 221.47890 226.54919 231.42809
 235.47815 239.42241 242.82880 245.85838 248.83092 251.65720 254.74475 258.13110
 261.31735 264.31497 267.15079 269.86841 272.45538 274.73080 276.46664 277.98254
 279.49750 280.95886 282.43512 283.79608 284.98022 286.02988 286.98975 287.86569
 288.66422 289.38275 290.01770 290.84409
 366.78100 356.34892 345.79483 334.67475 323.09167 311.29958 299.18350 287.00041
 274.72633 262.63725 250.66016 239.97508 230.11100 221.22891 213.42483 206.44075
 200.28866 195.24058 191.83649 189.89241 188.94333 189.02124 189.87016 191.19208
 192.93099 195.03991 197.31683 199.68974 202.14866 204.64257 206.74449 208.60041
 210.24032 211.39924 211.64216 211.88407 211.83499 211.55391 211.20082 210.84474
 210.47565 210.19957 210.02149 209.89940 209.84132 210.18624 210.58615 210.98907
 211.79599 212.98790 214.25182 216.04873 217.99065 220.04757 222.15648 224.25340
 226.32732 228.42523 230.53615 232.65607 234.79898 236.98490 239.25482 241.63873
 244.27365 246.53856 248.55448 250.33340 251.76431 252.90123 253.73715 254.06706
 254.11798 253.90590 253.27981 252.24173 250.86164 249.03656 246.95948 244.80639
 242.61131 240.42923 238.26314 236.11606 233.98998 231.87089 229.91081 228.08172
 226.37864 224.86456 223.50847 222.29439 221.19031 220.16422 219.28214 218.43706
 217.69297 216.88689 215.99880 215.37672 214.84064 214.61311 214.07556 214.43774
 214.99147 215.46780 216.27374 217.49104 218.83401 221.50235 226.54539 231.42392
 235.44777 239.33089 242.67409 245.67044 248.65051 251.53185 254.67316 258.07376
 261.25775 264.24374 267.07437 269.80630 272.40036 274.66656 276.41483 277.96515
 279.51053 280.99493 282.47412 283.83496 285.01846 286.06741 287.02686 287.90253
 288.70026 289.42068 290.05380 290.88120
 366.78100 356.34887 345.79475 334.67462 323.09149 311.29937 299.18324 287.00011
 274.72599 262.63686 250.65973 239.97461 230.11048 221.22836 213.42423 206.44010
 200.28798 195.23985 191.83572 189.89160 188.94247 189.02034 189.86922 191.19109
 192.92996 195.03884 197.31571 199.68858 202.14746 204.64133 206.74320 208.59908
 210.23895 211.39783 211.64070 211.88257 211.83345 211.55232 211.19919 210.84307
 210.47394 210.19781 210.01969 209.89756 209.83943 210.18431 210.58418 210.98705
 211.79393 212.98580 214.24967 216.04655 217.98842 220.04530 222.15417 224.25104
 226.32492 228.42279 230.53366 232.65354 234.79641 236.98228 239.25216 241.63603
 244.27090 246.53578 248.55165 250.33052 251.76140 252.89827 253.73414 254.06402
 254.11489 253.90277 253.27664 252.23851 250.85839 249.03326 246.95613 244.80301
 242.60788 240.42575 238.25963 236.11250 233.98637 231.86725 229.90712 228.07799
 226.37487 224.86074 223.50461 222.29049 221.18636 220.16024 219.27811 218.43298
 217.68886 216.88273 215.99460 215.37248 214.83635 214.60963 214.07401 214.49265
 215.07848 215.57823 216.36682 217.52953 218.85989 221.52663 226.54060 231.41765
 235.41150 239.23174 242.51671 245.48761 248.48091 251.41840 254.60820 258.01691
 261.19553 264.16974 266.99789 269.74387 272.34290 274.59964 276.36182 277.94550
 279.51782 281.02618 282.50812 283.86819 285.05173 286.10049 287.06082 287.93463
 288.73657 289.45551 290.08878 290.91617
 366.78100 356.34874 345.79448 334.67422 323.09096 311.29871 299.18245 286.99919
 274.72493 262.63567 250.65841 239.97315 230.10889 221.22664 213.42238 206.43812
 200.28586 195.23760 191.83334 189.88908 188.93982 189.01757 189.86631 191.18805
 192.92679 195.03553 197.31227 199.68501 202.14375 204.63749 206.73924 208.59498
 210.23472 211.39346 211.63620 211.87794 211.82868 211.54742 211.19417 210.83791
 210.46865 210.19239 210.01413 209.89187 209.83361 210.17835 210.57810 210.98084
 211.78758 212.97932 214.24306 216.03980 217.98154 220.03828 222.14702 224.24377
 226.31751 228.41525 230.52599 232.64573 234.78847 236.97421 239.24395 241.62770
 244.26244 246.52718 248.54292 250.32166 251.75240 252.88914 253.72488 254.05463
 254.10537 253.89311 253.26685 252.22859 250.84833 249.02307 246.94581 244.79255
 242.59730 240.41504 238.24878 236.10152 233.97526 231.85600 229.89574 228.06648
 226.36323 224.84897 223.49271 222.27845 221.17419 220.14793 219.26567 218.42041
 217.67616 216.86990 215.98164 215.35938 214.82312 214.60008 214.07315 214.54292
 215.17419 215.69308 216.46201 217.56844 218.87601 221.54272 226.53436 231.40833
 235.37103 239.12982 242.36151 245.31339 248.32387 251.31688 254.55063 257.96320
 261.13574 264.09769 266.92325 269.68051 272.28064 274.52597 276.30499 277.92386
 279.52817 281.05365 282.53152 283.89005 285.07254 286.12012 287.07672 287.95096
 288.74866 289.46753 290.09601 290.90176
 366.78100 356.34841 345.79382 334.67323 323.08964 311.29705 299.18046 286.99687
 274.72228 262.63269 250.65510 239.96951 230.10492 221.22233 213.41774 206.43315
 200.28056 195.23197 191.82738 189.88279 188.93320 189.01061 189.85903 191.18044
 192.91885 195.02726 197.30367 199.67608 202.13449 204.62790 206.72931 208.58472
 210.22413 211.38254 211.62495 211.86636 211.81677 211.53518 211.18159 210.82500
 210.45541 210.17882 210.00023 209.87764 209.81905 210.16346 210.56287 210.96528
 211.77169 212.96310 214.22651 216.02292 217.96433 220.02074 222.12915 224.22556
 226.29897 228.39638 230.50679 232.62620 234.76861 236.95402 239.22343 241.60684
 244.24126 246.50567 248.52108 250.29949 251.72990 252.86631 253.70172 254.03113
 254.08154 253.86895 253.24236 252.20377 250.82318 248.99759 246.92000 244.76641
 242.57082 240.38823 238.22164 236.07405 233.94746 231.82787 229.86728 228.03769
 226.33410 224.81951 223.46292 222.24833 221.14374 220.11715 219.23456 218.38897
 217.64438 216.83779 215.94920 215.32661 214.79002 214.57782 214.07648 214.59334
 215.27580 215.81171 216.56810 217.61722 218.88379 221.55363 226.52713 231.39464
 235.32343 239.01930 242.20346 245.14536 248.17909 251.22815 254.49922 257.91077
 261.07486 264.02615 266.85193 269.61938 272.21719 274.45087 276.24277 277.89340
 279.52438 281.06970 282.54248 283.90076 285.08136 286.12772 287.08270 287.95364
 288.75293 289.47089 290.09204 290.89954
 366.78100 356.34793 345.79285 334.67178 323.08771 311.29463 299.17756 286.99348
 274.71841 262.62834 250.65026 239.96419 230.09912 221.21604 213.41097 206.42590
 200.27282 195.22375 191.81867 189.87360 188.92353 189.00045 189.84838 191.16931
 192.90723 195.01516 197.29109 199.66301 202.12094 204.61387 206.71479 208.56972
 210.20864 211.36657 211.60850 211.84942 211.79935 211.51728 211.16320 210.80613
 210.43606 210.15898 209.97991 209.85683 209.79776 210.14169 210.54061 210.94254
 211.74847 212.93939 214.20232 215.99825 217.93917 219.99510 222.10302 224.19895
 226.27188 228.36880 230.47873 232.59766 234.73958 236.92451 239.19344 241.57636
 244.21029 246.47421 248.48914 250.26707 251.69699 252.83292 253.66785 253.99677
 254.04670 253.83363 253.20655 252.16748 250.78641 248.96033 246.88226 244.72818
 242.53211 240.34904 238.18196 236.03389 233.90682 231.78674 229.82567 227.99560
 226.29152 224.77645 223.41937 222.20430 221.09923 220.07215 219.18908 218.34301
 217.59793 216.79086 215.90179 215.27871 214.74164 214.54552 214.08215 214.65018
 215.37769 215.92400 216.67130 217.67097 218.88968 221.56827 226.52614 231.38321
 235.27661 238.91220 242.05403 244.99051 248.05031 251.14969 254.45012 257.85635
 261.01010 263.95087 266.77527 269.55029 272.14185 274.36337 276.17697 277.86249
 279.51624 281.07205 282.53751 283.89069 285.07071 286.11618 287.07034 287.93988
 288.73816 289.45523 290.07480 290.87631
 366.78100 356.34808 345.79316 334.67223 323.08831 311.29539 299.17847 286.99454
 274.71962 262.62970 250.65178 239.96586 230.10093 221.21801 213.41309 206.42817
 200.27524 195.22632 191.82140 189.87648 188.92655 189.00363 189.85171 191.17279
 192.91087 195.01894 197.29502 199.66710 202.12518 204.61825 206.71933 208.57441
 210.21349 211.37157 211.61364 211.85472 211.80480 211.52288 211.16895 210.81203
 210.44211 210.16519 209.98627 209.86334 209.80442 210.14850 210.54758 210.94965
 211.75573 212.94681 214.20989 216.00597 217.94704 220.00312 222.11120 224.20728
 226.28035 228.37743 230.48751 232.60659 234.74866 236.93374 239.20282 241.58590
 244.21998 246.48405 248.49913 250.27721 251.70729 252.84336 253.67844 254.00752
 254.05760 253.84468 253.21775 252.17883 250.79791 248.97199 246.89406 244.74014
 242.54422 240.36130 238.19438 236.04645 233.91953 231.79961 229.83869 228.00876
 226.30484 224.78992 223.43300 222.21808 221.11315 220.08623 219.20331 218.35739
 217.61246 216.80554 215.91662 215.29370 214.75677 214.54868 214.05702 214.71280
 215.50851 216.04529 216.76317 217.70830 218.87839 221.57179 226.52303 231.36555
 235.22122 238.79697 241.90396 244.84465 247.93661 251.08508 254.40833 257.80518
 260.94513 263.87637 266.70517 269.48676 272.06784 274.27304 276.09406 277.80765
 279.49176 281.06482 282.52670 283.87204 285.04935 286.09341 287.04535 287.91620
 288.70999 289.42914 290.04343 290.85001
 366.78100 356.34793 345.79286 334.67179 323.08772 311.29465 299.17758 286.99351
 274.71844 262.62837 250.65030 239.96423 230.09916 221.21609 213.41102 206.42595
 200.27288 195.22381 191.81874 189.87367 188.92360 189.00053 189.84846 191.16939
 192.90732 195.01525 197.29119 199.66312 202.12105 204.61398 206.71491 208.56984
 210.20877 211.36670 211.60863 211.84956 211.79949 211.51742 211.16335 210.80628
 210.43621 210.15914 209.98007 209.85700 209.79793 210.14186 210.54079 210.94272
 211.74865 212.93958 214.20251 215.99844 217.93937 219.99530 222.10323 224.19916
 226.27209 228.36902 230.47895 232.59788 234.73981 236.92474 239.19367 241.57660
 244.21053 246.47446 248.48939 250.26732 251.69725 252.83318 253.66811 253.99704
 254.04697 253.83390 253.20683 252.16776 250.78669 248.96063 246.88256 244.72849
 242.53242 240.34935 238.18228 236.03421 233.90714 231.78707 229.82600 227.99593
 226.29186 224.77679 223.41972 222.20465 221.09958 220.07251 219.18944 218.34337
 217.59830 216.79123 215.90216 215.27909 214.74202 214.53897 214.05925 214.75204
 215.62994 216.18564 216.87343 217.75021 218.86360 221.57056 226.52054 231.34036
 235.15054 238.66370 241.74084 244.69855 247.83206 251.02922 254.37047 257.75552
 260.88397 263.80878 266.63965 269.42380 271.99307 274.18854 276.02798 277.77039
 279.46857 281.04150 282.49435 283.82462 284.99979 286.04202 286.99179 287.86035
 288.65442 289.36951 289.98349 290.78369
 366.78100 356.34721 345.79142 334.66963 323.08484 311.29105 299.17327 286.98848
 274.71269 262.62190 250.64311 239.95632 230.09053 221.20674 213.40095 206.41516
 200.26137 195.21159 191.80580 189.86001 188.90922 188.98543 189.83264 191.15285
 192.89006 194.99727 197.27248 199.64369 202.10091 204.59312 206.69333 208.54754
 210.18575 211.34296 211.58417 211.82438 211.77359 211.49080 211.13601 210.77822
 210.40744 210.12965 209.94986 209.82607 209.76628 210.10949 210.50770 210.90891
 211.71412 212.90433 214.16654 215.96176 217.90197 219.95718 222.06439 224.15960
 226.23181 228.32802 230.43723 232.55544 234.69665 236.88086 239.14908 241.53129
 244.16450 246.42771 248.44192 250.21913 251.64834 252.78355 253.61776 253.94597
 253.99518 253.78140 253.15361 252.11382 250.73203 248.90524 246.82645 244.67166
 242.47487 240.29108 238.12329 235.97450 233.84672 231.72593 229.76414 227.93335
 226.22856 224.71277 223.35498 222.13919 221.03340 220.00561 219.12182 218.27504
 217.52925 216.72146 215.83167 215.20788 214.67009 214.50307 214.10843 214.78502
 215.69176 216.28613 216.97044 217.81334 218.89774 221.59683 226.53096 231.32018
 235.08549 238.54178 241.59846 244.57950 247.75842 250.99997 254.35284 257.72366
 260.83514 263.74799 266.57465 269.34894 271.89731 274.07706 275.92395 277.70999
 279.42801 281.00668 282.45197 283.77231 284.94165 285.98035 286.92868 287.79413
 288.58603 289.29584 289.91019 290.70636
 366.78100 356.34618 345.78937 334.66655 323.08074 311.28592 299.16711 286.98129
 274.70448 262.61266 250.63285 239.94503 230.07822 221.19340 213.38658 206.39977
 200.24495 195.19414 191.78732 189.84051 188.88869 188.96388 189.81006 191.12925
 192.86543 194.97161 197.24580 199.61598 202.07217 204.56335 206.66254 208.51572
 210.15291 211.30909 211.54928 211.78846 211.73665 211.45283 211.09701 210.73820
 210.36638 210.08757 209.90675 209.78194 209.72112 210.06331 210.46049 210.86068
 211.66486 212.85404 214.11523 215.90941 217.84860 219.90278 222.00897 224.10315
 226.17434 228.26952 230.37771 232.49489 234.63508 236.81826 239.08544 241.46663
 244.09881 246.36100 248.37418 250.15037 251.57855 252.71274 253.54592 253.87311
 253.92129 253.70648 253.07766 252.03684 250.65403 248.82621 246.74640 244.59058
 242.39277 240.20795 238.03914 235.88932 233.76051 231.63869 229.67587 227.84406
 226.13824 224.62143 223.26261 222.04580 220.93898 219.91017 219.02535 218.17754
 217.43072 216.62191 215.73109 215.10627 214.56746 214.43857 214.13405 214.86935
 215.76588 216.35847 217.05461 217.85165 218.90607 221.61189 226.54028 231.29868
 235.02327 238.43172 241.47911 244.49290 247.72501 251.00407 254.35368 257.70285
 260.79089 263.68909 266.51126 269.28140 271.81024 273.97134 275.85257 277.63849
 279.38217 280.95630 282.39343 283.70020 284.85907 285.89426 286.83890 287.70175
 288.49243 289.20169 289.81235 290.61099
 366.78100 356.34570 345.78840 334.66511 323.07881 311.28351 299.16421 286.97791
 274.70061 262.60832 250.62802 239.93972 230.07242 221.18712 213.37983 206.39253
 200.23723 195.18593 191.77863 189.83133 188.87904 188.95374 189.79944 191.11814
 192.85384 194.95955 197.23325 199.60295 202.05865 204.54935 206.64805 208.50076
 210.13746 211.29316 211.53286 211.77156 211.71926 211.43497 211.07867 210.71937
 210.34707 210.06777 209.88648 209.76118 209.69988 210.04158 210.43828 210.83798
 211.64169 212.83039 214.09109 215.88479 217.82349 219.87720 221.98290 224.07660
 226.14730 228.24200 230.34970 232.46641 234.60611 236.78881 239.05551 241.43621
 244.06792 246.32962 248.34232 250.11802 251.54572 252.67942 253.51213 253.83883
 253.88653 253.67123 253.04193 252.00064 250.61734 248.78904 246.70874 244.55244
 242.35414 240.16885 237.99955 235.84925 233.71995 231.59765 229.63436 227.80206
 226.09576 224.57846 223.21916 222.00186 220.89457 219.86527 218.97997 218.13167
 217.38437 216.57507 215.68378 215.05848 214.51918 214.39420 214.09889 214.98456
 215.95000 216.47104 217.09198 217.82784 218.87175 221.58919 226.52463 231.25114
 234.93158 238.28560 241.33032 244.39259 247.69168 251.01064 254.35086 257.67026
 260.72711 263.60773 266.42957 269.19785 271.70206 273.84973 275.73383 277.52188
 279.29996 280.90430 282.34152 283.64359 284.79333 285.82050 286.76315 287.62610
 288.41483 289.12253 289.73697 290.53397
 366.78100 356.34635 345.78970 334.66704 323.08139 311.28674 299.16809 286.98244
 274.70579 262.61413 250.63448 239.94683 230.08018 221.19553 213.38887 206.40222
 200.24757 195.19692 191.79027 189.84362 188.89196 188.96731 189.81366 191.13301
 192.86936 194.97570 197.25005 199.62040 202.07675 204.56810 206.66744 208.52079
 210.15814 211.31449 211.55484 211.79419 211.74253 211.45888 211.10323 210.74458
 210.37293 210.09427 209.91362 209.78897 209.72832 210.07067 210.46802 210.86836
 211.67271 212.86206 214.12341 215.91776 217.85710 219.91145 222.01780 224.11215
 226.18350 228.27885 230.38719 232.50454 234.64489 236.82824 239.09559 241.47693
 244.10928 246.37163 248.38498 250.16133 251.58968 252.72402 253.55737 253.88472
 253.93307 253.71842 253.08976 252.04911 250.66646 248.83881 246.75916 244.60351
 242.40585 240.22120 238.05255 235.90290 233.77425 231.65259 229.68994 227.85829
 226.15264 224.63599 223.27733 222.06068 220.95403 219.92538 219.04073 218.19308
 217.44642 216.63777 215.74712 215.12247 214.58382 214.41437 214.01402 215.05125
 216.19576 216.71243 217.23395 217.83974 218.82375 221.54936 226.49362 231.16660
 234.78416 238.08740 241.14409 244.27394 247.64301 251.00606 254.33813 257.62338
 260.65005 263.51895 266.34665 269.10211 271.58514 273.69992 275.48941 277.40900
 279.24933 280.85107 282.27490 283.55365 284.67935 285.68469 286.61826 287.47995
 288.26492 288.96643 289.57306 290.36386
 366.78100 356.34734 345.79168 334.67001 323.08535 311.29169 299.17403 286.98936
 274.71370 262.62304 250.64438 239.95771 230.09205 221.20839 213.40273 206.41706
 200.26340 195.21374 191.80808 189.86241 188.91175 188.98809 189.83543 191.15576
 192.89310 195.00044 197.27578 199.64711 202.10445 204.59679 206.69713 208.55146
 210.18980 211.34714 211.58848 211.82881 211.77815 211.49549 211.14083 210.78316
 210.41250 210.13484 209.95518 209.83151 209.77185 210.11519 210.51353 210.91486
 211.72020 212.91054 214.17288 215.96821 217.90855 219.96389 222.07123 224.16656
 226.23890 228.33524 230.44458 232.56292 234.70425 236.88859 239.15693 241.53927
 244.17260 246.43594 248.45028 250.22762 251.65695 252.79229 253.62663 253.95497
 254.00430 253.79064 253.16298 252.12332 250.74165 248.91499 246.83633 244.68167
 242.48500 240.30134 238.13368 235.98502 233.85735 231.73669 229.77503 227.94437
 226.23970 224.72404 223.36638 222.15072 221.04505 220.01739 219.13373 218.28707
 217.54140 216.73374 215.84408 215.22042 214.68275 214.46240 213.94182 215.03951
 216.39604 216.97754 217.43633 217.89120 218.78644 221.50159 226.45265 231.07434
 234.62921 237.87198 240.93964 244.14505 247.59537 250.99869 254.31337 257.56113
 260.55521 263.41064 266.23846 268.98740 271.46448 273.56830 275.45660 277.39615
 279.16727 280.74051 282.14035 283.38922 284.48938 285.48383 286.40985 287.27032
 288.05222 288.75473 289.35922 290.15164
 366.78100 356.34791 345.79281 334.67172 323.08762 311.29453 299.17744 286.99334
 274.71825 262.62815 250.65006 239.96397 230.09887 221.21578 213.41069 206.42559
 200.27250 195.22340 191.81831 189.87322 188.92312 189.00003 189.84793 191.16884
 192.90675 195.01465 197.29056 199.66246 202.12037 204.61328 206.71418 208.56909
 210.20799 211.36590 211.60781 211.84871 211.79862 211.51653 211.16243 210.80534
 210.43524 210.15815 209.97906 209.85596 209.79687 210.14077 210.53968 210.94159
 211.74749 212.93840 214.20130 215.99721 217.93812 219.99402 222.10193 224.19783
 226.27074 228.36765 230.47755 232.59646 234.73837 236.92327 239.19218 241.57508
 244.20899 246.47290 248.48780 250.26571 251.69561 252.83152 253.66643 253.99533
 254.04524 253.83214 253.20505 252.16596 250.78486 248.95877 246.88067 244.72658
 242.53049 240.34739 238.18030 236.03221 233.90511 231.78502 229.82392 227.99383
 226.28974 224.77464 223.41755 222.20245 221.09736 220.07027 219.18717 218.34108
 217.59598 216.78889 215.89980 215.27670 214.73961 214.49220 213.90767 215.00888
 216.52234 217.18391 217.62192 217.95309 218.78073 221.48178 226.42918 231.00029
 234.49350 237.68080 240.76886 244.06348 247.61292 251.04927 254.33493 257.54013
 260.50632 263.35080 266.17874 268.92203 271.36652 273.42020 275.49768 277.35944
 279.02893 280.58441 281.94351 283.14932 284.20557 285.15540 286.04443 286.88501
 287.65512 288.33875 288.92020 289.69598
 366.78100 356.34823 345.79346 334.67268 323.08891 311.29614 299.17937 286.99560
 274.72082 262.63105 250.65328 239.96751 230.10273 221.21996 213.41519 206.43042
 200.27765 195.22887 191.82410 189.87933 188.92956 189.00679 189.85501 191.17624
 192.91447 195.02270 197.29893 199.67115 202.12938 204.62261 206.72384 208.57906
 210.21829 211.37652 211.61875 211.85998 211.81020 211.52843 211.17466 210.81789
 210.44812 210.17134 209.99257 209.86980 209.81103 210.15526 210.55448 210.95671
 211.76294 212.95417 214.21739 216.01362 217.95485 220.01108 222.11931 224.21553
 226.28876 228.38599 230.49622 232.61545 234.75767 236.94290 239.21213 241.59536
 244.22959 246.49381 248.50904 250.28727 251.71750 252.85372 253.68895 254.01818
 254.06841 253.85564 253.22886 252.19009 250.80932 248.98355 246.90578 244.75200
 242.55623 240.37346 238.20669 236.05892 233.93214 231.81237 229.85160 228.02183
 226.31805 224.80328 223.44651 222.23174 221.12697 220.10019 219.21742 218.37165
 217.62688 216.82011 215.93133 215.30856 214.77179 214.50809 213.88509 215.02528
 216.63312 217.34392 217.76038 217.98178 218.75711 221.45612 226.40199 230.91895
 234.34726 237.48131 240.59930 243.99651 247.65683 251.13353 254.38640 257.55304
 260.49609 263.33704 266.17526 268.91769 271.33011 273.28522 275.49057 277.26929
 278.92636 280.46075 281.76797 282.90762 283.89380 284.77063 285.58600 286.38245
 287.12418 287.74820 288.22556 288.99261
 366.78100 356.34884 345.79468 334.67452 323.09136 311.29920 299.18304 286.99988
 274.72572 262.63656 250.65940 239.97424 230.11008 221.22792 213.42376 206.43960
 200.28744 195.23928 191.83512 189.89096 188.94180 189.01964 189.86849 191.19033
 192.92917 195.03801 197.31485 199.68769 202.14653 204.64037 206.74221 208.59805
 210.23789 211.39673 211.63957 211.88141 211.83225 211.55109 211.19793 210.84177
 210.47261 210.19645 210.01829 209.89613 209.83797 210.18281 210.58265 210.98549
 211.79233 212.98417 214.24801 216.04485 217.98669 220.04353 222.15237 224.24921
 226.32305 228.42089 230.53173 232.65157 234.79441 236.98025 239.25009 241.63393
 244.26877 246.53361 248.54946 250.32830 251.75914 252.89598 253.73182 254.06166
 254.11250 253.90034 253.27418 252.23602 250.85586 249.03070 246.95354 244.80038
 242.60522 240.42306 238.25690 236.10974 233.98358 231.86442 229.90426 228.07510
 226.37194 224.85778 223.50162 222.28746 221.18330 220.15714 219.27498 218.42982
 217.68566 216.87950 215.99134 215.36918 214.83302 214.53867 213.84322 215.05359
 216.77470 217.52264 217.90236 218.01709 218.72777 221.42113 226.36215 230.81783
 234.17589 237.25648 240.40770 243.90642 247.65840 251.16843 254.39909 257.54022
 260.47086 263.32272 266.17664 268.91635 271.33163 273.31686 275.41672 277.22845
 278.90674 280.41626 281.69559 282.77689 283.69360 284.48468 285.19611 285.91812
 286.63733 287.22086 287.54559 288.30209
 366.78100 356.34952 345.79603 334.67655 323.09407 311.30258 299.18710 287.00462
 274.73113 262.64265 250.66617 239.98168 230.11820 221.23671 213.43323 206.44975
 200.29826 195.25078 191.84730 189.90381 188.95533 189.03385 189.88336 191.20588
 192.94540 195.05491 197.33243 199.70595 202.16546 204.65998 206.76250 208.61901
 210.25953 211.41904 211.66256 211.90508 211.85659 211.57611 211.22363 210.86814
 210.49966 210.22418 210.04669 209.92521 209.86773 210.21324 210.61376 211.01728
 211.82479 213.01731 214.28183 216.07934 218.02186 220.07937 222.18889 224.28641
 226.36092 228.45944 230.57096 232.69147 234.83499 237.02151 239.29202 241.67654
 244.31206 246.57757 248.59409 250.37361 251.80512 252.94264 253.77916 254.10967
 254.16119 253.94970 253.32422 252.28674 250.90725 249.08277 247.00629 244.85380
 242.65932 240.47784 238.31235 236.16587 234.04039 231.92190 229.96242 228.13394
 226.43145 224.91797 223.56249 222.34900 221.24552 220.22003 219.33855 218.49407
 217.75058 216.94510 216.05762 215.43613 214.90065 214.57379 213.80153 215.04578
 216.91722 217.72183 218.06873 218.09399 218.73073 221.40126 226.32358 230.71324
 234.00163 237.03415 240.21857 243.80583 247.62181 251.15089 254.37503 257.50241
 260.42633 263.28796 266.14517 268.88361 271.33197 273.31787 275.32150 277.20145
 278.89426 280.37628 281.63776 282.67548 283.52740 284.25729 284.89377 285.55731
 286.25555 286.82431 287.36621 288.17416
 366.78100 356.34960 345.79620 334.67680 323.09440 311.30300 299.18760 287.00521
 274.73181 262.64341 250.66701 239.98261 230.11921 221.23781 213.43441 206.45101
 200.29961 195.25221 191.84881 189.90541 188.95701 189.03562 189.88522 191.20782
 192.94742 195.05702 197.33462 199.70822 202.16782 204.66242 206.76502 208.62162
 210.26222 211.42182 211.66542 211.90803 211.85963 211.57923 211.22683 210.87143
 210.50303 210.22763 210.05023 209.92883 209.87143 210.21703 210.61763 211.02123
 211.82883 213.02144 214.28604 216.08364 218.02624 220.08384 222.19344 224.29104
 226.36564 228.46424 230.57584 232.69644 234.84004 237.02664 239.29725 241.68185
 244.31745 246.58305 248.59965 250.37925 251.81085 252.94845 253.78505 254.11565
 254.16725 253.95585 253.33045 252.29305 250.91366 249.08926 247.01286 244.86046
 242.66606 240.48466 238.31926 236.17286 234.04746 231.92906 229.96966 228.14126
 226.43886 224.92546 223.57007 222.35667 221.25327 220.22787 219.34647 218.50207
 217.75867 216.95327 216.06587 215.44447 214.90907 214.57741 213.79384 215.03476
 217.01988 217.88524 218.21356 218.17490 218.75519 221.40065 226.29597 230.62257
 233.84941 236.84450 240.06372 243.73106 247.59941 251.13467 254.35184 257.45959
 260.37012 263.22781 266.08911 268.84381 271.31894 273.29276 275.33734 277.20792
 278.86987 280.32458 281.55316 282.54468 283.34955 284.03696 284.62622 285.25659
 285.96957 286.61313 287.21042 288.03226
 366.78100 356.34917 345.79534 334.67551 323.09268 311.30085 299.18502 287.00219
 274.72836 262.63954 250.66271 239.97788 230.11405 221.23222 213.42839 206.44456
 200.29273 195.24490 191.84107 189.89724 188.94841 189.02658 189.87575 191.19792
 192.93709 195.04626 197.32344 199.69661 202.15578 204.64995 206.75212 208.60829
 210.24846 211.40763 211.65080 211.89297 211.84414 211.56331 211.21048 210.85465
 210.48582 210.20999 210.03216 209.91034 209.85251 210.19768 210.59785 211.00102
 211.80819 213.00036 214.26453 216.06170 218.00387 220.06104 222.17021 224.26738
 226.34155 228.43972 230.55089 232.67106 234.81424 237.00041 239.27058 241.65475
 244.28992 246.55509 248.57126 250.35043 251.78160 252.91877 253.75494 254.08511
 254.13628 253.92445 253.29862 252.26079 250.88096 249.05613 246.97931 244.82648
 242.63165 240.44982 238.28399 236.13716 234.01133 231.89250 229.93267 228.10384
 226.40101 224.88718 223.53135 222.31752 221.21369 220.18786 219.30603 218.46121
 217.71738 216.91155 216.02372 215.40189 214.86606 214.55551 213.82181 215.04482
 217.09084 218.00417 218.31969 218.22665 218.76962 221.40041 226.27173 230.54007
 233.71266 236.67979 239.93912 243.68837 247.60483 251.15514 254.35318 257.42062
 260.30649 263.16595 266.03595 268.81033 271.29410 273.31537 275.31158 277.19870
 278.82971 280.26129 281.44678 282.38705 283.15021 283.80240 284.36865 284.98340
 285.69992 286.36285 286.96899 287.79889
 366.78100 356.34866 345.79433 334.67399 323.09065 311.29832 299.18198 286.99864
 274.72430 262.63497 250.65763 239.97229 230.10796 221.22562 213.42128 206.43695
 200.28461 195.23627 191.83194 189.88760 188.93826 189.01592 189.86459 191.18625
 192.92491 195.03358 197.31024 199.68290 202.14157 204.63523 206.73689 208.59256
 210.23222 211.39088 211.63354 211.87521 211.82587 211.54453 211.19120 210.83486
 210.46552 210.18919 210.01085 209.88851 209.83018 210.17484 210.57450 210.97716
 211.78383 212.97549 214.23915 216.03582 217.97748 220.03414 222.14281 224.23947
 226.31313 228.41080 230.52146 232.64112 234.78378 236.96945 239.23911 241.62277
 244.25744 246.52210 248.53776 250.31643 251.74709 252.88375 253.71942 254.04908
 254.09974 253.88740 253.26107 252.22273 250.84239 249.01706 246.93972 244.78638
 242.59105 240.40871 238.24237 236.09504 233.96870 231.84936 229.88902 228.05969
 226.35635 224.84201 223.48568 222.27134 221.16700 220.14067 219.25833 218.41299
 217.66866 216.86232 215.97398 215.35164 214.81531 214.53081 213.85864 215.06543
 217.16216 218.11401 218.41432 218.26045 218.76520 221.38632 226.23703 230.44630
 233.56895 236.51549 239.82156 243.65202 247.61548 251.18910 254.34666 257.38879
 260.26187 263.12238 265.99323 268.76938 271.25003 273.33170 275.24475 277.15237
 278.77478 280.18863 281.34418 282.25653 282.99725 283.62589 284.15237 284.71774
 285.43912 286.11133 286.71942 287.56171
 366.78100 356.34847 345.79395 334.67342 323.08990 311.29737 299.18085 286.99732
 274.72279 262.63327 250.65574 239.97022 230.10569 221.22316 213.41864 206.43411
 200.28159 195.23306 191.82854 189.88401 188.93448 189.01196 189.86043 191.18191
 192.92038 195.02885 197.30533 199.67780 202.13628 204.62975 206.73123 208.58670
 210.22617 211.38465 211.62712 211.86860 211.81907 211.53754 211.18402 210.82749
 210.45797 210.18144 210.00292 209.88039 209.82186 210.16634 210.56581 210.96829
 211.77476 212.96623 214.22971 216.02618 217.96766 220.02413 222.13261 224.22908
 226.30255 228.40003 230.51050 232.62998 234.77245 236.95792 239.22740 241.61087
 244.24535 246.50982 248.52530 250.30377 251.73424 252.87072 253.70619 254.03567
 254.08614 253.87361 253.24709 252.20856 250.82804 249.00251 246.92499 244.77146
 242.57593 240.39341 238.22688 236.07936 233.95283 231.83330 229.87278 228.04325
 226.33973 224.82520 223.46868 222.25415 221.14962 220.12310 219.24057 218.39505
 217.65052 216.84399 215.95547 215.33294 214.79642 214.51833 213.86130 215.09396
 217.25334 218.23877 218.51494 218.29556 218.75398 221.36014 226.18971 230.33740
 233.41196 236.34213 239.69925 243.61272 247.61925 251.21971 254.34631 257.35242
 260.20877 263.07578 265.96634 268.71976 271.19794 273.33127 275.20258 277.07559
 278.68893 280.07632 281.20285 282.09894 282.82712 283.44025 283.97580 284.53079
 285.25122 285.91681 286.52719 287.37970
 366.78100 356.34891 345.79482 334.67473 323.09164 311.29955 299.18346 287.00038
 274.72629 262.63720 250.66011 239.97502 230.11093 221.22884 213.42475 206.44066
 200.28857 195.24048 191.83639 189.89230 188.94321 189.02113 189.87004 191.19195
 192.93086 195.03977 197.31668 199.68959 202.14850 204.64241 206.74432 208.60023
 210.24014 211.39905 211.64196 211.88388 211.83479 211.55370 211.20061 210.84452
 210.47543 210.19934 210.02125 209.89916 209.84107 210.18598 210.58589 210.98880
 211.79571 212.98763 214.25154 216.04845 217.99036 220.04727 222.15618 224.25309
 226.32700 228.42491 230.53582 232.65573 234.79864 236.98455 239.25447 241.63838
 244.27329 246.53820 248.55411 250.33302 251.76393 252.90084 253.73675 254.06666
 254.11757 253.90548 253.27939 252.24130 250.86122 249.03613 246.95904 244.80595
 242.61086 240.42877 238.26268 236.11559 233.98950 231.87041 229.91032 228.08123
 226.37814 224.86405 223.50797 222.29388 221.18979 220.16370 219.28161 218.43652
 217.69243 216.88634 215.99825 215.37616 214.84007 214.54236 213.83896 215.11240
 217.35086 218.39062 218.65202 218.36548 218.75604 221.33205 226.13351 230.21324
 233.23784 236.15802 239.57008 243.55125 247.61859 251.24512 254.32770 257.29407
 260.15173 263.04703 265.95142 268.68234 271.16162 273.28769 275.17059 276.98621
 278.58472 279.93311 281.02820 281.91519 282.64294 283.25406 283.82623 284.38870
 285.10495 285.73874 286.34174 287.20306
 366.78100 356.34909 345.79519 334.67528 323.09237 311.30046 299.18456 287.00165
 274.72774 262.63883 250.66193 239.97702 230.11311 221.23121 213.42730 206.44339
 200.29148 195.24358 191.83967 189.89576 188.94686 189.02495 189.87404 191.19613
 192.93523 195.04432 197.32141 199.69450 202.15360 204.64769 206.74978 208.60588
 210.24597 211.40506 211.64815 211.89025 211.84134 211.56043 211.20753 210.85162
 210.48271 210.20680 210.02890 209.90699 209.84908 210.19417 210.59427 210.99736
 211.80445 212.99655 214.26064 216.05773 217.99982 220.05692 222.16601 224.26310
 226.33719 228.43529 230.54638 232.66647 234.80957 236.99566 239.26575 241.64984
 244.28494 246.55003 248.56612 250.34522 251.77631 252.91340 253.74949 254.07959
 254.13068 253.91877 253.29286 252.25496 250.87505 249.05014 246.97324 244.82033
 242.62542 240.44351 238.27761 236.13070 234.00479 231.88588 229.92598 228.09707
 226.39416 224.88026 223.52435 222.31044 221.20653 220.18063 219.29872 218.45381
 217.70991 216.90400 216.01609 215.39418 214.85828 214.55959 213.85391 215.09099
 217.40567 218.53920 218.80377 218.47948 218.79877 221.32098 226.07684 230.08099
 233.05685 235.97174 239.43896 243.47627 247.63493 251.26849 254.27863 257.23105
 260.11523 263.03018 265.91959 268.63126 271.05908 273.28830 275.14139 276.92453
 278.50269 279.82599 280.90790 281.79608 282.52420 283.13135 283.67282 284.32504
 285.08014 285.74683 286.35559 287.20242
 366.78100 356.34821 345.79342 334.67263 323.08884 311.29605 299.17926 286.99547
 274.72068 262.63088 250.65309 239.96730 230.10251 221.21972 213.41493 206.43014
 200.27735 195.22856 191.82377 189.87898 188.92919 189.00640 189.85461 191.17582
 192.91403 195.02224 197.29845 199.67065 202.12886 204.62207 206.72328 208.57849
 210.21770 211.37591 211.61812 211.85933 211.80954 211.52775 211.17396 210.81717
 210.44738 210.17059 209.99180 209.86901 209.81022 210.15442 210.55363 210.95584
 211.76205 212.95326 214.21647 216.01268 217.95389 220.01010 222.11831 224.21452
 226.28773 228.38494 230.49515 232.61436 234.75657 236.94178 239.21098 241.59419
 244.22840 246.49261 248.50782 250.28603 251.71624 252.85245 253.68766 254.01687
 254.06708 253.85429 253.22750 252.18871 250.80792 248.98213 246.90434 244.75055
 242.55475 240.37196 238.20517 236.05738 233.93059 231.81080 229.85001 228.02022
 226.31643 224.80164 223.44485 222.23006 221.12527 220.09848 219.21569 218.36990
 217.62511 216.81831 215.92952 215.30673 214.76994 214.52087 213.93240 215.07872
 217.39920 218.61769 218.92400 218.58118 218.84421 221.32306 226.03691 229.97455
 232.90416 235.81792 239.33502 243.42857 247.69347 251.32916 254.24464 257.18826
 260.07965 262.99872 265.88641 268.58875 270.99634 273.28415 275.17200 276.93246
 278.47125 279.76163 280.81833 281.68497 282.38174 282.98608 283.68683 284.42441
 285.05624 285.41968 285.97525 286.81464
 366.78100 356.34715 345.79131 334.66946 323.08461 311.29077 299.17292 286.98808
 274.71223 262.62138 250.64254 239.95569 230.08984 221.20600 213.40015 206.41431
 200.26046 195.21061 191.80477 189.85892 188.90807 188.98423 189.83138 191.15153
 192.88869 194.99584 197.27100 199.64215 202.09930 204.59146 206.69161 208.54576
 210.18392 211.34107 211.58223 211.82238 211.77153 211.48869 211.13384 210.77599
 210.40515 210.12730 209.94745 209.82361 209.76376 210.10692 210.50507 210.90622
 211.71138 212.90153 214.16368 215.95884 217.89899 219.95414 222.06130 224.15645
 226.22861 228.32476 230.43391 232.55207 234.69322 236.87737 239.14553 241.52768
 244.16084 246.42399 248.43814 250.21530 251.64445 252.77960 253.61376 253.94191
 253.99106 253.77722 253.14937 252.10953 250.72768 248.90083 246.82199 244.66714
 242.47029 240.28645 238.11860 235.96976 233.84191 231.72106 229.75922 227.92837
 226.22352 224.70768 223.34983 222.13398 221.02814 220.00029 219.11645 218.26960
 217.52375 216.71591 215.82606 215.20221 214.66437 214.47385 214.02370 215.10077
 217.39970 218.63646 218.94066 218.61708 218.87120 221.32809 226.00685 229.88689
 232.78392 235.70354 239.26688 243.42046 247.75737 251.40161 254.22966 257.15436
 260.03970 262.95551 265.86554 268.57104 270.98703 273.28433 275.24344 276.97452
 278.45660 279.69333 280.70798 281.54120 282.20822 282.81540 283.61713 284.42242
 284.99875 285.17487 285.57809 286.41577
 366.78100 356.34639 345.78978 334.66717 323.08156 311.28695 299.16834 286.98273
 274.70611 262.61450 250.63489 239.94728 230.08067 221.19606 213.38945 206.40284
 200.24823 195.19762 191.79101 189.84440 188.89279 188.96818 189.81457 191.13396
 192.87034 194.97673 197.25112 199.62151 202.07790 204.56929 206.66868 208.52207
 210.15946 211.31585 211.55624 211.79563 211.74402 211.46041 211.10480 210.74619
 210.37457 210.09596 209.91535 209.79074 209.73013 210.07252 210.46991 210.87030
 211.67469 212.86408 214.12547 215.91986 217.85925 219.91364 222.02003 224.11442
 226.18580 228.28119 230.38958 232.50697 234.64736 236.83075 239.09814 241.47953
 244.11192 246.37431 248.38770 250.16409 251.59248 252.72687 253.56026 253.88764
 253.93603 253.72142 253.09281 252.05220 250.66959 248.84198 246.76237 244.60676
 242.40915 240.22454 238.05593 235.90632 233.77771 231.65610 229.69349 227.86187
 226.15626 224.63965 223.28104 222.06443 220.95782 219.92921 219.04460 218.19699
 217.45038 216.64177 215.75116 215.12655 214.58794 214.44518 214.10789 215.12515
 217.41756 218.70178 218.96786 218.57388 218.81357 221.29169 225.96346 229.80017
 232.66405 235.59875 239.21327 243.43835 247.80330 251.43675 254.21004 257.12555
 260.02216 262.94174 265.85394 268.56241 270.99539 273.26788 275.27023 276.97900
 278.41422 279.61261 280.59558 281.41208 282.07333 282.67288 283.49933 284.34009
 284.91626 285.11197 285.68243 286.54453
 366.78100 356.34497 345.78694 334.66290 323.07587 311.27984 299.15981 286.97278
 274.69475 262.60171 250.62068 239.93165 230.06362 221.17759 213.36955 206.38152
 200.22549 195.17346 191.76543 189.81740 188.86436 188.93833 189.78330 191.10127
 192.83624 194.94120 197.21417 199.58314 202.03811 204.52808 206.62604 208.47801
 210.11398 211.26895 211.50792 211.74589 211.69285 211.40782 211.05079 210.69076
 210.31773 210.03769 209.85566 209.72963 209.66760 210.00857 210.40454 210.80350
 211.60647 212.79444 214.05441 215.84738 217.78534 219.83831 221.94328 224.03625
 226.10622 228.20019 230.30715 232.42312 234.56209 236.74406 239.01003 241.38999
 244.02096 246.28193 248.29390 250.06887 251.49583 252.62880 253.46077 253.78674
 253.83371 253.61768 252.98764 251.94561 250.56158 248.73255 246.65152 244.49448
 242.29545 240.10942 237.93939 235.78836 233.65833 231.53529 229.57126 227.73823
 226.03120 224.51317 223.15313 221.93510 220.82707 219.79704 218.91101 218.06198
 217.31394 216.50391 215.61188 214.98585 214.44582 214.38016 214.22504 215.15128
 217.38496 218.77670 219.02956 218.54289 218.74405 221.24103 225.91090 229.70392
 232.53583 235.49498 239.16490 243.46510 247.82306 251.42432 254.18539 257.10330
 260.03024 262.96201 265.85391 268.55585 271.00067 273.25006 275.23831 276.93597
 278.34152 279.51450 280.47687 281.28751 281.94781 282.53787 283.38803 284.24683
 284.85468 285.07590 285.66101 286.52353
 366.78100 356.34307 345.78314 334.65721 323.06828 311.27035 299.14842 286.95949
 274.67956 262.58463 250.60170 239.91077 230.04084 221.15291 213.34298 206.35304
 200.19511 195.14118 191.73125 189.78132 188.82639 188.89846 189.74153 191.05760
 192.79067 194.89374 197.16481 199.53188 201.98495 204.47302 206.56909 208.41916
 210.05323 211.20630 211.44337 211.67944 211.62451 211.33758 210.97865 210.61672
 210.24179 209.95986 209.77593 209.64800 209.58407 209.92313 210.31720 210.71427
 211.51534 212.70141 213.95948 215.75055 217.68662 219.73769 221.84076 223.93183
 225.99990 228.09197 230.19704 232.31111 234.44818 236.62825 238.89232 241.27039
 243.89946 246.15853 248.16860 249.94167 251.36674 252.49781 253.32788 253.65195
 253.69702 253.47909 252.84715 251.80322 250.41729 248.58636 246.50343 244.34450
 242.14357 239.95564 237.78371 235.63078 233.49885 231.37392 229.40799 227.57306
 225.86413 224.34420 222.98227 221.76234 220.65241 219.62048 218.73255 217.88162
 217.13169 216.31976 215.42583 214.79790 214.25597 214.28638 214.35826 215.20636
 217.30551 218.80688 219.07861 218.51932 218.69232 221.20012 225.86583 229.61804
 232.42047 235.40736 239.13402 243.49998 247.83731 251.40840 254.17621 257.09302
 260.05301 263.00632 265.88040 268.55600 270.99359 273.22525 275.18536 276.88141
 278.27838 279.42682 280.36667 281.16522 281.81009 282.41205 283.31369 284.16959
 284.56940 284.98956 285.58585 286.44882
 366.78100 356.34167 345.78034 334.65302 323.06269 311.26336 299.14003 286.94970
 274.66838 262.57205 250.58772 239.89539 230.02407 221.13474 213.32341 206.33208
 200.17275 195.11743 191.70610 189.75477 188.79844 188.86911 189.71079 191.02546
 192.75713 194.85880 197.12847 199.49415 201.94582 204.43249 206.52716 208.37584
 210.00851 211.16018 211.39585 211.63052 211.57420 211.28587 210.92554 210.56221
 210.18588 209.90256 209.71723 209.58790 209.52257 209.86024 210.25292 210.64859
 211.44826 212.63293 213.88961 215.67928 217.61395 219.66362 221.76529 223.85497
 225.92164 228.01231 230.11598 232.22865 234.36433 236.54300 238.80567 241.18234
 243.81001 246.06769 248.07636 249.84803 251.27170 252.40138 253.23005 253.55272
 253.59639 253.37706 252.74374 251.69841 250.31108 248.47875 246.39442 244.23410
 242.03177 239.84244 237.66911 235.51479 233.38146 231.25513 229.28780 227.45147
 225.74115 224.21982 222.85649 221.63516 220.52383 219.49051 218.60118 217.74885
 216.99752 216.18419 215.28887 214.65954 214.11621 214.21899 214.46184 215.28105
 217.22487 218.80011 219.11253 218.48068 218.62529 221.15161 225.81735 229.52873
 232.30846 235.33047 239.11180 243.53566 247.84848 251.40781 254.21753 257.13025
 260.12177 263.07773 265.93005 268.55417 270.96735 273.18109 275.13669 276.84103
 278.23398 279.35840 280.27252 281.04807 281.66318 282.26538 283.16470 283.99588
 284.29999 284.86792 285.47583 286.34662
 366.78100 356.34164 345.78028 334.65292 323.06256 311.26320 299.13984 286.94948
 274.66812 262.57176 250.58740 239.89504 230.02368 221.13432 213.32296 206.33160
 200.17224 195.11688 191.70552 189.75416 188.79780 188.86844 189.71008 191.02473
 192.75637 194.85801 197.12765 199.49329 201.94493 204.43157 206.52621 208.37485
 210.00749 211.15913 211.39477 211.62941 211.57305 211.28469 210.92433 210.56097
 210.18461 209.90125 209.71589 209.58653 209.52117 209.85881 210.25145 210.64709
 211.44673 212.63137 213.88801 215.67765 217.61229 219.66193 221.76357 223.85321
 225.91985 228.01049 230.11413 232.22677 234.36241 236.54105 238.80369 241.18033
 243.80797 246.06561 248.07425 249.84589 251.26953 252.39918 253.22782 253.55046
 253.59410 253.37474 252.74138 251.69602 250.30866 248.47630 246.39194 244.23158
 242.02922 239.83986 237.66650 235.51214 233.37878 231.25242 229.28506 227.44870
 225.73834 224.21698 222.85362 221.63226 220.52090 219.48754 218.59818 217.74582
 216.99446 216.18110 215.28574 214.65638 214.11302 214.22810 214.49997 215.36552
 217.19235 218.77577 219.14531 218.45871 218.54610 221.07973 225.74704 229.41060
 232.16936 235.23045 239.09035 243.56255 247.84915 251.40250 254.28226 257.20447
 260.19855 263.14157 265.95645 268.53018 270.92194 273.13733 275.11722 276.83472
 278.20950 279.30402 280.17316 280.90637 281.47937 282.08307 283.03076 283.84210
 284.21414 284.89600 285.52179 286.38831
 366.78100 356.34285 345.78270 334.65654 323.06739 311.26924 299.14709 286.95794
 274.67778 262.58263 250.59948 239.90833 230.03818 221.15002 213.33987 206.34972
 200.19157 195.13742 191.72726 189.77711 188.82196 188.89381 189.73665 191.05250
 192.78535 194.88820 197.15905 199.52589 201.97874 204.46659 206.56244 208.41229
 210.04613 211.19898 211.43583 211.67168 211.61653 211.32937 210.97022 210.60807
 210.23292 209.95077 209.76661 209.63846 209.57431 209.91316 210.30701 210.70385
 211.50470 212.69055 213.94840 215.73925 217.67509 219.72594 221.82879 223.91964
 225.98749 228.07933 230.18418 232.29803 234.43488 236.61473 238.87857 241.25642
 243.88527 246.14412 248.15396 249.92681 251.35166 252.48251 253.31236 253.63620
 253.68105 253.46290 252.83075 251.78660 250.40044 248.56929 246.48614 244.32699
 242.12584 239.93768 237.76553 235.61238 233.48023 231.35508 229.38892 227.55377
 225.84462 224.32447 222.96232 221.74216 220.63201 219.59986 218.71171 217.86056
 217.11040 216.29825 215.40410 214.77595 214.23380 214.30769 214.48227 215.41422
 217.27617 218.80151 219.14632 218.39723 218.45097 220.99620 225.66034 229.26640
 232.00824 235.12263 239.07730 243.58867 247.84116 251.37674 254.33662 257.28680
 260.27679 263.20337 265.97104 268.49152 270.85645 273.07785 275.07297 276.80301
 278.15036 279.21466 280.06296 280.78967 281.35474 282.02899 283.00302 283.73425
 283.89285 284.45160 285.03796 285.80429
 366.78100 356.34195 345.78089 334.65384 323.06379 311.26473 299.14168 286.95163
 274.67057 262.57452 250.59047 239.89841 230.02736 221.13831 213.32725 206.33620
 200.17715 195.12209 191.71104 189.75999 188.80393 188.87488 189.71683 191.03177
 192.76372 194.86567 197.13561 199.50156 201.95351 204.44045 206.53540 208.38435
 210.01729 211.16924 211.40518 211.64013 211.58408 211.29602 210.93597 210.57292
 210.19686 209.91381 209.72876 209.59970 209.53465 209.87260 210.26554 210.66149
 211.46144 212.64638 213.90333 215.69328 217.62822 219.67817 221.78012 223.87006
 225.93701 228.02796 230.13190 232.24485 234.38080 236.55974 238.82269 241.19964
 243.82758 246.08553 248.09448 249.86642 251.29037 252.42032 253.24926 253.57221
 253.61616 253.39710 252.76405 251.71900 250.33194 248.49989 246.41584 244.25578
 242.05373 239.86468 237.69162 235.53757 233.40452 231.27846 229.31141 227.47536
 225.76530 224.24425 222.88120 221.66014 220.54909 219.51604 218.62698 217.77493
 217.02388 216.21082 215.31577 214.68671 214.14366 214.28018 214.60274 215.40042
 217.23099 218.81186 219.12881 218.36211 218.39594 220.93564 225.58769 229.13802
 231.86838 235.03777 239.08061 243.62511 247.84200 251.35524 254.38658 257.39319
 260.37354 263.25916 265.98605 268.46851 270.79187 272.99112 274.95071 276.67548
 277.97525 279.00296 279.85233 280.58743 281.21078 281.96698 282.91226 283.50238
 283.61057 284.12070 284.70920 285.48541
 366.78100 356.33749 345.77199 334.64048 323.04597 311.24247 299.11496 286.92046
 274.63495 262.53444 250.54594 239.84943 229.97392 221.08042 213.26491 206.26940
 200.10590 195.04639 191.63089 189.67538 188.71487 188.78137 189.61886 190.92935
 192.65685 194.75434 197.01983 199.38133 201.82882 204.31132 206.40181 208.24630
 209.87480 211.02229 211.25378 211.48428 211.42377 211.13126 210.76676 210.39925
 210.01875 209.73124 209.54173 209.40823 209.33872 209.67221 210.06071 210.45220
 211.24769 212.42819 213.68068 215.46618 217.39667 219.44216 221.53966 223.62515
 225.68764 227.77414 229.87363 231.98212 234.11362 236.28811 238.54661 240.91910
 243.54259 245.79609 247.80058 249.56807 250.98757 252.11306 252.93755 253.25605
 253.29554 253.07204 252.43453 251.38502 249.99352 248.15701 246.06850 243.90400
 241.69749 239.50399 237.32648 235.16797 233.03047 230.89996 228.92845 227.08795
 225.37344 223.84793 222.48043 221.25492 220.13942 219.10191 218.20840 217.35190
 216.59639 215.77888 214.87938 214.24587 213.69836 214.06133 214.91885 215.47879
 216.82756 218.57658 219.11147 218.50276 218.51491 220.97289 225.58089 229.09578
 231.80276 234.99831 239.10226 243.67874 247.85872 251.35194 254.45288 257.48627
 260.41949 263.31525 266.02466 268.48483 270.78009 272.93933 274.85977 276.60178
 277.88565 278.90900 279.76053 280.49103 281.07635 281.83795 282.80075 283.40912
 283.58295 283.99557 284.55435 285.32968
 366.78100 356.33724 345.77148 334.63973 323.04497 311.24121 299.11345 286.91869
 274.63293 262.53218 250.54342 239.84666 229.97090 221.07714 213.26139 206.26563
 200.10187 195.04211 191.62635 189.67060 188.70984 188.77608 189.61332 190.92356
 192.65080 194.74805 197.01329 199.37453 201.82177 204.30401 206.39426 208.23850
 209.86674 211.01398 211.24522 211.47547 211.41471 211.12195 210.75719 210.38943
 210.00867 209.72092 209.53116 209.39740 209.32764 209.66088 210.04913 210.44037
 211.23561 212.41585 213.66809 215.45334 217.38358 219.42882 221.52606 223.61130
 225.67354 227.75979 229.85903 231.96727 234.09851 236.27275 238.53100 240.90324
 243.52648 245.77972 247.78396 249.55121 250.97045 252.09569 252.91993 253.23817
 253.27741 253.05366 252.41590 251.36614 249.97438 248.13762 246.04887 243.88411
 241.67735 239.48359 237.30583 235.14708 233.00932 230.87856 228.90680 227.06604
 225.35128 223.82553 222.45777 221.23201 220.11625 219.07849 218.18474 217.32798
 216.57222 215.75446 214.85470 214.22095 213.67319 214.05481 214.95639 215.70895
 216.66132 218.31398 219.02740 218.57733 218.62785 221.01762 225.56343 229.03273
 231.73383 234.97702 239.12521 243.70718 247.84734 251.33405 254.47533 257.51633
 260.44485 263.31970 266.03711 268.49966 270.79788 272.98120 274.84485 276.62085
 277.99301 279.05109 279.88773 280.63077 281.36374 282.18680 283.01141 283.47058
 283.78043 284.34128 284.96982 285.88098
 366.78100 356.34220 345.78140 334.65460 323.06480 311.26600 299.14321 286.95341
 274.67261 262.57681 250.59301 239.90121 230.03041 221.14161 213.33081 206.34001
 200.18122 195.12642 191.71562 189.76482 188.80902 188.88022 189.72242 191.03762
 192.76982 194.87202 197.14223 199.50843 201.96063 204.44783 206.54303 208.39223
 210.02543 211.17763 211.41383 211.64903 211.59324 211.30544 210.94564 210.58284
 210.20704 209.92424 209.73944 209.61064 209.54584 209.88404 210.27725 210.67345
 211.47365 212.65885 213.91605 215.70625 217.64145 219.69165 221.79385 223.88405
 225.95125 228.04246 230.14666 232.25986 234.39606 236.57526 238.83846 241.21566
 243.84386 246.10206 248.11126 249.88347 251.30767 252.43787 253.26707 253.59027
 253.63447 253.41567 252.78287 251.73807 250.35127 248.51948 246.43568 244.27588
 242.07408 239.88528 237.71248 235.55868 233.42588 231.30008 229.33328 227.49749
 225.78769 224.26689 222.90409 221.68329 220.57249 219.53969 218.65089 217.79909
 217.04829 216.23549 215.34070 214.71190 214.16910 214.33763 214.73578 215.78769
 216.89198 218.37273 218.98582 218.41544 218.45573 220.88199 225.44240 228.86606
 231.54260 234.83318 239.09048 243.73161 247.82198 251.26834 254.43011 257.50729
 260.46222 263.32501 266.03894 268.50116 270.80963 272.99063 274.88531 276.63821
 278.07141 279.23080 280.15768 280.96616 281.77814 282.52762 283.12823 283.63214
 284.09583 284.62970 285.15494 285.82428
 366.78100 356.34486 345.78671 334.66257 323.07542 311.27928 299.15913 286.97199
 274.69384 262.60070 250.61955 239.93041 230.06226 221.17612 213.36798 206.37983
 200.22369 195.17154 191.76340 189.81525 188.86211 188.93596 189.78082 191.09867
 192.83353 194.93838 197.21124 199.58010 202.03495 204.52481 206.62266 208.47452
 210.11037 211.26523 211.50408 211.74194 211.68879 211.40365 211.04651 210.68636
 210.31322 210.03307 209.85093 209.72478 209.66264 210.00349 210.39935 210.79820
 211.60106 212.78891 214.04877 215.84163 217.77948 219.83234 221.93719 224.03005
 226.09990 228.19376 230.30061 232.41647 234.55532 236.73718 239.00303 241.38289
 244.01375 246.27460 248.28646 250.06131 251.48817 252.62102 253.45288 253.77873
 253.82559 253.60944 252.97930 251.93715 250.55301 248.72387 246.64272 244.48558
 242.28643 240.10029 237.93014 235.77900 233.64885 231.52571 229.56156 227.72842
 226.02128 224.50313 223.14299 221.92484 220.81670 219.78655 218.90041 218.05126
 217.30312 216.49297 215.60083 214.97468 214.43454 214.51932 214.73482 215.69151
 216.98035 218.36501 218.93155 218.23393 218.24506 220.71172 225.28349 228.81265
 231.37881 234.78488 239.09923 243.71931 247.77727 251.23087 254.43188 257.54123
 260.52176 263.36981 266.04269 268.49268 270.79651 272.91531 274.87585 276.65250
 278.10696 279.29141 280.28043 281.16489 282.05948 282.71982 283.28635 283.93536
 284.58121 285.15637 285.65881 286.29910
 366.78100 356.34259 345.78218 334.65576 323.06635 311.26794 299.14553 286.95611
 274.67570 262.58029 250.59688 239.90547 230.03505 221.14664 213.33623 206.34582
 200.18740 195.13299 191.72258 189.77217 188.81676 188.88834 189.73093 191.04652
 192.77911 194.88169 197.15228 199.51887 201.97146 204.45905 206.55463 208.40422
 210.03781 211.19040 211.42698 211.66257 211.60716 211.31975 210.96034 210.59792
 210.22251 209.94010 209.75569 209.62727 209.56286 209.90145 210.29504 210.69163
 211.49221 212.67780 213.93539 215.72598 217.66157 219.71215 221.81474 223.90533
 225.97292 228.06450 230.16909 232.28268 234.41927 236.59886 238.86244 241.24003
 243.86862 246.12721 248.13679 249.90938 251.33397 252.46456 253.29415 253.61773
 253.66232 253.44391 252.81150 251.76708 250.38067 248.54926 246.46585 244.30644
 242.10502 239.91661 237.74420 235.59079 233.45837 231.33296 229.36655 227.53114
 225.82173 224.30131 222.93890 221.71849 220.60808 219.57566 218.68725 217.83584
 217.08543 216.27302 215.37860 214.75019 214.20778 214.45039 215.02898 215.60455
 216.81482 218.13963 218.75107 218.30737 218.54764 220.87065 225.22063 228.84567
 231.45813 234.91362 239.21082 243.73439 247.75179 251.22095 254.45721 257.58194
 260.56870 263.41019 266.05853 268.46646 270.71887 272.76440 274.68375 276.53540
 278.03790 279.18484 280.25604 281.32532 282.16754 282.96524 283.73273 284.42801
 285.05334 285.61023 286.09668 286.71661
 366.78100 356.34006 345.77711 334.64817 323.05623 311.25529 299.13034 286.93840
 274.65546 262.55752 250.57157 239.87763 230.00469 221.11374 213.30080 206.30786
 200.14692 195.08997 191.67703 189.72409 188.76615 188.83520 189.67526 190.98832
 192.71837 194.81843 197.08649 199.45055 201.90060 204.38566 206.47872 208.32578
 209.95683 211.10689 211.34095 211.57400 211.51606 211.22612 210.86418 210.49923
 210.12129 209.83635 209.64941 209.51846 209.45152 209.78758 210.17863 210.57269
 211.37075 212.55381 213.80886 215.59692 217.52998 219.57804 221.67809 223.76615
 225.83121 227.92026 230.02232 232.13338 234.26744 236.44449 238.70555 241.08061
 243.70667 245.96272 247.96978 249.73984 251.16189 252.28995 253.11701 253.43807
 253.48012 253.25918 252.62424 251.57730 250.18835 248.35441 246.26847 244.10652
 241.90258 239.71164 237.53670 235.38075 233.24581 231.11787 229.14893 227.31098
 225.59904 224.07610 222.71115 221.48821 220.37527 219.34033 218.44938 217.59544
 216.84250 216.02756 215.13061 214.49967 213.95473 214.36725 215.28223 215.64607
 216.62300 217.98048 218.72473 218.47917 218.84799 221.10286 225.37341 228.87425
 231.50650 234.93761 239.26190 243.80577 247.76706 251.20636 254.46390 257.61029
 260.61044 263.45142 266.07910 268.48007 270.66373 272.61902 274.38779 276.24432
 277.71173 279.02432 280.29282 281.58105 282.70172 283.69327 284.59787 285.41739
 286.15445 286.81082 287.38422 288.11490
 366.78100 356.33837 345.77374 334.64311 323.04948 311.24685 299.12022 286.92659
 274.64196 262.54233 250.55470 239.85907 229.98444 221.09182 213.27719 206.28256
 200.11993 195.06130 191.64667 189.69204 188.73241 188.79978 189.63815 190.94952
 192.67789 194.77626 197.04263 199.40500 201.85337 204.33674 206.42811 208.27348
 209.90285 211.05122 211.28359 211.51496 211.45533 211.16371 210.80008 210.43345
 210.05382 209.76719 209.57856 209.44593 209.37730 209.71167 210.10104 210.49341
 211.28978 212.47115 213.72452 215.51089 217.44226 219.48863 221.58700 223.67337
 225.73674 227.82411 229.92448 232.03385 234.16622 236.34160 238.60097 240.97434
 243.59871 245.85308 247.85845 249.62682 251.04719 252.17356 252.99893 253.31830
 253.35867 253.13604 252.49941 251.45078 250.06015 248.22452 246.13689 243.97326
 241.76763 239.57500 237.39837 235.24074 233.10411 230.97449 229.00386 227.16423
 225.45060 223.92597 222.55934 221.33471 220.22008 219.18345 218.29082 217.43519
 216.68056 215.86393 214.96530 214.33267 213.78604 214.32855 215.46320 215.69606
 216.42065 217.85419 218.76950 218.57985 218.85608 221.09940 225.52003 228.90366
 231.57388 235.00206 239.26593 243.70674 247.66420 251.16776 254.46887 257.64755
 260.66870 263.51379 266.15015 268.55353 270.69254 272.52496 274.14102 275.91556
 277.70306 279.61142 281.30859 282.79883 284.08850 285.22952 286.27054 287.21362
 288.06183 288.81714 289.47699 290.31787
 366.78100 356.33659 345.77018 334.63777 323.04236 311.23795 299.10954 286.91412
 274.62771 262.52630 250.53689 239.83948 229.96307 221.06866 213.25225 206.25584
 200.09143 195.03102 191.61461 189.65820 188.69679 188.76237 189.59896 190.90855
 192.63514 194.73173 196.99632 199.35691 201.80350 204.28509 206.37468 208.21827
 209.84586 210.99245 211.22303 211.45262 211.39121 211.09780 210.73239 210.36398
 209.98257 209.69416 209.50375 209.36934 209.29893 209.63152 210.01911 210.40969
 211.20428 212.38387 213.63546 215.42005 217.34964 219.39423 221.49082 223.57541
 225.63700 227.72259 229.82118 231.92877 234.05936 236.23294 238.49053 240.86212
 243.48471 245.73730 247.74089 249.50748 250.92607 252.05066 252.87425 253.19184
 253.23043 253.00602 252.36760 251.31719 249.92478 248.08737 245.99796 243.83255
 241.62514 239.43073 237.25232 235.09291 232.95450 230.82309 228.85068 227.00927
 225.29385 223.76744 222.39903 221.17262 220.05621 219.01780 218.12339 217.26598
 216.50957 215.69116 214.79075 214.15634 213.60793 214.28610 215.63515 215.70490
 216.20699 217.68900 218.79649 218.67021 218.89862 220.93976 225.42372 228.85564
 231.54286 234.98738 239.27916 243.72011 247.65532 251.16435 254.50693 257.72180
 260.76593 263.62711 266.28082 268.70236 270.82144 272.60831 274.13834 276.08112
 278.29813 280.27908 281.99329 283.49847 284.80109 285.95358 287.00504 287.95758
 288.81430 289.57721 290.24368 291.09302
 366.78100 356.33754 345.77208 334.64061 323.04615 311.24269 299.11523 286.92077
 274.63530 262.53484 250.54638 239.84992 229.97445 221.08099 213.26553 206.27007
 200.10661 195.04714 191.63168 189.67622 188.71576 188.78230 189.61983 190.93037
 192.65791 194.75545 197.02099 199.38252 201.83006 204.31260 206.40314 208.24767
 209.87621 211.02375 211.25529 211.48583 211.42536 211.13290 210.76844 210.40098
 210.02052 209.73305 209.54359 209.41013 209.34067 209.67421 210.06274 210.45428
 211.24982 212.43036 213.68289 215.46843 217.39897 219.44451 221.54205 223.62758
 225.69012 227.77666 229.87620 231.98474 234.11627 236.29081 238.54935 240.92189
 243.54543 245.79896 247.80350 249.57104 250.99058 252.11611 252.94065 253.25919
 253.29873 253.07527 252.43780 251.38834 249.99688 248.16042 246.07196 243.90749
 241.70103 239.50757 237.33011 235.17165 233.03418 230.90372 228.93226 227.09180
 225.37733 223.85187 222.48441 221.25895 220.14349 219.10602 218.21256 217.35610
 216.60064 215.78318 214.88371 214.25025 213.70279 214.35538 215.69415 215.78537
 216.03784 217.40466 218.69006 218.70882 218.87915 221.01558 225.40405 228.85774
 231.54752 235.01283 239.31618 243.75371 247.69141 251.20700 254.56154 257.79846
 260.84772 263.71289 266.38406 268.80560 270.97433 272.80136 274.28134 276.25934
 278.31964 280.23843 281.89886 283.35681 284.61856 285.73486 286.75333 287.67599
 288.50583 289.24481 289.89035 290.71304
 366.78100 356.33999 345.77697 334.64796 323.05595 311.25493 299.12992 286.93791
 274.65489 262.55688 250.57086 239.87685 230.00384 221.11282 213.29981 206.30680
 200.14578 195.08877 191.67576 189.72274 188.76473 188.83372 189.67370 190.98669
 192.71668 194.81666 197.08465 199.44863 201.89862 204.38361 206.47659 208.32358
 209.95457 211.10455 211.33854 211.57153 211.51351 211.22350 210.86149 210.49647
 210.11846 209.83345 209.64643 209.51542 209.44840 209.78439 210.17538 210.56936
 211.36735 212.55034 213.80532 215.59331 217.52630 219.57428 221.67427 223.76226
 225.82724 227.91623 230.01822 232.12920 234.26319 236.44017 238.70116 241.07615
 243.70213 245.95812 247.96511 249.73509 251.15708 252.28507 253.11205 253.43304
 253.47503 253.25401 252.61900 251.57199 250.18297 248.34896 246.26294 244.10093
 241.89692 239.70590 237.53089 235.37488 233.23986 231.11185 229.14284 227.30482
 225.59281 224.06980 222.70478 221.48177 220.36876 219.33374 218.44273 217.58871
 216.83570 216.02069 215.12367 214.49266 213.94765 214.48857 215.67609 215.94328
 216.01070 217.13762 218.41615 218.62434 218.98904 221.14993 225.38535 228.83786
 231.53717 235.03847 239.33224 243.74617 247.68587 251.21346 254.58873 257.83459
 260.87671 263.72916 266.38071 268.76196 270.86465 272.68500 274.33737 276.22675
 277.84183 279.54022 281.04651 282.36911 283.51373 284.52643 285.45035 286.28735
 287.04016 287.71054 288.29614 289.04248
 366.78100 356.33941 345.77582 334.64624 323.05365 311.25206 299.12647 286.93388
 274.65030 262.55171 250.56512 239.87053 229.99695 221.10536 213.29177 206.29818
 200.13659 195.07901 191.66542 189.71183 188.75324 188.82165 189.66107 190.97348
 192.70289 194.80230 197.06972 199.43313 201.88254 204.36695 206.45936 208.30578
 209.93619 211.08560 211.31901 211.55142 211.49284 211.20225 210.83966 210.47407
 210.09549 209.80990 209.62231 209.49072 209.42313 209.75855 210.14896 210.54237
 211.33978 212.52219 213.77661 215.56402 217.49643 219.54384 221.64326 223.73067
 225.79508 227.88349 229.98490 232.09532 234.22873 236.40514 238.66555 241.03996
 243.66538 245.92079 247.92720 249.69661 251.11802 252.24544 253.07185 253.39226
 253.43367 253.21209 252.57650 251.52891 250.13932 248.30473 246.21815 244.05556
 241.85097 239.65938 237.48379 235.32721 233.19162 231.06303 229.09344 227.25486
 225.54227 224.01868 222.65309 221.42950 220.31592 219.28033 218.38874 217.53415
 216.78056 215.96498 215.06739 214.43580 213.89021 214.49319 215.79031 215.94835
 215.94684 217.11562 218.40962 218.60194 218.94443 221.06953 225.32265 228.74513
 231.45511 235.00566 239.33047 243.73727 247.66658 251.20477 254.58981 257.85242
 260.90222 263.76089 266.41098 268.72174 270.79581 272.64169 274.22000 275.93329
 277.48877 279.32547 280.93991 282.35751 283.58432 284.66974 285.66003 286.55716
 287.36401 288.08252 288.71021 289.51010
 366.78100 356.33746 345.77192 334.64038 323.04584 311.24230 299.11476 286.92022
 274.63469 262.53415 250.54561 239.84907 229.97353 221.07999 213.26445 206.26891
 200.10537 195.04583 191.63029 189.67475 188.71421 188.78067 189.61814 190.92860
 192.65606 194.75352 197.01898 199.38044 201.82790 204.31036 206.40082 208.24528
 209.87374 211.02120 211.25266 211.48312 211.42258 211.13005 210.76551 210.39797
 210.01743 209.72989 209.54035 209.40681 209.33727 209.67073 210.05919 210.45065
 211.24611 212.42657 213.67903 215.46449 217.39496 219.44042 221.53788 223.62334
 225.68580 227.77226 229.87172 231.98018 234.11164 236.28610 238.54456 240.91702
 243.54048 245.79394 247.79841 249.56587 250.98533 252.11079 252.93525 253.25371
 253.29317 253.06963 252.43209 251.38255 249.99101 248.15447 246.06593 243.90139
 241.69485 239.50132 237.32378 235.16524 233.02770 230.89716 228.92562 227.08508
 225.37054 223.84500 222.47746 221.25192 220.13638 219.09884 218.20530 217.34876
 216.59323 215.77569 214.87615 214.24261 213.69507 214.43851 215.97237 215.88240
 215.68770 217.02939 218.43513 218.61884 219.03651 220.98952 225.28302 228.68410
 231.44324 235.03978 239.37683 243.77396 247.70290 251.26614 254.71251 257.98306
 261.03342 263.89236 266.50870 268.79654 270.84927 272.65320 274.35419 275.89291
 278.09863 280.04160 281.72293 283.19925 284.47687 285.60724 286.63855 287.57281
 288.41312 289.16138 289.81506 290.64810
 366.78100 356.33919 345.77538 334.64557 323.05276 311.25095 299.12514 286.93233
 274.64852 262.54971 250.56290 239.86809 229.99428 221.10247 213.28866 206.29485
 200.13304 195.07523 191.66142 189.70762 188.74881 188.81700 189.65619 190.96838
 192.69757 194.79676 197.06395 199.42714 201.87633 204.36052 206.45271 208.29890
 209.92909 211.07828 211.31147 211.54366 211.48485 211.19404 210.83123 210.46542
 210.08661 209.80080 209.61299 209.48118 209.41337 209.74856 210.13875 210.53194
 211.32913 212.51132 213.76551 215.55270 217.48489 219.53208 221.63127 223.71846
 225.78265 227.87085 229.97204 232.08223 234.21542 236.39161 238.65180 241.02599
 243.65118 245.90637 247.91256 249.68175 251.10294 252.23013 253.05632 253.37651
 253.41770 253.19589 252.56008 251.51227 250.12246 248.28765 246.20084 244.03803
 241.83322 239.64141 237.46560 235.30879 233.17298 231.04417 229.07436 227.23555
 225.52274 223.99893 222.63312 221.40931 220.29550 219.25969 218.36789 217.51308
 216.75927 215.94346 215.04565 214.41384 213.86803 214.53932 216.00146 216.03018
 215.47366 216.65344 218.11710 218.40143 219.07779 221.15794 225.43834 228.77917
 231.49776 235.09584 239.46564 243.90646 247.86406 251.45485 254.89774 258.17221
 261.21301 264.05078 266.67123 268.96194 270.98935 272.76080 274.38007 276.34387
 278.71094 280.74078 282.49731 284.03964 285.37442 286.55533 287.63275 288.60883
 289.48669 290.26843 290.95132 291.82162
 366.78100 356.34149 345.77999 334.65248 323.06197 311.26246 299.13896 286.94845
 274.66694 262.57043 250.58593 239.89342 230.02191 221.13240 213.32090 206.32939
 200.16988 195.11437 191.70287 189.75136 188.79485 188.86534 189.70684 191.02133
 192.75282 194.85431 197.12381 199.48930 201.94079 204.42728 206.52178 208.37027
 210.00276 211.15425 211.38975 211.62424 211.56773 211.27922 210.91872 210.55521
 210.17870 209.89519 209.70969 209.58018 209.51467 209.85216 210.24466 210.64015
 211.43964 212.62413 213.88063 215.67012 217.60461 219.65410 221.75560 223.84509
 225.91158 228.00207 230.10557 232.21806 234.35355 236.53204 238.79454 241.17103
 243.79852 246.05601 248.06451 249.83600 251.25949 252.38898 253.21748 253.53997
 253.58346 253.36395 252.73045 251.68494 250.29743 248.46492 246.38042 244.21991
 242.01740 239.82789 237.65439 235.49988 233.36637 231.23986 229.27236 227.43585
 225.72534 224.20383 222.84033 221.61882 220.50731 219.47380 218.58430 217.73179
 216.98028 216.16677 215.27127 214.64176 214.09825 214.66812 215.97363 216.24767
 215.57144 216.34225 217.65201 217.98433 218.90302 221.22517 225.51076 228.82806
 231.54413 235.14503 239.50266 243.92494 247.91124 251.51662 254.95175 258.22247
 261.25208 264.08316 266.69641 269.00616 271.05209 272.86920 274.52429 276.48767
 278.80988 280.89963 282.70798 284.29581 285.66995 286.88571 287.99493 288.99979
 289.90356 290.70834 291.41141 292.30737
 366.78100 356.34133 345.77966 334.65199 323.06132 311.26166 299.13799 286.94732
 274.66565 262.56898 250.58431 239.89164 230.01997 221.13030 213.31864 206.32697
 200.16730 195.11163 191.69996 189.74829 188.79162 188.86195 189.70328 191.01761
 192.74895 194.85028 197.11961 199.48494 201.93627 204.42260 206.51693 208.36526
 209.99759 211.14893 211.38426 211.61859 211.56192 211.27325 210.91258 210.54891
 210.17224 209.88857 209.70291 209.57324 209.50757 209.84490 210.23723 210.63256
 211.43189 212.61622 213.87255 215.66188 217.59622 219.64555 221.74688 223.83621
 225.90254 227.99287 230.09620 232.20853 234.34386 236.52220 238.78453 241.16086
 243.78819 246.04552 248.05385 249.82518 251.24851 252.37784 253.20618 253.52851
 253.57184 253.35217 252.71850 251.67283 250.28516 248.45249 246.36782 244.20715
 242.00449 239.81482 237.64115 235.48648 233.35281 231.22614 229.25847 227.42180
 225.71113 224.18947 222.82580 221.60413 220.49246 219.45879 218.56912 217.71645
 216.96478 216.15111 215.25545 214.62578 214.08211 214.69083 216.04916 216.28685
 215.58815 216.25612 217.56610 217.79112 218.74582 221.21588 225.48955 228.75772
 231.47115 235.11581 239.50082 243.91417 247.90196 251.53050 254.98605 258.26175
 261.28036 264.09293 266.69571 268.99744 271.05222 272.92160 274.66293 276.66055
 279.01138 281.13095 282.96509 284.57559 285.96933 287.20245 288.32748 289.34668
 290.26334 291.07962 291.79272 292.70148
 366.78100 356.34026 345.77753 334.64879 323.05706 311.25632 299.13159 286.93985
 274.65712 262.55938 250.57364 239.87991 230.00717 221.11644 213.30370 206.31097
 200.15023 195.09350 191.68076 189.72803 188.77029 188.83955 189.67982 190.99308
 192.72335 194.82361 197.09188 199.45614 201.90641 204.39167 206.48493 208.33220
 209.96346 211.11373 211.34799 211.58126 211.52352 211.23379 210.87205 210.50731
 210.12958 209.84484 209.65811 209.52737 209.46064 209.79690 210.18817 210.58243
 211.38070 212.56396 213.81922 215.60749 217.54075 219.58902 221.68928 223.77755
 225.84281 227.93208 230.03434 232.14560 234.27987 236.45713 238.71840 241.09366
 243.71993 245.97619 247.98346 249.75372 251.17599 252.30425 253.13151 253.45278
 253.49504 253.27431 252.63957 251.59284 250.20410 248.37037 246.28463 244.12289
 241.91916 239.72842 237.55369 235.39795 233.26322 231.13548 229.16675 227.32901
 225.61727 224.09454 222.72980 221.50707 220.39433 219.35960 218.46886 217.61513
 216.86239 216.04766 215.15092 214.52018 213.97545 214.66451 216.16582 216.28271
 215.44661 216.09711 217.50133 217.71350 218.66199 221.25151 225.50728 228.75537
 231.46677 235.13954 239.54425 243.95842 247.96507 251.62717 255.10321 258.39282
 261.42059 264.22934 266.83246 269.14014 271.19894 273.07907 274.77994 276.67960
 278.91357 280.95029 282.71274 284.26031 285.59958 286.78448 287.86554 288.84491
 289.72574 290.51013 291.19534 292.06860
 366.78100 356.34045 345.77790 334.64935 323.05780 311.25725 299.13269 286.94114
 274.65859 262.56104 250.57549 239.88194 230.00939 221.11884 213.30629 206.31374
 200.15319 195.09663 191.68408 189.73153 188.77398 188.84343 189.68388 190.99733
 192.72778 194.82823 197.09668 199.46113 201.91158 204.39702 206.49047 208.33792
 209.96937 211.11982 211.35427 211.58772 211.53017 211.24062 210.87907 210.51452
 210.13696 209.85241 209.66586 209.53531 209.46876 209.80521 210.19666 210.59111
 211.38956 212.57301 213.82846 215.61690 217.55035 219.59880 221.69925 223.78770
 225.85315 227.94260 230.04505 232.15650 234.29095 236.46840 238.72985 241.10529
 243.73174 245.98819 247.99564 249.76609 251.18854 252.31699 253.14444 253.46589
 253.50834 253.28779 252.65323 251.60668 250.21813 248.38458 246.29903 244.13748
 241.93393 239.74338 237.56883 235.41328 233.27873 231.15117 229.18262 227.34507
 225.63352 224.11097 222.74642 221.52387 220.41132 219.37677 218.48622 217.63267
 216.88012 216.06556 215.16901 214.53846 213.99391 214.68919 216.22055 216.36272
 215.40567 215.88214 217.26266 217.53944 218.51982 221.30762 225.49745 228.75816
 231.47403 235.17146 239.58928 244.00296 248.02391 251.70746 255.18976 258.48065
 261.51004 264.32901 266.95325 269.27472 271.35098 273.24936 275.06763 276.73862
 278.81989 280.90118 282.70221 284.28363 285.65222 286.86307 287.96777 288.96857
 289.86868 290.67023 291.37045 292.26279
 366.78100 356.34147 345.77994 334.65241 323.06189 311.26236 299.13883 286.94830
 274.66677 262.57024 250.58571 239.89318 230.02166 221.13213 213.32060 206.32907
 200.16954 195.11401 191.70248 189.75095 188.79443 188.86490 189.70637 191.02084
 192.75231 194.85378 197.12325 199.48873 201.94020 204.42667 206.52114 208.36961
 210.00208 211.15355 211.38902 211.62350 211.56697 211.27844 210.91791 210.55438
 210.17785 209.89432 209.70879 209.57927 209.51374 209.85121 210.24368 210.63915
 211.43862 212.62309 213.87957 215.66904 217.60351 219.65298 221.75445 223.84392
 225.91039 228.00086 230.10434 232.21681 234.35228 236.53075 238.79322 241.16969
 243.79716 246.05463 248.06311 249.83458 251.25805 252.38752 253.21599 253.53846
 253.58193 253.36241 252.72888 251.68335 250.29582 248.46329 246.37876 244.21823
 242.01570 239.82618 237.65265 235.49812 233.36459 231.23806 229.27053 227.43400
 225.72347 224.20195 222.83842 221.61689 220.50536 219.47183 218.58230 217.72977
 216.97825 216.16472 215.26919 214.63966 214.09613 214.75218 216.22087 216.44565
 215.47356 215.71001 216.95490 217.36038 218.46420 221.35670 225.49049 228.76581
 231.47443 235.19743 239.63638 244.05347 248.08690 251.78041 255.26038 258.53531
 261.54404 264.35873 266.99844 269.33578 271.44061 273.41827 275.33743 276.87045
 278.60941 280.61954 282.36798 283.90326 285.23190 286.40741 287.47989 288.45148
 289.32532 290.10345 290.78323 291.64954
 366.78100 356.34207 345.78114 334.65420 323.06427 311.26534 299.14241 286.95248
 274.67154 262.57561 250.59168 239.89975 230.02882 221.13988 213.32895 206.33802
 200.17909 195.12415 191.71322 189.76229 188.80636 188.87743 189.71949 191.03456
 192.76663 194.86870 197.13877 199.50483 201.95690 204.44397 206.53904 208.38811
 210.02117 211.17324 211.40931 211.64438 211.58845 211.30051 210.94058 210.57765
 210.20172 209.91878 209.73385 209.60492 209.53999 209.87806 210.27112 210.66719
 211.46726 212.65233 213.90940 215.69946 217.63453 219.68460 221.78667 223.87674
 225.94380 228.03487 230.13894 232.25201 234.38808 236.56714 238.83021 241.20728
 243.83535 246.09341 248.10248 249.87455 251.29862 252.42869 253.25775 253.58082
 253.62489 253.40596 252.77303 251.72809 250.34116 248.50923 246.42530 244.26537
 242.06343 239.87450 237.70157 235.54764 233.41471 231.28877 229.32184 227.48591
 225.77598 224.25505 222.89211 221.67118 220.56025 219.52732 218.63838 217.78645
 217.03552 216.22259 215.32766 214.69872 214.15579 214.79330 216.22968 216.50740
 215.56143 215.56953 216.61157 217.13899 218.42784 221.37624 225.46881 228.77896
 231.47099 235.22829 239.70020 244.12746 248.17830 251.89015 255.36993 258.63852
 261.62192 264.41110 267.03955 269.40372 271.55676 273.60001 275.51425 277.11096
 278.40067 280.26730 282.00531 283.53140 284.85208 286.02057 287.08664 288.05243
 288.92102 289.69452 290.37024 291.23135
 366.78100 356.34241 345.78181 334.65522 323.06562 311.26703 299.14444 286.95484
 274.67425 262.57866 250.59506 239.90347 230.03287 221.14428 213.33369 206.34309
 200.18450 195.12991 191.71931 189.76872 188.81312 188.88453 189.72694 191.04234
 192.77475 194.87716 197.14756 199.51397 201.96637 204.45378 206.54919 208.39859
 210.03200 211.18440 211.42081 211.65622 211.60062 211.31303 210.95344 210.59084
 210.21525 209.93265 209.74806 209.61947 209.55487 209.89328 210.28669 210.68309
 211.48350 212.66890 213.92631 215.71672 217.65212 219.70253 221.80494 223.89534
 225.96275 228.05415 230.15856 232.27197 234.40837 236.58778 238.85119 241.22859
 243.85700 246.11540 248.12481 249.89722 251.32162 252.45203 253.28143 253.60484
 253.64925 253.43065 252.79806 251.75347 250.36687 248.53528 246.45168 244.29209
 242.09050 239.90190 237.72931 235.57572 233.44312 231.31753 229.35093 227.51534
 225.80575 224.28515 222.92256 221.70197 220.59137 219.55878 218.67018 217.81859
 217.06800 216.25540 215.36081 214.73221 214.18962 214.81824 216.24281 216.57309
 215.66333 215.47501 216.29225 216.89552 218.30893 221.32558 225.38034 228.72896
 231.41951 235.25322 239.77574 244.21645 248.27965 251.99921 255.47568 258.72528
 261.69873 264.47650 267.11563 269.51779 271.72272 273.81879 275.73352 277.33536
 278.34970 279.95331 281.71942 283.27286 284.61719 285.80661 286.89175 287.87485
 288.75900 289.54636 290.23419 291.11072
 366.78100 356.34311 345.78323 334.65734 323.06846 311.27057 299.14869 286.95980
 274.67991 262.58503 250.60214 239.91126 230.04137 221.15348 213.34360 206.35371
 200.19583 195.14194 191.73206 189.78217 188.82728 188.89940 189.74251 191.05863
 192.79174 194.89486 197.16597 199.53308 201.98620 204.47431 206.57043 208.42054
 210.05465 211.20777 211.44488 211.68100 211.62611 211.33923 210.98034 210.61845
 210.24357 209.96168 209.77780 209.64991 209.58603 209.92514 210.31925 210.71637
 211.51748 212.70360 213.96171 215.75283 217.68894 219.74005 221.84317 223.93428
 226.00240 228.09451 230.19962 232.31374 234.45085 236.63097 238.89508 241.27320
 243.90231 246.16142 248.17154 249.94465 251.36977 252.50088 253.33100 253.65511
 253.70022 253.48234 252.85045 251.80657 250.42068 248.58979 246.50691 244.34802
 242.14714 239.95925 237.78737 235.63448 233.50259 231.37771 229.41182 227.57694
 225.86805 224.34817 222.98628 221.76639 220.65651 219.62462 218.73674 217.88585
 217.13596 216.32408 215.43019 214.80231 214.26042 214.85675 216.22452 216.64130
 215.79990 215.45023 216.01312 216.58557 218.14963 221.23779 225.29762 228.70959
 231.42339 235.31955 239.87878 244.33443 248.39256 252.08704 255.52953 258.73007
 261.68265 264.46564 267.13486 269.59735 271.87042 273.99371 275.89438 277.46228
 278.56815 279.81686 281.43555 282.96942 284.29684 285.47125 286.54276 287.51343
 288.38647 289.16391 289.84305 290.70856
 366.78100 356.34415 345.78531 334.66046 323.07262 311.27577 299.15493 286.96708
 274.68824 262.59439 250.61254 239.92270 230.05385 221.16701 213.35816 206.36932
 200.21247 195.15962 191.75078 189.80193 188.84809 188.92124 189.76540 191.08255
 192.81671 194.92086 197.19301 199.56117 202.01532 204.50448 206.60163 208.45279
 210.08794 211.24210 211.48025 211.71740 211.66356 211.37771 211.01987 210.65902
 210.28518 210.00433 209.82149 209.69464 209.63179 209.97195 210.36710 210.76526
 211.56741 212.75457 214.01372 215.80587 217.74303 219.79518 221.89934 223.99149
 226.06065 228.15380 230.25996 232.37511 234.51326 236.69442 238.95957 241.33873
 243.96888 246.22904 248.24019 250.01435 251.44050 252.57265 253.40381 253.72896
 253.77512 253.55827 252.92743 251.88458 250.49974 248.66989 246.58804 244.43020
 242.23035 240.04351 237.87266 235.72082 233.58997 231.46612 229.50128 227.66743
 225.95959 224.44074 223.07990 221.86105 220.75221 219.72136 218.83451 217.98467
 217.23582 216.42498 215.53213 214.90529 214.36444 214.91751 216.19206 216.64232
 215.95517 215.58421 215.93024 216.29945 217.91068 221.07733 225.18468 228.60527
 231.39244 235.36630 239.95073 244.41547 248.47902 252.17342 255.60938 258.77652
 261.68686 264.44800 267.12650 269.63525 271.95251 274.07672 275.88901 277.37323
 278.45184 279.80774 281.43625 282.97418 284.30511 285.48267 286.55698 287.53024
 288.40561 289.18509 289.86606 290.73386
 366.78100 356.34507 345.78714 334.66321 323.07629 311.28036 299.16043 286.97350
 274.69557 262.60264 250.62171 239.93279 230.06486 221.17893 213.37100 206.38307
 200.22714 195.17521 191.76729 189.81936 188.86643 188.94050 189.78557 191.10364
 192.83872 194.94379 197.21686 199.58593 202.04100 204.53107 206.62914 208.48122
 210.11729 211.27236 211.51143 211.74950 211.69657 211.41164 211.05472 210.69479
 210.32186 210.04193 209.86000 209.73407 209.67214 210.01322 210.40929 210.80836
 211.61143 212.79950 214.05957 215.85264 217.79072 219.84379 221.94886 224.04193
 226.11200 228.20607 230.31314 232.42922 234.56829 236.75036 239.01643 241.39650
 244.02757 246.28865 248.30072 250.07579 251.50286 252.63593 253.46800 253.79407
 253.84115 253.62522 252.99529 251.95336 250.56943 248.74050 246.65957 244.50265
 242.30372 240.11779 237.94786 235.79693 233.66700 231.54407 229.58015 227.74722
 226.04029 224.52236 223.16243 221.94450 220.83657 219.80665 218.92072 218.07179
 217.32386 216.51393 215.62200 214.99607 214.45615 214.97791 216.16983 216.56781
 216.03592 215.76015 216.01364 216.15144 217.73917 220.91434 225.07895 228.48543
 231.38750 235.41859 239.99803 244.46568 248.54218 252.26273 255.71837 258.87976
 261.75876 264.50290 267.18475 269.72165 272.07806 274.21118 275.96988 277.36621
 278.43527 280.15881 281.93228 283.49509 284.84756 286.04416 287.13586 288.12488
 289.01440 289.80652 290.49847 291.38034
 366.78100 356.34571 345.78842 334.66512 323.07883 311.28354 299.16425 286.97796
 274.70066 262.60837 250.62808 239.93979 230.07250 221.18720 213.37991 206.39262
 200.23733 195.18604 191.77875 189.83145 188.87916 188.95387 189.79958 191.11829
 192.85399 194.95970 197.23341 199.60312 202.05883 204.54953 206.64824 208.50095
 210.13766 211.29337 211.53307 211.77178 211.71949 211.43520 211.07891 210.71961
 210.34732 210.06803 209.88674 209.76145 209.70015 210.04186 210.43857 210.83828
 211.64199 212.83069 214.09140 215.88511 217.82382 219.87753 221.98324 224.07694
 226.14765 228.24236 230.35007 232.46678 234.60648 236.78919 239.05590 241.43661
 244.06832 246.33002 248.34273 250.11844 251.54615 252.67986 253.51256 253.83927
 253.88698 253.67169 253.04240 252.00110 250.61781 248.78952 246.70923 244.55294
 242.35464 240.16935 238.00006 235.84977 233.72048 231.59819 229.63489 227.80260
 226.09631 224.57902 223.21973 222.00243 220.89514 219.86585 218.98056 218.13227
 217.38497 216.57568 215.68439 215.05910 214.51981 215.01588 216.14632 216.53284
 216.08875 215.81911 216.03603 216.07338 217.64752 220.83575 224.99980 228.41235
 231.37108 235.45932 240.06581 244.53708 248.60873 252.32162 255.76305 258.89862
 261.76056 264.50754 267.21735 269.80569 272.20975 274.34912 276.09546 277.49252
 278.67712 280.44739 282.17456 283.69971 285.01956 286.18732 287.25272 288.21790
 289.08597 289.85898 290.53427 291.39487
 366.78100 356.34544 345.78788 334.66433 323.07777 311.28221 299.16265 286.97609
 274.69854 262.60598 250.62542 239.93686 230.06931 221.18375 213.37619 206.38863
 200.23307 195.18152 191.77396 189.82640 188.87384 188.94828 189.79373 191.11217
 192.84761 194.95305 197.22649 199.59594 202.05138 204.54182 206.64026 208.49271
 210.12915 211.28459 211.52403 211.76247 211.70992 211.42536 211.06880 210.70924
 210.33668 210.05713 209.87557 209.75001 209.68845 210.02989 210.42634 210.82578
 211.62922 212.81766 214.07810 215.87155 217.80999 219.86343 221.96887 224.06232
 226.13276 228.22720 230.33464 232.45108 234.59053 236.77297 239.03941 241.41985
 244.05129 246.31274 248.32518 250.10062 251.52806 252.66150 253.49395 253.82039
 253.86783 253.65227 253.02272 251.98116 250.59760 248.76904 246.68848 244.53193
 242.33337 240.14781 237.97825 235.82769 233.69814 231.57558 229.61202 227.77946
 226.07290 224.55535 223.19579 221.97823 220.87067 219.84112 218.95556 218.10700
 217.35944 216.54988 215.65833 215.03277 214.49321 215.00470 216.15460 216.49660
 216.16301 215.89272 216.01718 215.98524 217.51483 220.70532 224.83116 228.28426
 231.28941 235.46716 240.11296 244.59689 248.67776 252.39662 255.83647 258.97021
 261.82721 264.55490 267.25961 269.85004 272.25589 274.39752 276.08865 277.42731
 278.83615 280.60104 282.31784 283.85501 285.18530 286.36227 287.43610 288.40887
 289.28381 290.06293 290.74356 291.61093
 366.78100 356.34447 345.78594 334.66141 323.07387 311.27734 299.15681 286.96928
 274.69075 262.59722 250.61569 239.92615 230.05762 221.17109 213.36256 206.37403
 200.21750 195.16497 191.75643 189.80790 188.85437 188.92784 189.77231 191.08978
 192.82425 194.92871 197.20118 199.56965 202.02412 204.51359 206.61106 208.46253
 210.09799 211.25246 211.49093 211.72840 211.67487 211.38934 211.03181 210.67127
 210.29774 210.01721 209.83468 209.70815 209.64562 209.98609 210.38156 210.78002
 211.58249 212.76996 214.02943 215.82190 217.75937 219.81184 221.91630 224.00877
 226.07824 228.17171 230.27818 232.39365 234.53212 236.71358 238.97905 241.35852
 243.98899 246.24946 248.26093 250.03540 251.46186 252.59433 253.42580 253.75127
 253.79774 253.58121 252.95068 251.90814 250.52361 248.69408 246.61255 244.45502
 242.25549 240.06896 237.89842 235.74689 233.61636 231.49283 229.52830 227.69477
 225.98724 224.46870 223.10817 221.88964 220.78111 219.75058 218.86405 218.01452
 217.26598 216.45545 215.56292 214.93639 214.39586 214.94930 216.18729 216.45273
 216.13869 215.96863 215.98582 215.93822 217.38939 220.60837 224.66499 228.11345
 231.22049 235.48145 240.18935 244.69833 248.77609 252.48666 255.91602 259.04153
 261.90643 264.65292 267.36734 270.00961 272.49243 274.67752 276.28934 277.53488
 278.80432 280.33710 281.89514 283.37756 284.66315 285.80054 286.83826 287.77835
 288.62387 289.37680 290.03452 290.87274
 366.78100 356.34517 345.78734 334.66350 323.07667 311.28084 299.16101 286.97417
 274.69634 262.60351 250.62268 239.93384 230.06601 221.18018 213.37235 206.38451
 200.22868 195.17685 191.76902 189.82118 188.86835 188.94252 189.78769 191.10585
 192.84102 194.94619 197.21936 199.58853 202.04369 204.53386 206.63203 208.48420
 210.12036 211.27553 211.51470 211.75287 211.70003 211.41520 211.05837 210.69854
 210.32570 210.04587 209.86404 209.73821 209.67637 210.01754 210.41371 210.81288
 211.61604 212.80421 214.06438 215.85755 217.79571 219.84888 221.95405 224.04722
 226.11739 228.21155 230.31872 232.43489 234.57406 236.75622 239.02239 241.40256
 244.03373 246.29489 248.30706 250.08223 251.50940 252.64256 253.47473 253.80090
 253.84807 253.63223 253.00240 251.96057 250.57674 248.74790 246.66707 244.51024
 242.31141 240.12558 237.95574 235.80491 233.67508 231.55225 229.58841 227.75558
 226.04875 224.53092 223.17108 221.95325 220.84542 219.81559 218.92975 218.08092
 217.33309 216.52326 215.63142 215.00559 214.46576 214.96179 216.11345 216.58070
 216.15614 215.81778 215.73013 215.80017 217.23486 220.49615 224.61540 228.09932
 231.36365 235.55019 240.23112 244.74525 248.83549 252.52600 255.89195 258.96829
 261.83496 264.63565 267.41293 270.08911 272.57623 274.76566 276.51736 277.86786
 279.04712 280.21866 281.40161 282.63806 283.81131 284.91705 285.92584 286.83975
 287.66174 288.39368 289.03311 289.84799
 366.78100 356.34691 345.79083 334.66874 323.08366 311.28957 299.17149 286.98640
 274.71032 262.61923 250.64015 239.95306 230.08698 221.20289 213.39681 206.41072
 200.25664 195.20655 191.80047 189.85438 188.90330 188.97921 189.82613 191.14604
 192.88296 194.98987 197.26479 199.63570 202.09262 204.58453 206.68445 208.53836
 210.17628 211.33319 211.57411 211.81402 211.76294 211.47985 211.12477 210.76668
 210.39560 210.11751 209.93742 209.81334 209.75325 210.09617 210.49408 210.89500
 211.69991 212.88983 214.15174 215.94666 217.88657 219.94149 222.04840 224.14332
 226.21523 228.31115 230.42006 232.53798 234.67889 236.86281 239.13072 241.51264
 244.14555 246.40847 248.42238 250.19930 251.62821 252.76313 253.59704 253.92496
 253.97387 253.75979 253.13170 252.09162 250.70953 248.88245 246.80336 244.64828
 242.45119 240.26711 238.09902 235.94993 233.82185 231.70076 229.73868 227.90759
 226.20251 224.68642 223.32834 222.11225 221.00617 219.97808 219.09400 218.24691
 217.50083 216.69274 215.80266 215.17857 214.64049 215.04330 215.99702 216.62216
 216.42688 215.91904 215.59435 215.54625 217.02472 220.34148 224.50200 227.99452
 231.29633 235.56358 240.28830 244.85551 248.97534 252.66736 256.02084 259.06903
 261.88217 264.61932 267.36340 270.04578 272.57599 274.81430 276.49640 277.73599
 278.87866 280.04861 281.11432 282.34152 283.55148 284.66220 285.67557 286.59363
 287.41928 288.15457 288.79688 289.61542
 366.78100 356.34778 345.79257 334.67135 323.08713 311.29391 299.17670 286.99248
 274.71726 262.62704 250.64883 239.96261 230.09739 221.21417 213.40896 206.42374
 200.27052 195.22130 191.81609 189.87087 188.92065 188.99744 189.84522 191.16600
 192.90378 195.01157 197.28735 199.65913 202.11691 204.60970 206.71048 208.56526
 210.20404 211.36183 211.60361 211.84439 211.79418 211.51196 211.15774 210.80052
 210.43031 210.15309 209.97387 209.85065 209.79144 210.13522 210.53400 210.93578
 211.74157 212.93235 214.19513 215.99091 217.93170 219.98748 222.09526 224.19105
 226.26383 228.36061 230.47039 232.58918 234.73096 236.91574 239.18452 241.56731
 244.20109 246.46487 248.47965 250.25744 251.68722 252.82300 253.65779 253.98657
 254.03635 253.82313 253.19592 252.15670 250.77548 248.94926 246.87105 244.71683
 242.52061 240.33739 238.17018 236.02196 233.89474 231.77452 229.81331 227.98309
 226.27887 224.76366 223.40644 222.19122 221.08600 220.05879 219.17557 218.32935
 217.58413 216.77692 215.88770 215.26448 214.72726 215.10208 215.97125 216.46086
 216.57797 216.23184 215.76041 215.51302 217.00371 220.20914 224.31683 227.79733
 231.13374 235.55385 240.33652 244.92131 249.05783 252.77745 256.16132 259.23276
 262.06207 264.79163 267.51181 270.19571 272.70782 274.86108 276.49011 277.77884
 278.95642 279.99777 281.46506 283.00409 284.33597 285.51437 286.58948 287.56342
 288.43939 289.21945 289.90091 290.76932
 366.78100 356.34609 345.78919 334.66628 323.08038 311.28547 299.16657 286.98066
 274.70376 262.61185 250.63195 239.94404 230.07714 221.19223 213.38533 206.39842
 200.24352 195.19261 191.78570 189.83880 188.88689 188.96199 189.80808 191.12718
 192.86327 194.96937 197.24346 199.61356 202.06965 204.56075 206.65984 208.51294
 210.15003 211.30613 211.54622 211.78532 211.73341 211.44950 211.09360 210.73469
 210.36279 210.08388 209.90298 209.77807 209.71717 210.05926 210.45636 210.85645
 211.66055 212.84964 214.11074 215.90483 217.84393 219.89802 222.00411 224.09821
 226.16930 228.26440 230.37249 232.48959 234.62968 236.81278 239.07987 241.46097
 244.09306 246.35516 248.36825 250.14435 251.57244 252.70654 253.53963 253.86672
 253.91482 253.69991 253.07101 252.03010 250.64720 248.81929 246.73939 244.58348
 242.38558 240.20067 238.03177 235.88186 233.75296 231.63105 229.66815 227.83624
 226.13034 224.61343 223.25452 222.03762 220.93071 219.90181 219.01690 218.16900
 217.42209 216.61319 215.72228 215.09738 214.55847 215.02451 216.04533 216.27267
 216.50586 216.49030 216.04942 215.57622 216.93491 220.13806 224.15273 227.62358
 231.05310 235.57704 240.38739 244.95851 249.04559 252.71356 256.06735 259.14536
 262.01700 264.80222 267.58755 270.34219 272.98172 275.31219 277.02490 278.26193
 279.31305 280.36597 281.91449 283.37769 284.64392 285.76422 286.78635 287.71231
 288.54510 289.28671 289.93457 290.76019
 366.78100 356.34495 345.78690 334.66284 323.07579 311.27974 299.15969 286.97264
 274.69459 262.60153 250.62048 239.93143 230.06338 221.17733 213.36927 206.38122
 200.22517 195.17312 191.76507 189.81702 188.86396 188.93791 189.78286 191.10081
 192.83576 194.94070 197.21365 199.58260 202.03755 204.52750 206.62545 208.47739
 210.11334 211.26829 211.50724 211.74519 211.69213 211.40708 211.05003 210.68998
 210.31693 210.03688 209.85482 209.72877 209.66672 210.00767 210.40362 210.80256
 211.60551 212.79346 214.05341 215.84636 217.78430 219.83725 221.94220 224.03515
 226.10510 228.19905 230.30599 232.42194 234.56089 236.74284 239.00879 241.38873
 244.01968 246.28063 248.29258 250.06753 251.49448 252.62742 253.45937 253.78532
 253.83227 253.61622 252.98616 251.94411 250.56006 248.73101 246.64996 244.49291
 242.29385 240.10780 237.93775 235.78670 233.65665 231.53359 229.56954 227.73649
 226.02944 224.51139 223.15134 221.93328 220.82523 219.79518 218.90913 218.06008
 217.31202 216.50197 215.60992 214.98387 214.44382 214.94693 216.08423 216.27673
 216.35274 216.44431 216.05399 215.59319 216.82344 220.03786 224.08789 227.62094
 231.16376 235.62561 240.40898 244.94824 249.00758 252.62596 255.91241 258.94495
 261.82428 264.67905 267.53668 270.33710 272.99088 275.34732 277.18875 278.60080
 279.76120 280.74860 281.67242 282.78030 283.87207 284.88803 285.81497 286.65469
 287.40994 288.08249 288.67001 289.41873
 366.78100 356.34653 345.79007 334.66760 323.08213 311.28767 299.16920 286.98374
 274.70727 262.61580 250.63634 239.94887 230.08240 221.19794 213.39147 206.40501
 200.25054 195.20007 191.79361 189.84714 188.89567 188.97121 189.81774 191.13728
 192.87381 194.98034 197.25488 199.62541 202.08194 204.57348 206.67301 208.52655
 210.16408 211.32061 211.56115 211.80068 211.74921 211.46575 211.11028 210.75181
 210.38035 210.10188 209.92142 209.79695 209.73648 210.07902 210.47655 210.87708
 211.68162 212.87115 214.13269 215.92722 217.86675 219.92129 222.02782 224.12235
 226.19389 228.28942 230.39796 232.51549 234.65602 236.83956 239.10709 241.48862
 244.12116 246.38369 248.39723 250.17376 251.60229 252.73683 253.57036 253.89789
 253.94643 253.73196 253.10349 252.06303 250.68056 248.85310 246.77363 244.61816
 242.42070 240.23623 238.06776 235.91830 233.78983 231.66837 229.70590 227.87443
 226.16897 224.65250 223.29403 222.07757 220.97110 219.94264 219.05817 218.21070
 217.46424 216.65577 215.76530 215.14084 214.60237 215.00481 215.94894 216.42801
 216.42603 216.32503 215.88669 215.30827 216.52774 219.87651 224.06303 227.46165
 231.14539 235.63336 240.46976 245.02419 249.09920 252.73013 256.01349 259.01801
 261.83905 264.62488 267.44913 270.25885 272.94638 275.32919 277.18765 278.62668
 279.84476 280.87228 281.70932 282.42755 283.15088 283.90366 284.76157 285.58133
 286.31860 286.97519 287.54874 288.27969
 366.78100 356.34728 345.79156 334.66984 323.08512 311.29139 299.17367 286.98895
 274.71323 262.62251 250.64379 239.95707 230.09135 221.20763 213.40191 206.41618
 200.26246 195.21274 191.80702 189.86130 188.91058 188.98686 189.83414 191.15442
 192.89169 194.99897 197.27425 199.64553 202.10281 204.59509 206.69537 208.54965
 210.18793 211.34521 211.58648 211.82676 211.77604 211.49332 211.13860 210.78088
 210.41016 210.13244 209.95272 209.82899 209.76927 210.11255 210.51083 210.91211
 211.71739 212.90767 214.16995 215.96523 217.90551 219.96078 222.06806 224.16334
 226.23562 228.33190 230.44118 232.55946 234.70074 236.88502 239.15329 241.53557
 244.16885 246.43213 248.44641 250.22369 251.65297 252.78825 253.62253 253.95081
 254.00008 253.78636 253.15864 252.11892 250.73720 248.91048 246.83176 244.67704
 242.48032 240.29660 238.12887 235.98015 233.85243 231.73171 229.76999 227.93927
 226.23455 224.71883 223.36111 222.14538 221.03966 220.01194 219.12822 218.28150
 217.53578 216.72806 215.83834 215.21462 214.67690 215.03419 215.87714 216.42308
 216.57535 216.40392 215.90881 215.18391 216.37189 219.78098 223.98274 227.33374
 231.10307 235.64610 240.53014 245.09946 249.18018 252.82515 256.12918 259.14099
 261.93616 264.65109 267.40512 270.19400 272.92050 275.37311 277.25897 278.67038
 279.89685 280.96503 281.83182 282.46362 282.97055 283.47095 284.21280 285.02042
 285.75885 286.41644 286.99088 287.72296
 366.78100 356.34622 345.78944 334.66666 323.08088 311.28610 299.16732 286.98154
 274.70476 262.61298 250.63320 239.94542 230.07864 221.19386 213.38708 206.40030
 200.24552 195.19474 191.78796 189.84118 188.88940 188.96462 189.81084 191.13006
 192.86628 194.97250 197.24672 199.61694 202.07316 204.56438 206.66360 208.51682
 210.15403 211.31025 211.55047 211.78969 211.73791 211.45413 211.09835 210.73957
 210.36779 210.08901 209.90823 209.78345 209.72267 210.06489 210.46211 210.86233
 211.66655 212.85577 214.11699 215.91121 217.85043 219.90465 222.01087 224.10509
 226.17631 228.27153 230.37975 232.49697 234.63719 236.82041 239.08763 241.46885
 244.10107 246.36329 248.37651 250.15273 251.58095 252.71517 253.54839 253.87561
 253.92383 253.70905 253.08027 252.03949 250.65671 248.82893 246.74915 244.59337
 242.39559 240.21081 238.04203 235.89225 233.76347 231.64169 229.67891 227.84713
 226.14135 224.62457 223.26579 222.04901 220.94223 219.91345 219.02866 218.18088
 217.43410 216.62532 215.73454 215.10976 214.57098 214.97441 215.92409 216.36406
 216.59363 216.48361 215.98935 215.14961 216.28725 219.74831 223.90855 227.21751
 231.06543 235.65604 240.57103 245.13622 249.20500 252.84985 256.16608 259.18964
 261.98871 264.67459 267.36722 270.12320 272.88840 275.40045 277.29507 278.71359
 279.97656 281.06845 281.89877 282.45880 282.86951 283.27905 283.89340 284.62558
 285.37695 286.04608 286.63058 287.37552
 366.78100 356.34610 345.78921 334.66631 323.08042 311.28552 299.16663 286.98073
 274.70384 262.61194 250.63205 239.94415 230.07726 221.19236 213.38547 206.39857
 200.24368 195.19278 191.78589 189.83899 188.88710 188.96220 189.80831 191.12741
 192.86352 194.96962 197.24373 199.61383 202.06994 204.56104 206.66015 208.51325
 210.15036 211.30646 211.54657 211.78567 211.73378 211.44988 211.09399 210.73509
 210.36320 210.08430 209.90341 209.77851 209.71762 210.05972 210.45683 210.85693
 211.66104 212.85014 214.11125 215.90535 217.84446 219.89856 222.00467 224.09877
 226.16988 228.26498 230.37309 232.49019 234.63030 236.81340 239.08051 241.46161
 244.09372 246.35582 248.36893 250.14503 251.57314 252.70724 253.54035 253.86745
 253.91556 253.70066 253.07177 252.03087 250.64798 248.82008 246.74019 244.58429
 242.38640 240.20150 238.03261 235.88271 233.75381 231.63192 229.66902 227.83713
 226.13123 224.61434 223.25544 222.03855 220.93165 219.90276 219.01786 218.16997
 217.42307 216.61418 215.72328 215.09839 214.55949 214.96161 215.91122 216.36873
 216.66663 216.56386 216.01060 215.10867 216.17648 219.64069 223.79671 227.06851
 231.02167 235.66199 240.60455 245.16313 249.22374 252.87360 256.20749 259.24359
 262.04538 264.70941 267.34122 270.04532 272.82864 275.40729 277.35211 278.78320
 280.06537 281.16077 281.96353 282.42294 282.76642 283.13058 283.70853 284.29855
 284.94785 285.57877 286.12988 286.83224
 366.78100 356.34681 345.79063 334.66844 323.08326 311.28907 299.17088 286.98570
 274.70951 262.61833 250.63914 239.95195 230.08577 221.20158 213.39540 206.40921
 200.25502 195.20484 191.79865 189.85247 188.90128 188.97709 189.82391 191.14372
 192.88054 194.98735 197.26216 199.63298 202.08979 204.58161 206.68142 208.53523
 210.17305 211.32986 211.57068 211.81049 211.75930 211.47612 211.12093 210.76275
 210.39156 210.11337 209.93319 209.80900 209.74882 210.09163 210.48944 210.89026
 211.69507 212.88489 214.14670 215.94151 217.88133 219.93614 222.04296 224.13777
 226.20958 228.30540 230.41421 232.53203 234.67284 236.85665 239.12447 241.50628
 244.13910 246.40191 248.41573 250.19254 251.62135 252.75617 253.58998 253.91780
 253.96661 253.75242 253.12424 252.08405 250.70187 248.87468 246.79549 244.64031
 242.44312 240.25894 238.09075 235.94156 233.81338 231.69219 229.73001 227.89882
 226.19363 224.67745 223.31926 222.10308 220.99689 219.96870 219.08452 218.23733
 217.49115 216.68296 215.79277 215.16859 214.63040 214.99303 215.84975 216.39304
 216.74973 216.62044 216.01393 215.12572 216.16916 219.52094 223.65146 226.95139
 230.98636 235.67609 240.63547 245.18927 249.24831 252.90610 256.25916 259.30728
 262.11111 264.75385 267.32156 269.96066 272.75369 275.43951 277.45584 278.89532
 280.17126 281.26193 282.01456 282.41519 282.69040 283.02734 283.57870 284.11832
 284.68265 285.28845 285.82599 286.51102
 366.78100 356.34680 345.79059 334.66839 323.08319 311.28899 299.17078 286.98558
 274.70938 262.61818 250.63897 239.95177 230.08557 221.20136 213.39516 206.40896
 200.25476 195.20455 191.79835 189.85215 188.90094 188.97674 189.82354 191.14334
 192.88013 194.98693 197.26173 199.63253 202.08932 204.58112 206.68092 208.53471
 210.17251 211.32931 211.57011 211.80990 211.75870 211.47550 211.12029 210.76209
 210.39089 210.11269 209.93248 209.80828 209.74808 210.09088 210.48867 210.88947
 211.69427 212.88406 214.14586 215.94066 217.88046 219.93525 222.04205 224.13685
 226.20864 228.30444 230.41324 232.53104 234.67183 236.85563 239.12343 241.50523
 244.13802 246.40082 248.41462 250.19141 251.62021 252.75501 253.58881 253.91660
 253.96540 253.75120 253.12300 252.08279 250.70059 248.87339 246.79418 244.63898
 242.44178 240.25758 238.08937 235.94017 233.81197 231.69076 229.72856 227.89736
 226.19216 224.67595 223.31775 222.10155 220.99535 219.96714 219.08294 218.23574
 217.48953 216.68133 215.79113 215.16693 214.62872 214.98923 215.84093 216.39786
 216.79218 216.64948 216.02069 215.14528 216.17146 219.42619 223.52248 226.90279
 230.96773 235.69395 240.66562 245.21634 249.26979 252.93213 256.29865 259.35516
 262.15726 264.77719 267.29306 269.87466 272.67386 275.47101 277.56854 279.02924
 280.30682 281.40161 282.12903 282.48038 282.69189 282.96399 283.49222 284.04617
 284.55276 285.11270 285.63620 286.30331
 366.78100 356.34588 345.78876 334.66564 323.07952 311.28441 299.16529 286.97917
 274.70205 262.60993 250.62981 239.94169 230.07457 221.18946 213.38234 206.39522
 200.24010 195.18898 191.78186 189.83474 188.88262 188.95751 189.80339 191.12227
 192.85815 194.96403 197.23791 199.60779 202.06367 204.55456 206.65344 208.50632
 210.14320 211.29908 211.53896 211.77784 211.72572 211.44161 211.08549 210.72637
 210.35425 210.07513 209.89401 209.76889 209.70777 210.04966 210.44654 210.84642
 211.65030 212.83918 214.10006 215.89394 217.83282 219.88671 221.99259 224.08647
 226.15735 228.25223 230.36011 232.47699 234.61687 236.79976 239.06664 241.44752
 244.07940 246.34128 248.35416 250.13004 251.55792 252.69181 253.52469 253.85157
 253.89945 253.68433 253.05521 252.01409 250.63097 248.80286 246.72274 244.56662
 242.36850 240.18338 238.01426 235.86414 233.73502 231.61291 229.64979 227.81767
 226.11155 224.59443 223.23531 222.01819 220.91107 219.88196 218.99684 218.14872
 217.40160 216.59248 215.70136 215.07624 214.53712 214.94118 215.89581 216.37506
 216.81158 216.66441 216.01430 215.12950 216.15518 219.34499 223.39388 226.88249
 230.96745 235.72307 240.68535 245.23283 249.28648 252.96326 256.35086 259.41779
 262.21902 264.80774 267.26385 269.77103 272.57019 275.47223 277.63461 279.12076
 280.43384 281.53391 282.24005 282.51279 282.67416 282.92288 283.38635 283.93652
 284.43909 284.95117 285.46045 286.10947
 366.78100 356.34537 345.78773 334.66410 323.07747 311.28183 299.16220 286.97557
 274.69793 262.60530 250.62467 239.93604 230.06840 221.18277 213.37514 206.38750
 200.23187 195.18024 191.77260 189.82497 188.87234 188.94670 189.79207 191.11044
 192.84580 194.95117 197.22454 199.59391 202.04927 204.53964 206.63801 208.49037
 210.12674 211.28211 211.52147 211.75984 211.70721 211.42257 211.06594 210.70631
 210.33367 210.05404 209.87241 209.74678 209.68514 210.02651 210.42288 210.82224
 211.62561 212.81398 214.07434 215.86771 217.80608 219.85944 221.96481 224.05818
 226.12854 228.22291 230.33028 232.44665 234.58601 236.76838 239.03475 241.41511
 244.04648 246.30785 248.32021 250.09558 251.52295 252.65631 253.48868 253.81505
 253.86241 253.64678 253.01715 251.97552 250.59188 248.76325 246.68262 244.52598
 242.32735 240.14172 237.97208 235.82145 233.69182 231.56918 229.60555 227.77292
 226.06628 224.54865 223.18902 221.97139 220.86375 219.83412 218.94849 218.09985
 217.35222 216.54259 215.65095 215.02532 214.48569 214.91399 215.92590 216.40071
 216.81296 216.64273 215.94144 215.03630 216.08806 219.26852 223.30853 226.85658
 230.96950 235.74507 240.71620 245.27306 249.34132 253.03960 256.44592 259.51730
 262.30936 264.86240 267.26184 269.70258 272.48514 275.44293 277.62439 279.11697
 280.45227 281.54617 282.23370 282.46774 282.60956 282.85828 283.29099 283.83450
 284.36823 284.89011 285.41324 286.07993
 354.97500 345.04800 334.58700 324.11500 313.32600 302.53700 291.65000 280.76700
 269.93100 259.19300 248.62200 238.61700 229.08700 220.35500 212.54000 205.53500
 199.46400 194.49300 191.14300 189.19000 188.08900 188.01400 188.72400 189.90600
 191.46900 193.38200 195.40300 197.55600 199.80700 202.06000 204.28800 206.47900
 208.55200 210.37800 212.02500 213.65900 214.99800 216.11800 217.17200 218.25900
 219.49400 220.64500 221.67900 222.61400 223.54500 224.98200 226.57100 228.19000
 229.79700 231.81100 233.86500 235.97200 238.24200 240.55300 242.89900 245.25300
 247.48800 249.53500 251.36600 252.84800 254.09800 255.16700 256.02700 256.25300
 256.09500 255.54300 253.93500 252.56600 251.38400 250.24500 249.05200 247.70100
 246.01600 243.99600 241.78400 239.39300 236.81300 234.22300 231.65800 229.14400
 226.74000 224.47300 222.33500 220.32500 218.44000 216.67700 214.96200 213.47200
 212.20000 211.10800 210.26000 209.63900 209.24400 209.03100 209.05800 209.33300
 209.78400 210.62600 211.33100 212.39100 213.62500 214.84668 217.72949 219.47640
 220.32566 220.86828 220.88710 220.27371 219.43733 218.84250 219.04934 220.86203
 222.60583 225.72206 229.03064 232.61777 236.12270 239.51333 242.70767 245.68587
 248.41061 250.90679 253.19353 254.91714 256.48655 257.94920 259.39966 260.69384
 261.81714 262.77997 263.71679 264.54570 265.26305 265.89772 266.47676 267.00133
 267.47312 267.89325 268.26027 268.72800
