|-------------------------------------------------------------------------|
|   File Name : in_temp.dat
|   Subject   : temperature profiles used for initial guess atmosphere
|   File Type : input of gmtr
|   Data Type : atmospherical data
|   Author/s  : WRF-Chem
|   Date      : Fri Jul 26 15:39:24 2024
|-------------------------------------------------------------------------|

 WRF-Chem temperature
#
 values of T (K)    (8f10.5)
#
 354.97500 345.04800 334.58700 324.11500 313.32600 302.53700 291.65000 280.76700
 269.93100 259.19300 248.62200 238.61700 229.08700 220.35500 212.54000 205.53500
 199.46400 194.49300 191.14300 189.19000 188.08900 188.01400 188.72400 189.90600
 191.46900 193.38200 195.40300 197.55600 199.80700 202.06000 204.28800 206.47900
 208.55200 210.37800 212.02500 213.65900 214.99800 216.11800 217.17200 218.25900
 219.49400 220.64500 221.67900 222.61400 223.54500 224.98200 226.57100 228.19000
 229.79700 231.81100 233.86500 235.97200 238.24200 240.55300 242.89900 245.25300
 247.48800 249.53500 251.36600 252.84800 254.09800 255.16700 256.02700 256.25300
 256.09500 255.54300 253.93500 252.56600 251.38400 250.24500 249.05200 247.70100
 246.01600 243.99600 241.78400 239.39300 236.81300 234.22300 231.65800 229.14400
 226.74000 224.47300 222.33500 220.32500 218.44000 216.67700 214.96200 213.47200
 212.20000 211.10800 210.26000 209.63900 209.24400 209.03100 209.05800 209.33300
 209.78400 210.62600 211.33100 212.39100 213.62500 214.84668 217.72949 219.47640
 220.32566 220.86828 220.88710 220.27371 219.43733 218.84250 219.04934 220.86203
 222.60583 225.72206 229.03064 232.61777 236.12270 239.51333 242.70767 245.68587
 248.41061 250.90679 253.19353 254.91714 256.48655 257.94920 259.39966 260.69384
 261.81714 262.77997 263.71679 264.54570 265.26305 265.89772 266.47676 267.00133
 267.47312 267.89325 268.26027 268.72800
 366.78100 356.33500 345.76700 334.63300 323.03600 311.23000 299.10000 286.90300
 274.61500 262.51200 250.52100 239.82200 229.94400 221.04800 213.23000 206.23200
 200.06600 195.00400 191.58600 189.62800 188.66500 188.72900 189.56400 190.87200
 192.59700 194.69200 196.95500 199.31400 201.75900 204.23900 206.32700 208.16900
 209.79500 210.94000 211.16900 211.39700 211.33400 211.03900 210.67200 210.30200
 209.91900 209.62900 209.43700 209.30100 209.22900 209.56000 209.94600 210.33500
 211.12800 212.30600 213.55600 215.33900 217.26700 219.31000 221.40500 223.48800
 225.54800 227.63200 229.72900 231.83500 233.96400 236.13600 238.39200 240.76200
 243.38300 245.63400 247.63600 249.40100 250.81800 251.94100 252.76300 253.07900
 253.11600 252.89000 252.25000 251.19800 249.80400 247.96500 245.87400 243.70700
 241.49800 239.30200 237.12200 234.96100 232.82100 230.68800 228.71400 226.87100
 225.15400 223.62600 222.25600 221.02800 219.91000 218.87000 217.97400 217.11500
 216.35700 215.53700 214.63500 213.99900 213.44900 212.85855 212.01316 212.61654
 214.26826 216.08686 218.14273 220.53346 223.40855 226.78828 231.49734 235.90155
 239.42278 243.28576 247.23140 251.11907 254.80144 258.23331 261.38913 264.27520
 266.89312 269.26852 271.44504 273.08845 274.58484 275.98591 277.39845 278.65879
 279.75272 280.69038 281.56708 282.34086 283.01050 283.60295 284.14348 284.63317
 285.07358 285.46577 285.80838 286.24500
 381.81900 372.39900 361.20600 349.77600 337.62200 324.85300 311.81000 298.35300
 284.86000 271.32400 258.56100 246.30400 236.08700 226.79600 218.44800 211.29000
 205.52200 200.89400 197.38100 194.84800 193.01500 192.31500 192.25000 192.43100
 192.91200 193.53700 194.13600 194.71200 195.26200 195.83100 196.39300 196.97600
 197.60400 198.14900 198.58400 199.05700 199.69500 200.37800 201.05400 201.70800
 202.31300 202.85700 203.35500 203.86200 204.56900 205.29700 206.02600 206.98700
 208.19300 209.44100 210.96900 212.57600 214.46200 216.51300 218.63000 220.85300
 223.34100 225.96200 228.73900 231.69700 234.70600 237.70600 240.69200 243.65700
 246.73700 249.69900 252.52100 255.06300 257.29000 259.23300 260.63300 261.68000
 262.46100 262.79800 262.69100 262.22400 261.06900 259.52500 257.70700 255.50700
 253.00100 250.30200 247.39800 244.45200 241.65400 239.05400 236.73300 234.59000
 232.59500 230.72500 228.83400 226.82600 224.66600 222.38700 220.10400 217.71500
 215.45900 213.06600 210.54600 208.09300 205.35400 202.08130 196.05959 200.71215
 209.01611 216.90438 223.84126 229.78593 235.00632 240.20838 245.98943 250.68668
 254.32982 257.93487 261.55666 264.96801 268.15192 271.06452 273.76717 276.25691
 278.57680 280.74479 282.77456 284.60533 286.27232 287.81705 289.31715 290.65561
 291.81734 292.81312 293.70701 294.49387 295.17482 295.77730 296.32696 296.82492
 297.27278 297.67160 298.02000 298.46400
 399.33000 389.90700 379.81300 368.66800 357.52200 345.30100 333.07400 320.22700
 307.21600 293.84800 280.37600 267.29600 254.61000 242.98700 232.15100 221.97700
 212.67200 204.28600 197.66900 192.82100 189.48600 187.45200 186.81400 187.08900
 187.78100 189.05400 190.64800 192.54200 194.63000 196.75200 198.67100 200.15800
 201.53500 202.48700 202.97500 203.34000 203.53900 203.49700 203.38500 203.24700
 203.00500 202.78600 202.60300 202.43700 202.42600 202.88800 203.42000 203.95100
 204.89500 205.99200 207.30100 208.95800 210.73800 213.10000 215.56400 218.18000
 220.96600 223.91800 226.96100 230.09200 233.29300 236.55700 239.95500 243.53700
 246.84500 249.39000 251.54200 253.47400 255.19500 256.48400 257.43100 258.05900
 258.21200 258.04000 257.58200 256.64300 255.23900 253.50700 251.40800 249.05600
 246.57600 243.99400 241.38900 238.83000 236.34400 233.98600 231.96900 230.11800
 228.42300 226.89900 225.54800 224.29700 223.10500 221.96500 220.95800 220.11300
 219.49000 218.92000 218.32500 217.88100 217.42300 216.96366 216.35568 216.80261
 217.73415 218.28582 218.64258 219.10077 220.44626 222.53987 226.38451 230.35736
 233.59734 237.39164 241.29814 245.22796 248.98002 252.51130 255.78595 258.80109
 261.54781 264.05210 266.34239 268.04198 269.58951 271.01303 272.35754 273.55718
 274.59842 275.49092 276.28989 276.99307 277.60161 278.14001 278.63122 279.07623
 279.47646 279.83287 280.14422 280.54100
 399.73800 389.78500 379.66200 368.15100 356.64100 344.35000 331.79200 318.88800
 305.72600 292.49300 279.20900 266.73800 254.69600 244.21100 234.45700 225.43300
 217.56900 210.45100 204.30000 199.30600 195.45800 192.57600 191.02700 190.38600
 190.23900 190.53400 191.16600 191.92500 192.79500 193.76600 194.73200 195.31200
 195.80000 196.05200 196.11500 196.11500 196.03900 195.72300 195.34000 194.98900
 194.75100 194.79200 195.13300 195.59800 196.50600 198.13600 199.85800 201.56600
 204.17900 206.82300 209.89300 213.28400 216.82800 220.60500 224.38700 228.20900
 232.03200 235.82500 239.56000 243.25800 246.84500 250.20100 253.70900 257.46800
 261.53000 264.22100 266.60100 268.68100 270.32900 271.74100 272.83600 273.47400
 273.89800 274.00200 273.75700 273.28800 272.37100 271.10000 269.58900 267.77900
 265.81600 263.72100 261.39300 258.91600 256.29800 253.42300 250.33100 247.11400
 243.83700 240.52900 237.24900 233.99900 230.72800 227.51500 224.25400 220.95200
 217.62700 213.65600 210.12100 206.78900 204.01000 201.99491 199.07309 198.76551
 199.40006 200.48994 201.46112 202.31912 203.45100 204.96110 207.47502 210.85391
 213.70530 217.29629 220.99574 224.72316 228.28753 231.64854 234.68024 237.40893
 239.70644 241.60899 243.46854 245.67368 247.68154 249.52395 251.24767 252.78566
 254.12057 255.26479 256.23740 257.09036 257.82852 258.48160 259.07744 259.61723
 260.10271 260.53504 260.91270 261.39400
 399.73800 389.78500 379.66200 368.15100 356.64100 344.35000 331.79200 318.88800
 305.72600 292.49300 279.20900 266.73800 254.69600 244.21100 234.45700 225.43300
 217.56900 210.45100 204.30000 199.30600 195.45800 192.57600 191.02700 190.38600
 190.23900 190.53400 191.16600 191.92500 192.79500 193.76600 194.73200 195.31200
 195.80000 196.05200 196.11500 196.11500 196.03900 195.72300 195.34000 194.98900
 194.75100 194.79200 195.13300 195.59800 196.50600 198.13600 199.85800 201.56600
 204.17900 206.82300 209.89300 213.28400 216.82800 220.60500 224.38700 228.20900
 232.03200 235.82500 239.56000 243.25800 246.84500 250.20100 253.70900 257.46800
 261.53000 264.22100 266.60100 268.68100 270.32900 271.74100 272.83600 273.47400
 273.89800 274.00200 273.75700 273.28800 272.37100 271.10000 269.58900 267.77900
 265.81600 263.72100 261.39300 258.91600 256.29800 253.42300 250.33100 247.11400
 243.83700 240.52900 237.24900 233.99900 230.72800 227.51500 224.25400 220.95200
 217.62700 213.65600 210.12100 206.78900 204.01000 201.99491 199.07309 198.76551
 199.40006 200.48994 201.46112 202.31912 203.45100 204.96110 207.47502 210.85391
 213.70530 217.29629 220.99574 224.72316 228.28753 231.64854 234.68024 237.40893
 239.70644 241.60899 243.46854 245.67368 247.68154 249.52395 251.24767 252.78566
 254.12057 255.26479 256.23740 257.09036 257.82852 258.48160 259.07744 259.61723
 260.10271 260.53504 260.91270 261.39400
 399.33000 389.90700 379.81300 368.66800 357.52200 345.30100 333.07400 320.22700
 307.21600 293.84800 280.37600 267.29600 254.61000 242.98700 232.15100 221.97700
 212.67200 204.28600 197.66900 192.82100 189.48600 187.45200 186.81400 187.08900
 187.78100 189.05400 190.64800 192.54200 194.63000 196.75200 198.67100 200.15800
 201.53500 202.48700 202.97500 203.34000 203.53900 203.49700 203.38500 203.24700
 203.00500 202.78600 202.60300 202.43700 202.42600 202.88800 203.42000 203.95100
 204.89500 205.99200 207.30100 208.95800 210.73800 213.10000 215.56400 218.18000
 220.96600 223.91800 226.96100 230.09200 233.29300 236.55700 239.95500 243.53700
 246.84500 249.39000 251.54200 253.47400 255.19500 256.48400 257.43100 258.05900
 258.21200 258.04000 257.58200 256.64300 255.23900 253.50700 251.40800 249.05600
 246.57600 243.99400 241.38900 238.83000 236.34400 233.98600 231.96900 230.11800
 228.42300 226.89900 225.54800 224.29700 223.10500 221.96500 220.95800 220.11300
 219.49000 218.92000 218.32500 217.88100 217.42300 216.96366 216.35568 216.80261
 217.73415 218.28582 218.64258 219.10077 220.44626 222.53987 226.38451 230.35736
 233.59734 237.39164 241.29814 245.22796 248.98002 252.51130 255.78595 258.80109
 261.54781 264.05210 266.34239 268.04198 269.58951 271.01303 272.35754 273.55718
 274.59842 275.49092 276.28989 276.99307 277.60161 278.14001 278.63122 279.07623
 279.47646 279.83287 280.14422 280.54100
 381.81900 372.39900 361.20600 349.77600 337.62200 324.85300 311.81000 298.35300
 284.86000 271.32400 258.56100 246.30400 236.08700 226.79600 218.44800 211.29000
 205.52200 200.89400 197.38100 194.84800 193.01500 192.31500 192.25000 192.43100
 192.91200 193.53700 194.13600 194.71200 195.26200 195.83100 196.39300 196.97600
 197.60400 198.14900 198.58400 199.05700 199.69500 200.37800 201.05400 201.70800
 202.31300 202.85700 203.35500 203.86200 204.56900 205.29700 206.02600 206.98700
 208.19300 209.44100 210.96900 212.57600 214.46200 216.51300 218.63000 220.85300
 223.34100 225.96200 228.73900 231.69700 234.70600 237.70600 240.69200 243.65700
 246.73700 249.69900 252.52100 255.06300 257.29000 259.23300 260.63300 261.68000
 262.46100 262.79800 262.69100 262.22400 261.06900 259.52500 257.70700 255.50700
 253.00100 250.30200 247.39800 244.45200 241.65400 239.05400 236.73300 234.59000
 232.59500 230.72500 228.83400 226.82600 224.66600 222.38700 220.10400 217.71500
 215.45900 213.06600 210.54600 208.09300 205.35400 202.08130 196.05959 200.71215
 209.01611 216.90438 223.84126 229.78593 235.00632 240.20838 245.98943 250.68668
 254.32982 257.93487 261.55666 264.96801 268.15192 271.06452 273.76717 276.25691
 278.57680 280.74479 282.77456 284.60533 286.27232 287.81705 289.31715 290.65561
 291.81734 292.81312 293.70701 294.49387 295.17482 295.77730 296.32696 296.82492
 297.27278 297.67160 298.02000 298.46400
 366.78100 356.32572 345.74845 334.60517 322.99889 311.18361 299.04434 286.83806
 274.54078 262.42850 250.42823 239.71995 229.83267 220.92740 213.10012 206.09284
 199.91756 194.84629 191.41901 189.45173 188.47945 188.53418 189.35990 190.65862
 192.37434 194.46007 196.71379 199.06351 201.49924 203.96996 206.04868 207.88140
 209.49813 210.63385 210.85357 211.07229 211.00002 210.69574 210.31946 209.94019
 209.54791 209.24863 209.04735 208.90208 208.82080 209.14252 209.51924 209.89897
 210.68269 211.85141 213.09214 214.86586 216.78458 218.81830 220.90403 222.97775
 225.02847 227.10319 229.19092 231.28764 233.40736 235.57009 237.81681 240.17753
 242.78925 245.03098 247.02370 248.77942 250.18714 251.30087 252.11359 252.42031
 252.44803 252.21276 251.56348 250.50220 249.09893 247.25065 245.15037 242.97409
 240.75582 238.55054 236.36126 234.19098 232.04171 229.89943 227.91615 226.06388
 224.33760 222.80032 221.42104 220.18377 219.05649 218.00721 217.10193 216.23366
 215.46638 214.63710 213.72583 213.08055 212.52127 212.44830 212.28642 213.46484
 215.23125 217.31511 218.47536 218.52596 219.77599 223.16246 228.33334 232.96025
 236.74683 240.55263 244.23929 247.75803 251.08107 253.84741 256.18030 258.61911
 261.81003 264.65219 266.76758 268.53375 270.36099 272.31876 274.11108 275.69440
 277.10056 278.49957 280.00174 281.36670 282.55203 283.60449 284.56940 285.45206
 286.25061 286.96899 287.60425 288.44827
 366.78100 356.32565 345.74830 334.60496 322.99861 311.18326 299.04391 286.83756
 274.54021 262.42787 250.42752 239.71917 229.83182 220.92647 213.09912 206.09178
 199.91643 194.84508 191.41773 189.45038 188.47804 188.53269 189.35834 190.65699
 192.37264 194.45829 196.71195 199.06160 201.49725 203.96790 206.04655 207.87920
 209.49586 210.63151 210.85116 211.06981 210.99746 210.69311 210.31677 209.93742
 209.54507 209.24572 209.04437 208.89903 208.81768 209.13933 209.51598 209.89563
 210.67928 211.84794 213.08859 214.86224 216.78089 218.81454 220.90019 222.97385
 225.02450 227.09915 229.18680 231.28345 233.40311 235.56576 237.81241 240.17306
 242.78471 245.02636 247.01902 248.77467 250.18232 251.29597 252.10862 252.41527
 252.44293 252.20758 251.55823 250.49688 249.09353 247.24519 245.14484 242.96849
 240.75014 238.54479 236.35544 234.18510 232.03575 229.89340 227.91005 226.05770
 224.33135 222.79401 221.41466 220.17731 219.04996 218.00061 217.09526 216.22692
 215.45957 214.63022 213.71887 213.07352 212.51418 212.47533 212.39262 213.59695
 215.31413 217.34335 218.60007 218.73357 219.92337 223.20259 228.27254 232.82788
 236.57790 240.38286 244.09023 247.61160 250.88837 253.61014 255.96938 258.48587
 261.65585 264.47073 266.59662 268.38766 270.22089 272.16992 273.95801 275.55200
 276.98904 278.41431 279.92538 281.29132 282.47818 283.53110 284.49722 285.37811
 286.17792 286.89615 287.53146 288.37592
 366.78100 356.32552 345.74805 334.60457 322.99810 311.18262 299.04315 286.83667
 274.53920 262.42672 250.42625 239.71777 229.83030 220.92482 213.09735 206.08987
 199.91440 194.84292 191.41545 189.44797 188.47550 188.53002 189.35555 190.65407
 192.36960 194.45512 196.70864 199.05817 201.49369 203.96422 206.04274 207.87527
 209.49179 210.62732 210.84684 211.06537 210.99289 210.68842 210.31194 209.93247
 209.53999 209.24052 209.03904 208.89357 208.81209 209.13362 209.51014 209.88967
 210.67319 211.84172 213.08224 214.85576 216.77429 218.80781 220.89334 222.96686
 225.01739 227.09191 229.17944 231.27596 233.39549 235.55801 237.80454 240.16506
 242.77659 245.01811 247.01064 248.76616 250.17369 251.28721 252.09974 252.40626
 252.43379 252.19831 251.54884 250.48736 249.08388 247.23541 245.13493 242.95846
 240.73998 238.53451 236.34503 234.17456 232.02508 229.88261 227.89913 226.04666
 224.32018 222.78271 221.40323 220.16576 219.03828 217.98881 217.08333 216.21486
 215.44738 214.61791 213.70643 213.06096 212.50148 212.50098 212.50740 213.73354
 215.37418 217.37959 218.72012 218.95088 220.09343 223.25633 228.21150 232.69646
 236.40410 240.20770 243.93411 247.44931 250.67941 253.36650 255.75719 258.35104
 261.49896 264.28522 266.42047 268.24023 270.08652 272.03134 273.81635 275.42203
 276.88980 278.33817 279.85330 281.22095 282.40735 283.46127 284.42752 285.30881
 286.10825 286.82751 287.46274 288.30756
 366.78100 356.32543 345.74785 334.60428 322.99771 311.18213 299.04256 286.83599
 274.53841 262.42584 250.42527 239.71669 229.82912 220.92355 213.09597 206.08840
 199.91283 194.84125 191.41368 189.44611 188.47353 188.52796 189.35339 190.65181
 192.36724 194.45267 196.70609 199.05552 201.49095 203.96137 206.03980 207.87223
 209.48865 210.62408 210.84351 211.06193 210.98936 210.68479 210.30821 209.92864
 209.53607 209.23649 209.03492 208.88935 208.80777 209.12920 209.50563 209.88505
 210.66848 211.83691 213.07733 214.85076 216.76919 218.80261 220.88804 222.96147
 225.01189 227.08632 229.17375 231.27017 233.38960 235.55203 237.79845 240.15888
 242.77031 245.01173 247.00416 248.75959 250.16701 251.28044 252.09287 252.39929
 252.42672 252.19115 251.54157 250.48000 249.07643 247.22785 245.12728 242.95071
 240.73213 238.52656 236.33699 234.16642 232.01684 229.87427 227.89070 226.03812
 224.31155 222.77398 221.39440 220.15683 219.02926 217.97968 217.07411 216.20554
 215.43796 214.60839 213.69682 213.05124 212.49167 212.52975 212.62599 213.87021
 215.43034 217.41551 218.82742 219.17781 220.28639 223.31970 228.15469 232.55673
 236.23172 240.03706 243.76915 247.26527 250.44945 253.11305 255.54250 258.21225
 261.33908 264.09775 266.24225 268.09320 269.95782 271.90262 273.68558 275.30237
 276.79880 278.26764 279.78543 281.15341 282.34100 283.39474 284.36133 285.24277
 286.04254 286.76147 287.39719 288.24249
 366.78100 356.32541 345.74783 334.60424 322.99765 311.18207 299.04248 286.83589
 274.53831 262.42572 250.42513 239.71655 229.82896 220.92337 213.09579 206.08820
 199.91261 194.84103 191.41344 189.44585 188.47327 188.52768 189.35310 190.65151
 192.36692 194.45234 196.70575 199.05516 201.49058 203.96099 206.03940 207.87182
 209.48823 210.62364 210.84306 211.06147 210.98888 210.68430 210.30771 209.92812
 209.53554 209.23595 209.03436 208.88878 208.80719 209.12860 209.50502 209.88443
 210.66784 211.83626 213.07667 214.85008 216.76850 218.80191 220.88732 222.96074
 225.01115 227.08556 229.17298 231.26939 233.38880 235.55122 237.79763 240.15804
 242.76946 245.01087 247.00329 248.75870 250.16611 251.27953 252.09194 252.39835
 252.42577 252.19018 251.54059 250.47901 249.07542 247.22683 245.12625 242.94966
 240.73107 238.52549 236.33590 234.16531 232.01573 229.87314 227.88955 226.03697
 224.31038 222.77279 221.39321 220.15562 219.02803 217.97845 217.07286 216.20427
 215.43669 214.60710 213.69551 213.04993 212.49034 212.56404 212.74309 214.00661
 215.48741 217.44907 218.93748 219.39998 220.48825 223.39249 228.10544 232.41624
 236.06314 239.86981 243.59450 247.06187 250.20175 252.85040 255.32451 258.06958
 261.17639 263.90887 266.06256 267.94534 269.83368 271.78293 273.56720 275.19437
 276.71274 278.20087 279.72113 281.08957 282.27673 283.33087 284.29688 285.18005
 285.97922 286.69785 287.33423 288.17966
 366.78100 356.32542 345.74785 334.60427 322.99770 311.18212 299.04255 286.83597
 274.53840 262.42582 250.42524 239.71667 229.82909 220.92352 213.09594 206.08837
 199.91279 194.84121 191.41364 189.44606 188.47349 188.52791 189.35334 190.65176
 192.36719 194.45261 196.70603 199.05546 201.49088 203.96131 206.03973 207.87216
 209.48858 210.62401 210.84343 211.06185 210.98928 210.68470 210.30813 209.92855
 209.53598 209.23640 209.03482 208.88925 208.80767 209.12910 209.50552 209.88495
 210.66837 211.83680 213.07722 214.85064 216.76907 218.80249 220.88792 222.96134
 225.01177 227.08619 229.17362 231.27004 233.38946 235.55189 237.79831 240.15874
 242.77016 245.01159 247.00401 248.75943 250.16686 251.28028 252.09271 252.39913
 252.42656 252.19098 251.54141 250.47983 249.07625 247.22768 245.12710 242.95053
 240.73195 238.52638 236.33680 234.16623 232.01665 229.87407 227.89050 226.03792
 224.31135 222.77377 221.39420 220.15662 219.02904 217.97947 217.07389 216.20532
 215.43774 214.60817 213.69659 213.05102 212.49144 212.60060 212.86224 214.14110
 215.54326 217.48476 219.05547 219.61276 220.69342 223.47311 228.06273 232.29092
 235.90248 239.70274 243.40958 246.84106 249.93936 252.58083 255.10229 257.91797
 261.00790 263.71628 265.87802 267.79437 269.71344 271.67410 273.46255 275.09982
 276.63556 278.13776 279.65854 281.02618 282.21368 283.26846 284.23563 285.11667
 285.91602 286.63675 287.27237 288.11563
 366.78100 356.32548 345.74797 334.60445 322.99794 311.18242 299.04290 286.83639
 274.53887 262.42635 250.42584 239.71732 229.82981 220.92429 213.09677 206.08926
 199.91374 194.84222 191.41471 189.44719 188.47468 188.52916 189.35464 190.65313
 192.36861 194.45409 196.70758 199.05706 201.49255 203.96303 206.04151 207.87400
 209.49048 210.62596 210.84545 211.06393 210.99142 210.68690 210.31038 209.93087
 209.53835 209.23883 209.03732 208.89180 208.81029 209.13177 209.50825 209.88774
 210.67122 211.83970 213.08019 214.85367 216.77216 218.80564 220.89112 222.96461
 225.01509 227.08957 229.17706 231.27354 233.39303 235.55551 237.80199 240.16248
 242.77396 245.01544 247.00793 248.76341 250.17090 251.28438 252.09686 252.40335
 252.43083 252.19531 251.54580 250.48428 249.08077 247.23225 245.13173 242.95522
 240.73670 238.53118 236.34167 234.17115 232.02164 229.87912 227.89560 226.04309
 224.31657 222.77905 221.39954 220.16202 219.03451 217.98499 217.07947 216.21096
 215.44344 214.61392 213.70241 213.05689 212.49738 212.64040 212.98090 214.27007
 215.60112 217.52246 219.17302 219.81924 220.90266 223.56030 228.02628 232.18594
 235.75571 239.53944 243.21687 246.60181 249.66100 252.30257 254.87361 257.75354
 260.82791 263.51584 265.69012 267.64575 269.59998 271.57690 273.37289 275.01978
 276.56888 278.07663 279.59714 280.96561 282.15274 283.20789 284.17551 285.05521
 285.85721 286.57651 287.21317 288.05969
 366.78100 356.32570 345.74839 334.60509 322.99878 311.18348 299.04418 286.83787
 274.54057 262.42826 250.42796 239.71966 229.83235 220.92705 213.09974 206.09244
 199.91714 194.84583 191.41853 189.45122 188.47892 188.53362 189.35931 190.65801
 192.37370 194.45940 196.71310 199.06279 201.49849 203.96918 206.04788 207.88058
 209.49727 210.63297 210.85266 211.07136 210.99906 210.69475 210.31845 209.93914
 209.54684 209.24754 209.04623 208.90093 208.81962 209.14132 209.51802 209.89771
 210.68141 211.85010 213.09080 214.86450 216.78319 218.81689 220.90258 222.97628
 225.02698 227.10167 229.18937 231.28606 233.40576 235.56846 237.81515 240.17585
 242.78754 245.02924 247.02194 248.77763 250.18533 251.29902 252.11172 252.41842
 252.44611 252.21081 251.56150 250.50020 249.09690 247.24859 245.14829 242.97198
 240.75368 238.54838 236.35907 234.18877 232.03946 229.89716 227.91386 226.06155
 224.33525 222.79794 221.41864 220.18134 219.05403 218.00473 217.09942 216.23112
 215.46382 214.63451 213.72321 213.07790 212.51860 212.68842 213.09122 214.39580
 215.66780 217.56203 219.28386 220.02255 221.11290 223.65500 227.99757 232.09541
 235.62727 239.38705 243.02097 246.34288 249.36053 252.01309 254.64015 257.57861
 260.63895 263.31012 265.50412 267.50369 269.49673 271.49219 273.29642 274.95081
 276.50970 278.01794 279.53909 280.90707 282.09586 283.15002 284.11807 284.99899
 285.80054 286.52081 287.15778 288.00848
 366.78100 356.32603 345.74906 334.60610 323.00013 311.18516 299.04619 286.84022
 274.54325 262.43129 250.43132 239.72335 229.83638 220.93141 213.10444 206.09748
 199.92251 194.85154 191.42457 189.45760 188.48563 188.54067 189.36670 190.66573
 192.38176 194.46779 196.72182 199.07186 201.50789 203.97892 206.05795 207.89098
 209.50801 210.64405 210.86408 211.08311 211.01114 210.70717 210.33120 209.95224
 209.56027 209.26130 209.06033 208.91536 208.83439 209.15643 209.53346 209.91349
 210.69752 211.86655 213.10758 214.88162 216.80065 218.83468 220.92071 222.99474
 225.04578 227.12081 229.20884 231.30587 233.42590 235.58893 237.83597 240.19700
 242.80903 245.05106 247.04409 248.80012 250.20816 251.32219 252.13522 252.44225
 252.47028 252.23531 251.58635 250.52538 249.12241 247.27444 245.17447 242.99850
 240.78054 238.57557 236.38660 234.21663 232.06766 229.92569 227.94273 226.09076
 224.36479 222.82782 221.44885 220.21188 219.08492 218.03595 217.13098 216.26301
 215.49604 214.66707 213.75611 213.11114 212.55217 212.74263 213.19328 214.51938
 215.74133 217.60909 219.39630 220.22054 221.31628 223.75352 227.97346 232.00975
 235.51195 239.24315 242.82132 246.06784 249.04396 251.71422 254.40097 257.39612
 260.44647 263.10770 265.32571 267.37012 269.40240 271.41733 273.22873 274.88858
 276.45477 277.96280 279.48413 280.85321 282.04221 283.09732 284.06531 284.94745
 285.74850 286.46945 287.10638 287.95862
 366.78100 356.32635 345.74971 334.60706 323.00141 311.18677 299.04812 286.84248
 274.54583 262.43418 250.43454 239.72689 229.84024 220.93560 213.10895 206.10230
 199.92766 194.85701 191.43037 189.46372 188.49207 188.54743 189.37378 190.67313
 192.38949 194.47584 196.73020 199.08055 201.51690 203.98826 206.06761 207.90096
 209.51832 210.65467 210.87502 211.09438 211.02273 210.71909 210.34344 209.96479
 209.57315 209.27450 209.07385 208.92921 208.84856 209.17091 209.54827 209.92862
 210.71298 211.88233 213.12368 214.89804 216.81739 218.85174 220.93810 223.01245
 225.06380 227.13916 229.22751 231.32487 233.44522 235.60857 237.85593 240.21728
 242.82963 245.07199 247.06534 248.82170 250.23005 251.34440 252.15776 252.46511
 252.49346 252.25882 251.61017 250.54952 249.14688 247.29923 245.19959 243.02394
 240.80629 238.60165 236.41300 234.24335 232.09471 229.95306 227.97041 226.11877
 224.39312 222.85648 221.47783 220.24118 219.11454 218.06589 217.16124 216.29360
 215.52695 214.69830 213.78766 213.14301 212.58437 212.79576 213.29521 214.63333
 215.82153 217.66873 219.51663 220.41153 221.50815 223.84654 227.94897 231.92599
 235.40834 239.11266 242.62370 245.78127 248.71262 251.40649 254.16031 257.21393
 260.25824 262.90927 265.14899 267.23868 269.31436 271.35165 273.17081 274.83508
 276.40994 277.91229 279.43286 280.80234 281.99191 283.04834 284.01611 284.89862
 285.70032 286.42157 287.06006 287.90948
 366.78100 356.32678 345.75056 334.60835 323.00313 311.18891 299.05069 286.84548
 274.54926 262.43804 250.43882 239.73161 229.84539 220.94117 213.11495 206.10873
 199.93452 194.86430 191.43808 189.47186 188.50065 188.55643 189.38321 190.68299
 192.39977 194.48656 196.74134 199.09212 201.52890 204.00069 206.08047 207.91425
 209.53203 210.66882 210.88960 211.10938 211.03816 210.73494 210.35973 209.98151
 209.59029 209.29207 209.09186 208.94764 208.86742 209.19020 209.56798 209.94877
 210.73355 211.90333 213.14511 214.91990 216.83968 218.87446 220.96124 223.03603
 225.08781 227.16359 229.25237 231.35015 233.47094 235.63472 237.88250 240.24428
 242.85707 245.09985 247.09363 248.85041 250.25919 251.37398 252.18776 252.49554
 252.52432 252.29011 251.64189 250.58167 249.17945 247.33224 245.23302 243.05780
 240.84058 238.63636 236.44815 234.27893 232.13071 229.98949 228.00728 226.15606
 224.43084 222.89462 221.51641 220.28019 219.15397 218.10575 217.20153 216.33432
 215.56810 214.73988 213.82966 213.18545 212.62723 212.85341 213.38779 214.74773
 215.89978 217.74240 219.64778 220.59679 221.69220 223.92964 227.92787 231.84840
 235.30865 238.98483 242.42204 245.48987 248.38214 251.10411 253.92195 257.02792
 260.06287 262.70178 264.97055 267.11459 269.23734 271.29886 273.12534 274.79285
 276.37253 277.86697 279.38586 280.75629 281.94614 283.00272 283.97180 284.85400
 285.65445 286.37842 287.01709 287.87149
 366.78100 356.32738 345.75176 334.61014 323.00553 311.19191 299.05429 286.84967
 274.55405 262.44343 250.44482 239.73820 229.85258 220.94896 213.12334 206.11772
 199.94411 194.87449 191.44887 189.48325 188.51263 188.56901 189.39640 190.69678
 192.41416 194.50154 196.75692 199.10830 201.54569 204.01807 206.09845 207.93283
 209.55121 210.68859 210.90998 211.13036 211.05974 210.75712 210.38250 210.00488
 209.61427 209.31665 209.11703 208.97341 208.89379 209.21717 209.59556 209.97694
 210.76232 211.93270 213.17508 214.95046 216.87085 218.90623 220.99361 223.06899
 225.12137 227.19775 229.28714 231.38552 233.50690 235.67128 237.91966 240.28204
 242.89543 245.13881 247.13319 248.89057 250.29995 251.41533 252.22972 252.53810
 252.56748 252.33386 251.68624 250.62662 249.22500 247.37839 245.27977 243.10515
 240.88853 238.68491 236.49729 234.32868 232.18106 230.04044 228.05882 226.20820
 224.48358 222.94797 221.57035 220.33473 219.20911 218.16149 217.25787 216.39126
 215.62564 214.79802 213.88840 213.24478 212.68716 212.91920 213.46739 214.85004
 215.99969 217.81300 219.78502 220.78711 221.85876 223.99777 227.90231 231.77563
 235.21788 238.86710 242.23070 245.20778 248.05437 250.79794 253.67581 256.82980
 259.85791 262.49478 264.80215 267.00348 269.17239 271.25723 273.08899 274.75632
 276.33557 277.82574 279.34528 280.71448 281.90497 282.96255 283.93045 284.81430
 285.61636 286.33887 286.97879 287.83499
 366.78100 356.32817 345.75334 334.61251 323.00869 311.19586 299.05903 286.85520
 274.56037 262.45054 250.45272 239.74689 229.86206 220.95923 213.13440 206.12957
 199.95675 194.88792 191.46309 189.49826 188.52843 188.58560 189.41377 190.71495
 192.43312 194.52129 196.77746 199.12963 201.56780 204.04098 206.12215 207.95732
 209.57649 210.71466 210.93683 211.15801 211.08818 210.78635 210.41252 210.03569
 209.64586 209.34904 209.15021 209.00738 208.92855 209.25272 209.63189 210.01406
 210.80024 211.97141 213.21458 214.99075 216.91192 218.94809 221.03627 223.11244
 225.16561 227.24278 229.33295 231.43212 233.55430 235.71947 237.96864 240.33181
 242.94598 245.19015 247.18532 248.94350 250.35367 251.46984 252.28501 252.59418
 252.62435 252.39153 251.74470 250.68587 249.28504 247.43921 245.34138 243.16756
 240.95173 238.74890 236.56207 234.39424 232.24741 230.10759 228.12676 226.27693
 224.55310 223.01827 221.64144 220.40661 219.28179 218.23496 217.33213 216.46630
 215.70147 214.87464 213.96582 213.32299 212.76616 212.99432 213.53337 214.94585
 216.11232 217.87549 219.91888 221.02576 222.02191 224.07845 227.87744 231.71141
 235.14500 238.76715 242.04942 244.91336 247.69760 250.46503 253.41452 256.62595
 259.65744 262.30035 264.64774 266.90442 269.11673 271.22104 273.05707 274.72330
 276.30276 277.78833 279.30551 280.67603 281.86676 282.92474 283.89340 284.77673
 285.57959 286.30246 286.94351 287.80093
 366.78100 356.32856 345.75412 334.61367 323.01023 311.19779 299.06135 286.85791
 274.56346 262.45402 250.45658 239.75114 229.86670 220.96425 213.13981 206.13537
 199.96293 194.89449 191.47004 189.50560 188.53616 188.59372 189.42227 190.72383
 192.44239 194.53095 196.78751 199.14006 201.57862 204.05218 206.13374 207.96930
 209.58885 210.72741 210.94997 211.17153 211.10209 210.80064 210.42720 210.05076
 209.66132 209.36488 209.16643 209.02399 208.94555 209.27011 209.64967 210.03222
 210.81878 211.99034 213.23390 215.01046 216.93201 218.96857 221.05713 223.13369
 225.18724 227.26480 229.35536 231.45492 233.57748 235.74303 237.99259 240.35615
 242.97071 245.21527 247.21082 248.96938 250.37994 251.49650 252.31206 252.62161
 252.65217 252.41973 251.77329 250.71485 249.31440 247.46896 245.37152 243.19808
 240.98264 238.78019 236.59375 234.42631 232.27987 230.14043 228.15998 226.31054
 224.58710 223.05266 221.67621 220.44177 219.31733 218.27089 217.36845 216.50300
 215.73856 214.91212 214.00368 213.36124 212.80479 213.04697 213.61913 215.02742
 216.21948 217.98732 220.03616 221.22845 222.15288 224.13062 227.87424 231.68964
 235.09392 238.67039 241.85201 244.59042 247.32288 250.12930 253.16022 256.43130
 259.46698 262.11295 264.50006 266.81488 269.07184 271.19565 273.03275 274.69476
 276.26657 277.75388 279.27243 280.64249 281.83350 282.89151 283.86099 284.74405
 285.54797 286.27103 286.91205 287.77127
 366.78100 356.32890 345.75480 334.61469 323.01159 311.19949 299.06339 286.86029
 274.56618 262.45708 250.45998 239.75488 229.87078 220.96867 213.14457 206.14047
 199.96837 194.90027 191.47617 189.51206 188.54296 188.60086 189.42976 190.73166
 192.45055 194.53945 196.79635 199.14925 201.58815 204.06204 206.14394 207.97984
 209.59974 210.73864 210.96153 211.18343 211.11433 210.81323 210.44013 210.06402
 209.67492 209.37882 209.18072 209.03862 208.96051 209.28541 209.66531 210.04821
 210.83511 212.00701 213.25090 215.02780 216.94970 218.98660 221.07550 223.15239
 225.20629 227.28419 229.37509 231.47499 233.59788 235.76378 238.01368 240.37758
 242.99248 245.23737 247.23327 248.99217 250.40307 251.51997 252.33586 252.64576
 252.67666 252.44456 251.79846 250.74035 249.34025 247.49515 245.39805 243.22495
 241.00984 238.80774 236.62164 234.45454 232.30844 230.16934 228.18923 226.34013
 224.61703 223.08293 221.70683 220.47272 219.34862 218.30252 217.40042 216.53532
 215.77121 214.94511 214.03701 213.39491 212.83881 213.09454 213.69879 215.11679
 216.32930 218.12312 220.12962 221.40431 222.27679 224.18951 227.90131 231.68144
 235.03941 238.54890 241.61708 244.24760 246.95161 249.80757 252.91867 256.24591
 259.28314 261.93304 264.36127 266.73334 269.03616 271.17911 273.01718 274.67496
 276.23553 277.72217 279.24023 280.61078 281.80249 282.86060 283.82898 284.71387
 285.51764 286.24170 286.88348 287.74387
 366.78100 356.32969 345.75637 334.61706 323.01475 311.20343 299.06812 286.86581
 274.57250 262.46418 250.46787 239.76356 229.88024 220.97893 213.15562 206.15230
 199.98099 194.91368 191.49036 189.52705 188.55874 188.61743 189.44711 190.74980
 192.46949 194.55917 196.81686 199.17055 201.61023 204.08492 206.16761 208.00430
 209.62498 210.76467 210.98836 211.21104 211.14273 210.84242 210.47010 210.09479
 209.70648 209.41116 209.21385 209.07254 208.99523 209.32091 209.70160 210.08529
 210.87297 212.04566 213.29035 215.06803 216.99072 219.02841 221.11809 223.19578
 225.25047 227.32916 229.42084 231.52153 233.64522 235.81190 238.06259 240.42728
 243.04296 245.28865 247.28534 249.04503 250.45671 251.57440 252.39109 252.70177
 252.73346 252.50215 251.85683 250.79952 249.40021 247.55589 245.45958 243.28727
 241.07296 238.87164 236.68633 234.52002 232.37470 230.23639 228.25708 226.40876
 224.68645 223.15314 221.77782 220.54451 219.42120 218.37589 217.47457 216.61026
 215.84695 215.02163 214.11432 213.47301 212.91769 213.16240 213.74051 215.22755
 216.46532 218.26180 220.22408 221.54439 222.41145 224.25877 227.93393 231.65244
 234.95975 238.39566 241.35811 243.90526 246.58339 249.49025 252.68587 256.06998
 259.11594 261.77551 264.24039 266.66211 269.00171 271.15842 272.99756 274.66040
 276.22079 277.69351 279.20963 280.57971 281.77179 282.83047 283.80096 284.68387
 285.48822 286.21317 286.85590 287.71802
 366.78100 356.33022 345.75745 334.61867 323.01690 311.20612 299.07135 286.86957
 274.57679 262.46902 250.47324 239.76947 229.88669 220.98592 213.16314 206.16037
 199.98959 194.92281 191.50004 189.53726 188.56949 188.62871 189.45894 190.76216
 192.48238 194.57261 196.83083 199.18506 201.62528 204.10051 206.18373 208.02096
 209.64218 210.78240 211.00663 211.22985 211.16208 210.86230 210.49053 210.11575
 209.72797 209.43320 209.23642 209.09565 209.01887 209.34510 209.72632 210.11054
 210.89877 212.07199 213.31722 215.09544 217.01867 219.05689 221.14712 223.22534
 225.28056 227.35979 229.45201 231.55324 233.67746 235.84469 238.09591 240.46113
 243.07736 245.32358 247.32081 249.08103 250.49326 251.61148 252.42870 252.73993
 252.77215 252.54138 251.89660 250.83983 249.44105 247.59728 245.50150 243.32972
 241.11595 238.91517 236.73040 234.56462 232.41985 230.28207 228.30329 226.45552
 224.73374 223.20097 221.82619 220.59342 219.47064 218.42587 217.52509 216.66131
 215.89854 215.07376 214.16699 213.52621 212.97144 213.21545 213.79195 215.32149
 216.61006 218.41621 220.33717 221.66463 222.57271 224.33681 227.94716 231.60440
 234.85635 238.21762 241.08844 243.56570 246.21725 249.17778 252.46272 255.90338
 258.96484 261.63455 264.13528 266.60345 268.97415 271.13757 272.97061 274.62564
 276.17352 277.67169 279.19196 280.56223 281.75433 282.81244 283.78116 284.66592
 285.46964 286.19345 286.83456 287.69757
 366.78100 356.33033 345.75766 334.61899 323.01732 311.20665 299.07198 286.87031
 274.57764 262.46997 250.47430 239.77063 229.88796 220.98729 213.16462 206.16195
 199.99128 194.92461 191.50194 189.53927 188.57160 188.63093 189.46126 190.76459
 192.48492 194.57525 196.83358 199.18791 201.62824 204.10357 206.18690 208.02423
 209.64556 210.78589 211.01022 211.23355 211.16588 210.86621 210.49454 210.11987
 209.73220 209.43753 209.24086 209.10019 209.02352 209.34985 209.73118 210.11551
 210.90384 212.07717 213.32250 215.10083 217.02416 219.06249 221.15282 223.23115
 225.28648 227.36581 229.45814 231.55947 233.68380 235.85113 238.10246 240.46779
 243.08412 245.33045 247.32778 249.08811 250.50044 251.61877 252.43610 252.74743
 252.77976 252.54909 251.90442 250.84775 249.44908 247.60541 245.50974 243.33807
 241.12440 238.92373 236.73906 234.57339 232.42872 230.29105 228.31238 226.46471
 224.74304 223.21037 221.83570 220.60303 219.48036 218.43569 217.53501 216.67134
 215.90867 215.08400 214.17733 213.53666 212.98199 213.24490 213.86609 215.39095
 216.76033 218.59100 220.45067 221.77956 222.75677 224.43370 227.94102 231.55276
 234.74658 238.02153 240.80052 243.21394 245.85620 248.87727 252.24992 255.74683
 258.82404 261.50598 264.04230 266.55579 268.95648 271.12439 272.94711 274.58716
 276.12296 277.64893 279.17386 280.54410 281.73624 282.79373 283.76404 284.64673
 285.45044 286.17529 286.81735 287.68015
 366.78100 356.33044 345.75788 334.61933 323.01777 311.20721 299.07265 286.87109
 274.57854 262.47098 250.47542 239.77186 229.88931 220.98875 213.16619 206.16363
 199.99307 194.92652 191.50396 189.54140 188.57384 188.63328 189.46373 190.76717
 192.48761 194.57805 196.83649 199.19094 201.63138 204.10682 206.19026 208.02771
 209.64915 210.78959 211.01403 211.23747 211.16992 210.87036 210.49880 210.12424
 209.73668 209.44213 209.24557 209.10501 209.02845 209.35489 209.73634 210.12078
 210.90922 212.08266 213.32810 215.10655 217.02999 219.06843 221.15887 223.23732
 225.29276 227.37220 229.46464 231.56608 233.69053 235.85797 238.10941 240.47485
 243.09129 245.33774 247.33518 249.09562 250.50806 251.62650 252.44395 252.75539
 252.78783 252.55727 251.91272 250.85616 249.45760 247.61404 245.51848 243.34693
 241.13337 238.93281 236.74825 234.58269 232.43814 230.30058 228.32202 226.47446
 224.75290 223.22035 221.84579 220.61323 219.49067 218.44612 217.54556 216.68200
 215.91944 215.09488 214.18833 213.54777 212.99321 213.27194 213.93051 215.46936
 216.91522 218.76346 220.56548 221.88158 222.93643 224.55852 227.93456 231.49757
 234.63078 237.80415 240.48018 242.84320 245.50294 248.59320 252.05032 255.60583
 258.69739 261.39481 263.96201 266.51297 268.93652 271.10876 272.92651 274.56479
 276.07227 277.63477 279.16013 280.52725 281.71472 282.77124 283.73792 284.62274
 285.42435 286.14819 286.78967 287.64999
 366.78100 356.33060 345.75820 334.61980 323.01840 311.20800 299.07360 286.87220
 274.57980 262.47240 250.47700 239.77360 229.89120 220.99080 213.16840 206.16600
 199.99560 194.92920 191.50680 189.54440 188.57700 188.63660 189.46720 190.77080
 192.49140 194.58200 196.84060 199.19520 201.63580 204.11140 206.19500 208.03260
 209.65420 210.79480 211.01940 211.24300 211.17560 210.87620 210.50480 210.13040
 209.74300 209.44860 209.25220 209.11180 209.03540 209.36200 209.74360 210.12820
 210.91680 212.09040 213.33600 215.11460 217.03820 219.07680 221.16740 223.24600
 225.30160 227.38120 229.47380 231.57540 233.70000 235.86760 238.11920 240.48480
 243.10140 245.34800 247.34560 249.10620 250.51880 251.63740 252.45500 252.76660
 252.79920 252.56880 251.92440 250.86800 249.46960 247.62620 245.53080 243.35940
 241.14600 238.94560 236.76120 234.59580 232.45140 230.31400 228.33560 226.48820
 224.76680 223.23440 221.86000 220.62760 219.50520 218.46080 217.56040 216.69700
 215.93460 215.11020 214.20380 213.56340 213.00900 213.29945 213.98566 215.55516
 217.07335 218.93091 220.69490 221.98119 223.09586 224.70618 227.94756 231.43579
 234.49300 237.55060 240.12222 242.46033 245.15936 248.32632 251.86478 255.47559
 258.58356 261.29532 263.89297 266.47351 268.91650 271.09396 272.90857 274.53934
 276.02313 277.60770 279.14142 280.51096 281.70157 282.76035 283.72830 284.61093
 285.41565 286.13980 286.78293 287.64948
 366.78100 356.33069 345.75839 334.62008 323.01877 311.20846 299.07416 286.87285
 274.58054 262.47324 250.47793 239.77462 229.89232 220.99201 213.16970 206.16739
 199.99709 194.93078 191.50847 189.54617 188.57886 188.63855 189.46924 190.77294
 192.49363 194.58432 196.84302 199.19771 201.63840 204.11410 206.19779 208.03548
 209.65717 210.79787 211.02256 211.24625 211.17895 210.87964 210.50833 210.13403
 209.74672 209.45241 209.25610 209.11580 209.03949 209.36618 209.74788 210.13257
 210.92126 212.09495 213.34065 215.11934 217.04303 219.08173 221.17242 223.25111
 225.30681 227.38650 229.47919 231.58088 233.70558 235.87327 238.12496 240.49066
 243.10735 245.35404 247.35173 249.11243 250.52512 251.64381 252.46151 252.77320
 252.80589 252.57559 251.93128 250.87497 249.47666 247.63336 245.53805 243.36674
 241.15344 238.95313 236.76882 234.60352 232.45921 230.32190 228.34359 226.49629
 224.77498 223.24267 221.86837 220.63606 219.51375 218.46944 217.56914 216.70583
 215.94352 215.11922 214.21291 213.57260 213.01830 213.32222 214.04030 215.64091
 217.22972 219.09641 220.83131 222.08601 223.24243 224.87192 227.99074 231.37004
 234.32898 237.25270 239.72534 242.06915 244.82906 248.07867 251.69519 255.35507
 258.48053 261.20786 263.82959 266.43442 268.89468 271.07971 272.88940 274.51648
 276.02451 277.58096 279.11060 280.48029 281.67184 282.72983 283.69949 284.58322
 285.38602 286.11072 286.75439 287.62708
 366.78100 356.33065 345.75830 334.61995 323.01860 311.20825 299.07390 286.87255
 274.58020 262.47285 250.47750 239.77415 229.89180 220.99145 213.16909 206.16674
 199.99639 194.93004 191.50769 189.54534 188.57799 188.63764 189.46829 190.77194
 192.49259 194.58324 196.84189 199.19654 201.63719 204.11284 206.19649 208.03414
 209.65579 210.79644 211.02109 211.24474 211.17739 210.87804 210.50669 210.13234
 209.74498 209.45063 209.25428 209.11393 209.03758 209.36423 209.74588 210.13053
 210.91918 212.09283 213.33848 215.11713 217.04078 219.07943 221.17008 223.24873
 225.30438 227.38403 229.47668 231.57833 233.70298 235.87063 238.12228 240.48793
 243.10458 245.35123 247.34887 249.10952 250.52217 251.64082 252.45847 252.77012
 252.80277 252.57242 251.92807 250.87172 249.47337 247.63002 245.53467 243.36332
 241.14997 238.94962 236.76527 234.59992 232.45557 230.31822 228.33987 226.49252
 224.77117 223.23882 221.86447 220.63212 219.50976 218.46541 217.56506 216.70171
 215.93936 215.11501 214.20866 213.56831 213.01396 213.33658 214.09877 215.72728
 217.37851 219.26068 220.96452 222.19104 223.39499 225.05586 228.05995 231.32002
 234.15082 236.90584 239.28714 241.66948 244.51074 247.84737 251.53929 255.24413
 258.39041 261.13199 263.77145 266.39432 268.86557 271.05151 272.85580 274.47162
 275.91901 277.60181 279.14111 280.50644 281.69489 282.75378 283.72470 284.61444
 285.42859 286.16348 286.81039 287.68152
 366.78100 356.33045 345.75790 334.61936 323.01781 311.20726 299.07271 286.87117
 274.57862 262.47107 250.47552 239.77197 229.88943 220.98888 213.16633 206.16378
 199.99323 194.92669 191.50414 189.54159 188.57404 188.63350 189.46395 190.76740
 192.48785 194.57830 196.83676 199.19121 201.63166 204.10711 206.19057 208.02802
 209.64947 210.78992 211.01437 211.23783 211.17028 210.87073 210.49918 210.12463
 209.73709 209.44254 209.24599 209.10544 209.02890 209.35535 209.73680 210.12125
 210.90970 212.08316 213.32861 215.10706 217.03051 219.06896 221.15942 223.23787
 225.29332 227.37277 229.46523 231.56668 233.69113 235.85858 238.11003 240.47549
 243.09194 245.33839 247.33584 249.09630 250.50875 251.62720 252.44465 252.75610
 252.78856 252.55801 251.91346 250.85691 249.45836 247.61482 245.51927 243.34772
 241.13417 238.93363 236.74908 234.58353 232.43898 230.30143 228.32289 226.47534
 224.75379 223.22124 221.84670 220.61415 219.49160 218.44705 217.54650 216.68296
 215.92041 215.09586 214.18931 213.54876 212.99422 213.34113 214.16072 215.82002
 217.51819 219.41382 221.09712 222.29956 223.55246 225.25896 228.14742 231.26895
 233.95769 236.53467 238.81900 241.25475 244.19798 247.63345 251.39957 255.14421
 258.31390 261.06879 263.72134 266.35468 268.83063 271.01581 272.81949 274.43405
 275.89279 277.59039 279.13776 280.50546 281.69635 282.75659 283.72855 284.61902
 285.43497 286.16943 286.81876 287.68680
 366.78100 356.33018 345.75736 334.61854 323.01672 311.20590 299.07108 286.86926
 274.57643 262.46861 250.47279 239.76897 229.88615 220.98533 213.16251 206.15969
 199.98887 194.92205 191.49923 189.53641 188.56859 188.62777 189.45795 190.76112
 192.48130 194.57148 196.82966 199.18384 201.62402 204.09920 206.18238 208.01956
 209.64074 210.78092 211.00510 211.22828 211.16046 210.86064 210.48881 210.11399
 209.72617 209.43135 209.23453 209.09371 209.01689 209.34307 209.72425 210.10843
 210.89661 212.06979 213.31497 215.09315 217.01633 219.05451 221.14468 223.22286
 225.27804 227.35722 229.44940 231.55058 233.67476 235.84194 238.09312 240.45830
 243.07448 245.32066 247.31784 249.07802 250.49020 251.60837 252.42555 252.73673
 252.76891 252.53809 251.89327 250.83645 249.43763 247.59381 245.49799 243.32617
 241.11235 238.91153 236.72671 234.56089 232.41606 230.27824 228.29942 226.45160
 224.72978 223.19696 221.82214 220.58932 219.46650 218.42168 217.52086 216.65704
 215.89422 215.06940 214.16258 213.52175 212.96693 213.33972 214.22047 215.92366
 217.65007 219.55412 221.22588 222.40710 223.72124 225.46523 228.23872 231.23050
 233.76900 236.13641 238.31982 240.83289 243.90269 247.44421 251.27498 255.05127
 258.24451 261.01630 263.68045 266.31866 268.79483 270.97632 272.77859 274.39172
 275.87732 277.58182 279.12979 280.49802 281.68872 282.74835 283.72098 284.61191
 285.42892 286.16165 286.81119 287.68149
 366.78100 356.32980 345.75660 334.61741 323.01521 311.20401 299.06881 286.86662
 274.57342 262.46522 250.46902 239.76483 229.88163 220.98043 213.15723 206.15403
 199.98284 194.91564 191.49244 189.52924 188.56105 188.61985 189.44965 190.75245
 192.47226 194.56206 196.81986 199.17366 201.61346 204.08827 206.17107 208.00787
 209.62867 210.76848 210.99228 211.21508 211.14688 210.84669 210.47449 210.09929
 209.71109 209.41589 209.21870 209.07750 209.00030 209.32610 209.70691 210.09071
 210.87851 212.05131 213.29611 215.07392 216.99672 219.03452 221.12432 223.20213
 225.25693 227.33573 229.42753 231.52834 233.65214 235.81894 238.06974 240.43454
 243.05035 245.29615 247.29295 249.05275 250.46456 251.58236 252.39916 252.70996
 252.74177 252.51057 251.86537 250.80817 249.40897 247.56478 245.46858 243.29638
 241.08218 238.88099 236.69579 234.52959 232.38439 230.24620 228.26700 226.41880
 224.69660 223.16340 221.78821 220.55501 219.43181 218.38661 217.48542 216.62122
 215.85802 215.03282 214.12563 213.48443 212.92923 213.33147 214.28177 216.03015
 217.78992 219.67987 221.32610 222.51230 223.89906 225.69165 228.33531 231.18864
 233.56020 235.71841 237.80901 240.42888 243.63341 247.27014 251.16074 254.96477
 258.18042 260.97247 263.64551 266.28375 268.75702 270.93369 272.73706 274.35352
 275.86343 277.57245 279.12042 280.48834 281.67947 282.73703 283.70938 284.60263
 285.41635 286.15491 286.80093 287.67270
 366.78100 356.32893 345.75487 334.61480 323.01174 311.19967 299.06360 286.86054
 274.56647 262.45741 250.46034 239.75527 229.87121 220.96914 213.14507 206.14101
 199.96894 194.90088 191.47681 189.51274 188.54368 188.60161 189.43055 190.73248
 192.45141 194.54035 196.79728 199.15022 201.58915 204.06308 206.14502 207.98095
 209.60089 210.73982 210.96275 211.18469 211.11562 210.81456 210.44149 210.06542
 209.67636 209.38029 209.18222 209.04016 208.96209 209.28703 209.66696 210.04989
 210.83683 212.00876 213.25270 215.02963 216.95156 218.98850 221.07743 223.15437
 225.20830 227.28623 229.37717 231.47710 233.60004 235.76597 238.01590 240.37984
 242.99477 245.23970 247.23564 248.99457 250.40551 251.52244 252.33837 252.64831
 252.67924 252.44718 251.80111 250.74304 249.34298 247.49791 245.40085 243.22778
 241.01271 238.81065 236.62458 234.45752 232.31145 230.17238 228.19232 226.34325
 224.62018 223.08612 221.71005 220.47599 219.35192 218.30585 217.40379 216.53872
 215.77466 214.94859 214.04052 213.39846 212.84239 213.29697 214.37094 216.11902
 217.93697 219.80791 221.42348 222.59146 224.02469 225.88670 228.46643 231.15970
 233.34738 235.29306 237.31433 240.03679 243.37753 247.11703 251.06075 254.88503
 258.12253 260.93369 263.61154 266.24789 268.71481 270.88736 272.69577 274.32269
 275.84955 277.56317 279.11200 280.47977 281.66974 282.72903 283.70148 284.59290
 285.40869 286.14499 286.79291 287.66400
 366.78100 356.32781 345.75261 334.61142 323.00723 311.19404 299.05684 286.85265
 274.55746 262.44727 250.44907 239.74288 229.85769 220.95450 213.12930 206.12411
 199.95092 194.88173 191.45653 189.49134 188.52115 188.57795 189.40576 190.70657
 192.42438 194.51218 196.76799 199.11980 201.55761 204.03041 206.11122 207.94603
 209.56484 210.70264 210.92445 211.14526 211.07507 210.77287 210.39868 210.02149
 209.63129 209.33410 209.13491 208.99172 208.91252 209.23633 209.61514 209.99695
 210.78275 211.95356 213.19637 214.97218 216.89298 218.92879 221.01660 223.09240
 225.14521 227.22202 229.31183 231.41063 233.53244 235.69725 237.94606 240.30886
 242.92267 245.16648 247.16129 248.91909 250.32890 251.44471 252.25952 252.56832
 252.59813 252.36494 251.71774 250.65855 249.25736 247.41117 245.31297 243.13878
 240.92259 238.71940 236.53220 234.36401 232.21682 230.07663 228.09543 226.24524
 224.52105 222.98586 221.60866 220.37347 219.24828 218.20108 217.29789 216.43170
 215.66651 214.83931 213.93012 213.28693 212.72974 213.24716 214.46962 216.22920
 218.06500 219.91835 221.49893 222.63519 224.17938 226.16605 228.56268 231.09271
 233.14751 234.90443 236.80577 239.64891 243.13736 246.97690 250.96718 254.80579
 258.06400 260.89740 263.58533 266.21939 268.68079 270.85202 272.66312 274.29257
 275.83966 277.55524 279.10294 280.47015 281.66006 282.71735 283.69037 284.57996
 285.39667 286.13303 286.78131 287.64938
 366.78100 356.32668 345.75037 334.60805 323.00273 311.18841 299.05010 286.84478
 274.54846 262.43714 250.43783 239.73051 229.84419 220.93987 213.11356 206.10724
 199.93292 194.86260 191.43629 189.46997 188.49865 188.55434 189.38102 190.68070
 192.39738 194.48407 196.73875 199.08943 201.52611 203.99780 206.07748 207.91116
 209.52884 210.66553 210.88621 211.10589 211.03457 210.73126 210.35594 209.97762
 209.58631 209.28799 209.08767 208.94335 208.86304 209.18572 209.56340 209.94408
 210.72877 211.89845 213.14013 214.91481 216.83450 218.86918 220.95586 223.03055
 225.08223 227.15791 229.24659 231.34428 233.46496 235.62864 237.87632 240.23801
 242.85069 245.09337 247.08705 248.84374 250.25242 251.36710 252.18078 252.48847
 252.51715 252.28283 251.63452 250.57420 249.17188 247.32456 245.22525 243.04993
 240.83261 238.62829 236.43998 234.27066 232.12234 229.98102 227.99871 226.14739
 224.42207 222.88575 221.50744 220.27112 219.14480 218.09649 217.19217 216.32485
 215.55853 214.73022 213.81990 213.17558 212.61726 213.19499 214.55994 216.37813
 218.16193 220.00266 221.58823 222.74858 224.28918 226.30473 228.60355 231.07585
 233.00587 234.54706 236.30742 239.28911 242.93932 246.86275 250.88716 254.73631
 258.02252 260.88089 263.57114 266.19586 268.64719 270.81189 272.62067 274.24561
 275.83304 277.56671 279.11929 280.48862 281.67984 282.74054 283.71518 284.61017
 285.42838 286.16727 286.81616 287.69083
 366.78100 356.32586 345.74873 334.60559 322.99946 311.18432 299.04519 286.83905
 274.54191 262.42978 250.42964 239.72151 229.83437 220.92924 213.10210 206.09496
 199.91983 194.84869 191.42156 189.45442 188.48229 188.53715 189.36301 190.66188
 192.37774 194.46361 196.71747 199.06734 201.50320 203.97406 206.05293 207.88579
 209.50266 210.63852 210.85839 211.07725 211.00512 210.70098 210.32484 209.94571
 209.55357 209.25444 209.05330 208.90817 208.82703 209.14889 209.52576 209.90562
 210.68949 211.85835 213.09922 214.87308 216.79194 218.82581 220.91167 222.98554
 225.03640 227.11127 229.19913 231.29599 233.41586 235.57872 237.82559 240.18645
 242.79832 245.04018 247.03304 248.78891 250.19677 251.31064 252.12350 252.43037
 252.45823 252.22309 251.57396 250.51282 249.10969 247.26155 245.16142 242.98528
 240.76714 238.56201 236.37287 234.20274 232.05360 229.91147 227.92833 226.07619
 224.35006 222.81292 221.43379 220.19665 219.06952 218.02038 217.11525 216.24711
 215.47997 214.65084 213.73970 213.09457 212.53543 213.15915 214.63278 216.51472
 218.27179 220.11011 221.67926 222.88873 224.36043 226.34270 228.61526 231.06879
 232.83115 234.12762 235.79723 238.92693 242.72533 246.78352 250.85855 254.73010
 258.03061 260.89328 263.57031 266.17340 268.60825 270.76080 272.55624 274.20013
 275.78311 277.51544 279.04230 280.40335 281.58734 282.64014 283.60669 284.49136
 285.29242 285.99963 286.56970 287.23904
 366.78100 356.32503 345.74706 334.60310 322.99613 311.18016 299.04019 286.83322
 274.53526 262.42229 250.42132 239.71235 229.82438 220.91842 213.09045 206.08248
 199.90651 194.83454 191.40657 189.43861 188.46564 188.51967 189.34470 190.64273
 192.35777 194.44280 196.69583 199.04486 201.47989 203.94993 206.02796 207.85999
 209.47602 210.61105 210.83009 211.04812 210.97515 210.67018 210.29321 209.91325
 209.52028 209.22031 209.01834 208.87237 208.79041 209.11144 209.48747 209.86650
 210.64953 211.81757 213.05760 214.83063 216.74866 218.78169 220.86672 222.93976
 224.98979 227.06382 229.15085 231.24688 233.36592 235.52795 237.77398 240.13401
 242.74504 244.98608 246.97811 248.73314 250.14017 251.25320 252.06524 252.37127
 252.39830 252.16233 251.51236 250.45040 249.04643 247.19746 245.09649 242.91952
 240.70056 238.49459 236.30462 234.13365 231.98368 229.84072 227.85675 226.00378
 224.27681 222.73884 221.35887 220.12091 218.99294 217.94297 217.03700 216.16803
 215.40007 214.57010 213.65813 213.01216 212.45219 213.12508 214.71539 216.62085
 218.38158 220.23415 221.76668 223.00546 224.46484 226.39291 228.65462 231.06471
 232.62341 233.68555 235.32243 238.58731 242.52937 246.71072 250.81429 254.70258
 258.01971 260.89838 263.56760 266.14868 268.56635 270.69907 272.47635 274.10614
 275.82068 277.51038 279.03006 280.38181 281.56146 282.61078 283.57336 284.45343
 285.24817 285.93692 286.44955 287.09503
 366.78100 356.32391 345.74482 334.59972 322.99163 311.17454 299.03345 286.82536
 274.52627 262.41217 250.41008 239.69999 229.81090 220.90381 213.07472 206.06562
 199.88853 194.81544 191.38635 189.41726 188.44317 188.49607 189.31998 190.61689
 192.33080 194.41471 196.66662 199.01452 201.44843 203.91734 205.99425 207.82516
 209.44007 210.57397 210.79188 211.00879 210.93470 210.62861 210.25051 209.86942
 209.47533 209.17424 208.97115 208.82406 208.74096 209.06087 209.43578 209.81369
 210.59560 211.76251 213.00141 214.77332 216.69023 218.72214 220.80605 222.87796
 224.92686 226.99977 229.08568 231.18059 233.29850 235.45941 237.70431 240.06322
 242.67313 244.91304 246.90395 248.65786 250.06376 251.17567 251.98658 252.29149
 252.31740 252.08030 251.42921 250.36612 248.96103 247.11094 245.00885 242.83075
 240.61066 238.40357 236.21248 234.04039 231.88930 229.74520 227.76011 225.90602
 224.17793 222.63884 221.25775 220.01865 218.88956 217.83847 216.93138 216.06129
 215.29220 214.46110 213.54801 212.90092 212.33983 213.07568 214.81424 216.73969
 218.48552 220.32881 221.84819 223.12228 224.62000 226.46585 228.74109 231.05891
 232.41455 233.27835 234.92262 238.29298 242.38257 246.63647 250.74332 254.62576
 257.97049 260.88608 263.57050 266.14053 268.54187 270.67093 272.43546 274.06369
 275.82007 277.51172 279.03516 280.38657 281.56815 282.61679 283.57956 284.45645
 285.24860 285.92950 286.41904 287.01025
 366.78100 356.32280 345.74260 334.59640 322.98719 311.16899 299.02679 286.81759
 274.51739 262.40219 250.39899 239.68778 229.79758 220.88938 213.05918 206.04898
 199.87078 194.79657 191.36637 189.39617 188.42097 188.47277 189.29557 190.59137
 192.30416 194.38696 196.63776 198.98456 201.41736 203.88516 205.96096 207.79075
 209.40455 210.53735 210.75415 210.96995 210.89475 210.58754 210.20834 209.82614
 209.43094 209.12874 208.92454 208.77634 208.69213 209.01093 209.38473 209.76153
 210.54233 211.70813 212.94593 214.71672 216.63252 218.66332 220.74612 222.81692
 224.86472 226.93652 229.02131 231.11511 233.23191 235.39171 237.63551 239.99331
 242.60210 244.84090 246.83070 248.58350 249.98830 251.09910 251.90890 252.21269
 252.23749 251.99929 251.34709 250.28289 248.87669 247.02549 244.92228 242.74308
 240.52188 238.31368 236.12148 233.94828 231.79608 229.65087 227.66467 225.80947
 224.08027 222.54007 221.15787 219.91766 218.78746 217.73526 216.82706 215.95586
 215.18566 214.35346 213.43925 212.79105 212.22885 213.02341 214.90060 216.90353
 218.60045 220.38936 221.90964 223.24358 224.76907 226.52385 228.82152 231.02940
 232.18907 232.88919 234.55937 238.02626 242.24855 246.55754 250.67796 254.55611
 257.91321 260.85379 263.55914 266.12946 268.52435 270.66064 272.45648 274.10989
 275.78302 277.49655 279.02393 280.38431 281.56635 282.61560 283.57886 284.46170
 285.26395 285.97461 286.56732 287.29294
 366.78100 356.32209 345.74117 334.59426 322.98434 311.16543 299.02251 286.81260
 274.51168 262.39577 250.39185 239.67994 229.78902 220.88011 213.04919 206.03828
 199.85937 194.78445 191.35354 189.38262 188.40671 188.45779 189.27988 190.57496
 192.28705 194.36913 196.61922 198.96530 201.39739 203.86447 205.93956 207.76864
 209.38173 210.51382 210.72990 210.94499 210.86907 210.56116 210.18124 209.79833
 209.40241 209.09950 208.89458 208.74567 208.66075 208.97884 209.35192 209.72801
 210.50810 211.67318 212.91027 214.68035 216.59544 218.62552 220.70761 222.77769
 224.82478 226.89586 228.97995 231.07303 233.18912 235.34820 237.59129 239.94837
 242.55646 244.79455 246.78363 248.53572 249.93980 251.04989 251.85897 252.16206
 252.18614 251.94723 251.29431 250.22940 248.82248 246.97057 244.86665 242.68674
 240.46483 238.25591 236.06300 233.88908 231.73617 229.59025 227.60334 225.74742
 224.01751 222.47659 221.09368 219.85276 218.72185 217.66893 216.76002 215.88811
 215.11719 214.28428 213.36936 212.72045 212.15753 212.99274 214.96602 217.06198
 218.71242 220.45264 221.97380 223.37769 224.90582 226.57629 228.88251 230.95706
 231.92932 232.49931 234.18251 237.86069 242.16599 246.46362 250.59918 254.48004
 257.84949 260.81506 263.53815 266.10849 268.50269 270.63156 272.43369 274.09702
 275.75540 277.48325 279.00470 280.35031 281.52219 282.56863 283.53058 284.41254
 285.21075 285.89575 286.41177 286.99121
 366.78100 356.32125 345.73951 334.59176 322.98101 311.16126 299.01752 286.80677
 274.50502 262.38827 250.38353 239.67078 229.77903 220.86928 213.03754 206.02579
 199.84604 194.77029 191.33855 189.36680 188.39005 188.44031 189.26156 190.55581
 192.26706 194.34832 196.59757 198.94282 201.37407 203.84033 205.91458 207.74283
 209.35508 210.48634 210.70159 210.91584 210.83910 210.53035 210.14960 209.76585
 209.36911 209.06536 208.85961 208.70986 208.62412 208.94137 209.31362 209.68887
 210.46813 211.63238 212.86863 214.63788 216.55214 218.58139 220.66264 222.73190
 224.77815 226.84840 228.93165 231.02391 233.13916 235.29741 237.53966 239.89592
 242.50317 244.74042 246.72867 248.47993 249.88318 250.99243 251.80069 252.10294
 252.12619 251.88644 251.23270 250.16695 248.75920 246.90645 244.80171 242.62096
 240.39821 238.18846 235.99472 233.81997 231.66622 229.51947 227.53173 225.67498
 223.94423 222.40249 221.01874 219.77699 218.64524 217.59150 216.68175 215.80900
 215.03725 214.20351 213.28776 212.63801 212.07426 212.95724 215.04341 217.19977
 218.78993 220.50497 222.04553 223.53329 225.05931 226.66649 228.96246 230.86850
 231.69800 232.19165 233.92213 237.61717 241.99252 246.33774 250.48485 254.36429
 257.76605 260.76999 263.52631 266.11511 268.51413 270.66049 272.47467 274.13223
 275.79742 277.50793 279.04987 280.41339 281.59668 282.65054 283.61560 284.50345
 285.31845 286.04837 286.68033 287.53305
 366.78100 356.32046 345.73791 334.58937 322.97782 311.15728 299.01274 286.80119
 274.49865 262.38110 250.37556 239.66202 229.76947 220.85893 213.02638 206.01384
 199.83330 194.75675 191.32421 189.35166 188.37412 188.42358 189.24403 190.53749
 192.24794 194.32840 196.57686 198.92131 201.35177 203.81722 205.89068 207.71814
 209.32959 210.46005 210.67450 210.88796 210.81042 210.50087 210.11933 209.73478
 209.33724 209.03270 208.82615 208.67561 208.58906 208.90552 209.27698 209.65143
 210.42989 211.59334 212.82880 214.59726 216.51071 218.53917 220.61962 222.68808
 224.73354 226.80299 228.88545 230.97690 233.09136 235.24882 237.49027 239.84573
 242.45218 244.68864 246.67609 248.42655 249.82901 250.93746 251.74492 252.04637
 252.06883 251.82829 251.17374 250.10720 248.69865 246.84511 244.73957 242.55802
 240.33448 238.12393 235.92939 233.75385 231.59930 229.45176 227.46321 225.60567
 223.87413 222.33158 220.94704 219.70449 218.57195 217.51741 216.60686 215.73332
 214.96077 214.12623 213.20969 212.55914 211.99460 212.92444 215.12131 217.33205
 218.86482 220.55099 222.11888 223.68156 225.20016 226.74124 229.00928 230.72858
 231.42070 231.86641 233.65837 237.42307 241.87154 246.25772 250.40437 254.28098
 257.70874 260.75589 263.54788 266.15115 268.55841 270.72052 272.54102 274.20859
 275.78342 277.51486 279.06793 280.43484 281.62192 282.67633 283.64603 284.53598
 285.35367 286.08926 286.72046 287.59271
 366.78100 356.31991 345.73681 334.58772 322.97563 311.15453 299.00944 286.79735
 274.49425 262.37616 250.37007 239.65597 229.76288 220.85179 213.01869 206.00560
 199.82451 194.74741 191.31432 189.34123 188.36313 188.41204 189.23195 190.52485
 192.23476 194.31467 196.56257 198.90648 201.33639 203.80129 205.87420 207.70111
 209.31201 210.44192 210.65583 210.86873 210.79064 210.48055 210.09845 209.71336
 209.31527 209.01017 208.80308 208.65199 208.56489 208.88080 209.25171 209.62561
 210.40352 211.56643 212.80133 214.56924 216.48215 218.51005 220.58996 222.65787
 224.70277 226.77168 228.85359 230.94449 233.05840 235.21531 237.45621 239.81112
 242.41703 244.65293 246.63984 248.38975 249.79165 250.89956 251.70647 252.00737
 252.02928 251.78819 251.13309 250.06600 248.65691 246.80281 244.69672 242.51463
 240.29053 238.07944 235.88435 233.70825 231.55316 229.40507 227.41597 225.55788
 223.82579 222.28269 220.89760 219.65451 218.52141 217.46632 216.55523 215.68113
 214.90804 214.07295 213.15585 212.50476 211.93967 212.90596 215.18896 217.46352
 218.95454 220.60564 222.19466 223.81378 225.32069 226.79999 229.03014 230.56702
 231.11176 231.51758 233.39311 237.26997 241.78531 246.19049 250.33023 254.20163
 257.65353 260.74347 263.57101 266.18619 268.59570 270.76279 272.57217 274.20230
 275.79306 277.52429 279.07581 280.44336 281.63010 282.68600 283.65689 284.54843
 285.36487 286.10065 286.73758 287.61105
 366.78100 356.31965 345.73630 334.58695 322.97460 311.15325 299.00790 286.79555
 274.49220 262.37385 250.36750 239.65315 229.75980 220.84845 213.01510 206.00175
 199.82040 194.74305 191.30969 189.33634 188.35799 188.40664 189.22629 190.51894
 192.22859 194.30824 196.55589 198.89954 201.32919 203.79384 205.86649 207.69314
 209.30379 210.43344 210.64709 210.85974 210.78139 210.47104 210.08869 209.70334
 209.30499 208.99964 208.79229 208.64094 208.55359 208.86924 209.23989 209.61354
 210.39119 211.55384 212.78849 214.55614 216.46878 218.49643 220.57608 222.64373
 224.68838 226.75703 228.83868 230.92933 233.04298 235.19963 237.44028 239.79493
 242.40058 244.63623 246.62288 248.37253 249.77418 250.88183 251.68848 251.98913
 252.01078 251.76943 251.11408 250.04673 248.63738 246.78303 244.67668 242.49433
 240.26998 238.05863 235.86328 233.68693 231.53158 229.38323 227.39388 225.53552
 223.80317 222.25982 220.87447 219.63112 218.49777 217.44242 216.53107 215.65672
 214.88337 214.04802 213.13067 212.47932 211.91397 212.90361 215.24178 217.60580
 219.04640 220.65114 222.26979 223.93358 225.44594 226.85187 229.03075 230.41600
 230.81281 231.17192 233.14551 237.14207 241.71404 246.12291 250.25743 254.12299
 257.60211 260.73639 263.59918 266.22253 268.63098 270.79715 272.59320 274.20386
 275.79666 277.52686 279.07895 280.44574 281.63306 282.68982 283.66013 284.55051
 285.36719 286.10339 286.74451 287.62119
 366.78100 356.31928 345.73556 334.58585 322.97313 311.15141 299.00569 286.79298
 274.48926 262.37054 250.36382 239.64911 229.75539 220.84367 213.00995 205.99624
 199.81452 194.73680 191.30308 189.32937 188.35065 188.39893 189.21821 190.51050
 192.21978 194.29906 196.54634 198.88963 201.31891 203.78319 205.85547 207.68176
 209.29204 210.42132 210.63460 210.84689 210.76817 210.45745 210.07473 209.68901
 209.29030 208.98458 208.77686 208.62514 208.53743 208.85271 209.22299 209.59627
 210.37356 211.53584 212.77012 214.53740 216.44969 218.47697 220.55625 222.62353
 224.66782 226.73610 228.81738 230.90766 233.02095 235.17723 237.41751 239.77179
 242.37708 244.61236 246.59864 248.34792 249.74921 250.85649 251.66277 251.96305
 251.98433 251.74262 251.08690 250.01918 248.60946 246.75475 244.64803 242.46531
 240.24059 238.02888 235.83316 233.65644 231.50072 229.35201 227.36229 225.50357
 223.77085 222.22714 220.84142 219.59770 218.46398 217.40827 216.49655 215.62183
 214.84811 214.01240 213.09468 212.44296 211.87724 212.89723 215.30704 217.73329
 219.15076 220.68781 222.32518 224.05588 225.55818 226.92290 229.03371 230.24277
 230.50206 230.83838 232.92838 237.03226 241.64194 246.05502 250.18645 254.05353
 257.55914 260.73218 263.62701 266.25861 268.66531 270.83038 272.61267 274.21143
 275.79471 277.52493 279.07870 280.44638 281.63562 282.69269 283.66415 284.55792
 285.37601 286.11572 286.76593 287.66360
 366.78100 356.31859 345.73417 334.58376 322.97034 311.14793 299.00152 286.78810
 274.48369 262.36428 250.35686 239.64145 229.74703 220.83462 213.00021 205.98579
 199.80338 194.72496 191.29055 189.31614 188.33672 188.38431 189.20290 190.49448
 192.20307 194.28165 196.52824 198.87083 201.29941 203.76300 205.83459 207.66017
 209.26976 210.39834 210.61093 210.82252 210.74310 210.43169 210.04827 209.66186
 209.26245 208.95603 208.74762 208.59521 208.50679 208.82138 209.19096 209.56355
 210.34014 211.50172 212.73531 214.50189 216.41348 218.44007 220.51865 222.58524
 224.62883 226.69641 228.77700 230.86658 232.97917 235.13476 237.37434 239.72793
 242.33252 244.56710 246.55269 248.30127 249.70186 250.80845 251.61403 251.91362
 251.93420 251.69179 251.03538 249.96696 248.55655 246.70114 244.59372 242.41031
 240.18489 237.97248 235.77607 233.59865 231.44224 229.29282 227.30241 225.44300
 223.70958 222.16517 220.77876 219.53434 218.39993 217.34351 216.43110 215.55569
 214.78127 213.94486 213.02644 212.37403 211.80762 212.87549 215.39847 217.84457
 219.23181 220.77423 222.34734 224.09300 225.69357 227.00699 229.04170 230.12050
 230.22542 230.49933 232.68918 236.92247 241.58018 246.00662 250.13580 253.99208
 257.51724 260.72501 263.65179 266.29413 268.70126 270.86499 272.63147 274.21411
 275.79065 277.52075 279.07666 280.44611 281.63351 282.69180 283.66476 284.55707
 285.37537 286.11533 286.76999 287.67096
 366.78100 356.31796 345.73292 334.58188 322.96785 311.14481 298.99777 286.78373
 274.47869 262.35865 250.35061 239.63458 229.73954 220.82650 212.99146 205.97642
 199.79338 194.71435 191.27931 189.30427 188.32423 188.37119 189.18915 190.48011
 192.18808 194.26604 196.51200 198.85396 201.28192 203.74488 205.81584 207.64081
 209.24977 210.37773 210.58969 210.80065 210.72061 210.40857 210.02454 209.63750
 209.23746 208.93042 208.72138 208.56834 208.47930 208.79327 209.16223 209.53419
 210.31015 211.47111 212.70407 214.47004 216.38100 218.40696 220.48492 222.55088
 224.59384 226.66080 228.74077 230.82973 232.94169 235.09665 237.33561 239.68857
 242.29253 244.52650 246.51146 248.25942 249.65938 250.76534 251.57030 251.86926
 251.88923 251.64619 250.98915 249.92011 248.50907 246.65303 244.54500 242.36096
 240.13492 237.92188 235.72484 233.54680 231.38976 229.23973 227.24869 225.38865
 223.65461 222.10957 220.72253 219.47749 218.34246 217.28542 216.37238 215.49634
 214.72130 213.88426 212.96522 212.31219 211.74515 212.85814 215.48769 217.97150
 219.29271 220.83624 222.44814 224.13579 225.65805 227.06004 229.10954 230.18196
 229.98924 229.98000 232.46635 236.87849 241.54976 245.97757 250.08517 253.92676
 257.46909 260.71545 263.67722 266.33411 268.74457 270.90790 272.65710 274.21948
 275.78766 277.51816 279.07404 280.44318 281.63095 282.68948 283.66107 284.55316
 285.37161 286.11206 286.76456 287.67026
 366.78100 356.31757 345.73215 334.58072 322.96629 311.14286 298.99544 286.78101
 274.47558 262.35516 250.34673 239.63030 229.73487 220.82145 212.98602 205.97059
 199.78717 194.70774 191.27231 189.29688 188.31646 188.36303 189.18060 190.47118
 192.17875 194.25632 196.50189 198.84347 201.27104 203.73361 205.80419 207.62876
 209.23733 210.36490 210.57648 210.78705 210.70662 210.39419 210.00977 209.62234
 209.22191 208.91449 208.70506 208.55163 208.46220 208.77578 209.14435 209.51592
 210.29150 211.45207 212.68464 214.45021 216.36079 218.38636 220.46393 222.52951
 224.57208 226.63865 228.71822 230.80680 232.91837 235.07294 237.31152 239.66409
 242.26766 244.50123 246.48581 248.23338 249.63295 250.73853 251.54310 251.84167
 251.86124 251.61782 250.96039 249.89096 248.47954 246.62311 244.51468 242.33025
 240.10383 237.89040 235.69297 233.51455 231.35712 229.20669 227.21526 225.35484
 223.62041 222.07498 220.68756 219.44213 218.30670 217.24927 216.33585 215.45942
 214.68399 213.84657 212.92714 212.27371 211.70628 212.85428 215.56657 218.09785
 219.36832 220.86705 222.55347 224.25722 225.67378 227.08910 229.06111 230.06911
 229.74702 229.62428 232.30109 236.84059 241.51892 245.94044 250.02750 253.85854
 257.41998 260.70630 263.70490 266.37811 268.79108 270.95218 272.68341 274.22479
 275.78455 277.51514 279.07086 280.44095 281.62939 282.68753 283.65921 284.55096
 285.36929 286.11047 286.76419 287.67310
 366.78100 356.31736 345.73172 334.58008 322.96544 311.14180 298.99415 286.77951
 274.47387 262.35323 250.34459 239.62795 229.73231 220.81867 212.98303 205.96739
 199.78374 194.70410 191.26846 189.29282 188.31218 188.35854 189.17590 190.46626
 192.17362 194.25098 196.49634 198.83769 201.26505 203.72741 205.79777 207.62213
 209.23049 210.35785 210.56921 210.77957 210.69893 210.38629 210.00164 209.61400
 209.21336 208.90572 208.69608 208.54244 208.45280 208.76616 209.13452 209.50588
 210.28123 211.44159 212.67395 214.43931 216.34967 218.37503 220.45239 222.51775
 224.56011 226.62647 228.70583 230.79418 232.90554 235.05990 237.29826 239.65062
 242.25398 244.48734 246.47170 248.21906 249.61842 250.72378 251.52813 251.82649
 251.84585 251.60221 250.94457 249.87493 248.46329 246.60665 244.49801 242.31337
 240.08672 237.87308 235.67544 233.49680 231.33916 229.18852 227.19688 225.33624
 223.60160 222.05596 220.66832 219.42267 218.28703 217.22939 216.31575 215.43911
 214.66347 213.82583 212.90619 212.25255 211.68491 212.86089 215.63927 218.21385
 219.45337 220.92070 222.60239 224.36539 225.80710 227.15923 228.92313 229.81847
 229.49162 229.39944 232.17101 236.78616 241.48508 245.89941 249.96870 253.79280
 257.37408 260.69894 263.73340 266.42212 268.83755 270.99387 272.70697 274.22690
 275.77945 277.51022 279.06647 280.43738 281.62750 282.68478 283.65588 284.54871
 285.36639 286.10764 286.76279 287.67529
 366.78100 356.31723 345.73146 334.57969 322.96491 311.14114 298.99337 286.77860
 274.47283 262.35206 250.34329 239.62651 229.73074 220.81697 212.98120 205.96543
 199.78166 194.70189 191.26611 189.29034 188.30957 188.35580 189.17303 190.46326
 192.17049 194.24771 196.49294 198.83417 201.26140 203.72363 205.79386 207.61809
 209.22632 210.35354 210.56477 210.77500 210.69423 210.38146 209.99669 209.60892
 209.20814 208.90037 208.69060 208.53683 208.44706 208.76029 209.12852 209.49974
 210.27497 211.43520 212.66743 214.43266 216.34289 218.36812 220.44534 222.51057
 224.55280 226.61903 228.69826 230.78649 232.89772 235.05194 237.29017 239.64240
 242.24563 244.47886 246.46309 248.21032 249.60954 250.71477 251.51900 251.81723
 251.83646 251.59269 250.93492 249.86514 248.45337 246.59660 244.48783 242.30306
 240.07629 237.86252 235.66474 233.48597 231.32820 229.17743 227.18566 225.32489
 223.59012 222.04435 220.65657 219.41080 218.27503 217.21726 216.30349 215.42672
 214.65095 213.81317 212.89340 212.23963 211.67186 212.87323 215.71161 218.31630
 219.53304 221.01431 222.65335 224.41042 225.95642 227.24883 228.76831 229.56067
 229.23366 229.20943 232.05960 236.71780 241.45650 245.86603 249.91890 253.73218
 257.32864 260.68890 263.75928 266.46442 268.88199 271.03268 272.73083 274.22928
 275.77286 277.50290 279.06073 280.43134 281.62131 282.67975 283.65198 284.54410
 285.36038 286.10419 286.75766 287.67593
 366.78100 356.31717 345.73134 334.57952 322.96469 311.14086 298.99303 286.77820
 274.47237 262.35155 250.34272 239.62589 229.73006 220.81623 212.98041 205.96458
 199.78075 194.70092 191.26509 189.28926 188.30844 188.35461 189.17178 190.46195
 192.16912 194.24630 196.49147 198.83264 201.25981 203.72198 205.79216 207.61633
 209.22450 210.35167 210.56284 210.77301 210.69219 210.37936 209.99453 209.60670
 209.20587 208.89805 208.68822 208.53439 208.44456 208.75773 209.12590 209.49708
 210.27225 211.43242 212.66459 214.42976 216.33994 218.36511 220.44228 222.50745
 224.54962 226.61579 228.69497 230.78314 232.89431 235.04848 237.28665 239.63883
 242.24200 244.47517 246.45934 248.20651 249.60568 250.71086 251.51503 251.81320
 251.83237 251.58854 250.93072 249.86089 248.44906 246.59223 244.48340 242.29857
 240.07175 237.85792 235.66009 233.48126 231.32343 229.17261 227.18078 225.31995
 223.58512 222.03929 220.65147 219.40564 218.26981 217.21198 216.29815 215.42132
 214.64550 213.80767 212.88784 212.23401 211.66618 212.89095 215.78456 218.40532
 219.61891 221.10783 222.72314 224.43465 226.05424 227.33470 228.66713 229.34412
 228.95741 228.98398 231.94997 236.66171 241.42813 245.83588 249.87961 253.68196
 257.28699 260.67667 263.78110 266.50452 268.92593 271.07010 272.75769 274.23364
 275.76590 277.49582 279.05368 280.42529 281.61609 282.67334 283.64581 284.53766
 285.35449 286.09592 286.75122 287.67285
 366.78100 356.31729 345.73158 334.57987 322.96516 311.14145 298.99374 286.77903
 274.47332 262.35261 250.34390 239.62719 229.73148 220.81778 212.98207 205.96636
 199.78265 194.70294 191.26723 189.29152 188.31081 188.35710 189.17439 190.46468
 192.17197 194.24926 196.49455 198.83584 201.26313 203.72542 205.79571 207.62000
 209.22829 210.35558 210.56687 210.77716 210.69645 210.38374 209.99904 209.61133
 209.21062 208.90291 208.69320 208.53949 208.44978 208.76307 209.13136 209.50265
 210.27794 211.43823 212.67052 214.43581 216.34610 218.37139 220.44868 222.51397
 224.55626 226.62255 228.70184 230.79013 232.90142 235.05571 237.29400 239.64629
 242.24959 244.48288 246.46717 248.21446 249.61375 250.71904 251.52333 251.82162
 251.84091 251.59720 250.93949 249.86978 248.45807 246.60136 244.49265 242.30794
 240.08123 237.86752 235.66981 233.49110 231.33339 229.18268 227.19097 225.33026
 223.59555 222.04985 220.66214 219.41643 218.28072 217.22301 216.30930 215.43259
 214.65688 213.81917 212.89946 212.24575 211.67804 212.91882 215.85033 218.48203
 219.71791 221.19397 222.80951 224.49945 226.11768 227.34998 228.59070 229.11703
 228.66502 228.79810 231.86205 236.61293 241.39067 245.79944 249.84062 253.63719
 257.24997 260.66370 263.79758 266.53888 268.96344 271.10233 272.77762 274.23544
 275.75809 277.48602 279.04605 280.41736 281.60754 282.66650 283.63867 284.52939
 285.34650 286.08694 286.74146 287.66626
 366.78100 356.31755 345.73210 334.58065 322.96620 311.14275 298.99530 286.78085
 274.47540 262.35495 250.34650 239.63005 229.73460 220.82116 212.98571 205.97026
 199.78681 194.70736 191.27191 189.29646 188.31601 188.36256 189.18011 190.47066
 192.17821 194.25576 196.50131 198.84286 201.27041 203.73296 205.80351 207.62806
 209.23661 210.36416 210.57571 210.78626 210.70581 210.39336 210.00892 209.62147
 209.22102 208.91357 208.70412 208.55067 208.46122 208.77477 209.14332 209.51487
 210.29042 211.45097 212.68352 214.44907 216.35962 218.38517 220.46272 222.52827
 224.57082 226.63737 228.71692 230.80547 232.91702 235.07157 237.31013 239.66268
 242.26623 244.49978 246.48433 248.23188 249.63143 250.73698 251.54153 251.84008
 251.85963 251.61618 250.95873 249.88928 248.47783 246.62138 244.51293 242.32848
 240.10203 237.88858 235.69113 233.51268 231.35523 229.20478 227.21333 225.35289
 223.61844 222.07299 220.68554 219.44009 218.30464 217.24719 216.33374 215.45729
 214.68184 213.84439 212.92494 212.27149 211.70404 212.95488 215.91014 218.54977
 219.82172 221.28508 222.90623 224.58134 226.14151 227.32738 228.53409 228.88696
 228.37285 228.64262 231.79489 236.56618 241.34639 245.75696 249.80054 253.59618
 257.21561 260.64935 263.80872 266.56595 268.99338 271.12625 272.78940 274.23318
 275.74829 277.47644 279.03540 280.40735 281.59882 282.65601 283.62839 284.51941
 285.33517 286.07510 286.72995 287.65601
 366.78100 356.31785 345.73270 334.58155 322.96740 311.14425 298.99710 286.78295
 274.47780 262.35765 250.34949 239.63334 229.73819 220.82504 212.98989 205.97474
 199.79159 194.71244 191.27729 189.30214 188.32199 188.36884 189.18669 190.47754
 192.18539 194.26324 196.50909 198.85094 201.27879 203.74163 205.81248 207.63733
 209.24618 210.37403 210.58588 210.79673 210.71658 210.40443 210.02028 209.63313
 209.23298 208.92583 208.71668 208.56353 208.47438 208.78823 209.15708 209.52893
 210.30477 211.46562 212.69847 214.46432 216.37517 218.40102 220.47887 222.54472
 224.58757 226.65442 228.73427 230.82312 232.93497 235.08982 237.32867 239.68152
 242.28537 244.51922 246.50407 248.25191 249.65176 250.75761 251.56246 251.86131
 251.88116 251.63801 250.98086 249.91171 248.50056 246.64441 244.53626 242.35211
 240.12596 237.91281 235.71566 233.53751 231.38036 229.23021 227.23906 225.37890
 223.64475 222.09960 220.71245 219.46730 218.33215 217.27500 216.36185 215.48570
 214.71055 213.87340 212.95425 212.30110 211.73395 212.99324 215.96848 218.60991
 219.92091 221.38715 223.00946 224.66203 226.13939 227.29485 228.48187 228.66577
 228.10176 228.51122 231.73769 236.51601 241.29779 245.71306 249.76317 253.55978
 257.18353 260.63202 263.81250 266.58554 269.01505 271.14136 272.79529 274.22922
 275.73758 277.46515 279.02478 280.39670 281.58765 282.64722 283.61789 284.50897
 285.32449 286.06467 286.71893 287.64856
 366.78100 356.31816 345.73333 334.58249 322.96865 311.14582 298.99898 286.78514
 274.48031 262.36047 250.35263 239.63680 229.74196 220.82912 212.99429 205.97945
 199.79661 194.71778 191.28294 189.30810 188.32827 188.37543 189.19359 190.48476
 192.19292 194.27108 196.51725 198.85941 201.28757 203.75074 205.82190 207.64706
 209.25623 210.38439 210.59655 210.80772 210.72788 210.41604 210.03221 209.64537
 209.24553 208.93870 208.72986 208.57702 208.48819 208.80235 209.17151 209.54368
 210.31984 211.48100 212.71417 214.48033 216.39149 218.41766 220.49582 222.56198
 224.60515 226.67231 228.75247 230.84164 232.95380 235.10896 237.34813 239.70129
 242.30545 244.53962 246.52478 248.27294 249.67311 250.77927 251.58443 251.88360
 251.90376 251.66092 251.00409 249.93525 248.52441 246.66858 244.56074 242.37690
 240.15107 237.93823 235.74139 233.56356 231.40672 229.25688 227.26605 225.40621
 223.67237 222.12754 220.74070 219.49586 218.36103 217.30419 216.39135 215.51552
 214.74068 213.90385 212.98501 212.33217 211.76534 213.03252 216.02635 218.66298
 220.01498 221.49611 223.11633 224.73772 226.12712 227.26343 228.42549 228.45569
 227.85602 228.40108 231.68527 236.46103 241.24490 245.66917 249.72957 253.52885
 257.15268 260.61026 263.80768 266.59598 269.02905 271.14682 272.79626 274.22522
 275.72760 277.45398 279.01440 280.38687 281.57758 282.63788 283.60983 284.50070
 285.31702 286.05698 286.71207 287.64087
 366.78100 356.31853 345.73407 334.58360 322.97013 311.14766 299.00120 286.78773
 274.48326 262.36380 250.35633 239.64086 229.74640 220.83393 212.99946 205.98499
 199.80253 194.72406 191.28959 189.31513 188.33566 188.38319 189.20172 190.49326
 192.20179 194.28032 196.52686 198.86939 201.29792 203.76145 205.83299 207.65852
 209.26805 210.39659 210.60912 210.82065 210.74119 210.42972 210.04625 209.65978
 209.26032 208.95385 208.74538 208.59292 208.50445 208.81898 209.18851 209.56105
 210.33758 211.49911 212.73265 214.49918 216.41071 218.43724 220.51578 222.58231
 224.62584 226.69338 228.77391 230.86344 232.97598 235.13151 237.37104 239.72457
 242.32911 244.56364 246.54917 248.29771 249.69824 250.80477 251.61030 251.90984
 251.93037 251.68790 251.03144 249.96297 248.55250 246.69703 244.58957 242.40610
 240.18063 237.96817 235.77170 233.59423 231.43777 229.28830 227.29783 225.43836
 223.70490 222.16043 220.77396 219.52950 218.39503 217.33856 216.42609 215.55063
 214.77616 213.93969 213.02123 212.36876 211.80229 213.07477 216.08112 218.71097
 220.10490 221.60973 223.22289 224.80882 226.11929 227.23737 228.35927 228.25710
 227.63474 228.30511 231.63405 236.40297 241.19002 245.62659 249.70074 253.50444
 257.12500 260.58569 263.79587 266.59900 269.03409 271.14270 272.79028 274.21912
 275.71951 277.44537 279.00644 280.38019 281.57208 282.63159 283.60416 284.49554
 285.31158 286.05203 286.70782 287.64627
 366.78100 356.31891 345.73482 334.58474 322.97165 311.14956 299.00347 286.79039
 274.48630 262.36721 250.36012 239.64504 229.75095 220.83886 213.00477 205.99069
 199.80860 194.73051 191.29642 189.32234 188.34325 188.39116 189.21007 190.50199
 192.21090 194.28981 196.53672 198.87963 201.30855 203.77246 205.84437 207.67028
 209.28020 210.40911 210.62202 210.83393 210.75485 210.44376 210.06067 209.67458
 209.27550 208.96941 208.76132 208.60923 208.52115 208.83606 209.20597 209.57888
 210.35580 211.51771 212.75162 214.51853 216.43045 218.45736 220.53627 222.60318
 224.64709 226.71501 228.79592 230.88583 232.99874 235.15466 237.39457 239.74848
 242.35339 244.58831 246.57422 248.32313 249.72404 250.83096 251.63687 251.93678
 251.95769 251.71561 251.05952 249.99143 248.58134 246.72626 244.61917 242.43608
 240.21099 237.99890 235.80282 233.62573 231.46964 229.32055 227.33047 225.47138
 223.73829 222.19420 220.80812 219.56403 218.42994 217.37385 216.46177 215.58668
 214.81259 213.97650 213.05842 212.40633 211.84024 213.11760 216.13553 218.75125
 220.19443 221.72722 223.33153 224.86888 226.11598 227.22369 228.28827 228.06261
 227.42853 228.22200 231.58856 236.34210 241.13043 245.58305 249.67575 253.48680
 257.10248 260.56046 263.77890 266.59439 269.03073 271.12823 272.77539 274.20627
 275.71130 277.43976 279.00085 280.37491 281.56705 282.62799 283.60040 284.49268
 285.30829 286.05011 286.70554 287.64264
 366.78100 356.31939 345.73578 334.58617 322.97356 311.15195 299.00634 286.79373
 274.49012 262.37150 250.36489 239.65028 229.75667 220.84506 213.01145 205.99784
 199.81623 194.73862 191.30501 189.33140 188.35279 188.40118 189.22057 190.51296
 192.22235 194.30173 196.54912 198.89251 201.32190 203.78629 205.85868 207.68507
 209.29546 210.42485 210.63824 210.85063 210.77202 210.46141 210.07880 209.69319
 209.29458 208.98897 208.78135 208.62974 208.54213 208.85752 209.22791 209.60130
 210.37869 211.54108 212.77547 214.54286 216.45525 218.48264 220.56203 222.62942
 224.67381 226.74220 228.82358 230.91397 233.02736 235.18375 237.42414 239.77853
 242.38392 244.61931 246.60570 248.35509 249.75648 250.86387 251.67026 251.97065
 251.99204 251.75043 251.09482 250.02720 248.61759 246.76298 244.65637 242.47376
 240.24915 238.03754 235.84193 233.66532 231.50971 229.36110 227.37149 225.51288
 223.78027 222.23666 220.85105 219.60743 218.47382 217.41821 216.50660 215.63199
 214.85838 214.02277 213.10516 212.45355 211.88794 213.16528 216.18314 218.78990
 220.28349 221.83830 223.43936 224.93924 226.12405 227.20676 228.21254 227.87979
 227.23793 228.14731 231.54001 236.27652 241.07112 245.54234 249.65662 253.47668
 257.08408 260.53455 263.75589 266.58215 269.01752 271.10364 272.75146 274.19083
 275.70496 277.43515 278.99695 280.37109 281.56497 282.62585 283.59894 284.49014
 285.30811 286.04782 286.70392 287.64410
 366.78100 356.31996 345.73691 334.58787 322.97583 311.15479 299.00974 286.79770
 274.49466 262.37661 250.37057 239.65653 229.76348 220.85244 213.01940 206.00636
 199.82531 194.74827 191.31523 189.34218 188.36414 188.41310 189.23305 190.52601
 192.23597 194.31593 196.56388 198.90784 201.33780 203.80275 205.87571 207.70267
 209.31362 210.44358 210.65754 210.87050 210.79245 210.48241 210.10037 209.71532
 209.31728 209.01224 208.80519 208.65415 208.56711 208.88307 209.25402 209.62798
 210.40594 211.56889 212.80385 214.57181 216.48477 218.51272 220.59268 222.66064
 224.70559 226.77455 228.85651 230.94746 233.06142 235.21838 237.45934 239.81429
 242.42025 244.65621 246.64316 248.39312 249.79508 250.90303 251.70999 252.01095
 252.03291 251.79186 251.13682 250.06978 248.66073 246.80669 244.70065 242.51860
 240.29456 238.08352 235.88848 233.71243 231.55739 229.40935 227.42030 225.56226
 223.83022 222.28717 220.90213 219.65909 218.52605 217.47100 216.55996 215.68592
 214.91287 214.07783 213.16079 212.50975 211.94470 213.21747 216.22450 218.83031
 220.35927 221.96040 223.54329 224.99460 226.14876 227.21909 228.12080 227.70404
 227.07236 228.07341 231.49750 236.21385 241.00710 245.49893 249.64005 253.47171
 257.06882 260.50815 263.72891 266.56400 268.99826 271.07428 272.72644 274.17188
 275.70001 277.43213 278.99365 280.36908 281.56369 282.62527 283.59891 284.49167
 285.30624 286.04858 286.70392 287.64462
 366.78100 356.32054 345.73807 334.58961 322.97815 311.15768 299.01322 286.80176
 274.49929 262.38183 250.37637 239.66290 229.77044 220.85998 213.02751 206.01505
 199.83458 194.75812 191.32566 189.35319 188.37573 188.42527 189.24580 190.53934
 192.24988 194.33041 196.57895 198.92349 201.35402 203.81956 205.89310 207.72063
 209.33217 210.46271 210.67724 210.89078 210.81332 210.50385 210.12239 209.73793
 209.34046 209.03600 208.82954 208.67907 208.59261 208.90914 209.28068 209.65522
 210.43375 211.59729 212.83283 214.60136 216.51490 218.54344 220.62397 222.69251
 224.73805 226.80758 228.89012 230.98166 233.09619 235.25373 237.49527 239.85080
 242.45734 244.69388 246.68141 248.43195 249.83449 250.94302 251.75056 252.05210
 252.07463 251.83417 251.17970 250.11324 248.70478 246.85131 244.74585 242.56439
 240.34092 238.13046 235.93600 233.76053 231.60607 229.45861 227.47014 225.61268
 223.88122 222.33875 220.95429 219.71183 218.57936 217.52490 216.61444 215.74097
 214.96851 214.13405 213.21758 212.56712 212.00266 213.26945 216.26242 218.87930
 220.40935 222.07652 223.68256 225.04996 226.13873 227.22050 228.09663 227.52829
 226.86522 228.00040 231.43915 236.13268 240.93835 245.46257 249.63455 253.47528
 257.05920 260.48288 263.69891 266.54028 268.97162 271.03537 272.69138 274.15259
 275.69287 277.42673 278.98935 280.36609 281.56027 282.62286 283.59595 284.48923
 285.30557 286.04654 286.70267 287.64426
 366.78100 356.32107 345.73914 334.59121 322.98027 311.16034 299.01641 286.80548
 274.50355 262.38662 250.38169 239.66875 229.77682 220.86689 213.03496 206.02303
 199.84310 194.76717 191.33524 189.36330 188.38637 188.43644 189.25751 190.55158
 192.26265 194.34372 196.59278 198.93785 201.36892 203.83499 205.90906 207.73713
 209.34920 210.48026 210.69533 210.90940 210.83247 210.52354 210.14261 209.75868
 209.36174 209.05781 208.85188 208.70195 208.61602 208.93309 209.30516 209.68023
 210.45929 211.62336 212.85943 214.62850 216.54257 218.57164 220.65271 222.72177
 224.76784 226.83791 228.92098 231.01305 233.12812 235.28619 237.52825 239.88432
 242.49139 244.72846 246.71653 248.46760 249.87067 250.97974 251.78780 252.08987
 252.11294 251.87301 251.21908 250.15315 248.74522 246.89228 244.78735 242.60642
 240.38349 238.17356 235.97963 233.80470 231.65076 229.50383 227.51590 225.65897
 223.92804 222.38611 221.00218 219.76024 218.62831 217.57438 216.66445 215.79152
 215.01959 214.18566 213.26973 212.61979 212.05586 213.31815 216.30042 218.92805
 220.47925 222.13254 223.81277 225.21169 226.16580 227.11850 228.01932 227.61595
 226.80402 227.75116 231.33727 236.07889 240.89301 245.44650 249.63713 253.48247
 257.05106 260.45572 263.66568 266.51031 268.93668 270.98630 272.64545 274.11768
 275.68454 277.42355 278.98663 280.36212 281.55792 282.62103 283.59579 284.48749
 285.30396 286.04388 286.70013 287.64587
 366.78100 356.32147 345.73995 334.59242 322.98190 311.16237 299.01885 286.80832
 274.50680 262.39027 250.38575 239.67322 229.78170 220.87217 213.04065 206.02912
 199.84960 194.77407 191.34255 189.37102 188.39450 188.44497 189.26645 190.56092
 192.27240 194.35387 196.60335 198.94882 201.38030 203.84677 205.92125 207.74972
 209.36220 210.49367 210.70915 210.92362 210.84710 210.53857 210.15805 209.77452
 209.37800 209.07447 208.86895 208.71942 208.63390 208.95137 209.32385 209.69932
 210.47880 211.64327 212.87975 214.64922 216.56370 218.59317 220.67465 222.74412
 224.79060 226.86107 228.94455 231.03702 233.15250 235.31097 237.55345 239.90992
 242.51740 244.75487 246.74335 248.49482 249.89830 251.00777 251.81625 252.11872
 252.14220 251.90267 251.24915 250.18362 248.77610 246.92357 244.81905 242.63852
 240.41600 238.20647 236.01295 233.83842 231.68490 229.53837 227.55085 225.69432
 223.96380 222.42227 221.03875 219.79722 218.66570 217.61217 216.70265 215.83012
 215.05860 214.22507 213.30955 212.66002 212.09650 213.36008 216.34541 218.96184
 220.56448 222.18958 223.90955 225.36792 226.24483 227.06439 227.84354 227.59647
 226.78996 227.60410 231.27388 236.04202 240.85199 245.42403 249.63342 253.48799
 257.04373 260.43015 263.62976 266.47565 268.89438 270.92828 272.59012 274.08359
 275.67255 277.41522 278.97992 280.35632 281.55264 282.61664 283.59195 284.48538
 285.30231 286.04111 286.69846 287.64215
 366.78100 356.32195 345.74090 334.59384 322.98379 311.16474 299.02169 286.81164
 274.51059 262.39453 250.39048 239.67843 229.78738 220.87833 213.04728 206.03622
 199.85717 194.78212 191.35107 189.38002 188.40397 188.45491 189.27686 190.57181
 192.28376 194.36571 196.61566 198.96160 201.39355 203.86050 205.93545 207.76440
 209.37735 210.50929 210.72524 210.94019 210.86414 210.55609 210.17604 209.79298
 209.39693 209.09388 208.88883 208.73978 208.65472 208.97267 209.34562 209.72157
 210.50152 211.66647 212.90341 214.67336 216.58831 218.61826 220.70021 222.77016
 224.81710 226.88805 228.97200 231.06495 233.18090 235.33985 237.58279 239.93974
 242.54769 244.78564 246.77459 248.52654 249.93048 251.04043 251.84938 252.15233
 252.17628 251.93723 251.28417 250.21912 248.81207 246.96002 244.85597 242.67592
 240.45386 238.24481 236.05176 233.87771 231.72466 229.57860 227.59155 225.73550
 224.00545 222.46440 221.08135 219.84029 218.70924 217.65619 216.74714 215.87509
 215.10404 214.27098 213.35593 212.70688 212.14383 213.40506 216.38487 218.99724
 220.64075 222.26939 223.96770 225.47487 226.37885 227.08757 227.65152 227.47919
 226.75250 227.52094 231.22974 236.00252 240.80467 245.39648 249.63118 253.49661
 257.03909 260.40515 263.59396 266.43951 268.84943 270.86697 272.53165 274.01254
 275.66458 277.41602 278.97891 280.35358 281.54926 282.61258 283.58807 284.48019
 285.29538 286.03696 286.69080 287.63794
 366.78100 356.32258 345.74216 334.59574 322.98632 311.16790 299.02548 286.81606
 274.51564 262.40022 250.39680 239.68538 229.79496 220.88654 213.05612 206.04570
 199.86728 194.79286 191.36244 189.39202 188.41660 188.46818 189.29076 190.58634
 192.29892 194.38150 196.63208 198.97866 201.41124 203.87882 205.95440 207.78398
 209.39756 210.53014 210.74672 210.96230 210.88688 210.57946 210.20004 209.81762
 209.42220 209.11978 208.91536 208.76694 208.68252 209.00110 209.37468 209.75126
 210.53184 211.69742 212.93500 214.70558 216.62116 218.65174 220.73432 222.80490
 224.85248 226.92406 229.00864 231.10222 233.21880 235.37838 237.62196 239.97954
 242.58812 244.82670 246.81628 248.56886 249.97344 251.08402 251.89360 252.19718
 252.22176 251.98334 251.33092 250.26650 248.86008 247.00866 244.90524 242.72582
 240.50440 238.29598 236.10356 233.93014 231.77772 229.63230 227.64588 225.79046
 224.06104 222.52062 221.13820 219.89778 218.76736 217.71494 216.80652 215.93510
 215.16468 214.33226 213.41784 212.76942 212.20700 213.45763 216.41235 219.04141
 220.70764 222.35664 224.01610 225.54311 226.52165 227.13638 227.49820 227.33806
 226.67799 227.45015 231.19006 235.95906 240.75708 245.37199 249.63127 253.50540
 257.03336 260.37869 263.55551 266.39832 268.79654 270.79373 272.45914 274.02835
 275.62967 277.37576 278.94415 280.32468 281.52362 282.59039 283.56787 284.46280
 285.27802 286.02008 286.67441 287.62164
 366.78100 356.32324 345.74348 334.59771 322.98895 311.17119 299.02943 286.82067
 274.52090 262.40614 250.40338 239.69262 229.80286 220.89509 213.06533 206.05557
 199.87781 194.80405 191.37428 189.40452 188.42976 188.48200 189.30524 190.60147
 192.31471 194.39795 196.64919 198.99643 201.42966 203.89790 205.97414 207.80438
 209.41861 210.55185 210.76909 210.98533 210.91057 210.60380 210.22504 209.84328
 209.44852 209.14676 208.94299 208.79523 208.71147 209.03071 209.40495 209.78218
 210.56342 211.72966 212.96790 214.73914 216.65537 218.68661 220.76985 222.84109
 224.88933 226.96156 229.04680 231.14104 233.25828 235.41852 237.66275 240.02099
 242.63023 244.86947 246.85971 248.61294 250.01818 251.12942 251.93966 252.24390
 252.26913 252.03137 251.37961 250.31585 248.91009 247.05932 244.95656 242.77780
 240.55704 238.34928 236.15751 233.98475 231.83299 229.68823 227.70247 225.84770
 224.11894 222.57918 221.19742 219.95765 218.82789 217.77613 216.86837 215.99761
 215.22784 214.39608 213.48232 212.83456 212.27280 213.51122 216.43709 219.08578
 220.77383 222.43701 224.06752 225.59666 226.64606 227.18646 227.38890 227.18318
 226.56342 227.38728 231.15689 235.91753 240.71519 245.35231 249.63274 253.51456
 257.02817 260.35287 263.51718 266.35583 268.74203 270.72028 272.38818 273.82626
 275.66385 277.41638 278.96173 280.33044 281.52237 282.58386 283.55869 284.45169
 285.26556 286.00577 286.65976 287.60742
 366.78100 356.32382 345.74463 334.59945 322.99127 311.17409 299.03290 286.82472
 274.52554 262.41136 250.40917 239.69899 229.80981 220.90263 213.07344 206.06426
 199.88708 194.81389 191.38471 189.41553 188.44135 188.49416 189.31798 190.61480
 192.32862 194.41243 196.66425 199.01207 201.44589 203.91470 205.99152 207.82234
 209.43715 210.57097 210.78879 211.00561 210.93142 210.62524 210.24706 209.86588
 209.47169 209.17051 208.96733 208.82015 208.73696 209.05678 209.43160 209.80942
 210.59123 211.75805 212.99687 214.76868 216.68550 218.71732 220.80114 222.87295
 224.92177 226.99459 229.08041 231.17522 233.29304 235.45386 237.69868 240.05749
 242.66731 244.90713 246.89794 248.65176 250.05758 251.16940 251.98021 252.28503
 252.31085 252.07367 251.42248 250.35930 248.95412 247.10394 245.00175 242.82357
 240.60339 238.39620 236.20502 234.03284 231.88166 229.73747 227.75229 225.89811
 224.16993 222.63074 221.24956 220.01038 218.88120 217.83001 216.92283 216.05265
 215.28346 214.45228 213.53910 212.89192 212.33073 213.56078 216.46689 219.12367
 220.84195 222.51250 224.11772 225.64548 226.74896 227.24017 227.31058 227.00815
 226.41624 227.33905 231.13397 235.88231 240.68088 245.33517 249.63461 253.52252
 257.02310 260.32886 263.47873 266.31082 268.68167 270.63675 272.30380 273.71844
 275.64993 277.41287 278.95245 280.31598 281.50562 282.56378 283.53607 284.42624
 285.23978 285.97897 286.63248 287.58014
 366.78100 356.32436 345.74573 334.60109 322.99346 311.17682 299.03619 286.82855
 274.52991 262.41628 250.41464 239.70501 229.81637 220.90973 213.08110 206.07246
 199.89583 194.82319 191.39456 189.42592 188.45228 188.50565 189.33001 190.62738
 192.34174 194.42611 196.67847 199.02683 201.46120 203.93056 206.00793 207.83929
 209.45465 210.58902 210.80738 211.02475 210.95111 210.64548 210.26784 209.88720
 209.49357 209.19293 208.99030 208.84366 208.76103 209.08139 209.45675 209.83512
 210.61748 211.78485 213.02421 214.79658 216.71394 218.74630 220.83067 222.90303
 224.95240 227.02576 229.11212 231.20749 233.32585 235.48722 237.73258 240.09195
 242.70231 244.94267 246.93404 248.68840 250.09477 251.20713 252.01850 252.32386
 252.35022 252.11359 251.46295 250.40032 248.99568 247.14604 245.04441 242.86677
 240.64714 238.44050 236.24987 234.07823 231.92759 229.78396 227.79932 225.94569
 224.21805 222.67942 221.29878 220.06014 218.93151 217.88087 216.97424 216.10460
 215.33596 214.50533 213.59269 212.94606 212.38542 213.60860 216.49844 219.15721
 220.91022 222.58479 224.16559 225.69191 226.83498 227.30067 227.25125 226.81281
 226.24588 227.30585 231.12125 235.85349 240.65305 245.31956 249.63345 253.52718
 257.01712 260.30588 263.44324 266.26843 268.62494 270.56073 272.22711 273.64355
 275.59122 277.37427 278.92599 280.29456 281.48407 282.54340 283.51605 284.40714
 285.21832 285.95956 286.61163 287.55902
 366.78100 356.32499 345.74697 334.60296 322.99594 311.17993 299.03991 286.83290
 274.53488 262.42187 250.42085 239.71184 229.82382 220.91781 213.08979 206.08178
 199.90576 194.83375 191.40573 189.43772 188.46471 188.51869 189.34368 190.64166
 192.35665 194.44163 196.69462 199.04360 201.47859 203.94857 206.02656 207.85854
 209.47453 210.60951 210.82850 211.04648 210.97347 210.66845 210.29144 209.91142
 209.51841 209.21840 209.01638 208.87037 208.78835 209.10934 209.48532 209.86431
 210.64729 211.81528 213.05526 214.82825 216.74623 218.77922 220.86420 222.93719
 224.98717 227.06116 229.14814 231.24413 233.36312 235.52510 237.77109 240.13107
 242.74206 244.98304 246.97503 248.73001 250.13700 251.24998 252.06197 252.36795
 252.39494 252.15892 251.50891 250.44689 249.04288 247.19386 245.09285 242.91583
 240.69682 238.49081 236.30079 234.12978 231.97976 229.83675 227.85273 225.99972
 224.27270 222.73469 221.35467 220.11666 218.98864 217.93863 217.03261 216.16360
 215.39558 214.56557 213.65355 213.00754 212.44753 213.66025 216.52544 219.19023
 220.97795 222.64828 224.21304 225.73970 226.90782 227.36472 227.20471 226.60374
 226.05971 227.28159 231.11658 235.83301 240.63124 245.30479 249.62907 253.52791
 257.00830 260.28140 263.40500 266.22241 268.56461 270.48120 272.14404 273.58554
 275.53882 277.32913 278.88544 280.25629 281.44794 282.50732 283.48096 284.37292
 285.18539 285.92450 286.58099 287.52579
 366.78100 356.32566 345.74831 334.60497 322.99863 311.18328 299.04394 286.83759
 274.54025 262.42791 250.42756 239.71922 229.83188 220.92653 213.09919 206.09184
 199.91650 194.84516 191.41781 189.45047 188.47813 188.53278 189.35844 190.65710
 192.37275 194.45841 196.71206 199.06172 201.49738 203.96803 206.04669 207.87935
 209.49600 210.63166 210.85132 211.06997 210.99763 210.69328 210.31694 209.93760
 209.54525 209.24591 209.04457 208.89922 208.81788 209.13953 209.51619 209.89585
 210.67950 211.84816 213.08882 214.86247 216.78113 218.81479 220.90044 222.97410
 225.02475 227.09941 229.18707 231.28372 233.40338 235.56604 237.81269 240.17335
 242.78501 245.02666 247.01932 248.77497 250.18263 251.29629 252.10894 252.41560
 252.44326 252.20791 251.55857 250.49722 249.09388 247.24554 245.14519 242.96885
 240.75051 238.54516 236.35582 234.18548 232.03613 229.89379 227.91044 226.05810
 224.33176 222.79441 221.41507 220.17773 219.05038 218.00104 217.09570 216.22735
 215.46001 214.63066 213.71932 213.07398 212.51463 213.71432 216.54875 219.22192
 221.04904 222.70470 224.25722 225.79008 226.97809 227.43330 227.16681 226.39426
 225.86653 227.25847 231.11797 235.81952 240.61484 245.29048 249.62331 253.52588
 256.99701 260.25467 263.36508 266.17450 268.50397 270.40417 272.06497 273.52972
 275.48553 277.27554 278.83173 280.20233 281.39407 282.45578 283.43051 284.32172
 285.13641 285.87650 286.53091 287.48105
 366.78100 356.32639 345.74978 334.60717 323.00156 311.18695 299.04834 286.84273
 274.54611 262.43450 250.43489 239.72728 229.84067 220.93606 213.10945 206.10284
 199.92823 194.85762 191.43101 189.46440 188.49279 188.54818 189.37457 190.67396
 192.39034 194.47673 196.73112 199.08151 201.51790 203.98929 206.06868 207.90207
 209.51946 210.65585 210.87624 211.09563 211.02402 210.72041 210.34480 209.96619
 209.57457 209.27596 209.07535 208.93074 208.85013 209.17252 209.54991 209.93030
 210.71469 211.88408 213.12547 214.89986 216.81925 218.85364 220.94003 223.01442
 225.06580 227.14119 229.22958 231.32697 233.44736 235.61075 237.85814 240.21953
 242.83192 245.07431 247.06770 248.82409 250.23248 251.34687 252.16026 252.46764
 252.49603 252.26142 251.61281 250.55220 249.14959 247.30198 245.20237 243.02676
 240.80915 238.60454 236.41593 234.24632 232.09771 229.95610 227.97349 226.12187
 224.39626 222.85965 221.48104 220.24443 219.11782 218.06921 217.16460 216.29699
 215.53038 214.70177 213.79116 213.14655 212.58794 213.77135 216.56728 219.25479
 221.11665 222.75264 224.29831 225.83702 227.04404 227.51413 227.13921 226.18619
 225.67334 227.23384 231.12016 235.81297 240.60405 245.27582 249.61214 253.51599
 256.98029 260.22601 263.32413 266.12857 268.44897 270.33780 271.99551 273.46979
 275.42761 277.21890 278.77414 280.14389 281.33612 282.39630 283.37061 284.26297
 285.07834 285.81915 286.47537 287.42099
 366.78100 356.32712 345.75123 334.60935 323.00447 311.19059 299.05270 286.84782
 274.55194 262.44106 250.44217 239.73529 229.84941 220.94553 213.11964 206.11376
 199.93988 194.87000 191.44411 189.47823 188.50735 188.56346 189.39058 190.69070
 192.40782 194.49493 196.75005 199.10117 201.53829 204.01040 206.09052 207.92464
 209.54276 210.67987 210.90099 211.12111 211.05022 210.74734 210.37246 209.99458
 209.60369 209.30581 209.10593 208.96205 208.88216 209.20528 209.58340 209.96452
 210.74963 211.91975 213.16187 214.93699 216.85710 218.89222 220.97934 223.05445
 225.10657 227.18269 229.27181 231.36992 233.49104 235.65516 237.90328 240.26539
 242.87851 245.12163 247.11575 248.87286 250.28198 251.39710 252.21122 252.51933
 252.54845 252.31457 251.66668 250.60680 249.20492 247.35804 245.25915 243.08427
 240.86739 238.66351 236.47562 234.30674 232.15886 230.01798 228.03609 226.18521
 224.46033 222.92445 221.54656 220.31068 219.18480 218.13691 217.23303 216.36615
 215.60027 214.77238 213.86250 213.21862 212.66074 213.82785 216.58530 219.28595
 221.18741 222.78773 224.33194 225.88696 227.11464 227.59608 227.12196 225.99167
 225.48085 227.20889 231.12659 235.81001 240.59547 245.25926 249.59622 253.50157
 256.96133 260.19394 263.27939 266.07642 268.38596 270.26031 271.92422 273.50815
 275.34262 277.11710 278.67749 280.05237 281.24640 282.31168 283.28723 284.18137
 284.99777 285.74109 286.40039 287.34485
 366.78100 356.32786 345.75271 334.61157 323.00742 311.19428 299.05714 286.85299
 274.55785 262.44770 250.44956 239.74342 229.85827 220.95513 213.12998 206.12484
 199.95170 194.88255 191.45741 189.49226 188.52212 188.57898 189.40683 190.70769
 192.42554 194.51340 196.76926 199.12111 201.55897 204.03183 206.11268 207.94754
 209.56639 210.70425 210.92611 211.14696 211.07682 210.77467 210.40053 210.02339
 209.63324 209.33610 209.13695 208.99381 208.91467 209.23852 209.61738 209.99923
 210.78509 211.95595 213.19880 214.97466 216.89551 218.93137 221.01923 223.09508
 225.14794 227.22479 229.31465 231.41351 233.53536 235.70022 237.94907 240.31193
 242.92579 245.16964 247.16450 248.92235 250.33221 251.44807 252.26292 252.57178
 252.60163 252.36849 251.72135 250.66220 249.26106 247.41491 245.31677 243.14263
 240.92648 238.72334 236.53620 234.36805 232.22091 230.08076 228.09962 226.24948
 224.52533 222.99019 221.61304 220.37790 219.25276 218.20561 217.30247 216.43632
 215.67118 214.84404 213.93489 213.29175 212.73460 213.88390 216.59926 219.31766
 221.24989 222.82895 224.34695 225.91382 227.19562 227.70563 227.10139 225.80359
 225.31577 227.18614 231.12314 235.80952 240.59163 245.24364 249.57819 253.48198
 256.93634 260.15714 263.23065 266.02335 268.32553 270.18884 271.85968 273.52869
 275.26007 277.01740 278.58063 279.95728 281.15353 282.21918 283.19717 284.09381
 284.90958 285.65344 286.31259 287.26010
 366.78100 356.32860 345.75420 334.61381 323.01041 311.19801 299.06161 286.85822
 274.56382 262.45442 250.45702 239.75162 229.86723 220.96483 213.14043 206.13603
 199.96364 194.89524 191.47084 189.50644 188.53704 188.59465 189.42325 190.72485
 192.44345 194.53205 196.78866 199.14126 201.57986 204.05346 206.13507 207.97067
 209.59027 210.72887 210.95147 211.17308 211.10368 210.80228 210.42888 210.05249
 209.66309 209.36669 209.16829 209.02589 208.94750 209.27210 209.65170 210.03430
 210.82091 211.99251 213.23611 215.01271 216.93431 218.97092 221.05952 223.13612
 225.18972 227.26733 229.35793 231.45753 233.58013 235.74573 237.99534 240.35894
 242.97354 245.21814 247.21374 248.97235 250.38295 251.49955 252.31515 252.62476
 252.65536 252.42296 251.77656 250.71816 249.31777 247.47237 245.37497 243.20157
 240.98618 238.78378 236.59738 234.42998 232.28358 230.14419 228.16379 226.31439
 224.59099 223.05660 221.68020 220.44580 219.32140 218.27500 217.37261 216.50721
 215.74281 214.91641 214.00801 213.36562 212.80922 213.93939 216.60956 219.35056
 221.31502 222.85399 224.37520 225.92897 227.23622 227.82265 227.14737 225.59140
 225.07971 227.16917 231.14337 235.82376 240.59673 245.22733 249.55124 253.45140
 256.90182 260.11652 263.18311 265.97513 268.27539 270.13287 271.80292 273.46198
 275.18573 276.93839 278.49872 279.87259 281.06866 282.13345 283.11230 284.00607
 284.82458 285.56894 286.23062 287.17587
 366.78100 356.32906 345.75513 334.61519 323.01225 311.20031 299.06438 286.86144
 274.56750 262.45856 250.46163 239.75669 229.87275 220.97081 213.14688 206.14294
 199.97100 194.90306 191.47913 189.51519 188.54625 188.60431 189.43338 190.73544
 192.45450 194.54356 196.80063 199.15369 201.59275 204.06681 206.14888 207.98494
 209.60500 210.74406 210.96713 211.18919 211.12025 210.81931 210.44638 210.07044
 209.68150 209.38556 209.18763 209.04569 208.96775 209.29281 209.67288 210.05594
 210.84300 212.01507 213.25913 215.03619 216.95825 218.99532 221.08438 223.16144
 225.21550 227.29357 229.38463 231.48469 233.60775 235.77382 238.02388 240.38794
 243.00300 245.24807 247.24413 249.00319 250.41425 251.53132 252.34738 252.65744
 252.68850 252.45657 251.81063 250.75269 249.35275 247.50782 245.41088 243.23794
 241.02300 238.82107 236.63513 234.46819 232.32225 230.18332 228.20338 226.35444
 224.63150 223.09757 221.72163 220.48769 219.36375 218.31782 217.41588 216.55094
 215.78700 214.96107 214.05313 213.41119 212.85526 213.97937 216.63521 219.35931
 221.40401 222.88983 224.32875 225.94002 227.32356 227.92767 227.17752 225.49792
 224.94197 227.10979 231.13997 235.83647 240.59445 245.19913 249.51306 253.41307
 256.86539 260.07700 263.13593 265.92722 268.22552 270.07812 271.74631 273.39560
 275.10727 276.85446 278.41229 279.78625 280.98026 282.04395 283.02023 283.91684
 284.73495 285.48145 286.14026 287.08542
 366.78100 356.32955 345.75610 334.61666 323.01421 311.20276 299.06731 286.86487
 274.57142 262.46297 250.46652 239.76208 229.87863 220.97718 213.15373 206.15029
 199.97884 194.91139 191.48794 189.52449 188.55605 188.61460 189.44415 190.74670
 192.46626 194.55581 196.81336 199.16691 201.60647 204.08102 206.16357 208.00012
 209.62068 210.76023 210.98378 211.20633 211.13788 210.83744 210.46499 210.08954
 209.70109 209.40565 209.20820 209.06675 208.98930 209.31486 209.69541 210.07896
 210.86651 212.03907 213.28362 215.06117 216.98372 219.02127 221.11083 223.18838
 225.24293 227.32148 229.41304 231.51359 233.63714 235.80369 238.05425 240.41880
 243.03435 245.27990 247.27646 249.03601 250.44756 251.56511 252.38167 252.69222
 252.72377 252.49232 251.84687 250.78943 249.38998 247.54553 245.44908 243.27664
 241.06219 238.86074 236.67529 234.50885 232.36340 230.22495 228.24550 226.39706
 224.67461 223.14116 221.76571 220.53226 219.40882 218.36337 217.46192 216.59747
 215.83403 215.00858 214.10113 213.45968 212.90424 214.01967 216.65503 219.37950
 221.46220 222.94812 224.35081 225.97908 227.37668 227.94785 227.15889 225.47446
 224.89070 227.05110 231.12032 235.83807 240.58330 245.16809 249.47649 253.37880
 256.83365 260.03989 263.08984 265.87903 268.17575 270.02454 271.69202 273.34106
 275.02420 276.76447 278.32111 279.69342 280.88556 281.94955 282.92685 283.82245
 284.64200 285.38907 286.04977 286.99429
 366.78100 356.33019 345.75738 334.61857 323.01675 311.20594 299.07113 286.86932
 274.57651 262.46870 250.47288 239.76907 229.88626 220.98545 213.16264 206.15983
 199.98901 194.92220 191.49939 189.53658 188.56877 188.62796 189.45814 190.76133
 192.48152 194.57171 196.82990 199.18409 201.62427 204.09946 206.18265 208.01984
 209.64103 210.78122 211.00540 211.22859 211.16078 210.86097 210.48916 210.11435
 209.72653 209.43172 209.23491 209.09410 209.01729 209.34348 209.72466 210.10885
 210.89704 212.07023 213.31542 215.09361 217.01679 219.05498 221.14517 223.22336
 225.27855 227.35774 229.44992 231.55111 233.67530 235.84249 238.09368 240.45887
 243.07505 245.32124 247.31843 249.07862 250.49081 251.60900 252.42618 252.73737
 252.76956 252.53875 251.89394 250.83713 249.43831 247.59450 245.49869 243.32688
 241.11307 238.91226 236.72744 234.56163 232.41682 230.27901 228.30020 226.45239
 224.73057 223.19776 221.82295 220.59014 219.46733 218.42252 217.52170 216.65789
 215.89508 215.07027 214.16346 213.52265 212.96783 214.06638 216.66179 219.41185
 221.51149 222.99550 224.39250 226.01720 227.40274 227.95250 227.14581 225.47977
 224.87241 226.99371 231.08853 235.83411 240.57422 245.14218 249.44496 253.34787
 256.80319 260.00287 263.04364 265.83234 268.12970 269.97552 271.64352 273.29123
 274.94080 276.67148 278.22635 279.59702 280.79007 281.85287 282.83002 283.72525
 284.54388 285.29208 285.95377 286.89725
 366.78100 356.33082 345.75863 334.62045 323.01927 311.20909 299.07490 286.87372
 274.58154 262.47436 250.47917 239.77599 229.89381 220.99363 213.17144 206.16926
 199.99908 194.93290 191.51071 189.54853 188.58135 188.64117 189.47198 190.77580
 192.49662 194.58744 196.84625 199.20107 201.64189 204.11771 206.20152 208.03934
 209.66116 210.80198 211.02679 211.25061 211.18343 210.88425 210.51306 210.13888
 209.75170 209.45752 209.26133 209.12115 209.04497 209.37179 209.75360 210.13842
 210.92724 212.10106 213.34687 215.12569 217.04951 219.08833 221.17914 223.25796
 225.31378 227.39360 229.48641 231.58823 233.71305 235.88087 238.13268 240.49850
 243.11532 245.36214 247.35995 249.12077 250.53359 251.65241 252.47022 252.78204
 252.81486 252.58467 251.94049 250.88431 249.48613 247.64294 245.54776 243.37658
 241.16340 238.96321 236.77903 234.61385 232.46967 230.33248 228.35430 226.50712
 224.78594 223.25375 221.87957 220.64739 219.52521 218.48102 217.58084 216.71766
 215.95548 215.13129 214.22511 213.58493 213.03075 214.11211 216.66693 219.43892
 221.56485 223.04152 224.42374 226.03368 227.41542 227.97313 227.15067 225.48141
 224.85158 226.94012 231.05634 235.83507 240.57198 245.12047 249.41438 253.31645
 256.77155 259.96640 262.99927 265.78860 268.08737 269.93347 271.59927 273.24295
 274.85852 276.57812 278.13116 279.50220 280.69351 281.75653 282.73123 283.62784
 284.44754 285.19449 285.85736 286.79929
 366.78100 356.33140 345.75980 334.62220 323.02160 311.21200 299.07839 286.87779
 274.58619 262.47959 250.48499 239.78239 229.90079 221.00119 213.17959 206.17799
 200.00839 194.94279 191.52118 189.55958 188.59298 188.65338 189.48478 190.78918
 192.51058 194.60198 196.86138 199.21678 201.65818 204.13457 206.21897 208.05737
 209.67977 210.82117 211.04657 211.27097 211.20437 210.90577 210.53517 210.16157
 209.77497 209.48136 209.28576 209.14616 209.07056 209.39796 209.78036 210.16576
 210.95516 212.12956 213.37596 215.15536 217.07975 219.11915 221.21055 223.28995
 225.34635 227.42675 229.52015 231.62255 233.74795 235.91635 238.16875 240.53515
 243.15254 245.39994 247.39834 249.15974 250.57314 251.69254 252.51094 252.82334
 252.85674 252.62714 251.98354 250.92793 249.53033 247.68773 245.59313 243.42253
 241.20993 239.01033 236.82673 234.66213 232.51853 230.38193 228.40433 226.55772
 224.83712 223.30552 221.93192 220.70032 219.57872 218.53512 217.63552 216.77292
 216.01132 215.18772 214.28211 213.64251 213.08891 214.15517 216.67433 219.45969
 221.62071 223.09029 224.44801 226.03432 227.41620 227.99844 227.16354 225.47827
 224.83018 226.89549 231.03139 235.84229 240.57185 245.09946 249.38367 253.28464
 256.74057 259.93106 262.95761 265.74731 268.04886 269.89432 271.55759 273.19598
 274.77924 276.48627 278.03638 279.40579 280.59714 281.65756 282.63425 283.52975
 284.34845 285.09653 285.76111 286.69550
 366.78100 356.33195 345.76091 334.62386 323.02382 311.21477 299.08173 286.88168
 274.59064 262.48459 250.49055 239.78850 229.90746 221.00841 213.18737 206.18632
 200.01728 194.95223 191.53119 189.57014 188.60410 188.66505 189.49701 190.80196
 192.52392 194.61587 196.87583 199.23178 201.67374 204.15069 206.23565 208.07460
 209.69756 210.83951 211.06547 211.29042 211.22437 210.92633 210.55628 210.18324
 209.79719 209.50415 209.30910 209.17006 209.09501 209.42297 209.80592 210.19188
 210.98183 212.15679 213.40374 215.18370 217.10865 219.14861 221.24056 223.32052
 225.37747 227.45843 229.55238 231.65534 233.78129 235.95025 238.20320 240.57016
 243.18811 245.43607 247.43502 249.19698 250.61093 251.73088 252.54984 252.86279
 252.89675 252.66770 252.02466 250.96961 249.57257 247.73052 245.63648 243.46643
 241.25439 239.05534 236.87230 234.70825 232.56521 230.42916 228.45212 226.60607
 224.88603 223.35498 221.98194 220.75089 219.62985 218.58680 217.68776 216.82571
 216.06467 215.24162 214.33658 213.69753 213.14449 214.19664 216.68250 219.47569
 221.67809 223.14125 224.46912 226.02754 227.40605 228.01491 227.17516 225.48338
 224.82112 226.86023 231.01425 235.85204 240.57150 245.07938 249.35504 253.25455
 256.71094 259.89740 262.91727 265.70804 268.01279 269.85883 271.51947 273.15109
 274.70325 276.39832 277.94394 279.31216 280.50195 281.56339 282.53738 283.43399
 284.25116 284.99802 285.66113 286.59033
 366.78100 356.33249 345.76198 334.62546 323.02595 311.21744 299.08493 286.88541
 274.59490 262.48939 250.49588 239.79436 229.91385 221.01534 213.19483 206.19431
 200.02580 194.96129 191.54078 189.58026 188.61475 188.67624 189.50873 190.81421
 192.53670 194.62919 196.88968 199.24616 201.68865 204.16614 206.25163 208.09111
 209.71460 210.85709 211.08358 211.30906 211.24355 210.94604 210.57653 210.20401
 209.81850 209.52599 209.33148 209.19296 209.11845 209.44694 209.83043 210.21691
 211.00740 212.18289 213.43038 215.21086 217.13635 219.17684 221.26933 223.34981
 225.40730 227.48879 229.58328 231.68676 233.81325 235.98274 238.23623 240.60371
 243.22220 245.47069 247.47018 249.23267 250.64715 251.76764 252.58713 252.90062
 252.93510 252.70659 252.06408 251.00957 249.61305 247.77154 245.67803 243.50852
 241.29700 239.09849 236.91598 234.75247 232.60995 230.47444 228.49793 226.65242
 224.93290 223.40239 222.02988 220.79937 219.67885 218.63634 217.73783 216.87632
 216.11580 215.29329 214.38878 213.75027 213.19775 214.23686 216.69185 219.48665
 221.73534 223.19646 224.48874 226.01617 227.39041 228.01764 227.17932 225.50133
 224.82938 226.83536 231.00484 235.86243 240.57120 245.06239 249.33022 253.22702
 256.68207 259.86356 262.87683 265.66696 267.97702 269.82599 271.48346 273.10736
 274.63916 276.31384 277.85437 279.22028 280.40878 281.46771 282.44330 283.33588
 284.15518 284.90106 285.56216 286.49005
 366.78100 356.33301 345.76302 334.62703 323.02803 311.22004 299.08805 286.88906
 274.59907 262.49408 250.50109 239.80009 229.92010 221.02211 213.20212 206.20213
 200.03414 194.97015 191.55016 189.59016 188.62517 188.68718 189.52019 190.82620
 192.54921 194.64222 196.90322 199.26023 201.70324 204.18125 206.26726 208.10727
 209.73128 210.87428 211.10129 211.32730 211.26231 210.96532 210.59633 210.22434
 209.83935 209.54735 209.35336 209.21537 209.14138 209.47039 209.85440 210.24141
 211.03241 212.20842 213.45643 215.23744 217.16345 219.20446 221.29747 223.37847
 225.43648 227.51849 229.61350 231.71751 233.84452 236.01453 238.26853 240.63654
 243.25555 245.50456 247.50457 249.26758 250.68259 251.80360 252.62360 252.93761
 252.97262 252.74463 252.10264 251.04865 249.65266 247.81166 245.71867 243.54968
 241.33869 239.14070 236.95871 234.79572 232.65372 230.51873 228.54274 226.69775
 224.97876 223.44877 222.07678 220.84679 219.72679 218.68480 217.78681 216.92582
 216.16583 215.34384 214.43985 213.80185 213.24986 214.27652 216.70210 219.49164
 221.78812 223.25729 224.50841 225.99910 227.37042 228.00452 227.17346 225.53110
 224.85332 226.82187 231.00287 235.87280 240.57289 245.04985 249.30939 253.20186
 256.65375 259.82919 262.83609 265.62497 267.93884 269.79114 271.44641 273.06641
 274.60385 276.23074 277.76205 279.12820 280.31750 281.37589 282.35062 283.24411
 284.06271 284.80927 285.47385 286.39633
 366.78100 356.33351 345.76403 334.62854 323.03005 311.22256 299.09108 286.89259
 274.60310 262.49862 250.50613 239.80564 229.92616 221.02867 213.20918 206.20969
 200.04221 194.97872 191.55923 189.59975 188.63526 188.69777 189.53128 190.83780
 192.56131 194.65482 196.91634 199.27385 201.71736 204.19587 206.28239 208.12290
 209.74741 210.89093 211.11844 211.34495 211.28047 210.98398 210.61549 210.24400
 209.85952 209.56803 209.37454 209.23706 209.16357 209.49308 209.87759 210.26511
 211.05662 212.23313 213.48165 215.26316 217.18967 219.23119 221.32470 223.40621
 225.46472 227.54724 229.64275 231.74726 233.87478 236.04529 238.29980 240.66831
 243.28783 245.53734 247.53785 249.30137 250.71688 251.83839 252.65891 252.97342
 253.00893 252.78144 252.13996 251.08647 249.69098 247.85050 245.75801 243.58952
 241.37903 239.18155 237.00006 234.83757 232.69609 230.56160 228.58611 226.74162
 225.02314 223.49365 222.12216 220.89268 219.77319 218.73170 217.83422 216.97373
 216.21424 215.39275 214.48927 213.85178 213.30029 214.31535 216.71352 219.49193
 221.83435 223.32346 224.53210 225.98044 227.34370 227.97316 227.15816 225.56783
 224.88956 226.82014 231.00786 235.88609 240.57977 245.04424 249.29272 253.17845
 256.62592 259.79517 262.79501 265.58127 267.89960 269.75555 271.40948 273.02383
 274.56812 276.15344 277.67758 279.04434 280.23309 281.29260 282.26834 283.16379
 283.98285 284.73706 285.40317 286.31589
 366.78100 356.33400 345.76500 334.63000 323.03200 311.22500 299.09401 286.89601
 274.60701 262.50301 250.51101 239.81101 229.93201 221.03501 213.21601 206.21701
 200.05001 194.98702 191.56802 189.60902 188.64502 188.70802 189.54202 190.84902
 192.57302 194.66702 196.92902 199.28702 201.73103 204.21003 206.29703 208.13803
 209.76303 210.90703 211.13503 211.36203 211.29803 211.00203 210.63403 210.26304
 209.87904 209.58804 209.39504 209.25804 209.18504 209.51504 209.90004 210.28804
 211.08004 212.25704 213.50605 215.28805 217.21505 219.25705 221.35105 223.43305
 225.49205 227.57505 229.67105 231.77605 233.90405 236.07506 238.33006 240.69906
 243.31906 245.56906 247.57006 249.33406 250.75006 251.87206 252.69306 253.00806
 253.04407 252.81707 252.17607 251.12307 249.72807 247.88807 245.79607 243.62807
 241.41807 239.22107 237.04007 234.87808 232.73708 230.60308 228.62808 226.78408
 225.06608 223.53708 222.16608 220.93708 219.81808 218.77708 217.88009 217.02009
 216.26109 215.44009 214.53709 213.90009 213.34909 214.35336 216.72606 219.49031
 221.87447 223.39307 224.56187 225.96451 227.30630 227.92065 227.13342 225.60670
 224.93407 226.82802 231.01822 235.90343 240.59319 245.04559 249.28101 253.15660
 256.59726 259.75928 262.75269 265.53735 267.86020 269.72147 271.37521 272.97968
 274.51727 276.08459 277.60220 278.96954 280.15738 281.21698 282.19104 283.08438
 283.90689 284.66306 285.32941 286.22827
 366.78100 356.33447 345.76594 334.63141 323.03388 311.22735 299.09682 286.89929
 274.61076 262.50723 250.51570 239.81617 229.93764 221.04111 213.22258 206.22404
 200.05751 194.99498 191.57645 189.61792 188.65439 188.71786 189.55233 190.85980
 192.58427 194.67874 196.94121 199.29968 201.74415 204.22362 206.31109 208.15256
 209.77803 210.92250 211.15097 211.37844 211.31491 211.01938 210.65185 210.28132
 209.89779 209.60726 209.41473 209.27820 209.20566 209.53613 209.92160 210.31007
 211.10254 212.28001 213.52948 215.31195 217.23942 219.28189 221.37636 223.45883
 225.51830 227.60177 229.69824 231.80371 233.93218 236.10365 238.35912 240.72859
 243.34906 245.59953 247.60100 249.36547 250.78194 251.90441 252.72588 253.04135
 253.07782 252.85128 252.21075 251.15822 249.76369 247.92416 245.83263 243.66510
 241.45557 239.25904 237.07851 234.91698 232.77645 230.64292 228.66839 226.82486
 225.10733 223.57880 222.20827 220.97974 219.86121 218.82068 217.92415 217.06462
 216.30609 215.48556 214.58303 213.94650 213.39597 214.39053 216.74031 219.48883
 221.90742 223.46284 224.59909 225.95158 227.25560 227.84839 227.10011 225.64351
 224.98311 226.84462 231.03302 235.92616 240.61484 245.05508 249.27512 253.13728
 256.56754 259.72137 262.70895 265.49149 267.81973 269.68921 271.34216 272.93277
 274.45697 276.02124 277.53540 278.90070 280.08826 281.14703 282.11923 283.01285
 283.83630 284.59314 285.25873 286.14417
 366.78100 356.33482 345.76663 334.63245 323.03527 311.22908 299.09890 286.90172
 274.61353 262.51035 250.51917 239.81998 229.94180 221.04562 213.22743 206.22925
 200.06307 195.00088 191.58270 189.62452 188.66133 188.72515 189.55997 190.86778
 192.59260 194.68742 196.95023 199.30905 201.75387 204.23368 206.32150 208.16332
 209.78913 210.93395 211.16277 211.39058 211.32740 211.03222 210.66503 210.29485
 209.91167 209.62148 209.42930 209.29312 209.22093 209.55175 209.93757 210.32638
 211.11920 212.29702 213.54683 215.32965 217.25747 219.30028 221.39510 223.47792
 225.53773 227.62155 229.71837 231.82418 233.95300 236.12482 238.38063 240.75045
 243.37126 245.62208 247.62390 249.38871 250.80553 251.92835 252.75016 253.06598
 253.10280 252.87661 252.23643 251.18425 249.79006 247.95088 245.85970 243.69251
 241.48333 239.28715 237.10696 234.94578 232.80560 230.67241 228.69823 226.85505
 225.13786 223.60968 222.23950 221.01131 219.89313 218.85295 217.95676 217.09758
 216.33940 215.51921 214.61703 213.98085 213.43066 214.42159 216.76277 219.47958
 221.93661 223.53252 224.63976 225.94528 227.19783 227.75996 227.05585 225.67433
 225.03378 226.86810 231.05170 235.95409 240.64513 245.07245 249.27489 253.12083
 256.53854 259.68182 262.66229 265.44278 267.77823 269.65717 271.31009 272.88693
 274.40753 275.95734 277.46481 278.82761 280.01514 281.07281 282.04175 282.93353
 283.75751 284.51804 285.17557 286.04791
 366.78100 356.33518 345.76736 334.63354 323.03672 311.23089 299.10107 286.90425
 274.61643 262.51361 250.52279 239.82397 229.94615 221.05033 213.23250 206.23468
 200.06886 195.00704 191.58922 189.63140 188.66858 188.73276 189.56794 190.87611
 192.60129 194.69647 196.95965 199.31883 201.76401 204.24419 206.33237 208.17455
 209.80072 210.94590 211.17508 211.40326 211.34044 211.04562 210.67880 210.30898
 209.92616 209.63633 209.44451 209.30869 209.23687 209.56805 209.95423 210.34341
 211.13659 212.31477 213.56494 215.34812 217.27630 219.31948 221.41466 223.49784
 225.55802 227.64220 229.73938 231.84555 233.97473 236.14691 238.40309 240.77327
 243.39445 245.64563 247.64781 249.41299 250.83016 251.95334 252.77552 253.09170
 253.12888 252.90306 252.26324 251.21142 249.81760 247.97877 245.88795 243.72113
 241.51231 239.31649 237.13667 234.97585 232.83603 230.70321 228.72938 226.88656
 225.16974 223.64192 222.27210 221.04428 219.92646 218.88664 217.99082 217.13199
 216.37417 215.55435 214.65253 214.01671 213.46689 214.45341 216.78421 219.47357
 221.95557 223.60194 224.69148 225.94594 227.13544 227.65619 226.99934 225.69809
 225.08325 226.89520 231.07214 235.98567 240.68246 245.09940 249.28255 253.10890
 256.51038 259.64096 262.61298 265.39230 267.73575 269.62714 271.28036 272.84341
 274.35254 275.89426 277.39331 278.75363 279.93961 280.99338 281.95837 282.84857
 283.67731 284.45016 285.09003 285.95450
 366.78100 356.33548 345.76796 334.63444 323.03792 311.23240 299.10288 286.90636
 274.61884 262.51632 250.52580 239.82728 229.94976 221.05425 213.23673 206.23921
 200.07369 195.01217 191.59465 189.63713 188.67461 188.73909 189.57457 190.88305
 192.60853 194.70401 196.96749 199.32697 201.77245 204.25293 206.34141 208.18389
 209.81037 210.95585 211.18533 211.41381 211.35129 211.05677 210.69026 210.32074
 209.93822 209.64870 209.45718 209.32166 209.25014 209.58162 209.96810 210.35758
 211.15106 212.32954 213.58002 215.36350 217.29198 219.33546 221.43094 223.51442
 225.57490 227.65938 229.75686 231.86334 233.99282 236.16530 238.42178 240.79227
 243.41375 245.66523 247.66771 249.43319 250.85067 251.97415 252.79663 253.11311
 253.15059 252.92507 252.28555 251.23403 249.84051 248.00199 245.91147 243.74495
 241.53643 239.34091 237.16139 235.00087 232.86135 230.72883 228.75531 226.91279
 225.19628 223.66876 222.29924 221.07172 219.95420 218.91468 218.01916 217.16064
 216.40312 215.58360 214.68208 214.04656 213.49704 214.48157 216.80765 219.46989
 221.95634 223.67299 224.76643 225.96375 227.05548 227.52426 226.93578 225.72087
 225.13062 226.92111 231.08951 236.01640 240.72343 245.13620 249.30067 253.10393
 256.48737 259.60159 262.56531 265.34113 267.68808 269.58426 271.22849 272.77783
 274.29568 275.84064 277.34662 278.71021 279.89825 280.96140 281.94772 282.85757
 283.67792 284.40945 285.03888 285.89200
 366.78100 356.33561 345.76821 334.63482 323.03842 311.23303 299.10364 286.90724
 274.61985 262.51745 250.52706 239.82867 229.95127 221.05588 213.23848 206.24109
 200.07570 195.01430 191.59691 189.63951 188.67712 188.74173 189.57733 190.88594
 192.61154 194.70715 196.97076 199.33036 201.77597 204.25657 206.34518 208.18779
 209.81439 210.96000 211.18960 211.41821 211.35582 211.06142 210.69503 210.32563
 209.94324 209.65385 209.46245 209.32706 209.25566 209.58727 209.97387 210.36348
 211.15709 212.33569 213.58630 215.36990 217.29851 219.34212 221.43772 223.52133
 225.58193 227.66654 229.76415 231.87075 234.00036 236.17296 238.42957 240.80018
 243.42178 245.67339 247.67599 249.44160 250.85921 251.98281 252.80542 253.12202
 253.15963 252.93424 252.29484 251.24345 249.85005 248.01166 245.92127 243.75487
 241.54648 239.35108 237.17169 235.01130 232.87190 230.73951 228.76611 226.92372
 225.20733 223.67993 222.31054 221.08314 219.96575 218.92636 218.03096 217.17257
 216.41517 215.59578 214.69439 214.05899 213.50960 214.49870 216.83560 219.47655
 221.92725 223.72627 224.88089 225.99837 226.96301 227.38757 226.87134 225.72421
 225.16077 226.94971 231.11082 236.04831 240.77274 245.18384 249.32805 253.10251
 256.46182 259.56177 262.51816 265.29358 267.65347 269.56781 271.21899 272.76962
 274.23874 275.77106 277.25507 278.61267 279.79996 280.86108 281.85080 282.76108
 283.58209 284.30072 284.92361 285.77197
 366.78100 356.33596 345.76892 334.63587 323.03983 311.23479 299.10575 286.90971
 274.62267 262.52062 250.53058 239.83254 229.95550 221.06046 213.24342 206.24637
 200.08133 195.02029 191.60325 189.64621 188.68417 188.74912 189.58508 190.89404
 192.62000 194.71596 196.97992 199.33987 201.78583 204.26679 206.35575 208.19871
 209.82567 210.97162 211.20158 211.43054 211.36850 211.07446 210.70842 210.33937
 209.95733 209.66829 209.47725 209.34221 209.27117 209.60312 209.99008 210.38004
 211.17400 212.35296 213.60392 215.38787 217.31683 219.36079 221.45675 223.54071
 225.60166 227.68662 229.78458 231.89154 234.02150 236.19446 238.45141 240.82237
 243.44433 245.69629 247.69925 249.46521 250.88316 252.00712 252.83008 253.14704
 253.18500 252.95996 252.32091 251.26987 249.87683 248.03879 245.94875 243.78271
 241.57466 239.37962 237.20058 235.04054 232.90150 230.76946 228.79641 226.95437
 225.23833 223.71129 222.34225 221.11521 219.99816 218.95912 218.06408 217.20604
 216.44900 215.62996 214.72891 214.09387 213.54483 214.52985 216.85707 219.48323
 221.91391 223.74568 224.93488 226.01488 226.90938 227.30624 226.82489 225.68839
 225.13806 226.96762 231.14056 236.08434 240.83266 245.24826 249.37051 253.11902
 256.45462 259.53485 262.47720 265.24768 267.61740 269.54050 271.18298 272.71393
 274.17770 275.72519 277.22437 278.58542 279.77277 280.83557 281.82870 282.74225
 283.56332 284.27359 284.90598 285.75165
 366.78100 356.33657 345.77015 334.63772 323.04230 311.23787 299.10945 286.91402
 274.62760 262.52617 250.53675 239.83932 229.96290 221.06847 213.25205 206.25562
 200.09120 195.03077 191.61435 189.65792 188.69650 188.76207 189.59865 190.90822
 192.63480 194.73137 196.99595 199.35652 201.80310 204.28467 206.37425 208.21782
 209.84540 210.99197 211.22255 211.45212 211.39070 211.09727 210.73185 210.36342
 209.98200 209.69357 209.50315 209.36872 209.29830 209.63087 210.01845 210.40902
 211.20360 212.38317 213.63475 215.41932 217.34890 219.39347 221.49005 223.57462
 225.63620 227.72177 229.82034 231.92792 234.05849 236.23207 238.48964 240.86122
 243.48379 245.73637 247.73994 249.50652 250.92509 252.04967 252.87324 253.19082
 253.22939 253.00497 252.36654 251.31612 249.92369 248.08627 245.99684 243.83142
 241.62399 239.42957 237.25114 235.09172 232.95329 230.82187 228.84944 227.00802
 225.29259 223.76617 222.39774 221.17132 220.05489 219.01647 218.12204 217.26462
 216.50819 215.68977 214.78934 214.15492 213.60649 214.57588 216.86620 219.49345
 221.92029 223.76039 224.94617 225.98849 226.84537 227.25105 226.82750 225.67000
 225.09653 226.95709 231.15599 236.11818 240.88823 245.30678 249.42738 253.15448
 256.47217 259.53720 262.47012 265.23187 267.60114 269.51935 271.13312 272.65424
 274.13300 275.66061 277.13309 278.46860 279.63803 280.69504 281.68036 282.58411
 283.38144 284.07306 284.66006 285.39908
 366.78100 356.33699 345.77098 334.63897 323.04396 311.23995 299.11194 286.91693
 274.63092 262.52991 250.54090 239.84389 229.96788 221.07388 213.25787 206.26186
 200.09785 195.03784 191.62183 189.66582 188.70481 188.77080 189.60779 190.91778
 192.64477 194.74176 197.00675 199.36774 201.81473 204.29672 206.38671 208.23070
 209.85869 211.00568 211.23667 211.46666 211.40565 211.11265 210.74764 210.37963
 209.99862 209.71061 209.52060 209.38659 209.31658 209.64957 210.03756 210.42855
 211.22354 212.40353 213.65552 215.44051 217.37050 219.41549 221.51248 223.59747
 225.65946 227.74545 229.84444 231.95243 234.08342 236.25741 238.51541 240.88740
 243.51039 245.76338 247.76737 249.53436 250.95335 252.07834 252.90233 253.22032
 253.25931 253.03530 252.39729 251.34728 249.95527 248.11826 246.02925 243.86424
 241.65723 239.46322 237.28521 235.12620 232.98819 230.85718 228.88518 227.04417
 225.32916 223.80315 222.43514 221.20913 220.09312 219.05511 218.16110 217.30409
 216.54808 215.73007 214.83006 214.19605 213.64804 214.60696 216.87251 219.49054
 221.93089 223.79773 224.97763 225.95381 226.74776 227.16631 226.84410 225.70340
 225.09276 226.95299 231.16344 236.12842 240.91968 245.33473 249.44836 253.17085
 256.49152 259.56024 262.48242 265.23788 267.61478 269.52234 271.08746 272.56897
 274.09192 275.55820 277.00928 278.33282 279.48715 280.53879 281.51578 282.39722
 283.09915 283.68774 284.27209 285.02347
 366.78100 356.33705 345.77110 334.63914 323.04419 311.24024 299.11229 286.91734
 274.63138 262.53043 250.54148 239.84453 229.96858 221.07462 213.25867 206.26272
 200.09877 195.03881 191.62286 189.66691 188.70596 188.77201 189.60905 190.91910
 192.64615 194.74320 197.00825 199.36929 201.81634 204.29839 206.38844 208.23249
 209.86053 211.00758 211.23863 211.46868 211.40773 211.11477 210.74982 210.38187
 210.00092 209.71297 209.52301 209.38906 209.31911 209.65216 210.04020 210.43125
 211.22630 212.40635 213.65840 215.44344 217.37349 219.41854 221.51559 223.60064
 225.66268 227.74873 229.84778 231.95583 234.08688 236.26092 238.51897 240.89102
 243.51407 245.76712 247.77116 249.53821 250.95726 252.08231 252.90636 253.22440
 253.26345 253.03950 252.40155 251.35160 249.95964 248.12269 246.03374 243.86879
 241.66183 239.46788 237.28993 235.13098 232.99303 230.86207 228.89012 227.04917
 225.33422 223.80827 222.44031 221.21436 220.09841 219.06046 218.16651 217.30955
 216.55360 215.73565 214.83570 214.20175 213.65379 214.62132 216.90723 219.49023
 221.90500 223.81711 225.04330 225.96126 226.66779 227.05473 226.81067 225.72600
 225.10675 226.94978 231.17480 236.16113 240.93819 245.35590 249.45918 253.15823
 256.48288 259.54907 262.48730 265.25266 267.65112 269.60455 271.18564 272.54160
 274.02368 275.50714 276.91443 278.13275 279.13403 280.16467 281.13446 281.99954
 282.66971 283.27478 283.90149 284.71884
 366.78100 356.33680 345.77060 334.63839 323.04319 311.23899 299.11079 286.91559
 274.62939 262.52818 250.53898 239.84178 229.96558 221.07138 213.25517 206.25897
 200.09477 195.03457 191.61837 189.66216 188.70096 188.76676 189.60356 190.91336
 192.64016 194.73695 197.00175 199.36255 201.80935 204.29115 206.38094 208.22474
 209.85254 210.99934 211.23014 211.45994 211.39873 211.10553 210.74033 210.37213
 209.99093 209.70272 209.51252 209.37832 209.30812 209.64092 210.02871 210.41951
 211.21431 212.39411 213.64591 215.43071 217.36050 219.40530 221.50210 223.58690
 225.64870 227.73449 229.83329 231.94109 234.07189 236.24569 238.50349 240.87528
 243.49808 245.75088 247.75468 249.52148 250.94027 252.06507 252.88887 253.20667
 253.24547 253.02126 252.38306 251.33286 249.94066 248.10346 246.01426 243.84905
 241.64185 239.44765 237.26945 235.11025 232.97204 230.84084 228.86864 227.02744
 225.31224 223.78604 222.41783 221.19163 220.07543 219.03723 218.14303 217.28582
 216.52962 215.71142 214.81122 214.17702 213.62881 214.61606 216.94852 219.48653
 221.86888 223.80009 225.08073 225.98633 226.64377 226.98503 226.74844 225.71410
 225.16118 226.99223 231.19296 236.13824 240.94844 245.40945 249.47906 253.13356
 256.43457 259.48709 262.42581 265.19113 267.59930 269.58084 271.19946 272.57303
 274.04874 275.49365 276.84988 278.02301 279.00537 279.99237 280.96872 281.84442
 282.50644 283.14444 283.76532 284.56216
 366.78100 356.33652 345.77003 334.63755 323.04207 311.23758 299.10910 286.91362
 274.62713 262.52565 250.53617 239.83868 229.96220 221.06772 213.25123 206.25475
 200.09027 195.02978 191.61330 189.65682 188.69533 188.76085 189.59737 190.90688
 192.63340 194.72992 196.99443 199.35495 201.80147 204.28298 206.37250 208.21602
 209.84353 210.99005 211.22057 211.45008 211.38860 211.09512 210.72963 210.36115
 209.97966 209.69118 209.50070 209.36621 209.29573 209.62825 210.01576 210.40628
 211.20080 212.38031 213.63183 215.41635 217.34586 219.39038 221.48690 223.57141
 225.63293 227.71845 229.81696 231.92448 234.05500 236.22851 238.48603 240.85755
 243.48006 245.73258 247.73610 249.50261 250.92113 252.04565 252.86916 253.18668
 253.22520 253.00071 252.36223 251.31175 249.91926 248.08178 245.99230 243.82681
 241.61933 239.42485 237.24636 235.08688 232.94840 230.81691 228.84443 227.00295
 225.28746 223.76098 222.39250 221.16601 220.04953 219.01105 218.11656 217.25908
 216.50260 215.68411 214.78363 214.14915 213.60066 214.61325 217.00558 219.47675
 221.85530 223.75424 225.05408 225.98769 226.63826 226.93787 226.66467 225.65147
 225.18246 227.05573 231.19675 236.15314 240.94505 245.46376 249.53601 253.16498
 256.46848 259.47372 262.39053 265.14157 267.53897 269.49960 271.09586 272.55383
 274.02832 275.44940 276.75974 277.90402 278.88312 279.88120 280.86359 281.72430
 282.43628 283.14105 283.78183 284.59839
 366.78100 356.33659 345.77018 334.63777 323.04235 311.23794 299.10953 286.91412
 274.62771 262.52630 250.53688 239.83947 229.96306 221.06865 213.25224 206.25583
 200.09141 195.03100 191.61459 189.65818 188.69677 188.76236 189.59894 190.90853
 192.63512 194.73171 196.99630 199.35689 201.80347 204.28506 206.37465 208.21824
 209.84583 210.99242 211.22300 211.45259 211.39118 211.09777 210.73236 210.36395
 209.98253 209.69412 209.50371 209.36930 209.29889 209.63148 210.01906 210.40965
 211.20424 212.38383 213.63542 215.42001 217.34959 219.39418 221.49077 223.57536
 225.63695 227.72254 229.82112 231.92871 234.05930 236.23289 238.49048 240.86207
 243.48465 245.73724 247.74083 249.50742 250.92601 252.05060 252.87418 253.19177
 253.23036 253.00595 252.36754 251.31713 249.92471 248.08730 245.99789 243.83248
 241.62507 239.43066 237.25224 235.09283 232.95442 230.82301 228.85060 227.00919
 225.29377 223.76736 222.39895 221.17254 220.05613 219.01772 218.12330 217.26589
 216.50948 215.69107 214.79066 214.15625 213.60783 214.62383 217.02859 219.49393
 221.77832 223.64871 225.03954 226.01277 226.64549 226.91141 226.60823 225.64140
 225.17830 227.11821 231.22321 236.10854 240.92033 245.46329 249.52101 253.15720
 256.45557 259.44879 262.36819 265.11130 267.50513 269.47339 271.10159 272.54480
 273.97070 275.36990 276.64468 277.75098 278.70862 279.71997 280.69305 281.58035
 282.40231 283.15750 283.81720 284.65793
 366.78100 356.33733 345.77166 334.63999 323.04533 311.24166 299.11399 286.91932
 274.63365 262.53298 250.54432 239.84765 229.97198 221.07831 213.26264 206.26697
 200.10331 195.04364 191.62797 189.67230 188.71163 188.77796 189.61530 190.92563
 192.65296 194.75029 197.01562 199.37695 201.82428 204.30662 206.39695 208.24128
 209.86961 211.01694 211.24827 211.47861 211.41794 211.12527 210.76060 210.39293
 210.01226 209.72460 209.53493 209.40126 209.33159 209.66492 210.05325 210.44458
 211.23992 212.42025 213.67258 215.45791 217.38824 219.43357 221.53091 223.61624
 225.67857 227.76490 229.86423 231.97256 234.10390 236.27823 238.53656 240.90889
 243.53222 245.78555 247.78989 249.55722 250.97655 252.10188 252.92621 253.24454
 253.28387 253.06021 252.42254 251.37287 249.98120 248.14453 246.05586 243.89120
 241.68453 239.49086 237.31319 235.15452 233.01685 230.88619 228.91452 227.07385
 225.35918 223.83351 222.46584 221.24018 220.12451 219.08684 218.19317 217.33650
 216.58083 215.76316 214.86350 214.22983 213.68216 214.67055 217.02025 219.56500
 221.65871 223.54893 225.07635 226.04787 226.61595 226.85481 226.56458 225.63918
 225.16737 227.15067 231.22749 236.11087 240.88559 245.40694 249.53442 253.17813
 256.45856 259.44247 262.34558 265.06360 267.45325 269.45612 271.11288 272.54999
 273.99960 275.39206 276.66495 277.75684 278.67719 279.71805 280.72107 281.63535
 282.49551 283.26151 283.93063 284.78339
 366.78100 356.33765 345.77230 334.64095 323.04659 311.24324 299.11589 286.92154
 274.63619 262.53584 250.54749 239.85113 229.97578 221.08243 213.26708 206.27173
 200.10838 195.04902 191.63367 189.67832 188.71797 188.78462 189.62227 190.93292
 192.66056 194.75821 197.02386 199.38551 201.83316 204.31581 206.40646 208.25110
 209.87975 211.02740 211.25905 211.48970 211.42935 211.13700 210.77264 210.40529
 210.02494 209.73759 209.54824 209.41489 209.34553 209.67918 210.06783 210.45948
 211.25513 212.43578 213.68843 215.47407 217.40472 219.45037 221.54802 223.63367
 225.69632 227.78297 229.88261 231.99126 234.12291 236.29756 238.55621 240.92886
 243.55251 245.80615 247.81080 249.57845 250.99810 252.12375 252.94840 253.26704
 253.30669 253.08334 252.44599 251.39664 250.00529 248.16894 246.08058 243.91623
 241.70988 239.51653 237.33918 235.18083 233.04348 230.91312 228.94177 227.10142
 225.38707 223.86172 222.49437 221.26902 220.15366 219.11631 218.22296 217.36661
 216.61126 215.79391 214.89455 214.26120 213.71385 214.69138 217.00919 219.60922
 221.65445 223.55821 225.10571 226.05519 226.54689 226.73448 226.53119 225.59279
 225.27087 227.24989 231.26915 236.12872 240.88873 245.33360 249.54597 253.19730
 256.45883 259.44681 262.33154 265.01746 267.39407 269.41495 271.10666 272.59613
 274.04941 275.44174 276.70743 277.83704 278.92099 279.97284 280.93735 281.81699
 282.66290 283.43045 284.10098 284.95551
 366.78100 356.33785 345.77270 334.64155 323.04740 311.24425 299.11710 286.92295
 274.63780 262.53765 250.54950 239.85335 229.97820 221.08505 213.26990 206.27475
 200.11160 195.05245 191.63730 189.68215 188.72200 188.78885 189.62670 190.93755
 192.66540 194.76325 197.02910 199.39095 201.83880 204.32165 206.41250 208.25735
 209.88620 211.03405 211.26590 211.49675 211.43660 211.14445 210.78030 210.41315
 210.03300 209.74585 209.55670 209.42355 209.35440 209.68825 210.07710 210.46895
 211.26480 212.44565 213.69850 215.48435 217.41520 219.46105 221.55890 223.64475
 225.70760 227.79445 229.89430 232.00315 234.13500 236.30985 238.56870 240.94155
 243.56540 245.81925 247.82410 249.59195 251.01180 252.13765 252.96250 253.28135
 253.32120 253.09805 252.46090 251.41175 250.02060 248.18445 246.09629 243.93214
 241.72599 239.53284 237.35569 235.19754 233.06039 230.93024 228.95909 227.11894
 225.40479 223.87964 222.51249 221.28734 220.17219 219.13504 218.24189 217.38574
 216.63059 215.81344 214.91429 214.28114 213.73399 214.70682 217.00525 219.61113
 221.70837 223.58159 225.10869 226.01768 226.49098 226.66821 226.48654 225.55521
 225.35916 227.37251 231.33650 236.13768 240.89029 245.28522 249.51076 253.15950
 256.42258 259.42767 262.33453 265.01190 267.36905 269.36121 271.05325 272.56473
 274.04126 275.45566 276.72501 277.86307 278.95340 280.01196 280.94748 281.74771
 282.49200 283.20511 283.82806 284.62195
 366.78100 356.33945 345.77590 334.64635 323.05380 311.25224 299.12669 286.93414
 274.65059 262.55204 250.56549 239.87094 229.99739 221.10584 213.29228 206.29873
 200.13718 195.07963 191.66608 189.71253 188.75398 188.82243 189.66188 190.97432
 192.70377 194.80322 197.07067 199.43412 201.88357 204.36802 206.46047 208.30692
 209.93736 211.08681 211.32026 211.55271 211.49416 211.20361 210.84106 210.47551
 210.09696 209.81141 209.62385 209.49230 209.42475 209.76020 210.15065 210.54410
 211.34155 212.52400 213.77845 215.56589 217.49834 219.54579 221.64524 223.73269
 225.79714 227.88559 229.98704 232.09749 234.23093 236.40738 238.66783 241.04228
 243.66773 245.92318 247.92963 249.69908 251.12053 252.24797 253.07442 253.39487
 253.43632 253.21477 252.57922 251.53167 250.14212 248.30757 246.22101 244.05846
 241.85391 239.66236 237.48681 235.33026 233.19471 231.06616 229.09661 227.25805
 225.54550 224.02195 222.65640 221.43285 220.31930 219.28375 218.39220 217.53765
 216.78409 215.96854 215.07099 214.43944 213.89389 214.79927 216.93832 219.64632
 221.76335 223.56171 225.09448 225.90480 226.40881 226.66983 226.43202 225.47429
 225.41089 227.48370 231.39140 236.14865 240.90668 245.28818 249.47163 253.09598
 256.40729 259.42899 262.34482 265.02518 267.37772 269.34634 270.99698 272.50119
 273.97775 275.42688 276.71658 277.87466 279.01791 280.07214 281.01038 281.82858
 282.59528 283.34427 284.01309 284.86542
 366.78100 356.34054 345.77808 334.64962 323.05815 311.25769 299.13323 286.94177
 274.65931 262.56185 250.57638 239.88292 230.01046 221.12000 213.30754 206.31508
 200.15461 195.09815 191.68569 189.73323 188.77577 188.84531 189.68584 190.99938
 192.72992 194.83046 197.09900 199.46354 201.91407 204.39961 206.49315 208.34069
 209.97223 211.12277 211.35730 211.59084 211.53338 211.24392 210.88246 210.51800
 210.14054 209.85607 209.66961 209.53915 209.47269 209.80923 210.20077 210.59530
 211.39384 212.57738 213.83292 215.62146 217.55500 219.60353 221.70407 223.79261
 225.85815 227.94769 230.05023 232.16176 234.29630 236.47384 238.73538 241.11092
 243.73746 245.99399 248.00153 249.77207 251.19461 252.32315 253.15069 253.47223
 253.51476 253.29430 252.65984 251.61338 250.22492 248.39146 246.30599 244.14453
 241.94107 239.75061 237.57615 235.42069 233.28622 231.15876 229.19030 227.35284
 225.64138 224.11892 222.75445 221.53199 220.41953 219.38507 218.49461 217.64115
 216.88868 216.07422 215.17776 214.54730 214.00284 214.86588 216.90492 219.63243
 221.79944 223.52081 225.04156 225.78450 226.34947 226.66240 226.38890 225.52562
 225.43559 227.51244 231.40150 236.13506 240.90787 245.31102 249.45761 253.14766
 256.41153 259.44354 262.30829 264.98083 267.35794 269.36163 271.03104 272.52841
 274.01208 275.47760 276.77509 277.92975 279.10349 280.15784 281.10974 281.97296
 282.78613 283.57446 284.26315 285.14081
 366.78100 356.33935 345.77569 334.64604 323.05339 311.25173 299.12608 286.93343
 274.64977 262.55112 250.56447 239.86982 229.99616 221.10451 213.29086 206.29720
 200.13555 195.07790 191.66424 189.71059 188.75194 188.82028 189.65963 190.97198
 192.70132 194.80067 197.06802 199.43136 201.88071 204.36506 206.45740 208.30375
 209.93410 211.08345 211.31679 211.54914 211.49049 211.19983 210.83718 210.47153
 210.09287 209.80722 209.61957 209.48791 209.42026 209.75561 210.14595 210.53930
 211.33665 212.51899 213.77334 215.56069 217.49303 219.54038 221.63973 223.72708
 225.79142 227.87977 229.98112 232.09146 234.22481 236.40116 238.66150 241.03585
 243.66120 245.91654 247.92289 249.69224 251.11358 252.24093 253.06728 253.38762
 253.42897 253.20732 252.57166 251.52401 250.13436 248.29971 246.21305 244.05040
 241.84575 239.65409 237.47844 235.32179 233.18613 231.05748 229.08783 227.24917
 225.53652 224.01287 222.64721 221.42356 220.30991 219.27425 218.38260 217.52795
 216.77429 215.95864 215.06099 214.42934 213.88368 214.81572 217.03381 219.53169
 221.77626 223.44429 224.86501 225.72884 226.42789 226.69077 226.21790 225.59750
 225.54239 227.43982 231.35130 236.10739 240.89755 245.34364 249.44698 253.17708
 256.45868 259.47635 262.32269 264.93997 267.28329 269.31662 271.02914 272.52563
 274.04910 275.51895 276.79819 278.03403 279.22229 280.29102 281.27118 282.21030
 283.11365 283.91806 284.62082 285.51636
 366.78100 356.33850 345.77401 334.64351 323.05002 311.24752 299.12103 286.92753
 274.64304 262.54354 250.55605 239.86055 229.98605 221.09356 213.27906 206.28457
 200.12207 195.06358 191.64908 189.69459 188.73509 188.80260 189.64110 190.95260
 192.68111 194.77961 197.04612 199.40862 201.85713 204.34063 206.43214 208.27764
 209.90715 211.05565 211.28815 211.51966 211.46016 211.16867 210.80517 210.43868
 210.05918 209.77269 209.58419 209.45170 209.38320 209.71770 210.10721 210.49971
 211.29622 212.47772 213.73123 215.51773 217.44924 219.49574 221.59425 223.68075
 225.74425 227.83176 229.93226 232.04177 234.17427 236.34978 238.60928 240.98279
 243.60729 245.86179 247.86730 249.63580 251.05631 252.18281 253.00832 253.32782
 253.36833 253.14583 252.50934 251.46084 250.07034 248.23485 246.14735 243.98386
 241.77836 239.58587 237.40937 235.25188 233.11538 230.98589 229.01539 227.17589
 225.46240 223.93790 222.57141 221.34691 220.23242 219.19592 218.30343 217.44793
 216.69344 215.87694 214.97844 214.34595 213.79945 214.78284 217.13658 219.51859
 221.61612 223.33203 224.76529 225.75499 226.39352 226.65221 226.16515 225.76756
 225.46793 227.33781 231.36174 236.10780 240.88164 245.35242 249.46365 253.19870
 256.50446 259.55923 262.38080 264.93747 267.24719 269.28809 271.02390 272.56888
 274.09134 275.53192 276.83060 278.15762 279.36401 280.46838 281.58578 282.63226
 283.57349 284.41162 285.14383 286.07693
 366.78100 356.33905 345.77511 334.64516 323.05222 311.25027 299.12432 286.93138
 274.64743 262.54849 250.56154 239.86659 229.99265 221.10070 213.28676 206.29281
 200.13086 195.07292 191.65897 189.70503 188.74608 188.81413 189.65319 190.96524
 192.69430 194.79335 197.06040 199.42346 201.87251 204.35657 206.44862 208.29467
 209.92473 211.07378 211.30684 211.53889 211.47994 211.18900 210.82605 210.46011
 210.08116 209.79521 209.60727 209.47532 209.40738 209.74243 210.13248 210.52554
 211.32259 212.50465 213.75870 215.54575 217.47781 219.52486 221.62392 223.71097
 225.77502 227.86308 229.96413 232.07419 234.20724 236.38329 238.64335 241.01740
 243.64246 245.89751 247.90356 249.67262 251.09367 252.22073 253.04678 253.36683
 253.40789 253.18594 252.55000 251.50205 250.11210 248.27716 246.19021 244.02727
 241.82232 239.63037 237.45443 235.29748 233.16154 231.03259 229.06264 227.22370
 225.51075 223.98681 222.62086 221.39691 220.28297 219.24702 218.35508 217.50013
 216.74618 215.93024 215.03229 214.40035 213.85440 214.81680 217.12794 219.57722
 221.52742 223.32544 224.81036 225.72568 226.19919 226.45699 226.25719 225.88086
 225.37173 227.36086 231.41934 236.13911 240.89996 245.37663 249.48991 253.22942
 256.57788 259.63586 262.42444 264.93594 267.20831 269.26663 271.05887 272.62494
 274.14911 275.60358 276.94412 278.30746 279.52347 280.65048 281.72916 282.71353
 283.59885 284.38727 285.07599 285.95367
 366.78100 356.33975 345.77650 334.64726 323.05501 311.25376 299.12851 286.93627
 274.65302 262.55477 250.56852 239.87427 230.00103 221.10978 213.29653 206.30328
 200.14204 195.08479 191.67154 189.71829 188.76004 188.82880 189.66855 190.98130
 192.71105 194.81081 197.07856 199.44231 201.89206 204.37682 206.46957 208.31632
 209.94707 211.09682 211.33058 211.56333 211.50508 211.21483 210.85259 210.48734
 210.10909 209.82384 209.63659 209.50535 209.43810 209.77385 210.16460 210.55836
 211.35611 212.53886 213.79361 215.58136 217.51412 219.56187 221.66162 223.74937
 225.81413 227.90288 230.00463 232.11538 234.24913 236.42589 238.68664 241.06139
 243.68714 245.94290 247.94965 249.71940 251.14115 252.26891 253.09566 253.41641
 253.45816 253.23691 252.60167 251.55442 250.16517 248.33092 246.24468 244.08243
 241.87818 239.68693 237.51168 235.35544 233.22019 231.09194 229.12269 227.28445
 225.57220 224.04895 222.68370 221.46045 220.34721 219.31196 218.42071 217.56646
 216.81322 215.99797 215.10072 214.46947 213.92422 214.85825 217.09001 219.59344
 221.58743 223.33887 224.75458 225.67755 226.05376 226.18990 226.28802 225.74835
 225.41483 227.39093 231.51488 236.17294 240.93283 245.42227 249.53978 253.28787
 256.66141 259.69922 262.45074 264.92099 267.14819 269.19180 271.03857 272.67926
 274.22955 275.69745 277.01935 278.33868 279.53671 280.61267 281.59946 282.55606
 283.41998 284.18927 284.86133 285.71780
 366.78100 356.34057 345.77814 334.64971 323.05828 311.25784 299.13341 286.94198
 274.65955 262.56212 250.57669 239.88326 230.01083 221.12040 213.30796 206.31553
 200.15510 195.09867 191.68624 189.73381 188.77638 188.84595 189.68652 191.00008
 192.73065 194.83122 197.09979 199.46436 201.91493 204.40050 206.49407 208.34164
 209.97320 211.12377 211.35834 211.59191 211.53448 211.24505 210.88362 210.51919
 210.14176 209.85732 209.67089 209.54046 209.47403 209.81060 210.20217 210.59674
 211.39531 212.57888 213.83444 215.62301 217.55658 219.60515 221.70572 223.79429
 225.85986 227.94943 230.05200 232.16357 234.29813 236.47570 238.73727 241.11284
 243.73941 245.99598 248.00355 249.77412 251.19669 252.32525 253.15282 253.47439
 253.51696 253.29653 252.66210 251.61567 250.22724 248.39381 246.30837 244.14694
 241.94351 239.75308 237.57865 235.42322 233.28879 231.16136 229.19293 227.35549
 225.64406 224.12163 222.75720 221.53477 220.42234 219.38791 218.49748 217.64405
 216.89161 216.07718 215.18075 214.55032 214.00589 214.90802 217.05870 219.59105
 221.65265 223.34503 224.68219 225.59843 225.96173 225.98828 226.18608 225.61575
 225.56972 227.50793 231.62993 236.21143 240.97119 245.47108 249.59828 253.36217
 256.75455 259.78360 262.49551 264.93143 267.12119 269.13245 270.97403 272.65088
 274.24573 275.73581 277.04489 278.29138 279.48114 280.54288 281.51062 282.44348
 283.30981 284.08127 284.75519 285.61404
 366.78100 356.34131 345.77962 334.65193 323.06124 311.26155 299.13786 286.94717
 274.66548 262.56879 250.58410 239.89141 230.01972 221.13003 213.31834 206.32665
 200.16696 195.11127 191.69958 189.74789 188.79120 188.86151 189.70282 191.01713
 192.74844 194.84975 197.11906 199.48437 201.93568 204.42199 206.51630 208.36461
 209.99692 211.14823 211.38354 211.61785 211.56116 211.27247 210.91177 210.54808
 210.17139 209.88770 209.70201 209.57232 209.50663 209.84394 210.23625 210.63156
 211.43087 212.61518 213.87149 215.66080 217.59511 219.64442 221.74573 223.83504
 225.90135 227.99166 230.09497 232.20728 234.34259 236.52090 238.78321 241.15952
 243.78683 246.04414 248.05245 249.82376 251.24707 252.37638 253.20469 253.52700
 253.57031 253.35062 252.71693 251.67124 250.28355 248.45086 246.36617 244.20548
 242.00279 239.81310 237.63941 235.48472 233.35103 231.22434 229.25665 227.41996
 225.70927 224.18758 222.82389 221.60220 220.49051 219.45682 218.56713 217.71444
 216.96275 216.14906 215.25337 214.62368 214.07999 214.95337 217.03609 219.60574
 221.65721 223.31766 224.64046 225.49661 225.86046 225.79710 226.03395 225.46347
 225.72328 227.65346 231.70573 236.26460 241.01646 245.51843 249.66385 253.44797
 256.84875 259.86096 262.53250 264.93268 267.11035 269.12216 270.97089 272.67239
 274.29047 275.79279 277.10797 278.26144 279.44702 280.50458 281.46738 282.40021
 283.26749 284.03979 284.71448 285.57428
 366.78100 356.34131 345.77962 334.65193 323.06124 311.26155 299.13786 286.94717
 274.66548 262.56879 250.58410 239.89141 230.01972 221.13003 213.31834 206.32665
 200.16696 195.11127 191.69958 189.74789 188.79120 188.86151 189.70282 191.01713
 192.74844 194.84975 197.11906 199.48437 201.93568 204.42199 206.51630 208.36461
 209.99692 211.14823 211.38354 211.61785 211.56116 211.27247 210.91177 210.54808
 210.17139 209.88770 209.70201 209.57232 209.50663 209.84394 210.23625 210.63156
 211.43087 212.61518 213.87149 215.66080 217.59511 219.64442 221.74573 223.83504
 225.90135 227.99166 230.09497 232.20728 234.34259 236.52090 238.78321 241.15952
 243.78683 246.04414 248.05245 249.82376 251.24707 252.37638 253.20469 253.52700
 253.57031 253.35062 252.71693 251.67124 250.28355 248.45086 246.36617 244.20548
 242.00279 239.81310 237.63941 235.48472 233.35103 231.22434 229.25665 227.41996
 225.70927 224.18758 222.82389 221.60220 220.49051 219.45682 218.56713 217.71444
 216.96275 216.14906 215.25337 214.62368 214.07999 214.96034 217.05225 219.58960
 221.67288 223.34256 224.58438 225.38629 225.73524 225.63222 225.82648 225.31622
 225.84181 227.87447 231.77745 236.34074 241.08327 245.58665 249.74358 253.55252
 256.96140 259.94894 262.57153 264.91974 267.07489 269.08868 270.95599 272.68466
 274.31277 275.82242 277.13397 278.26868 279.42355 280.47406 281.42691 282.32776
 283.19467 283.96667 284.64108 285.50055
 366.78100 356.34124 345.77949 334.65173 323.06098 311.26122 299.13747 286.94671
 274.66496 262.56820 250.58345 239.89069 230.01893 221.12918 213.31742 206.32567
 200.16591 195.11016 191.69840 189.74665 188.78989 188.86014 189.70138 191.01562
 192.74687 194.84811 197.11736 199.48260 201.93385 204.42009 206.51434 208.36258
 209.99483 211.14607 211.38131 211.61556 211.55880 211.27005 210.90929 210.54554
 210.16878 209.88503 209.69927 209.56952 209.50376 209.84101 210.23325 210.62849
 211.42774 212.61198 213.86823 215.65747 217.59172 219.64096 221.74221 223.83145
 225.89770 227.98794 230.09118 232.20343 234.33867 236.51692 238.77916 241.15541
 243.78265 246.03990 248.04814 249.81939 251.24263 252.37187 253.20012 253.52236
 253.56561 253.34585 252.71210 251.66634 250.27859 248.44583 246.36108 244.20032
 241.99756 239.80781 237.63405 235.47930 233.34554 231.21879 229.25103 227.41428
 225.70352 224.18177 222.81801 221.59625 220.48450 219.45074 218.56099 217.70823
 216.95648 216.14272 215.24697 214.61721 214.07346 214.96451 217.08020 219.56741
 221.66216 223.35995 224.50658 225.25998 225.61130 225.51659 225.53369 225.20250
 225.92395 228.07294 231.86310 236.43703 241.17783 245.67824 249.82687 253.64130
 257.06393 260.04813 262.63504 264.94110 267.06143 269.05881 270.92462 272.65552
 274.29114 275.79749 277.08795 278.21820 279.37036 280.41772 281.37079 282.26965
 283.13120 283.89841 284.56860 285.42270
 366.78100 356.34139 345.77978 334.65217 323.06156 311.26195 299.13834 286.94772
 274.66611 262.56950 250.58489 239.89228 230.02067 221.13106 213.31945 206.32784
 200.16823 195.11262 191.70101 189.74940 188.79278 188.86317 189.70456 191.01895
 192.75034 194.85173 197.12112 199.48651 201.93790 204.42429 206.51868 208.36707
 209.99945 211.15084 211.38623 211.62062 211.56401 211.27540 210.91479 210.55118
 210.17457 209.89096 209.70535 209.57574 209.51013 209.84751 210.23990 210.63529
 211.43468 212.61907 213.87546 215.66485 217.59924 219.64863 221.75002 223.83941
 225.90580 227.99619 230.09957 232.21196 234.34735 236.52574 238.78813 241.16452
 243.79191 246.04930 248.05769 249.82908 251.25247 252.38186 253.21024 253.53263
 253.57602 253.35641 252.72280 251.67719 250.28958 248.45697 246.37236 244.21175
 242.00914 239.81953 237.64592 235.49130 233.35769 231.23108 229.26347 227.42686
 225.71625 224.19464 222.83103 221.60942 220.49781 219.46420 218.57459 217.72198
 216.97036 216.15675 215.26114 214.63153 214.08792 214.98067 217.11380 219.55602
 221.59410 223.24844 224.45206 225.15942 225.48282 225.38397 225.21060 225.06241
 225.99574 228.19666 231.96489 236.54868 241.28171 245.77638 249.91714 253.71733
 257.13480 260.11984 262.69736 264.98001 267.07806 269.06302 270.91705 272.64755
 274.27652 275.75827 277.02527 278.20432 279.39279 280.45929 281.44171 282.39749
 283.25885 284.02588 284.69595 285.54990
 366.78100 356.34186 345.78072 334.65358 323.06344 311.26430 299.14116 286.95102
 274.66988 262.57374 250.58960 239.89746 230.02632 221.13718 213.32604 206.33490
 200.17576 195.12062 191.70948 189.75834 188.80220 188.87306 189.71492 191.02978
 192.76164 194.86349 197.13335 199.49921 201.95107 204.43793 206.53279 208.38165
 210.01451 211.16637 211.40223 211.63709 211.58095 211.29281 210.93267 210.56953
 210.19339 209.91025 209.72511 209.59597 209.53083 209.86869 210.26155 210.65741
 211.45727 212.64213 213.89899 215.68885 217.62371 219.67357 221.77543 223.86529
 225.93215 228.02301 230.12687 232.23973 234.37559 236.55445 238.81731 241.19417
 243.82203 246.07989 248.08875 249.86061 251.28447 252.41433 253.24319 253.56605
 253.60991 253.39076 252.75762 251.71248 250.32534 248.49320 246.40906 244.24892
 242.04678 239.85764 237.68450 235.53036 233.39722 231.27108 229.30394 227.46780
 225.75766 224.23652 222.87338 221.65224 220.54110 219.50796 218.61882 217.76668
 217.01554 216.20240 215.30726 214.67812 214.13498 215.01205 217.12492 219.57031
 221.51514 223.13225 224.44313 225.10207 225.32001 225.16942 224.96745 224.83730
 226.13814 228.39243 232.13710 236.68556 241.40034 245.88277 250.01997 253.81036
 257.21063 260.17404 262.73975 265.00955 267.10452 269.10413 270.96851 272.69202
 274.29095 275.74954 276.96603 278.28500 279.49185 280.59845 281.64886 282.60764
 283.46994 284.23782 284.90866 285.76352
 366.78100 356.34242 345.78183 334.65525 323.06566 311.26708 299.14450 286.95491
 274.67433 262.57874 250.59516 239.90358 230.03299 221.14441 213.33382 206.34324
 200.18466 195.13007 191.71949 189.76890 188.81332 188.88474 189.72715 191.04257
 192.77498 194.87740 197.14782 199.51423 201.96665 204.45406 206.54948 208.39890
 210.03231 211.18473 211.42114 211.65656 211.60098 211.31339 210.95381 210.59122
 210.21564 209.93305 209.74847 209.61989 209.55530 209.89372 210.28713 210.68355
 211.48397 212.66938 213.92680 215.71721 217.65263 219.70305 221.80546 223.89588
 225.96329 228.05471 230.15913 232.27254 234.40896 236.58837 238.85179 241.22921
 243.85762 246.11604 248.12545 249.89787 251.32229 252.45270 253.28212 253.60553
 253.64995 253.43137 252.79878 251.75420 250.36761 248.53603 246.45245 244.29286
 242.09128 239.90269 237.73011 235.57653 233.44394 231.31836 229.35177 227.51619
 225.80661 224.28602 222.92344 221.70285 220.59227 219.55969 218.67110 217.81952
 217.06893 216.25635 215.36177 214.73318 214.19060 215.04668 217.11650 219.58276
 221.51715 223.08148 224.39938 225.07365 225.14009 224.87079 224.76981 224.70302
 226.19260 228.55675 232.29965 236.83998 241.53667 246.00096 250.13036 253.91751
 257.29929 260.23538 262.77148 265.03357 267.13852 269.14697 271.01923 272.73746
 274.32013 275.75119 277.00687 278.37241 279.59274 280.72046 281.78699 282.75320
 283.62219 284.39603 285.07202 285.93353
 366.78100 356.34266 345.78233 334.65599 323.06666 311.26832 299.14599 286.95665
 274.67632 262.58098 250.59765 239.90631 230.03597 221.14764 213.33730 206.34697
 200.18863 195.13430 191.72396 189.77363 188.81829 188.88996 189.73262 191.04828
 192.78095 194.88361 197.15428 199.52094 201.97361 204.46127 206.55694 208.40660
 210.04027 211.19293 211.42959 211.66526 211.60992 211.32259 210.96325 210.60092
 210.22558 209.94325 209.75891 209.63058 209.56624 209.90490 210.29857 210.69523
 211.49590 212.68156 213.93923 215.72989 217.66556 219.71622 221.81889 223.90955
 225.97721 228.06888 230.17354 232.28721 234.42387 236.60354 238.86720 241.24487
 243.87353 246.13220 248.14186 249.91452 251.33919 252.46985 253.29952 253.62318
 253.66785 253.44951 252.81718 251.77284 250.38651 248.55517 246.47183 244.31250
 242.11116 239.92283 237.75049 235.59716 233.46482 231.33949 229.37315 227.53782
 225.82848 224.30814 222.94581 221.72547 220.61514 219.58280 218.69447 217.84313
 217.09280 216.28046 215.38613 214.75779 214.21545 215.06752 217.13016 219.56448
 221.55167 223.02496 224.32610 225.06528 224.96661 224.57729 224.52663 224.60641
 226.19261 228.70410 232.47253 237.01506 241.69180 246.12889 250.23424 254.00989
 257.38409 260.31497 262.83734 265.08722 267.18936 269.18768 271.04367 272.73932
 274.29428 275.68719 277.04187 278.41513 279.64664 280.79303 281.88467 282.87360
 283.76303 284.55508 285.24701 286.12878
 366.78100 356.34302 345.78304 334.65707 323.06809 311.27011 299.14813 286.95916
 274.67918 262.58420 250.60122 239.91024 230.04027 221.15229 213.34231 206.35233
 200.19436 195.14038 191.73040 189.78042 188.82544 188.89747 189.74049 191.05651
 192.78953 194.89256 197.16358 199.53060 201.98362 204.47164 206.56767 208.41769
 210.05171 211.20473 211.44176 211.67778 211.62280 211.33582 210.97684 210.61487
 210.23989 209.95791 209.77393 209.64595 209.58198 209.92100 210.31502 210.71204
 211.51307 212.69909 213.95711 215.74813 217.68415 219.73518 221.83820 223.92922
 225.99724 228.08927 230.19429 232.30831 234.44533 236.62535 238.88938 241.26740
 243.89642 246.15544 248.16547 249.93849 251.36351 252.49453 253.32455 253.64858
 253.69360 253.47562 252.84364 251.79967 250.41369 248.58271 246.49973 244.34075
 242.13978 239.95180 237.77982 235.62684 233.49487 231.36989 229.40391 227.56893
 225.85995 224.33998 222.97800 221.75802 220.64804 219.61607 218.72809 217.87711
 217.12713 216.31515 215.42118 214.79320 214.25122 215.09636 217.15421 219.54134
 221.58223 223.02945 224.32315 225.01901 224.78598 224.32303 224.23283 224.60605
 226.20184 228.84239 232.68010 237.21347 241.85587 246.26283 250.33092 254.08658
 257.45459 260.39337 262.93665 265.21442 267.30850 269.26782 271.07581 272.73062
 274.23795 275.60715 277.05609 278.44901 279.71466 280.92590 282.03979 283.04889
 283.95645 284.76465 285.47064 286.37039
 366.78100 356.34270 345.78240 334.65610 323.06681 311.26851 299.14621 286.95691
 274.67661 262.58131 250.59802 239.90672 230.03642 221.14812 213.33782 206.34752
 200.18923 195.13493 191.72463 189.77433 188.81903 188.89073 189.73344 191.04914
 192.78184 194.88454 197.15524 199.52194 201.97465 204.46235 206.55805 208.40775
 210.04145 211.19415 211.43086 211.66656 211.61126 211.32396 210.96466 210.60236
 210.22706 209.94477 209.76047 209.63217 209.56787 209.90657 210.30027 210.69698
 211.49768 212.68338 213.94108 215.73178 217.66748 219.71819 221.82089 223.91159
 225.97929 228.07099 230.17569 232.28940 234.42610 236.60580 238.86950 241.24720
 243.87590 246.13461 248.14431 249.91701 251.34171 252.47241 253.30211 253.62582
 253.67052 253.45222 252.81992 251.77562 250.38932 248.55802 246.47473 244.31543
 242.11413 239.92583 237.75353 235.60023 233.46794 231.34264 229.37634 227.54104
 225.83174 224.31144 222.94915 221.72885 220.61855 219.58625 218.69795 217.84665
 217.09636 216.28406 215.38976 214.76146 214.21916 215.09413 217.22569 219.48454
 221.59105 223.13586 224.34990 224.85674 224.61499 224.14256 223.96518 224.56207
 226.19177 228.93306 232.86722 237.41417 242.03458 246.42180 250.44777 254.18671
 257.52594 260.43301 263.00208 265.35654 267.50183 269.45615 271.19925 272.76279
 274.19620 275.60291 277.15475 278.61115 279.98892 281.22040 282.34390 283.36176
 284.27716 285.09238 285.80450 286.71204
 366.78100 356.34228 345.78155 334.65483 323.06510 311.26638 299.14365 286.95393
 274.67320 262.57748 250.59376 239.90203 230.03131 221.14258 213.33186 206.34113
 200.18241 195.12769 191.71696 189.76624 188.81051 188.88179 189.72406 191.03934
 192.77161 194.87389 197.14417 199.51044 201.96272 204.44999 206.54527 208.39454
 210.02782 211.18009 211.41637 211.65165 211.59592 211.30820 210.94847 210.58575
 210.21002 209.92730 209.74257 209.61385 209.54913 209.88740 210.28068 210.67695
 211.47723 212.66250 213.91978 215.71006 217.64533 219.69561 221.79788 223.88816
 225.95543 228.04671 230.15098 232.26426 234.40054 236.57981 238.84309 241.22036
 243.84864 246.10691 248.11619 249.88846 251.31274 252.44302 253.27229 253.59557
 253.63984 253.42112 252.78839 251.74367 250.35695 248.52522 246.44150 244.28177
 242.08005 239.89132 237.71860 235.56487 233.43215 231.30643 229.33970 227.50398
 225.79425 224.27353 222.91080 221.69008 220.57935 219.54663 218.65791 217.80618
 217.05546 216.24273 215.34801 214.71928 214.17656 215.08257 217.27979 219.45514
 221.53793 223.22659 224.30511 224.62508 224.46263 224.02692 223.73799 224.40619
 226.01787 229.04114 233.09975 237.62973 242.22311 246.58376 250.58473 254.29736
 257.59885 260.46747 263.02075 265.42896 267.69266 269.74649 271.51978 273.00961
 274.32495 275.68323 277.26471 278.77277 280.17252 281.41095 282.54083 283.56442
 284.48502 285.30484 286.02100 286.93365
 366.78100 356.34263 345.78226 334.65590 323.06653 311.26816 299.14579 286.95642
 274.67606 262.58069 250.59732 239.90595 230.03558 221.14721 213.33685 206.34648
 200.18811 195.13374 191.72337 189.77301 188.81764 188.88927 189.73190 191.04753
 192.78017 194.88280 197.15343 199.52006 201.97269 204.46032 206.55596 208.40559
 210.03922 211.19185 211.42848 211.66412 211.60875 211.32138 210.96201 210.59964
 210.22428 209.94191 209.75754 209.62917 209.56480 209.90343 210.29707 210.69370
 211.49433 212.67996 213.93759 215.72823 217.66386 219.71449 221.81712 223.90775
 225.97539 228.06702 230.17165 232.28528 234.42191 236.60155 238.86518 241.24281
 243.87144 246.13007 248.13970 249.91234 251.33697 252.46760 253.29723 253.62086
 253.66550 253.44713 252.81476 251.77039 250.38402 248.55266 246.46929 244.30992
 242.10855 239.92018 237.74781 235.59445 233.46208 231.33671 229.37034 227.53497
 225.82561 224.30524 222.94287 221.72250 220.61213 219.57977 218.69140 217.84003
 217.08966 216.27729 215.38292 214.75456 214.21219 215.10097 217.25737 219.48956
 221.45406 223.14987 224.21407 224.44995 224.28448 223.85437 223.47919 224.30696
 225.85094 229.08730 233.29723 237.84773 242.41621 246.74283 250.72768 254.41739
 257.70908 260.55869 263.08969 265.46661 267.75793 269.90692 271.80966 273.38766
 274.67706 275.81903 277.28217 278.70035 280.06799 281.33337 282.48788 283.53375
 284.47443 285.31210 286.04385 286.97641
 366.78100 356.34316 345.78332 334.65749 323.06865 311.27081 299.14897 286.96014
 274.68030 262.58546 250.60262 239.91179 230.04195 221.15411 213.34427 206.35443
 200.19660 195.14276 191.73292 189.78308 188.82825 188.90041 189.74357 191.05973
 192.79289 194.89606 197.16722 199.53438 201.98754 204.47571 206.57187 208.42203
 210.05619 211.20936 211.44652 211.68268 211.62784 211.34100 210.98217 210.62033
 210.24549 209.96365 209.77982 209.65198 209.58814 209.92730 210.32147 210.71863
 211.51979 212.70595 213.96411 215.75528 217.69144 219.74260 221.84576 223.93693
 226.00509 228.09725 230.20241 232.31657 234.45374 236.63390 238.89806 241.27622
 243.90539 246.16455 248.17471 249.94787 251.37304 252.50420 253.33436 253.65852
 253.70368 253.48585 252.85401 251.81017 250.42433 248.59350 246.51066 244.35182
 242.15098 239.96314 237.79131 235.63847 233.50663 231.38179 229.41596 227.58112
 225.87228 224.35244 222.99061 221.77077 220.66093 219.62909 218.74125 217.89042
 217.14058 216.32874 215.43490 214.80707 214.26523 215.13066 217.23801 219.52016
 221.42685 223.05872 224.17149 224.33960 224.09033 223.54366 223.21304 224.24678
 225.82312 229.17929 233.48433 238.05956 242.61113 246.90382 250.85399 254.50864
 257.77518 260.62375 263.18835 265.58292 267.85974 269.99280 271.88998 273.49408
 274.80072 275.94693 277.35617 278.77301 280.12170 281.38174 282.53137 283.57285
 284.50952 285.34366 286.07233 287.00092
 366.78100 356.34412 345.78523 334.66035 323.07247 311.27559 299.15470 286.96682
 274.68794 262.59405 250.61217 239.92229 230.05340 221.16652 213.35764 206.36876
 200.21187 195.15899 191.75011 189.80122 188.84734 188.92046 189.76457 191.08169
 192.81581 194.91993 197.19204 199.56016 202.01428 204.50339 206.60051 208.45163
 210.08674 211.24086 211.47898 211.71610 211.66221 211.37633 211.01845 210.65756
 210.28368 210.00280 209.81992 209.69303 209.63015 209.97027 210.36538 210.76350
 211.56562 212.75273 214.01185 215.80397 217.74109 219.79320 221.89732 223.98944
 226.05855 228.15167 230.25779 232.37290 234.51102 236.69214 238.95726 241.33637
 243.96649 246.22661 248.23772 250.01184 251.43796 252.57007 253.40119 253.72631
 253.77243 253.55554 252.92466 251.88178 250.49689 248.66701 246.58513 244.42724
 242.22736 240.04048 237.86960 235.71771 233.58683 231.46295 229.49806 227.66418
 225.95630 224.43742 223.07653 221.85765 220.74877 219.71788 218.83100 217.98112
 217.23223 216.42135 215.52847 214.90159 214.36070 215.18608 217.22551 219.54962
 221.37587 223.11786 224.16768 224.13809 223.87457 223.27194 223.03519 224.11993
 225.84352 229.30487 233.67528 238.27188 242.80960 247.07159 250.99013 254.61337
 257.84473 260.69794 263.28995 265.71597 268.00232 270.11691 271.97629 273.55191
 274.81558 276.03946 277.60440 279.10110 280.50772 281.75223 282.88763 283.91623
 284.84137 285.66516 286.38486 287.30200
 366.78100 356.34478 345.78656 334.66235 323.07513 311.27891 299.15869 286.97147
 274.69325 262.60004 250.61882 239.92960 230.06138 221.17516 213.36695 206.37873
 200.22251 195.17029 191.76207 189.81386 188.86064 188.93442 189.77920 191.09698
 192.83176 194.93655 197.20933 199.57811 202.03289 204.52267 206.62046 208.47224
 210.10802 211.26280 211.50158 211.73936 211.68615 211.40093 211.04371 210.68349
 210.31027 210.03006 209.84784 209.72162 209.65940 210.00018 210.39597 210.79475
 211.59753 212.78531 214.04509 215.83787 217.77566 219.82844 221.93322 224.02600
 226.09578 228.18957 230.29635 232.41213 234.55091 236.73269 238.99847 241.37826
 244.00904 246.26982 248.28160 250.05638 251.48317 252.61595 253.44773 253.77351
 253.82029 253.60408 252.97386 251.93164 250.54742 248.71820 246.63698 244.47977
 242.28055 240.09433 237.92411 235.77289 233.64268 231.51946 229.55524 227.72202
 226.01480 224.49658 223.13637 221.91815 220.80993 219.77971 218.89349 218.04428
 217.29606 216.48584 215.59362 214.96740 214.42719 215.22128 217.18394 219.60980
 221.27661 223.01895 224.10605 223.90062 223.62292 223.09425 222.79491 223.95514
 225.75279 229.38341 233.85497 238.46661 242.98329 247.22893 251.13406 254.74992
 257.99026 260.83771 263.41928 265.84726 268.14157 270.24982 272.06216 273.52682
 274.78812 276.10962 277.65839 279.07257 280.39185 281.61234 282.72583 283.73459
 284.64188 285.44980 286.15558 287.05502
 366.78100 356.34462 345.78625 334.66187 323.07449 311.27812 299.15774 286.97036
 274.69198 262.59861 250.61723 239.92785 230.05948 221.17310 213.36472 206.37635
 200.21997 195.16759 191.75921 189.81084 188.85746 188.93108 189.77571 191.09333
 192.82795 194.93258 197.20520 199.57382 202.02844 204.51807 206.61569 208.46731
 210.10294 211.25756 211.49618 211.73381 211.68043 211.39505 211.03767 210.67730
 210.30392 210.02354 209.84117 209.71479 209.65241 209.99304 210.38866 210.78728
 211.58990 212.77753 214.03715 215.82977 217.76740 219.82002 221.92464 224.01727
 226.08689 228.18051 230.28713 232.40276 234.54138 236.72300 238.98863 241.36825
 243.99887 246.25950 248.27112 250.04574 251.47236 252.60499 253.43661 253.76223
 253.80886 253.59248 252.96210 251.91973 250.53535 248.70597 246.62459 244.46722
 242.26784 240.08146 237.91109 235.75971 233.62933 231.50596 229.54158 227.70820
 226.00082 224.48245 223.12207 221.90369 220.79532 219.76494 218.87856 218.02919
 217.28081 216.47043 215.57805 214.95168 214.41130 215.21107 217.13399 219.67050
 221.32350 222.65274 224.00967 223.79381 223.32590 222.76053 222.52309 223.66653
 225.58115 229.46249 234.05357 238.64963 243.14250 247.37788 251.26140 254.85342
 258.08563 260.95502 263.56918 266.00867 268.30301 270.41458 272.24133 273.70181
 274.87411 275.98486 277.24896 278.58456 279.78076 280.86459 281.89520 282.87064
 283.74792 284.52917 285.21164 286.08139
 366.78100 356.34368 345.78436 334.65904 323.07072 311.27340 299.15208 286.96376
 274.68444 262.59012 250.60780 239.91748 230.04816 221.16084 213.35152 206.36220
 200.20488 195.15156 191.74224 189.79292 188.83860 188.91128 189.75496 191.07164
 192.80532 194.90900 197.18068 199.54836 202.00204 204.49072 206.58740 208.43808
 210.07276 211.22644 211.46412 211.70080 211.64648 211.36016 211.00184 210.64052
 210.26620 209.98488 209.80156 209.67424 209.61092 209.95060 210.34528 210.74296
 211.54464 212.73132 213.99000 215.78168 217.71836 219.77004 221.87372 223.96540
 226.03408 228.12676 230.23244 232.34712 234.48480 236.66548 238.93016 241.30884
 243.93852 246.19820 248.20888 249.98256 251.40824 252.53992 253.37060 253.69528
 253.74096 253.52364 252.89232 251.84900 250.46368 248.63336 246.55104 244.39272
 242.19240 240.00508 237.83376 235.68144 233.55012 231.42580 229.46048 227.62616
 225.91784 224.39852 223.03720 221.81788 220.70856 219.67724 218.78992 217.93960
 217.19028 216.37896 215.48564 214.85832 214.31700 215.16628 217.17278 219.59276
 221.54381 222.76248 223.84076 223.67958 223.09697 222.44206 222.35339 223.55426
 225.74986 229.64807 234.26660 238.83229 243.32071 247.54865 251.39507 254.98430
 258.20914 261.07037 263.69888 266.15485 268.45679 270.56262 272.38885 273.89044
 275.09476 276.13837 277.15887 278.21335 279.30115 280.35165 281.32996 282.22827
 283.03360 283.77628 284.42505 285.25183
 366.78100 356.34314 345.78328 334.65742 323.06857 311.27071 299.14885 286.95999
 274.68013 262.58527 250.60241 239.91156 230.04170 221.15384 213.34398 206.35412
 200.19626 195.14240 191.73254 189.78269 188.82783 188.89997 189.74311 191.05925
 192.79239 194.89553 197.16668 199.53382 201.98696 204.47510 206.57124 208.42138
 210.05552 211.20867 211.44581 211.68195 211.62709 211.34023 210.98137 210.61951
 210.24466 209.96280 209.77894 209.65108 209.58722 209.92636 210.32050 210.71764
 211.51879 212.70493 213.96307 215.75421 217.69035 219.74149 221.84463 223.93578
 226.00392 228.09606 230.20120 232.31534 234.45248 236.63262 238.89677 241.27491
 243.90405 246.16319 248.17333 249.94647 251.37161 252.50276 253.33290 253.65704
 253.70218 253.48432 252.85246 251.80860 250.42274 248.59189 246.50903 244.35017
 242.14931 239.96145 237.78959 235.63673 233.50488 231.38002 229.41416 227.57930
 225.87044 224.35058 222.98872 221.76887 220.65901 219.62715 218.73929 217.88843
 217.13857 216.32671 215.43286 214.80500 214.26314 215.14281 217.22116 219.52795
 221.60373 222.87387 223.69859 223.51326 222.90102 222.16464 222.12665 223.41806
 225.79691 229.79027 234.45567 239.02725 243.48282 247.68335 251.52834 255.11195
 258.33276 261.20828 263.84805 266.31766 268.61960 270.72989 272.53992 273.98416
 275.16974 276.21561 277.23468 278.24637 279.20520 280.09354 280.99664 281.86389
 282.63562 283.33572 283.99960 284.85385
 366.78100 356.34312 345.78323 334.65735 323.06847 311.27058 299.14870 286.95982
 274.67993 262.58505 250.60217 239.91128 230.04140 221.15352 213.34363 206.35375
 200.19587 195.14198 191.73210 189.78222 188.82733 188.89945 189.74257 191.05868
 192.79180 194.89492 197.16603 199.53315 201.98627 204.47438 206.57050 208.42062
 210.05473 211.20785 211.44497 211.68108 211.62620 211.33932 210.98043 210.61855
 210.24367 209.96178 209.77790 209.65002 209.58613 209.92525 210.31937 210.71648
 211.51760 212.70372 213.96183 215.75295 217.68907 219.74018 221.84330 223.93442
 226.00253 228.09465 230.19977 232.31388 234.45100 236.63112 238.89523 241.27335
 243.90247 246.16158 248.17170 249.94482 251.36993 252.50105 253.33117 253.65528
 253.70040 253.48252 252.85063 251.80675 250.42087 248.58998 246.50710 244.34822
 242.14733 239.95945 237.78757 235.63468 233.50280 231.37792 229.41203 227.57715
 225.86827 224.34838 222.98650 221.76662 220.65673 219.62485 218.73697 217.88608
 217.13620 216.32432 215.43043 214.80255 214.26067 215.14600 217.23767 219.50557
 221.60226 222.92659 223.59306 223.35674 222.67201 221.87167 221.88821 223.29082
 225.80589 229.91173 234.62888 239.24683 243.65909 247.82086 251.65927 255.23344
 258.46201 261.35992 264.01532 266.49228 268.78345 270.87006 272.66714 274.09296
 275.22452 276.25195 277.24408 278.27838 279.24802 280.12137 280.98615 281.84213
 282.22144 282.91354 283.53787 284.38562
 366.78100 356.34337 345.78374 334.65811 323.06948 311.27186 299.15023 286.96160
 274.68197 262.58734 250.60471 239.91408 230.04445 221.15683 213.34720 206.35757
 200.19994 195.14631 191.73668 189.78705 188.83242 188.90479 189.74817 191.06454
 192.79791 194.90128 197.17265 199.54002 201.99339 204.48176 206.57814 208.42851
 210.06288 211.21625 211.45362 211.68999 211.63536 211.34873 210.99010 210.62848
 210.25385 209.97222 209.78859 209.66096 209.59733 209.93670 210.33107 210.72845
 211.52982 212.71619 213.97456 215.76593 217.70230 219.75367 221.85704 223.94841
 226.01679 228.10916 230.21453 232.32890 234.46627 236.64664 238.91101 241.28938
 243.91876 246.17813 248.18850 249.96187 251.38724 252.51861 253.34898 253.67335
 253.71872 253.50110 252.86947 251.82584 250.44021 248.60958 246.52695 244.36832
 242.16769 239.98007 237.80844 235.65581 233.52418 231.39955 229.43392 227.59929
 225.89066 224.37103 223.00941 221.78978 220.68015 219.64852 218.76089 217.91026
 217.16063 216.34900 215.45538 214.82775 214.28612 215.16499 217.24141 219.49556
 221.57318 222.92560 223.52882 223.22037 222.41597 221.56279 221.62421 223.16553
 225.82187 230.01715 234.78387 239.46458 243.85999 247.96591 251.78545 255.35889
 258.59338 261.50995 264.17636 266.65729 268.93616 271.00336 272.79300 274.22504
 275.33426 276.33270 277.29929 278.33472 279.30795 280.19281 281.03992 281.79483
 282.26654 282.86212 283.46851 284.29034
 366.78100 356.34372 345.78444 334.65916 323.07088 311.27360 299.15232 286.96404
 274.68476 262.59048 250.60820 239.91792 230.04864 221.16136 213.35208 206.36280
 200.20552 195.15224 191.74296 189.79368 188.83940 188.91212 189.75584 191.07256
 192.80628 194.91000 197.18172 199.54944 202.00316 204.49188 206.58860 208.43932
 210.07403 211.22775 211.46547 211.70219 211.64791 211.36163 211.00335 210.64207
 210.26779 209.98651 209.80323 209.67595 209.61267 209.95239 210.34711 210.74483
 211.54655 212.73327 213.99199 215.78371 217.72043 219.77215 221.87587 223.96759
 226.03631 228.12903 230.23475 232.34947 234.48719 236.66791 238.93263 241.31135
 243.94107 246.20079 248.21151 249.98523 251.41095 252.54267 253.37339 253.69811
 253.74383 253.52655 252.89527 251.85199 250.46671 248.63643 246.55415 244.39587
 242.19559 240.00831 237.83703 235.68475 233.55347 231.42919 229.46391 227.62963
 225.92135 224.40207 223.04079 221.82151 220.71223 219.68095 218.79366 217.94338
 217.19410 216.38282 215.48954 214.86226 214.32098 215.18895 217.23964 219.49446
 221.53389 222.90773 223.49083 223.09125 222.15717 221.24382 221.33574 223.04553
 225.85381 230.12624 234.93456 239.67163 244.09435 248.11116 251.90710 255.48940
 258.73456 261.66068 264.34109 266.82104 269.08746 271.12723 272.90665 274.35071
 275.45773 276.43872 277.39630 278.42938 279.39655 280.28668 281.14810 281.89954
 282.43555 283.09528 283.70349 284.54562
 366.78100 356.34429 345.78557 334.66086 323.07314 311.27643 299.15571 286.96800
 274.68928 262.59557 250.61385 239.92414 230.05542 221.16871 213.35999 206.37128
 200.21456 195.16185 191.75313 189.80442 188.85070 188.92399 189.76827 191.08556
 192.81984 194.92413 197.19641 199.56470 202.01898 204.50827 206.60556 208.45684
 210.09213 211.24641 211.48470 211.72198 211.66827 211.38255 211.02484 210.66412
 210.29041 210.00969 209.82698 209.70026 209.63755 209.97783 210.37312 210.77140
 211.57369 212.76097 214.02026 215.81254 217.74983 219.80211 221.90640 223.99868
 226.06797 228.16126 230.26754 232.38283 234.52111 236.70240 238.96768 241.34697
 243.97725 246.23754 248.24882 250.02311 251.44939 252.58168 253.41296 253.73825
 253.78453 253.56782 252.93710 251.89439 250.50967 248.67996 246.59824 244.44053
 242.24081 240.05410 237.88338 235.73167 233.60095 231.47724 229.51253 227.67881
 225.97110 224.45238 223.09167 221.87295 220.76424 219.73352 218.84681 217.99709
 217.24838 216.43766 215.54495 214.91823 214.37752 215.22424 217.22475 219.50897
 221.48558 222.87207 223.47495 222.98544 221.90770 220.90324 221.02997 222.92773
 225.89738 230.24490 235.09094 239.84833 244.30919 248.29384 252.01581 255.60864
 258.87384 261.81973 264.50803 266.98129 269.23099 271.24945 273.01666 274.47641
 275.58673 276.56320 277.51822 278.55151 279.49817 280.40073 281.29385 282.08664
 282.73981 283.39774 284.00204 284.83255
 366.78100 356.34478 345.78656 334.66235 323.07513 311.27891 299.15869 286.97147
 274.69325 262.60004 250.61882 239.92960 230.06138 221.17516 213.36695 206.37873
 200.22251 195.17029 191.76207 189.81386 188.86064 188.93442 189.77920 191.09698
 192.83176 194.93655 197.20933 199.57811 202.03289 204.52267 206.62046 208.47224
 210.10802 211.26280 211.50158 211.73936 211.68615 211.40093 211.04371 210.68349
 210.31027 210.03006 209.84784 209.72162 209.65940 210.00018 210.39597 210.79475
 211.59753 212.78531 214.04509 215.83787 217.77566 219.82844 221.93322 224.02600
 226.09578 228.18957 230.29635 232.41213 234.55091 236.73269 238.99847 241.37826
 244.00904 246.26982 248.28160 250.05638 251.48317 252.61595 253.44773 253.77351
 253.82029 253.60408 252.97386 251.93164 250.54742 248.71820 246.63698 244.47977
 242.28055 240.09433 237.92411 235.77289 233.64268 231.51946 229.55524 227.72202
 226.01480 224.49658 223.13637 221.91815 220.80993 219.77971 218.89349 218.04428
 217.29606 216.48584 215.59362 214.96740 214.42719 215.25610 217.21449 219.51202
 221.45999 222.80484 223.44308 222.93974 221.68687 220.53152 220.66454 222.85690
 225.98499 230.36517 235.24989 240.02428 244.48573 248.50519 252.14427 255.71342
 259.01480 261.97043 264.65707 267.13168 269.36905 271.36731 273.13358 274.60373
 275.74826 276.73871 277.68832 278.68250 279.63831 280.55801 281.45111 282.17944
 282.90207 283.58188 284.18793 285.00333
 366.78100 356.34493 345.78686 334.66279 323.07572 311.27965 299.15959 286.97252
 274.69445 262.60138 250.62031 239.93124 230.06317 221.17710 213.36903 206.38096
 200.22489 195.17283 191.76476 189.81669 188.86362 188.93755 189.78248 191.10041
 192.83534 194.94027 197.21320 199.58214 202.03707 204.52700 206.62493 208.47686
 210.11279 211.26772 211.50665 211.74458 211.69151 211.40644 211.04938 210.68931
 210.31624 210.03617 209.85410 209.72803 209.66596 210.00689 210.40282 210.80175
 211.60468 212.79262 214.05255 215.84548 217.78341 219.83634 221.94127 224.03420
 226.10413 228.19806 230.30499 232.42092 234.55986 236.74179 239.00772 241.38765
 244.01858 246.27951 248.29144 250.06637 251.49330 252.62623 253.45817 253.78410
 253.83103 253.61496 252.98489 251.94282 250.55875 248.72968 246.64861 244.49154
 242.29247 240.10641 237.93634 235.78527 233.65520 231.53213 229.56806 227.73499
 226.02792 224.50985 223.14978 221.93171 220.82365 219.79358 218.90751 218.05844
 217.31037 216.50030 215.60823 214.98216 214.44209 215.26900 217.22264 219.48938
 221.45152 222.75980 223.33183 222.89012 221.65552 220.08788 220.28882 222.79933
 226.02800 230.47203 235.41475 240.20903 244.65855 248.70137 252.32719 255.82164
 259.13953 262.10620 264.79684 267.26691 269.49619 271.47485 273.22726 274.70425
 275.84418 276.82846 277.78146 278.81573 279.83511 280.77084 281.60754 282.39572
 283.17807 283.89905 284.51498 285.31982
 366.78100 356.34500 345.78700 334.66300 323.07601 311.28001 299.16001 286.97301
 274.69501 262.60201 250.62101 239.93202 230.06402 221.17802 213.37002 206.38202
 200.22602 195.17402 191.76603 189.81803 188.86503 188.93903 189.78403 191.10203
 192.83703 194.94204 197.21504 199.58404 202.03904 204.52904 206.62704 208.47904
 210.11505 211.27005 211.50905 211.74705 211.69405 211.40905 211.05205 210.69206
 210.31906 210.03906 209.85706 209.73106 209.66906 210.01006 210.40607 210.80507
 211.60807 212.79607 214.05607 215.84907 217.78707 219.84008 221.94508 224.03808
 226.10808 228.20208 230.30908 232.42508 234.56409 236.74609 239.01209 241.39209
 244.02309 246.28409 248.29609 250.07110 251.49810 252.63110 253.46310 253.78910
 253.83610 253.62010 252.99011 251.94811 250.56411 248.73511 246.65411 244.49711
 242.29811 240.11212 237.94212 235.79112 233.66112 231.53812 229.57412 227.74112
 226.03413 224.51613 223.15613 221.93813 220.83013 219.80013 218.91413 218.06514
 217.31714 216.50714 215.61514 214.98914 214.44914 215.27596 217.22939 219.46819
 221.42973 222.74205 223.22487 222.75188 221.53615 219.79179 219.97191 222.64426
 226.05618 230.60612 235.57343 240.37769 244.81018 248.85962 252.55327 255.96671
 259.23410 262.23541 264.92813 267.39404 269.61725 271.58246 273.30942 274.78961
 275.92154 276.87714 277.87289 278.97034 280.05780 281.02951 281.88367 282.73389
 283.52853 284.26401 284.89029 285.70911
 366.78100 356.34521 345.78743 334.66364 323.07686 311.28107 299.16128 286.97450
 274.69671 262.60393 250.62314 239.93436 230.06657 221.18078 213.37300 206.38521
 200.22943 195.17764 191.76985 189.82207 188.86928 188.94350 189.78871 191.10693
 192.84214 194.94735 197.22057 199.58978 202.04500 204.53521 206.63342 208.48564
 210.12185 211.27707 211.51628 211.75449 211.70171 211.41692 211.06014 210.70035
 210.32757 210.04778 209.86599 209.74021 209.67842 210.01964 210.41585 210.81506
 211.61828 212.80649 214.06671 215.85992 217.79813 219.85135 221.95656 224.04978
 226.11999 228.21421 230.32142 232.43763 234.57685 236.75906 239.02528 241.40549
 244.03670 246.29792 248.31013 250.08535 251.51256 252.64578 253.47799 253.80420
 253.85142 253.63563 253.00585 251.96406 250.58027 248.75149 246.67070 244.51392
 242.31513 240.12934 237.95956 235.80877 233.67899 231.55620 229.59242 227.75963
 226.05284 224.53506 223.17527 221.95749 220.84970 219.81991 218.93413 218.08534
 217.33756 216.52777 215.63598 215.01020 214.47041 215.29092 217.22946 219.46043
 221.39690 222.71739 223.14136 222.60123 221.34804 219.53337 219.67583 222.48149
 226.08989 230.74336 235.72513 240.54004 244.96120 249.02615 252.74992 256.14542
 259.34802 262.35294 265.04614 267.51059 269.73114 271.69095 273.40250 274.86957
 275.99283 276.92273 277.93823 279.12793 280.23883 281.22733 282.08096 282.93405
 283.73077 284.46707 285.11075 285.94507
 366.78100 356.34537 345.78774 334.66411 323.07748 311.28185 299.16222 286.97559
 274.69796 262.60533 250.62470 239.93607 230.06844 221.18281 213.37518 206.38755
 200.23192 195.18029 191.77266 189.82503 188.87240 188.94677 189.79213 191.11050
 192.84587 194.95124 197.22461 199.59398 202.04935 204.53972 206.63809 208.49046
 210.12683 211.28220 211.52157 211.75994 211.70731 211.42268 211.06605 210.70642
 210.33379 210.05416 209.87253 209.74690 209.68527 210.02664 210.42301 210.82238
 211.62575 212.81412 214.07449 215.86786 217.80623 219.85960 221.96497 224.05834
 226.12871 228.22308 230.33045 232.44682 234.58619 236.76856 239.03493 241.41530
 244.04667 246.30804 248.32040 250.09577 251.52314 252.65651 253.48888 253.81525
 253.86262 253.64699 253.01736 251.97573 250.59210 248.76347 246.68284 244.52621
 242.32758 240.14195 237.97232 235.82169 233.69206 231.56943 229.60580 227.77317
 226.06654 224.54891 223.18928 221.97165 220.86402 219.83439 218.94876 218.10013
 217.35250 216.54287 215.65124 215.02561 214.48598 215.30112 217.22697 219.45198
 221.37286 222.69046 223.05655 222.45184 221.12236 219.27605 219.39969 222.33160
 226.13403 230.88445 235.87370 240.69533 245.11034 249.18745 252.96053 256.38953
 259.50366 262.45148 265.14044 267.59799 269.80252 271.74188 273.44580 274.91824
 276.08075 277.04016 278.07819 279.22952 280.29468 281.28796 282.13934 282.99130
 283.78085 284.51346 285.16644 286.01187
 366.78100 356.34548 345.78797 334.66445 323.07793 311.28242 299.16290 286.97638
 274.69887 262.60635 250.62583 239.93732 230.06980 221.18428 213.37677 206.38925
 200.23373 195.18222 191.77470 189.82718 188.87467 188.94915 189.79463 191.11312
 192.84860 194.95408 197.22757 199.59705 202.05253 204.54302 206.64150 208.49398
 210.13047 211.28595 211.52543 211.76392 211.71140 211.42688 211.07037 210.71085
 210.33833 210.05882 209.87730 209.75178 209.69027 210.03175 210.42823 210.82771
 211.63120 212.81968 214.08016 215.87365 217.81213 219.86561 221.97110 224.06458
 226.13506 228.22955 230.33703 232.45351 234.59300 236.77548 239.04196 241.42245
 244.05393 246.31541 248.32790 250.10338 251.53086 252.66435 253.49683 253.82331
 253.87080 253.65528 253.02576 251.98425 250.60073 248.77221 246.69170 244.53518
 242.33666 240.15115 237.98163 235.83111 233.70160 231.57908 229.61556 227.78305
 226.07653 224.55901 223.19950 221.98198 220.87446 219.84495 218.95943 218.11091
 217.36340 216.55388 215.66236 215.03685 214.49733 215.30902 217.22672 219.43600
 221.34578 222.66124 222.98022 222.27373 220.88823 219.05319 219.15720 222.20854
 226.18500 231.01741 236.01309 240.83749 245.26106 249.36584 253.17845 256.64087
 259.69617 262.49536 265.15820 267.61646 269.82062 271.74850 273.41721 274.89047
 276.10999 277.12701 278.15756 279.25073 280.31439 281.23419 282.03342 282.87665
 283.66467 284.39307 285.04733 285.90494
 366.78100 356.34548 345.78796 334.66444 323.07792 311.28240 299.16288 286.97636
 274.69884 262.60632 250.62581 239.93729 230.06977 221.18425 213.37673 206.38921
 200.23369 195.18217 191.77465 189.82713 188.87461 188.94909 189.79457 191.11305
 192.84853 194.95401 197.22749 199.59697 202.05246 204.54294 206.64142 208.49390
 210.13038 211.28586 211.52534 211.76382 211.71130 211.42678 211.07026 210.71074
 210.33822 210.05870 209.87718 209.75166 209.69014 210.03162 210.42811 210.82759
 211.63107 212.81955 214.08003 215.87351 217.81199 219.86547 221.97095 224.06443
 226.13491 228.22939 230.33687 232.45335 234.59283 236.77531 239.04179 241.42227
 244.05376 246.31524 248.32772 250.10320 251.53068 252.66416 253.49664 253.82312
 253.87060 253.65508 253.02556 251.98404 250.60052 248.77200 246.69148 244.53496
 242.33644 240.15092 237.98141 235.83089 233.70137 231.57885 229.61533 227.78281
 226.07629 224.55877 223.19925 221.98173 220.87421 219.84469 218.95917 218.11065
 217.36313 216.55361 215.66209 215.03657 214.49706 215.30792 217.22371 219.42174
 221.31403 222.62781 222.92810 222.09708 220.61681 218.81488 218.94859 222.11971
 226.25127 231.15529 236.15923 240.97580 245.39532 249.53506 253.39540 256.86566
 259.90991 262.64963 265.19357 267.60812 269.76111 271.65643 273.33972 274.80075
 276.01752 277.16129 278.20129 279.20316 280.14233 281.00766 281.85831 282.64597
 283.36401 283.99323 284.49121 285.00656
 354.97500 345.04800 334.58700 324.11500 313.32600 302.53700 291.65000 280.76700
 269.93100 259.19300 248.62200 238.61700 229.08700 220.35500 212.54000 205.53500
 199.46400 194.49300 191.14300 189.19000 188.08900 188.01400 188.72400 189.90600
 191.46900 193.38200 195.40300 197.55600 199.80700 202.06000 204.28800 206.47900
 208.55200 210.37800 212.02500 213.65900 214.99800 216.11800 217.17200 218.25900
 219.49400 220.64500 221.67900 222.61400 223.54500 224.98200 226.57100 228.19000
 229.79700 231.81100 233.86500 235.97200 238.24200 240.55300 242.89900 245.25300
 247.48800 249.53500 251.36600 252.84800 254.09800 255.16700 256.02700 256.25300
 256.09500 255.54300 253.93500 252.56600 251.38400 250.24500 249.05200 247.70100
 246.01600 243.99600 241.78400 239.39300 236.81300 234.22300 231.65800 229.14400
 226.74000 224.47300 222.33500 220.32500 218.44000 216.67700 214.96200 213.47200
 212.20000 211.10800 210.26000 209.63900 209.24400 209.03100 209.05800 209.33300
 209.78400 210.62600 211.33100 212.39100 213.62500 214.84668 217.72949 219.47640
 220.32566 220.86828 220.88710 220.27371 219.43733 218.84250 219.04934 220.86203
 222.60583 225.72206 229.03064 232.61777 236.12270 239.51333 242.70767 245.68587
 248.41061 250.90679 253.19353 254.91714 256.48655 257.94920 259.39966 260.69384
 261.81714 262.77997 263.71679 264.54570 265.26305 265.89772 266.47676 267.00133
 267.47312 267.89325 268.26027 268.72800
