|-------------------------------------------------------------------------|
|   File Name : in_temp.dat
|   Subject   : temperature profiles used for initial guess atmosphere
|   File Type : input of gmtr
|   Data Type : atmospherical data
|   Author/s  : WRF-Chem
|   Date      : Fri Jul 26 15:39:24 2024
|-------------------------------------------------------------------------|

 WRF-Chem temperature
#
 values of T (K)    (8f10.5)
#
 354.97500 345.04800 334.58700 324.11500 313.32600 302.53700 291.65000 280.76700
 269.93100 259.19300 248.62200 238.61700 229.08700 220.35500 212.54000 205.53500
 199.46400 194.49300 191.14300 189.19000 188.08900 188.01400 188.72400 189.90600
 191.46900 193.38200 195.40300 197.55600 199.80700 202.06000 204.28800 206.47900
 208.55200 210.37800 212.02500 213.65900 214.99800 216.11800 217.17200 218.25900
 219.49400 220.64500 221.67900 222.61400 223.54500 224.98200 226.57100 228.19000
 229.79700 231.81100 233.86500 235.97200 238.24200 240.55300 242.89900 245.25300
 247.48800 249.53500 251.36600 252.84800 254.09800 255.16700 256.02700 256.25300
 256.09500 255.54300 253.93500 252.56600 251.38400 250.24500 249.05200 247.70100
 246.01600 243.99600 241.78400 239.39300 236.81300 234.22300 231.65800 229.14400
 226.74000 224.47300 222.33500 220.32500 218.44000 216.67700 214.96200 213.47200
 212.20000 211.10800 210.26000 209.63900 209.24400 209.03100 209.05800 209.33300
 209.78400 210.62600 211.33100 212.39100 213.62500 214.84668 217.72949 219.47640
 220.32566 220.86828 220.88710 220.27371 219.43733 218.84250 219.04934 220.86203
 222.60583 225.72206 229.03064 232.61777 236.12270 239.51333 242.70767 245.68587
 248.41061 250.90679 253.19353 254.91714 256.48655 257.94920 259.39966 260.69384
 261.81714 262.77997 263.71679 264.54570 265.26305 265.89772 266.47676 267.00133
 267.47312 267.89325 268.26027 268.72800
 366.78100 356.33500 345.76700 334.63300 323.03600 311.23000 299.10000 286.90300
 274.61500 262.51200 250.52100 239.82200 229.94400 221.04800 213.23000 206.23200
 200.06600 195.00400 191.58600 189.62800 188.66500 188.72900 189.56400 190.87200
 192.59700 194.69200 196.95500 199.31400 201.75900 204.23900 206.32700 208.16900
 209.79500 210.94000 211.16900 211.39700 211.33400 211.03900 210.67200 210.30200
 209.91900 209.62900 209.43700 209.30100 209.22900 209.56000 209.94600 210.33500
 211.12800 212.30600 213.55600 215.33900 217.26700 219.31000 221.40500 223.48800
 225.54800 227.63200 229.72900 231.83500 233.96400 236.13600 238.39200 240.76200
 243.38300 245.63400 247.63600 249.40100 250.81800 251.94100 252.76300 253.07900
 253.11600 252.89000 252.25000 251.19800 249.80400 247.96500 245.87400 243.70700
 241.49800 239.30200 237.12200 234.96100 232.82100 230.68800 228.71400 226.87100
 225.15400 223.62600 222.25600 221.02800 219.91000 218.87000 217.97400 217.11500
 216.35700 215.53700 214.63500 213.99900 213.44900 212.85855 212.01316 212.61654
 214.26826 216.08686 218.14273 220.53346 223.40855 226.78828 231.49734 235.90155
 239.42278 243.28576 247.23140 251.11907 254.80144 258.23331 261.38913 264.27520
 266.89312 269.26852 271.44504 273.08845 274.58484 275.98591 277.39845 278.65879
 279.75272 280.69038 281.56708 282.34086 283.01050 283.60295 284.14348 284.63317
 285.07358 285.46577 285.80838 286.24500
 381.81900 372.39900 361.20600 349.77600 337.62200 324.85300 311.81000 298.35300
 284.86000 271.32400 258.56100 246.30400 236.08700 226.79600 218.44800 211.29000
 205.52200 200.89400 197.38100 194.84800 193.01500 192.31500 192.25000 192.43100
 192.91200 193.53700 194.13600 194.71200 195.26200 195.83100 196.39300 196.97600
 197.60400 198.14900 198.58400 199.05700 199.69500 200.37800 201.05400 201.70800
 202.31300 202.85700 203.35500 203.86200 204.56900 205.29700 206.02600 206.98700
 208.19300 209.44100 210.96900 212.57600 214.46200 216.51300 218.63000 220.85300
 223.34100 225.96200 228.73900 231.69700 234.70600 237.70600 240.69200 243.65700
 246.73700 249.69900 252.52100 255.06300 257.29000 259.23300 260.63300 261.68000
 262.46100 262.79800 262.69100 262.22400 261.06900 259.52500 257.70700 255.50700
 253.00100 250.30200 247.39800 244.45200 241.65400 239.05400 236.73300 234.59000
 232.59500 230.72500 228.83400 226.82600 224.66600 222.38700 220.10400 217.71500
 215.45900 213.06600 210.54600 208.09300 205.35400 202.08130 196.05959 200.71215
 209.01611 216.90438 223.84126 229.78593 235.00632 240.20838 245.98943 250.68668
 254.32982 257.93487 261.55666 264.96801 268.15192 271.06452 273.76717 276.25691
 278.57680 280.74479 282.77456 284.60533 286.27232 287.81705 289.31715 290.65561
 291.81734 292.81312 293.70701 294.49387 295.17482 295.77730 296.32696 296.82492
 297.27278 297.67160 298.02000 298.46400
 399.33000 389.90700 379.81300 368.66800 357.52200 345.30100 333.07400 320.22700
 307.21600 293.84800 280.37600 267.29600 254.61000 242.98700 232.15100 221.97700
 212.67200 204.28600 197.66900 192.82100 189.48600 187.45200 186.81400 187.08900
 187.78100 189.05400 190.64800 192.54200 194.63000 196.75200 198.67100 200.15800
 201.53500 202.48700 202.97500 203.34000 203.53900 203.49700 203.38500 203.24700
 203.00500 202.78600 202.60300 202.43700 202.42600 202.88800 203.42000 203.95100
 204.89500 205.99200 207.30100 208.95800 210.73800 213.10000 215.56400 218.18000
 220.96600 223.91800 226.96100 230.09200 233.29300 236.55700 239.95500 243.53700
 246.84500 249.39000 251.54200 253.47400 255.19500 256.48400 257.43100 258.05900
 258.21200 258.04000 257.58200 256.64300 255.23900 253.50700 251.40800 249.05600
 246.57600 243.99400 241.38900 238.83000 236.34400 233.98600 231.96900 230.11800
 228.42300 226.89900 225.54800 224.29700 223.10500 221.96500 220.95800 220.11300
 219.49000 218.92000 218.32500 217.88100 217.42300 216.96366 216.35568 216.80261
 217.73415 218.28582 218.64258 219.10077 220.44626 222.53987 226.38451 230.35736
 233.59734 237.39164 241.29814 245.22796 248.98002 252.51130 255.78595 258.80109
 261.54781 264.05210 266.34239 268.04198 269.58951 271.01303 272.35754 273.55718
 274.59842 275.49092 276.28989 276.99307 277.60161 278.14001 278.63122 279.07623
 279.47646 279.83287 280.14422 280.54100
 399.73800 389.78500 379.66200 368.15100 356.64100 344.35000 331.79200 318.88800
 305.72600 292.49300 279.20900 266.73800 254.69600 244.21100 234.45700 225.43300
 217.56900 210.45100 204.30000 199.30600 195.45800 192.57600 191.02700 190.38600
 190.23900 190.53400 191.16600 191.92500 192.79500 193.76600 194.73200 195.31200
 195.80000 196.05200 196.11500 196.11500 196.03900 195.72300 195.34000 194.98900
 194.75100 194.79200 195.13300 195.59800 196.50600 198.13600 199.85800 201.56600
 204.17900 206.82300 209.89300 213.28400 216.82800 220.60500 224.38700 228.20900
 232.03200 235.82500 239.56000 243.25800 246.84500 250.20100 253.70900 257.46800
 261.53000 264.22100 266.60100 268.68100 270.32900 271.74100 272.83600 273.47400
 273.89800 274.00200 273.75700 273.28800 272.37100 271.10000 269.58900 267.77900
 265.81600 263.72100 261.39300 258.91600 256.29800 253.42300 250.33100 247.11400
 243.83700 240.52900 237.24900 233.99900 230.72800 227.51500 224.25400 220.95200
 217.62700 213.65600 210.12100 206.78900 204.01000 201.99491 199.07309 198.76551
 199.40006 200.48994 201.46112 202.31912 203.45100 204.96110 207.47502 210.85391
 213.70530 217.29629 220.99574 224.72316 228.28753 231.64854 234.68024 237.40893
 239.70644 241.60899 243.46854 245.67368 247.68154 249.52395 251.24767 252.78566
 254.12057 255.26479 256.23740 257.09036 257.82852 258.48160 259.07744 259.61723
 260.10271 260.53504 260.91270 261.39400
 399.73800 389.78500 379.66200 368.15100 356.64100 344.35000 331.79200 318.88800
 305.72600 292.49300 279.20900 266.73800 254.69600 244.21100 234.45700 225.43300
 217.56900 210.45100 204.30000 199.30600 195.45800 192.57600 191.02700 190.38600
 190.23900 190.53400 191.16600 191.92500 192.79500 193.76600 194.73200 195.31200
 195.80000 196.05200 196.11500 196.11500 196.03900 195.72300 195.34000 194.98900
 194.75100 194.79200 195.13300 195.59800 196.50600 198.13600 199.85800 201.56600
 204.17900 206.82300 209.89300 213.28400 216.82800 220.60500 224.38700 228.20900
 232.03200 235.82500 239.56000 243.25800 246.84500 250.20100 253.70900 257.46800
 261.53000 264.22100 266.60100 268.68100 270.32900 271.74100 272.83600 273.47400
 273.89800 274.00200 273.75700 273.28800 272.37100 271.10000 269.58900 267.77900
 265.81600 263.72100 261.39300 258.91600 256.29800 253.42300 250.33100 247.11400
 243.83700 240.52900 237.24900 233.99900 230.72800 227.51500 224.25400 220.95200
 217.62700 213.65600 210.12100 206.78900 204.01000 201.99491 199.07309 198.76551
 199.40006 200.48994 201.46112 202.31912 203.45100 204.96110 207.47502 210.85391
 213.70530 217.29629 220.99574 224.72316 228.28753 231.64854 234.68024 237.40893
 239.70644 241.60899 243.46854 245.67368 247.68154 249.52395 251.24767 252.78566
 254.12057 255.26479 256.23740 257.09036 257.82852 258.48160 259.07744 259.61723
 260.10271 260.53504 260.91270 261.39400
 399.33000 389.90700 379.81300 368.66800 357.52200 345.30100 333.07400 320.22700
 307.21600 293.84800 280.37600 267.29600 254.61000 242.98700 232.15100 221.97700
 212.67200 204.28600 197.66900 192.82100 189.48600 187.45200 186.81400 187.08900
 187.78100 189.05400 190.64800 192.54200 194.63000 196.75200 198.67100 200.15800
 201.53500 202.48700 202.97500 203.34000 203.53900 203.49700 203.38500 203.24700
 203.00500 202.78600 202.60300 202.43700 202.42600 202.88800 203.42000 203.95100
 204.89500 205.99200 207.30100 208.95800 210.73800 213.10000 215.56400 218.18000
 220.96600 223.91800 226.96100 230.09200 233.29300 236.55700 239.95500 243.53700
 246.84500 249.39000 251.54200 253.47400 255.19500 256.48400 257.43100 258.05900
 258.21200 258.04000 257.58200 256.64300 255.23900 253.50700 251.40800 249.05600
 246.57600 243.99400 241.38900 238.83000 236.34400 233.98600 231.96900 230.11800
 228.42300 226.89900 225.54800 224.29700 223.10500 221.96500 220.95800 220.11300
 219.49000 218.92000 218.32500 217.88100 217.42300 216.96366 216.35568 216.80261
 217.73415 218.28582 218.64258 219.10077 220.44626 222.53987 226.38451 230.35736
 233.59734 237.39164 241.29814 245.22796 248.98002 252.51130 255.78595 258.80109
 261.54781 264.05210 266.34239 268.04198 269.58951 271.01303 272.35754 273.55718
 274.59842 275.49092 276.28989 276.99307 277.60161 278.14001 278.63122 279.07623
 279.47646 279.83287 280.14422 280.54100
 381.81900 372.39900 361.20600 349.77600 337.62200 324.85300 311.81000 298.35300
 284.86000 271.32400 258.56100 246.30400 236.08700 226.79600 218.44800 211.29000
 205.52200 200.89400 197.38100 194.84800 193.01500 192.31500 192.25000 192.43100
 192.91200 193.53700 194.13600 194.71200 195.26200 195.83100 196.39300 196.97600
 197.60400 198.14900 198.58400 199.05700 199.69500 200.37800 201.05400 201.70800
 202.31300 202.85700 203.35500 203.86200 204.56900 205.29700 206.02600 206.98700
 208.19300 209.44100 210.96900 212.57600 214.46200 216.51300 218.63000 220.85300
 223.34100 225.96200 228.73900 231.69700 234.70600 237.70600 240.69200 243.65700
 246.73700 249.69900 252.52100 255.06300 257.29000 259.23300 260.63300 261.68000
 262.46100 262.79800 262.69100 262.22400 261.06900 259.52500 257.70700 255.50700
 253.00100 250.30200 247.39800 244.45200 241.65400 239.05400 236.73300 234.59000
 232.59500 230.72500 228.83400 226.82600 224.66600 222.38700 220.10400 217.71500
 215.45900 213.06600 210.54600 208.09300 205.35400 202.08130 196.05959 200.71215
 209.01611 216.90438 223.84126 229.78593 235.00632 240.20838 245.98943 250.68668
 254.32982 257.93487 261.55666 264.96801 268.15192 271.06452 273.76717 276.25691
 278.57680 280.74479 282.77456 284.60533 286.27232 287.81705 289.31715 290.65561
 291.81734 292.81312 293.70701 294.49387 295.17482 295.77730 296.32696 296.82492
 297.27278 297.67160 298.02000 298.46400
 366.78100 356.33820 345.77341 334.64261 323.04882 311.24602 299.11923 286.92543
 274.64064 262.54084 250.55305 239.85725 229.98245 221.08966 213.27486 206.28007
 200.11727 195.05848 191.64368 189.68889 188.72909 188.79630 189.63450 190.94570
 192.67391 194.77211 197.03832 199.40052 201.84873 204.33193 206.42314 208.26834
 209.89755 211.04575 211.27795 211.50916 211.44936 211.15757 210.79377 210.42698
 210.04718 209.76039 209.57159 209.43880 209.37000 209.70420 210.09341 210.48561
 211.28182 212.46302 213.71623 215.50243 217.43364 219.47984 221.57805 223.66425
 225.72745 227.81466 229.91486 232.02407 234.15627 236.33148 238.59068 240.96389
 243.58809 245.84230 247.84750 249.61570 251.03591 252.16211 252.98732 253.30652
 253.34673 253.12393 252.48714 251.43834 250.04755 248.21175 246.12395 243.96016
 241.75436 239.56157 237.38477 235.22698 233.09018 230.96039 228.98959 227.14980
 225.43600 223.91120 222.54441 221.31961 220.20482 219.16802 218.27523 217.41943
 216.66464 215.84784 214.94905 214.31625 213.76945 213.16463 211.74596 212.50955
 214.23805 216.10591 217.30286 217.68620 218.66461 222.84825 228.49631 233.31653
 237.09561 240.86803 244.62744 248.30911 251.82213 254.83455 257.42349 259.93848
 262.54581 265.08566 267.48700 269.60291 271.63498 273.59274 275.22562 276.81262
 278.47583 280.14532 281.67456 283.03674 284.21976 285.26971 286.23123 287.10632
 287.89816 288.60834 289.23514 290.07010
 366.78100 356.33806 345.77311 334.64217 323.04822 311.24528 299.11833 286.92439
 274.63944 262.53950 250.55156 239.85561 229.98067 221.08772 213.27278 206.27783
 200.11489 195.05595 191.64100 189.68606 188.72611 188.79317 189.63122 190.94228
 192.67033 194.76839 197.03445 199.39650 201.84456 204.32761 206.41867 208.26372
 209.89278 211.04084 211.27289 211.50395 211.44400 211.15206 210.78811 210.42117
 210.04122 209.75428 209.56534 209.43239 209.36345 209.69750 210.08656 210.47861
 211.27467 212.45573 213.70878 215.49484 217.42589 219.47195 221.57000 223.65606
 225.71911 227.80617 229.90623 232.01528 234.14734 236.32239 238.58145 240.95450
 243.57856 245.83262 247.83767 249.60573 251.02578 252.15184 252.97689 253.29595
 253.33600 253.11306 252.47612 251.42717 250.03623 248.20028 246.11234 243.94839
 241.74245 239.54951 237.37256 235.21462 233.07767 230.94773 228.97678 227.13684
 225.42289 223.89795 222.53101 221.30606 220.19112 219.15417 218.26123 217.40528
 216.65034 215.83340 214.93445 214.30151 213.75456 213.17020 211.79886 212.61311
 214.36031 216.22450 217.34511 217.79694 218.72168 222.88000 228.44106 233.22736
 236.99759 240.77257 244.54062 248.20142 251.63348 254.61275 257.25781 259.84702
 262.39526 264.88736 267.32462 269.48386 271.52618 273.47290 275.10110 276.69617
 278.36136 280.03073 281.56216 282.92517 284.10873 285.15921 286.12097 286.99655
 287.78830 288.50015 289.12686 289.96335
 366.78100 356.33774 345.77248 334.64122 323.04696 311.24370 299.11644 286.92218
 274.63692 262.53666 250.54840 239.85214 229.97688 221.08362 213.26836 206.27310
 200.10984 195.05058 191.63532 189.68006 188.71980 188.78654 189.62427 190.93501
 192.66275 194.76049 197.02623 199.38797 201.83571 204.31845 206.40919 208.25393
 209.88267 211.03041 211.26215 211.49289 211.43263 211.14037 210.77611 210.40885
 210.02859 209.74133 209.55207 209.41881 209.34955 209.68329 210.07203 210.46377
 211.25951 212.44025 213.69299 215.47873 217.40947 219.45521 221.55295 223.63869
 225.70143 227.78817 229.88791 231.99665 234.12839 236.30313 238.56187 240.93461
 243.55835 245.81208 247.81682 249.58456 251.00430 252.13004 252.95478 253.27352
 253.31326 253.09000 252.45274 251.40348 250.01222 248.17596 246.08770 243.92344
 241.71718 239.52392 237.34666 235.18840 233.05114 230.92088 228.94962 227.10936
 225.39510 223.86984 222.50258 221.27732 220.16206 219.12480 218.23154 217.37528
 216.62002 215.80276 214.90350 214.27024 213.72298 213.16763 211.86574 212.72234
 214.47366 216.30676 217.41064 217.88768 218.82166 222.88632 228.39241 233.14468
 236.89804 240.67270 244.44630 248.09019 251.44400 254.39304 257.09866 259.76599
 262.25952 264.70358 267.15958 269.36221 271.42038 273.35645 274.97610 276.56619
 278.24576 279.92819 281.46512 282.82962 284.01379 285.06534 286.02814 286.90436
 287.69800 288.40860 289.03958 289.87576
 366.78100 356.33713 345.77126 334.63939 323.04452 311.24066 299.11279 286.91792
 274.63205 262.53118 250.54231 239.84544 229.96957 221.07570 213.25984 206.26397
 200.10010 195.04023 191.62436 189.66849 188.70762 188.77375 189.61088 190.92102
 192.64815 194.74528 197.01041 199.37154 201.81867 204.30080 206.39093 208.23506
 209.86319 211.01033 211.24146 211.47159 211.41072 211.11785 210.75298 210.38511
 210.00424 209.71637 209.52651 209.39264 209.32277 209.65590 210.04403 210.43516
 211.23029 212.41042 213.66255 215.44769 217.37782 219.42295 221.52008 223.60521
 225.66734 227.75347 229.85260 231.96073 234.09187 236.26600 238.52413 240.89626
 243.51939 245.77252 247.77665 249.54378 250.96291 252.08805 252.91218 253.23031
 253.26944 253.04557 252.40770 251.35783 249.96596 248.12909 246.04023 243.87536
 241.66849 239.47462 237.29675 235.13788 233.00001 230.86914 228.89727 227.05641
 225.34154 223.81567 222.44780 221.22193 220.10606 219.06819 218.17432 217.31745
 216.56158 215.74372 214.84385 214.20998 213.66211 213.14812 211.94334 212.85750
 214.57242 216.35770 217.48657 217.98660 218.97810 222.87964 228.35310 233.07201
 236.79764 240.57495 244.35059 247.97646 251.25032 254.16679 256.93185 259.66418
 262.10837 264.46503 266.97946 269.22589 271.30283 273.22269 274.85538 276.45746
 278.14865 279.80435 281.33850 282.70108 283.88528 284.93542 285.89853 286.77304
 287.56622 288.27875 288.91031 289.74274
 366.78100 356.33650 345.77000 334.63750 323.04200 311.23750 299.10900 286.91350
 274.62700 262.52550 250.53600 239.83850 229.96200 221.06750 213.25100 206.25450
 200.08999 195.02949 191.61299 189.65649 188.69499 188.76049 189.59699 190.90649
 192.63299 194.72949 196.99399 199.35449 201.80099 204.28249 206.37199 208.21549
 209.84299 210.98949 211.21999 211.44949 211.38799 211.09449 210.72899 210.36049
 209.97899 209.69049 209.49999 209.36549 209.29499 209.62749 210.01499 210.40549
 211.19998 212.37948 213.63098 215.41548 217.34498 219.38948 221.48598 223.57048
 225.63198 227.71748 229.81598 231.92348 234.05398 236.22748 238.48498 240.85648
 243.47898 245.73148 247.73498 249.50148 250.91998 252.04448 252.86798 253.18548
 253.22398 252.99948 252.36098 251.31048 249.91798 248.08048 245.99098 243.82548
 241.61797 239.42347 237.24497 235.08547 232.94697 230.81547 228.84297 227.00147
 225.28597 223.75947 222.39097 221.16447 220.04797 219.00947 218.11497 217.25747
 216.50097 215.68247 214.78197 214.14747 213.59897 213.12492 212.01065 212.99147
 214.68927 216.43130 217.56181 218.08008 219.12288 222.88353 228.31999 232.99547
 236.69550 240.46614 244.23997 247.83969 251.03641 253.92836 256.75516 259.54507
 261.93198 264.24561 266.77350 269.05377 271.15063 273.06479 274.71512 276.33887
 278.04428 279.70459 281.24020 282.60358 283.78903 284.84030 285.80234 286.67859
 287.47098 288.18396 288.81396 289.64828
 366.78100 356.33604 345.76908 334.63612 323.04015 311.23519 299.10623 286.91027
 274.62331 262.52135 250.53139 239.83343 229.95646 221.06150 213.24454 206.24758
 200.08262 195.02166 191.60470 189.64774 188.68577 188.75081 189.58685 190.89589
 192.62193 194.71797 196.98201 199.34205 201.78808 204.26912 206.35816 208.20120
 209.82824 210.97428 211.20432 211.43336 211.37139 211.07743 210.71147 210.34251
 209.96055 209.67159 209.48063 209.34566 209.27470 209.60674 209.99378 210.38382
 211.17786 212.35690 213.60794 215.39197 217.32101 219.36505 221.46109 223.54513
 225.60617 227.69121 229.78925 231.89628 234.02632 236.19936 238.45640 240.82744
 243.44948 245.70152 247.70456 249.47059 250.88863 252.01267 252.83571 253.15275
 253.19079 252.96583 252.32687 251.27590 249.88294 248.04498 245.95502 243.78906
 241.58110 239.38614 237.20717 235.04721 232.90825 230.77629 228.80333 226.96137
 225.24541 223.71845 222.34948 221.12252 220.00556 218.96660 218.07164 217.21368
 216.45672 215.63776 214.73679 214.10183 213.55287 213.11162 212.07219 213.11023
 214.79492 216.51666 217.65785 218.17412 219.24304 222.88696 228.29073 232.91704
 236.59410 240.35641 244.12926 247.70172 250.82613 253.69276 256.57812 259.43817
 261.78293 264.06458 266.58069 268.89062 271.00879 272.93030 274.58640 276.22263
 277.93909 279.62329 281.16104 282.52597 283.71048 284.76447 285.72614 286.60266
 287.39594 288.10794 288.73611 289.57419
 366.78100 356.33551 345.76801 334.63452 323.03802 311.23253 299.10303 286.90654
 274.61904 262.51655 250.52605 239.82756 229.95007 221.05457 213.23708 206.23958
 200.07409 195.01259 191.59510 189.63760 188.67511 188.73961 189.57512 190.88362
 192.60913 194.70464 196.96814 199.32765 201.77315 204.25366 206.34216 208.18467
 209.81117 210.95668 211.18618 211.41469 211.35220 211.05770 210.69121 210.32171
 209.93922 209.64972 209.45823 209.32273 209.25124 209.58274 209.96925 210.35875
 211.15226 212.33077 213.58127 215.36478 217.29328 219.33679 221.43229 223.51580
 225.57630 227.66081 229.75831 231.86482 233.99433 236.16683 238.42334 240.79384
 243.41535 245.66685 247.66936 249.43486 250.85237 251.97587 252.79838 253.11488
 253.15239 252.92690 252.28740 251.23591 249.84241 248.00392 245.91342 243.74693
 241.53843 239.34294 237.16344 235.00295 232.86346 230.73096 228.75747 226.91497
 225.19848 223.67098 222.30149 221.07399 219.95650 218.91700 218.02151 217.16302
 216.40552 215.58603 214.68453 214.04904 213.49954 213.09692 212.14732 213.22842
 214.86974 216.58350 217.75589 218.27422 219.37523 222.89159 228.26759 232.84810
 236.50160 240.26015 244.03088 247.57465 250.63075 253.46692 256.40054 259.33340
 261.65253 263.89658 266.39667 268.73306 270.87698 272.81732 274.47900 276.12631
 277.84851 279.53906 281.07837 282.44229 283.62851 284.68018 285.64307 286.51935
 287.31271 288.02524 288.65417 289.49719
 366.78100 356.33480 345.76661 334.63241 323.03521 311.22902 299.09882 286.90163
 274.61343 262.51023 250.51904 239.81984 229.94164 221.04545 213.22725 206.22906
 200.06286 195.00066 191.58247 189.62427 188.66107 188.72488 189.55968 190.86748
 192.59229 194.68709 196.94990 199.30870 201.75350 204.23331 206.32111 208.16291
 209.78872 210.93352 211.16232 211.39013 211.32693 211.03174 210.66454 210.29434
 209.91115 209.62095 209.42875 209.29256 209.22036 209.55117 209.93697 210.32577
 211.11858 212.29638 213.54618 215.32899 217.25679 219.29959 221.39440 223.47720
 225.53701 227.62081 229.71761 231.82342 233.95222 236.12402 238.37983 240.74963
 243.37043 245.62124 247.62304 249.38785 250.80465 251.92745 252.74926 253.06506
 253.10186 252.87567 252.23547 251.18328 249.78908 247.94988 245.85869 243.69149
 241.48229 239.28610 237.10590 234.94470 232.80451 230.67131 228.69712 226.85392
 225.13672 223.60853 222.23833 221.01013 219.89194 218.85174 217.95555 217.09635
 216.33815 215.51796 214.61576 213.97956 213.42937 213.07471 212.23703 213.35065
 214.93790 216.64064 217.83925 218.35880 219.52275 222.89235 228.24847 232.78511
 236.41345 240.17093 243.93526 247.44455 250.43384 253.24202 256.21793 259.20795
 261.50342 263.71008 266.20419 268.56177 270.73218 272.68985 274.36813 276.03131
 277.75317 279.47275 281.01593 282.38306 283.56891 284.62442 285.59024 286.47119
 287.27554 287.99814 288.62952 289.47485
 366.78100 356.33413 345.76526 334.63039 323.03252 311.22565 299.09478 286.89691
 274.60804 262.50417 250.51230 239.81243 229.93356 221.03669 213.21782 206.21895
 200.05208 194.98922 191.57035 189.61148 188.64761 188.71074 189.54487 190.85200
 192.57613 194.67026 196.93239 199.29052 201.73465 204.21378 206.30091 208.14204
 209.76717 210.91130 211.13943 211.36656 211.30269 211.00682 210.63895 210.26808
 209.88421 209.59334 209.40047 209.26360 209.19073 209.52086 209.90599 210.29412
 211.08625 212.26338 213.51252 215.29465 217.22178 219.26391 221.35804 223.44017
 225.49930 227.58243 229.67856 231.78369 233.91182 236.08295 238.33808 240.70721
 243.32734 245.57747 247.57860 249.34273 250.75886 251.88099 252.70212 253.01725
 253.05338 252.82651 252.18564 251.13277 249.73790 247.89803 245.80616 243.63829
 241.42842 239.23155 237.05068 234.88881 232.74795 230.61408 228.63921 226.79534
 225.07747 223.54860 222.17773 220.94886 219.82999 218.78912 217.89225 217.03238
 216.27351 215.45264 214.54977 213.91290 213.36203 213.05463 212.32837 213.47849
 215.00276 216.69278 217.92188 218.44339 219.67516 222.89386 228.22464 232.72449
 236.33258 240.09073 243.84500 247.31483 250.23724 253.01711 256.02792 259.06528
 261.35110 263.53073 266.01752 268.39349 270.59195 272.56793 274.26270 275.92828
 277.66617 279.40179 280.94757 282.31357 283.50201 284.55768 285.52463 286.40759
 287.21307 287.93613 288.57001 289.41293
 366.78100 356.33344 345.76388 334.62833 323.02977 311.22221 299.09065 286.89209
 274.60253 262.49798 250.50542 239.80486 229.92530 221.02774 213.20818 206.20863
 200.04107 194.97751 191.55795 189.59839 188.63383 188.69628 189.52972 190.83616
 192.55960 194.65304 196.91448 199.27193 201.71537 204.19381 206.28025 208.12069
 209.74513 210.88858 211.11602 211.34246 211.27790 210.98134 210.61278 210.24123
 209.85667 209.56511 209.37155 209.23399 209.16043 209.48988 209.87432 210.26176
 211.05320 212.22964 213.47808 215.25953 217.18597 219.22741 221.32085 223.40229
 225.46073 227.54318 229.63862 231.74306 233.87050 236.04094 238.29538 240.66383
 243.28327 245.53271 247.53315 249.29659 250.71203 251.83348 252.65392 252.96836
 253.00380 252.77624 252.13468 251.08113 249.68557 247.84501 245.75245 243.58389
 241.37333 239.17578 236.99422 234.83166 232.69010 230.55554 228.57998 226.73543
 225.01687 223.48731 222.11575 220.88619 219.76663 218.72508 217.82752 216.96696
 216.20740 215.38584 214.48228 213.84473 213.29317 213.03410 212.42204 213.61015
 215.06677 216.73982 218.00940 218.51588 219.85216 222.87466 228.20515 232.66878
 236.25319 240.01244 243.75388 247.18295 250.04266 252.79364 255.83057 258.90759
 261.19720 263.36316 265.84073 268.23615 270.46536 272.46729 274.17844 275.84528
 277.58383 279.32162 280.86908 282.23618 283.42453 284.47961 285.44928 286.33197
 287.14050 287.86325 288.49802 289.34543
 366.78100 356.33275 345.76250 334.62626 323.02701 311.21876 299.08651 286.88726
 274.59702 262.49177 250.49852 239.79727 229.91703 221.01878 213.19853 206.19828
 200.03003 194.96579 191.54554 189.58529 188.62004 188.68179 189.51455 190.82030
 192.54305 194.63580 196.89656 199.25331 201.69606 204.17381 206.25956 208.09932
 209.72307 210.86582 211.09257 211.31832 211.25308 210.95583 210.58658 210.21433
 209.82909 209.53684 209.34259 209.20434 209.13009 209.45885 209.84260 210.22935
 211.02010 212.19585 213.44361 215.22436 217.15011 219.19086 221.28361 223.36437
 225.42212 227.50387 229.59862 231.70238 233.82913 235.99888 238.25263 240.62038
 243.23914 245.48789 247.48764 249.25039 250.66514 251.78590 252.60565 252.91940
 252.95415 252.72591 252.08366 251.02941 249.63316 247.79191 245.69867 243.52942
 241.31817 239.11992 236.93767 234.77443 232.63218 230.49693 228.52068 226.67544
 224.95619 223.42594 222.05369 220.82344 219.70320 218.66095 217.76270 216.90145
 216.14120 215.31896 214.41471 213.77646 213.22421 213.01340 212.51532 213.75208
 215.13039 216.78491 218.08455 218.60034 220.01262 222.88277 228.16949 232.60075
 236.17195 239.94038 243.66866 247.05202 249.84686 252.56764 255.62308 258.72931
 261.03625 263.20682 265.67572 268.08807 270.34927 272.38126 274.11154 275.78134
 277.50342 279.24210 280.79108 282.15811 283.34668 284.40308 285.37177 286.25858
 287.06561 287.79086 288.42728 289.27344
 366.78100 356.33245 345.76189 334.62534 323.02578 311.21723 299.08468 286.88512
 274.59457 262.48901 250.49546 239.79391 229.91335 221.01480 213.19424 206.19369
 200.02514 194.96058 191.54003 189.57947 188.61392 188.67537 189.50781 190.81326
 192.53570 194.62815 196.88860 199.24504 201.68749 204.16494 206.25038 208.08983
 209.71327 210.85572 211.08217 211.30761 211.24206 210.94450 210.57495 210.20240
 209.81684 209.52429 209.32973 209.19118 209.11663 209.44507 209.82852 210.21496
 211.00541 212.18086 213.42830 215.20875 217.13419 219.17464 221.26709 223.34753
 225.40498 227.48642 229.58087 231.68432 233.81076 235.98021 238.23365 240.60110
 243.21955 245.46799 247.46744 249.22988 250.64433 251.76478 252.58422 252.89767
 252.93211 252.70356 252.06101 251.00645 249.60990 247.76834 245.67479 243.50524
 241.29368 239.09513 236.91257 234.74902 232.60647 230.47091 228.49436 226.64881
 224.92925 223.39870 222.02614 220.79559 219.67504 218.63248 217.73393 216.87237
 216.11182 215.28927 214.38471 213.74616 213.19360 213.01184 212.58241 213.92525
 215.19466 216.79568 218.19266 218.67130 220.22424 222.83543 228.14685 232.55692
 236.09979 239.87233 243.57947 246.90298 249.63072 252.32857 255.40231 258.53351
 260.87668 263.06744 265.52628 267.95264 270.24326 272.30719 274.05368 275.72070
 277.42703 279.16614 280.71518 282.08252 283.27081 284.32800 285.29617 286.18359
 286.99329 287.71997 288.35678 289.20325
 366.78100 356.33175 345.76050 334.62326 323.02301 311.21376 299.08051 286.88027
 274.58902 262.48277 250.48852 239.78627 229.90503 221.00578 213.18453 206.18328
 200.01404 194.94879 191.52754 189.56629 188.60004 188.66080 189.49255 190.79730
 192.51905 194.61081 196.87056 199.22631 201.66806 204.14481 206.22957 208.06832
 209.69107 210.83282 211.05858 211.28333 211.21708 210.91883 210.54858 210.17534
 209.78909 209.49584 209.30059 209.16135 209.08610 209.41385 209.79660 210.18235
 210.97211 212.14686 213.39361 215.17336 217.09812 219.13787 221.22962 223.30937
 225.36612 227.44688 229.54063 231.64338 233.76913 235.93789 238.19064 240.55739
 243.17514 245.42289 247.42165 249.18340 250.59715 251.71690 252.53566 252.84841
 252.88216 252.65291 252.00966 250.95442 249.55717 247.71492 245.62067 243.45043
 241.23818 239.03893 236.85568 234.69143 232.54819 230.41194 228.43469 226.58844
 224.86820 223.33695 221.96370 220.73245 219.61120 218.56796 217.66871 216.80646
 216.04521 215.22197 214.31672 213.67747 213.12422 212.99315 212.68344 214.03908
 215.32915 216.81828 218.16017 218.81277 220.42247 222.90858 228.11838 232.48323
 236.00247 239.77982 243.46533 246.73134 249.40390 252.08961 255.18039 258.33444
 260.72739 262.94330 265.38977 267.82510 270.14362 272.24045 274.00336 275.66589
 277.35428 279.09482 280.64429 282.01224 283.20157 284.25922 285.22998 286.11694
 286.92853 287.65680 288.29300 289.14191
 366.78100 356.33082 345.75863 334.62045 323.01926 311.20908 299.07490 286.87371
 274.58153 262.47434 250.47916 239.77598 229.89379 220.99361 213.17143 206.16924
 199.99906 194.93287 191.51069 189.54851 188.58132 188.64114 189.47195 190.77577
 192.49659 194.58740 196.84622 199.20103 201.64185 204.11767 206.20148 208.03930
 209.66111 210.80193 211.02675 211.25056 211.18338 210.88420 210.51301 210.13883
 209.75164 209.45746 209.26128 209.12109 209.04491 209.37172 209.75354 210.13836
 210.92717 212.10099 213.34680 215.12562 217.04944 219.08825 221.17907 223.25789
 225.31370 227.39352 229.48633 231.58815 233.71297 235.88078 238.13260 240.49841
 243.11523 245.36205 247.35986 249.12068 250.53349 251.65231 252.47013 252.78194
 252.81476 252.58457 251.94039 250.88421 249.48602 247.64284 245.54766 243.37647
 241.16329 238.96310 236.77892 234.61374 232.46955 230.33237 228.35418 226.50700
 224.78582 223.25363 221.87945 220.64726 219.52508 218.48090 217.58071 216.71753
 215.95534 215.13116 214.22498 213.58479 213.03061 212.96312 212.80365 214.15245
 215.44044 216.86714 218.16635 218.96240 220.53621 223.05753 228.07346 232.37791
 235.88622 239.67221 243.34023 246.55597 249.18221 251.85725 254.95839 258.12766
 260.57471 262.82199 265.25766 267.70062 270.04678 272.17847 273.96042 275.62280
 277.28986 279.01907 280.56784 281.93500 283.12308 284.17932 285.14618 286.03241
 286.84152 287.56604 288.18671 289.02362
 366.78100 356.33024 345.75749 334.61873 323.01697 311.20621 299.07146 286.86970
 274.57694 262.46918 250.47343 239.76967 229.88691 220.98615 213.16340 206.16064
 199.98988 194.92312 191.50037 189.53761 188.56985 188.62909 189.45934 190.76258
 192.48282 194.57306 196.83131 199.18555 201.62579 204.10103 206.18428 208.02152
 209.64276 210.78300 211.00725 211.23049 211.16273 210.86297 210.49122 210.11646
 209.72870 209.43394 209.23719 209.09643 209.01967 209.34591 209.72716 210.11140
 210.89964 212.07288 213.31813 215.09637 217.01961 219.05785 221.14810 223.22634
 225.28158 227.36082 229.45307 231.55431 233.67855 235.84579 238.09704 240.46228
 243.07852 245.32476 247.32201 249.08225 250.49449 251.61273 252.42998 252.74122
 252.77346 252.54270 251.89795 250.84119 249.44243 247.59867 245.50292 243.33116
 241.11740 238.91664 236.73189 234.56613 232.42137 230.28361 228.30486 226.45710
 224.73534 223.20258 221.82783 220.59507 219.47231 218.42755 217.52680 216.66304
 215.90028 215.07552 214.16877 213.52801 212.97325 212.95219 212.90247 214.29472
 215.52364 216.92165 218.23863 219.11725 220.62422 223.21523 228.01984 232.26369
 235.76968 239.56516 243.21155 246.37134 248.94925 251.61548 254.72620 257.90430
 260.40900 262.69434 265.13004 267.58173 269.95285 272.11826 273.92325 275.58884
 277.24197 278.94241 280.48773 281.85330 283.04102 284.09598 285.06253 285.94754
 286.75623 287.47980 288.09851 288.93338
 366.78100 356.33000 345.75700 334.61800 323.01599 311.20499 299.06999 286.86799
 274.57499 262.46699 250.47099 239.76698 229.88398 220.98298 213.15998 206.15698
 199.98598 194.91897 191.49597 189.53297 188.56497 188.62397 189.45397 190.75697
 192.47696 194.56696 196.82496 199.17896 201.61896 204.09396 206.17696 208.01395
 209.63495 210.77495 210.99895 211.22195 211.15395 210.85395 210.48194 210.10694
 209.71894 209.42394 209.22694 209.08594 209.00894 209.33493 209.71593 210.09993
 210.88793 212.06093 213.30593 215.08392 217.00692 219.04492 221.13492 223.21292
 225.26792 227.34692 229.43891 231.53991 233.66391 235.83091 238.08191 240.44691
 243.06291 245.30890 247.30590 249.06590 250.47790 251.59590 252.41290 252.72390
 252.75589 252.52489 251.87989 250.82289 249.42389 247.57989 245.48388 243.31188
 241.09788 238.89688 236.71188 234.54588 232.40088 230.26287 228.28387 226.43587
 224.71387 223.18087 221.80587 220.57287 219.44986 218.40486 217.50386 216.63986
 215.87686 215.05186 214.14486 213.50385 212.94885 212.95976 212.98553 214.43420
 215.61714 216.98103 218.33498 219.27489 220.73660 223.35263 227.96007 232.15733
 235.66020 239.46471 243.08046 246.17706 248.70161 251.35782 254.48212 257.67477
 260.23694 262.56778 264.98669 267.44684 269.84689 272.04901 273.86945 275.54196
 277.19977 278.86349 280.41455 281.78125 282.96954 284.02509 284.99167 285.88040
 286.69058 287.41214 288.04221 288.87485
 366.78100 356.33039 345.75777 334.61916 323.01755 311.20693 299.07232 286.87071
 274.57809 262.47048 250.47487 239.77125 229.88864 220.98803 213.16541 206.16280
 199.99218 194.92557 191.50296 189.54034 188.57273 188.63212 189.46250 190.76589
 192.48628 194.57666 196.83505 199.18944 201.62982 204.10521 206.18860 208.02598
 209.64737 210.78776 211.01214 211.23553 211.16792 210.86830 210.49669 210.12208
 209.73446 209.43985 209.24324 209.10262 209.02601 209.35240 209.73378 210.11817
 210.90655 212.07994 213.32533 215.10371 217.02710 219.06549 221.15587 223.23426
 225.28965 227.36903 229.46142 231.56281 233.68719 235.85458 238.10597 240.47135
 243.08774 245.33413 247.33151 249.09190 250.50429 251.62267 252.44006 252.75145
 252.78383 252.55322 251.90861 250.85199 249.45338 247.60976 245.51415 243.34254
 241.12892 238.92831 236.74370 234.57808 232.43347 230.29586 228.31724 226.46963
 224.74802 223.21540 221.84079 220.60818 219.48556 218.44095 217.54034 216.67672
 215.91411 215.08950 214.18288 213.54227 212.98766 213.01143 213.10037 214.49791
 215.70064 217.01807 218.40161 219.40523 220.83281 223.41382 227.83806 232.05482
 235.52020 239.34087 242.91710 245.94711 248.42326 251.08420 254.22496 257.41306
 260.07330 262.44019 264.95682 267.41614 269.80063 271.97672 273.84622 275.53708
 277.18552 278.77600 280.28116 281.64328 282.82614 283.87656 284.84189 285.72409
 286.55121 287.32993 288.01019 288.87711
 366.78100 356.33092 345.75883 334.62075 323.01967 311.20959 299.07550 286.87442
 274.58234 262.47525 250.48017 239.77709 229.89501 220.99492 213.17284 206.17076
 200.00067 194.93459 191.51251 189.55042 188.58334 188.64326 189.47418 190.77809
 192.49901 194.58993 196.84884 199.20376 201.64468 204.12060 206.20451 208.04243
 209.66435 210.80526 211.03018 211.25410 211.18702 210.88793 210.51685 210.14277
 209.75568 209.46160 209.26552 209.12544 209.04935 209.37627 209.75819 210.14310
 210.93202 212.10594 213.35186 215.13077 217.05469 219.09361 221.18452 223.26344
 225.31936 227.39927 229.49219 231.59411 233.71903 235.88694 238.13886 240.50478
 243.12169 245.36861 247.36653 249.12745 250.54036 251.65928 252.47720 252.78911
 252.82203 252.59195 251.94787 250.89178 249.49370 247.65062 245.55553 243.38445
 241.17137 238.97129 236.78720 234.62212 232.47804 230.34095 228.36287 226.51579
 224.79471 223.26262 221.88854 220.65646 219.53437 218.49029 217.59021 216.72712
 215.96504 215.14096 214.23488 213.59479 213.04071 213.07393 213.21214 214.55321
 215.77142 217.03159 218.41403 219.52972 221.01120 223.56624 227.78133 231.98055
 235.40440 239.18274 242.69630 245.67220 248.19461 250.89427 254.02068 257.17981
 259.87192 262.35834 264.97253 267.43674 269.79099 271.93997 273.79706 275.45276
 277.07257 278.66055 280.18494 281.55548 282.74753 283.81012 284.80496 285.76233
 286.64929 287.43915 288.12912 289.00845
 366.78100 356.33141 345.75982 334.62223 323.02164 311.21205 299.07846 286.87787
 274.58628 262.47969 250.48510 239.78251 229.90092 221.00133 213.17974 206.17815
 200.00856 194.94297 191.52138 189.55979 188.59320 188.65361 189.48502 190.78943
 192.51084 194.60225 196.86166 199.21707 201.65848 204.13489 206.21930 208.05771
 209.68012 210.82153 211.04694 211.27135 211.20476 210.90617 210.53558 210.16199
 209.77540 209.48181 209.28622 209.14663 209.07104 209.39845 209.78086 210.16627
 210.95568 212.13009 213.37650 215.15591 217.08032 219.11973 221.21114 223.29055
 225.34696 227.42737 229.52078 231.62319 233.74860 235.91701 238.16942 240.53583
 243.15324 245.40065 247.39906 249.16047 250.57388 251.69329 252.51170 252.82411
 252.85752 252.62793 251.98434 250.92875 249.53116 247.68857 245.59398 243.42339
 241.21080 239.01121 236.82762 234.66303 232.51944 230.38285 228.40526 226.55867
 224.83808 223.30649 221.93290 220.70131 219.57972 218.53613 217.63654 216.77395
 216.01236 215.18877 214.28318 213.64359 213.09000 213.13188 213.28735 214.66266
 215.86758 217.07338 218.48029 219.66257 221.16325 223.66583 227.75197 231.90915
 235.31317 239.06766 242.52792 245.45517 247.95531 250.66161 253.80948 257.00931
 259.79593 262.35635 264.97961 267.42264 269.77100 271.94006 273.80856 275.44937
 277.05777 278.64981 280.19034 281.56033 282.75180 283.81677 284.80652 285.75327
 286.64072 287.43097 288.12134 289.00113
 366.78100 356.33112 345.75924 334.62137 323.02049 311.21061 299.07673 286.87585
 274.58398 262.47710 250.48222 239.77934 229.89746 220.99758 213.17571 206.17383
 200.00395 194.93807 191.51619 189.55432 188.58744 188.64756 189.47868 190.78280
 192.50393 194.59505 196.85417 199.20929 201.65041 204.12653 206.21066 208.04878
 209.67090 210.81202 211.03714 211.26127 211.19439 210.89551 210.52463 210.15075
 209.76388 209.47000 209.27412 209.13424 209.05836 209.38548 209.76761 210.15273
 210.94185 212.11597 213.36209 215.14122 217.06534 219.10446 221.19558 223.27470
 225.33083 227.41095 229.50407 231.60619 233.73131 235.89943 238.15156 240.51768
 243.13480 245.38192 247.38004 249.14117 250.55429 251.67341 252.49153 252.80365
 252.83678 252.60690 251.96302 250.90714 249.50926 247.66638 245.57151 243.40063
 241.18775 238.98787 236.80399 234.63912 232.49524 230.35836 228.38048 226.53360
 224.81273 223.28085 221.90697 220.67509 219.55321 218.50933 217.60946 216.74658
 215.98470 215.16082 214.25494 213.61507 213.06119 213.15213 213.41411 214.74760
 215.92761 217.11961 218.57539 219.82512 221.34172 223.77505 227.73399 231.83565
 235.21822 238.93132 242.32361 245.19916 247.69350 250.43350 253.61880 256.85684
 259.76135 262.37680 264.86365 267.28564 269.66724 271.87625 273.77893 275.44327
 277.07324 278.70941 280.26337 281.63309 282.82602 283.89481 284.88385 285.82019
 286.70505 287.49304 288.18140 289.05865
 366.78100 356.32931 345.75561 334.61592 323.01323 311.20153 299.06584 286.86314
 274.56945 262.46076 250.46406 239.75937 229.87568 220.97398 213.15029 206.14660
 199.97490 194.90721 191.48351 189.51982 188.55113 188.60943 189.43874 190.74105
 192.46035 194.54966 196.80697 199.16027 201.59958 204.07389 206.15619 207.99250
 209.61280 210.75211 210.97542 211.19772 211.12903 210.82834 210.45564 210.07995
 209.69126 209.39556 209.19787 209.05617 208.97848 209.30379 209.68409 210.06740
 210.85471 212.02701 213.27132 215.04863 216.97093 219.00824 221.09754 223.17485
 225.22916 227.30746 229.39877 231.49908 233.62238 235.78869 238.03900 240.40330
 243.01861 245.26392 247.26022 249.01953 250.43083 251.54814 252.36445 252.67475
 252.70606 252.47437 251.82867 250.77098 249.37129 247.52659 245.42990 243.25720
 241.04251 238.84082 236.65512 234.48843 232.34274 230.20404 228.22435 226.37566
 224.65296 223.11927 221.74357 220.50988 219.38619 218.34049 217.43880 216.57411
 215.81041 214.98472 214.07703 213.43533 212.87964 213.09814 213.65674 214.79874
 215.89479 217.06964 218.58673 219.96841 221.56013 223.93190 227.74568 231.79002
 235.12192 238.75340 242.06146 244.88876 247.43625 250.24593 253.45998 256.71066
 259.67401 262.33551 264.83051 267.26764 269.65842 271.87961 273.80618 275.52734
 277.15555 278.70596 280.25433 281.62552 282.82214 283.89777 284.92383 285.92978
 286.83453 287.64023 288.34406 289.24100
 366.78100 356.32883 345.75467 334.61450 323.01134 311.19917 299.06301 286.85984
 274.56567 262.45651 250.45934 239.75418 229.87001 220.96785 213.14368 206.13951
 199.96735 194.89918 191.47502 189.51085 188.54169 188.59952 189.42835 190.73019
 192.44902 194.53786 196.79469 199.14753 201.58636 204.06019 206.14203 207.97786
 209.59770 210.73653 210.95937 211.18120 211.11203 210.81087 210.43770 210.06154
 209.67237 209.37621 209.17804 209.03587 208.95771 209.28254 209.66238 210.04521
 210.83205 212.00388 213.24771 215.02455 216.94638 218.98322 221.07205 223.14889
 225.20272 227.28055 229.37139 231.47122 233.59406 235.75989 238.00973 240.37356
 242.98839 245.23323 247.22906 248.98790 250.39873 251.51557 252.33140 252.64123
 252.67207 252.43990 251.79374 250.73557 249.33541 247.49024 245.39307 243.21991
 241.00474 238.80258 236.61641 234.44925 232.30308 230.16391 228.18375 226.33458
 224.61142 223.07725 221.70109 220.46692 219.34275 218.29659 217.39442 216.52926
 215.76509 214.93893 214.03076 213.38859 212.83243 213.10324 213.79131 214.95784
 215.90970 216.98003 218.60037 220.13542 221.80757 224.11246 227.79443 231.77271
 235.05283 238.59900 241.81459 244.58397 247.15962 250.02873 253.28702 256.57590
 259.59634 262.32251 264.87308 267.33044 269.71066 271.92035 273.86728 275.59616
 277.21274 278.76901 280.32156 281.69733 282.90384 283.99512 285.09146 286.10022
 287.00745 287.81537 288.52115 289.42059
 366.78100 356.33053 345.75807 334.61960 323.01813 311.20766 299.07320 286.87173
 274.57926 262.47179 250.47633 239.77286 229.89039 220.98993 213.16746 206.16499
 199.99452 194.92806 191.50559 189.54312 188.57565 188.63519 189.46572 190.76925
 192.48979 194.58032 196.83885 199.19338 201.63392 204.10945 206.19298 208.03051
 209.65205 210.79258 211.01711 211.24065 211.17318 210.87371 210.50224 210.12778
 209.74031 209.44584 209.24937 209.10891 209.03244 209.35897 209.74051 210.12504
 210.91357 212.08710 213.33264 215.11117 217.03470 219.07323 221.16377 223.24230
 225.29783 227.37737 229.46990 231.57143 233.69596 235.86350 238.11503 240.48056
 243.09710 245.34363 247.34116 249.10169 250.51423 251.63276 252.45029 252.76182
 252.79436 252.56389 251.91942 250.86296 249.46449 247.62102 245.52555 243.35409
 241.14062 238.94015 236.75568 234.59022 232.44575 230.30828 228.32982 226.48235
 224.76088 223.22841 221.85395 220.62148 219.49901 218.45454 217.55408 216.69061
 215.92814 215.10368 214.19721 213.55674 213.00227 213.21046 213.76726 215.19458
 216.01967 216.96838 218.68130 220.28691 221.97891 224.22061 227.81581 231.71782
 234.96445 238.42035 241.51357 244.20227 246.79286 249.72551 253.04729 256.39029
 259.48181 262.30078 264.92892 267.42221 269.79407 272.01208 273.99133 275.74902
 277.37961 278.85101 280.40808 281.78098 282.97833 284.05060 285.09576 286.09671
 286.99698 287.79868 288.49899 289.39151
 366.78100 356.33075 345.75849 334.62024 323.01898 311.20873 299.07448 286.87322
 274.58097 262.47371 250.47846 239.77521 229.89295 220.99270 213.17044 206.16819
 199.99794 194.93168 191.50943 189.54718 188.57992 188.63967 189.47041 190.77416
 192.49491 194.58565 196.84440 199.19914 201.63989 204.11564 206.19938 208.03713
 209.65887 210.79962 211.02437 211.24811 211.18086 210.88160 210.51035 210.13610
 209.74884 209.45459 209.25833 209.11808 209.04183 209.36857 209.75032 210.13506
 210.92381 212.09756 213.34330 215.12205 217.04579 219.08454 221.17529 223.25403
 225.30978 227.38953 229.48227 231.58402 233.70876 235.87651 238.12826 240.49400
 243.11075 245.35749 247.35524 249.11599 250.52873 251.64748 252.46522 252.77697
 252.80972 252.57946 251.93521 250.87895 249.48070 247.63745 245.54219 243.37094
 241.15768 238.95743 236.77318 234.60792 232.46367 230.32641 228.34816 226.50091
 224.77965 223.24740 221.87314 220.64089 219.51864 218.47438 217.57413 216.71088
 215.94862 215.12437 214.21811 213.57786 213.02361 213.24271 213.81477 215.40291
 216.19475 217.11391 218.82234 220.44212 222.10921 224.27458 227.83958 231.60956
 234.83823 238.16853 241.11429 243.71579 246.34387 249.36156 252.75296 256.14438
 259.30099 262.20322 264.90536 267.44894 269.84409 272.07947 274.11435 275.93411
 277.58121 279.06027 280.52292 281.88824 283.07858 284.14627 285.14651 286.09860
 286.97531 287.75601 288.43805 289.30719
 366.78100 356.33001 345.75701 334.61802 323.01603 311.20503 299.07004 286.86805
 274.57505 262.46706 250.47106 239.76707 229.88408 220.98308 213.16009 206.15710
 199.98610 194.91911 191.49612 189.53312 188.56513 188.62414 189.45414 190.75715
 192.47716 194.56716 196.82517 199.17917 201.61918 204.09419 206.17719 208.01420
 209.63521 210.77521 210.99922 211.22223 211.15423 210.85424 210.48225 210.10725
 209.71926 209.42426 209.22727 209.08628 209.00928 209.33529 209.71630 210.10030
 210.88831 212.06132 213.30632 215.08433 217.00734 219.04534 221.13535 223.21336
 225.26836 227.34737 229.43937 231.54038 233.66439 235.83139 238.08240 240.44741
 243.06341 245.30942 247.30643 249.06643 250.47844 251.59645 252.41345 252.72446
 252.75647 252.52547 251.88048 250.82348 249.42449 247.58050 245.48450 243.31251
 241.09852 238.89752 236.71253 234.54654 232.40154 230.26355 228.28456 226.43656
 224.71457 223.18157 221.80658 220.57359 219.45059 218.40560 217.50461 216.64061
 215.87762 215.05263 214.14563 213.50464 212.94965 213.22800 213.93535 215.53705
 216.29909 217.30510 218.97997 220.57478 222.21471 224.35941 227.90614 231.55247
 234.73802 237.91911 240.71446 243.23676 245.91145 249.02922 252.48880 255.91852
 259.11520 262.06827 264.82462 267.41913 269.84677 272.09933 274.15613 276.00470
 277.66785 279.16714 280.63675 282.00180 283.19150 284.25970 285.25797 286.19873
 287.06229 287.83127 288.50302 289.35913
 366.78100 356.32998 345.75695 334.61793 323.01591 311.20489 299.06986 286.86784
 274.57482 262.46680 250.47077 239.76675 229.88373 220.98271 213.15968 206.15666
 199.98564 194.91861 191.49559 189.53257 188.56455 188.62352 189.45350 190.75648
 192.47646 194.56643 196.82441 199.17839 201.61836 204.09334 206.17632 208.01330
 209.63427 210.77425 210.99823 211.22121 211.15318 210.85316 210.48114 210.10612
 209.71809 209.42307 209.22605 209.08502 209.00800 209.33398 209.71496 210.09893
 210.88691 212.05989 213.30487 215.08284 217.00582 219.04380 221.13378 223.21175
 225.26673 227.34571 229.43768 231.53866 233.66264 235.82962 238.08059 240.44557
 243.06155 245.30753 247.30450 249.06448 250.47646 251.59443 252.41141 252.72239
 252.75437 252.52334 251.87832 250.82130 249.42228 247.57825 245.48223 243.31021
 241.09619 238.89516 236.71014 234.54412 232.39909 230.26107 228.28205 226.43403
 224.71200 223.17898 221.80396 220.57094 219.44791 218.40289 217.50187 216.63784
 215.87482 215.04980 214.14278 213.50175 212.94673 213.24825 214.01535 215.64247
 216.46606 217.42360 219.02252 220.64328 222.32913 224.48924 227.98068 231.55424
 234.65479 237.68239 240.32979 242.79672 245.53645 248.76340 252.29556 255.77118
 259.00964 262.00644 264.80127 267.41727 269.83694 272.05984 274.08768 275.92624
 277.60458 279.16727 280.68896 282.05646 283.24719 284.31931 285.32428 286.27798
 287.14215 287.91168 288.58392 289.44064
 366.78100 356.33080 345.75859 334.62039 323.01919 311.20899 299.07478 286.87358
 274.58138 262.47417 250.47897 239.77577 229.89356 220.99336 213.17116 206.16896
 199.99875 194.93255 191.51035 189.54814 188.58094 188.64074 189.47153 190.77533
 192.49613 194.58693 196.84572 199.20052 201.64132 204.11711 206.20091 208.03871
 209.66050 210.80130 211.02610 211.24990 211.18269 210.88349 210.51229 210.13808
 209.75088 209.45668 209.26047 209.12027 209.04407 209.37087 209.75266 210.13746
 210.92626 212.10005 213.34585 215.12465 217.04844 219.08724 221.17804 223.25684
 225.31263 227.39243 229.48523 231.58702 233.71182 235.87962 238.13142 240.49721
 243.11401 245.36081 247.35860 249.11940 250.53220 251.65099 252.46879 252.78059
 252.81339 252.58318 251.93898 250.88278 249.48457 247.64137 245.54617 243.37496
 241.16176 238.96156 236.77736 234.61215 232.46795 230.33075 228.35254 226.50534
 224.78414 223.25193 221.87773 220.64553 219.52333 218.47912 217.57892 216.71572
 215.95351 215.12931 214.22311 213.58290 213.02870 213.31224 214.04424 215.74055
 216.61096 217.57256 219.12480 220.75372 222.51918 224.67151 228.03572 231.55858
 234.56648 237.43103 239.92036 242.34270 245.16699 248.51448 252.13481 255.67036
 258.94693 261.98691 264.81711 267.43781 269.82635 272.00003 274.00156 275.86060
 277.59015 279.17416 280.70303 282.06824 283.25497 284.32779 285.33145 286.28790
 287.14938 287.91650 288.58667 289.44070
 366.78100 356.33102 345.75905 334.62107 323.02010 311.21012 299.07615 286.87517
 274.58319 262.47622 250.48124 239.77827 229.89629 220.99631 213.17434 206.17236
 200.00239 194.93641 191.51444 189.55246 188.58548 188.64551 189.47653 190.78056
 192.50158 194.59261 196.85163 199.20665 201.64768 204.12370 206.20773 208.04575
 209.66778 210.80880 211.03382 211.25785 211.19087 210.89190 210.52092 210.14694
 209.75997 209.46599 209.27002 209.13004 209.05407 209.38109 209.76311 210.14814
 210.93716 212.11119 213.35721 215.13624 217.06026 219.09928 221.19031 223.26933
 225.32536 227.40538 229.49840 231.60043 233.72545 235.89348 238.14550 240.51153
 243.12855 245.37557 247.37360 249.13462 250.54765 251.66667 252.48470 252.79672
 252.82974 252.59977 251.95579 250.89982 249.50184 247.65887 245.56389 243.39291
 241.17994 238.97996 236.79599 234.63101 232.48703 230.35006 228.37208 226.52511
 224.80413 223.27216 221.89818 220.66620 219.54423 218.50025 217.60028 216.73730
 215.97533 215.15135 214.24537 213.60540 213.05142 213.35782 214.16296 215.72530
 216.66536 217.79643 219.38434 220.94571 222.72087 224.85361 228.05936 231.60712
 234.46214 237.17310 239.51720 241.90591 244.81000 248.27084 251.96861 255.54706
 258.86530 261.93784 264.80554 267.43991 269.80374 271.92456 273.90594 275.76971
 277.57083 279.29880 280.85547 282.23206 283.44476 284.56311 285.63403 286.60422
 287.47681 288.25381 288.93262 289.79770
 366.78100 356.33067 345.75834 334.62001 323.01867 311.20834 299.07401 286.87268
 274.58035 262.47302 250.47769 239.77436 229.89202 220.99169 213.16936 206.16703
 199.99670 194.93037 191.50804 189.54571 188.57837 188.63804 189.46871 190.77238
 192.49305 194.58372 196.84239 199.19705 201.63772 204.11339 206.19706 208.03473
 209.65640 210.79707 211.02174 211.24540 211.17807 210.87874 210.50741 210.13308
 209.74575 209.45142 209.25509 209.11475 209.03842 209.36509 209.74676 210.13143
 210.92010 212.09377 213.33943 215.11810 217.04177 219.08044 221.17111 223.24978
 225.30545 227.38512 229.47778 231.57945 233.70412 235.87179 238.12346 240.48913
 243.10580 245.35246 247.35013 249.11080 250.52347 251.64214 252.45981 252.77148
 252.80415 252.57381 251.92948 250.87315 249.47482 247.63149 245.53616 243.36483
 241.15150 238.95116 236.76683 234.60150 232.45717 230.31984 228.34151 226.49418
 224.77284 223.24051 221.86618 220.63385 219.51152 218.46719 217.56686 216.70353
 215.94119 215.11686 214.21053 213.57020 213.01587 213.37335 214.32167 215.77368
 216.78616 218.04897 219.65344 221.19125 222.89185 224.95856 228.14693 231.65308
 234.39191 236.93074 239.12686 241.45914 244.42776 248.01758 251.81491 255.43886
 258.77414 261.89072 264.78894 267.43408 269.76651 271.84073 273.79993 275.68753
 277.66983 279.47745 281.06589 282.50412 283.85358 285.04770 286.13718 287.12418
 288.01184 288.80234 289.49289 290.37292
 366.78100 356.33189 345.76079 334.62368 323.02357 311.21447 299.08136 286.88126
 274.59015 262.48404 250.48994 239.78783 229.90672 221.00762 213.18651 206.18541
 200.01630 194.95119 191.53009 189.56898 188.60287 188.66377 189.49566 190.80055
 192.52245 194.61434 196.87424 199.23013 201.67202 204.14892 206.23381 208.07270
 209.69560 210.83749 211.06338 211.28828 211.22217 210.92407 210.55396 210.18085
 209.79475 209.50164 209.30653 209.16743 209.09232 209.42022 209.80311 210.18900
 210.97890 212.15379 213.40068 215.18058 217.10547 219.14536 221.23726 223.31715
 225.37405 227.45494 229.54883 231.65173 233.77762 235.94651 238.19941 240.56630
 243.18419 245.43209 247.43098 249.19288 250.60677 251.72666 252.54556 252.85845
 252.89234 252.66324 252.02013 250.96503 249.56792 247.72581 245.63171 243.46160
 241.24949 239.05039 236.86728 234.70317 232.56007 230.42396 228.44686 226.60075
 224.88064 223.34954 221.97643 220.74532 219.62422 218.58111 217.68200 216.81990
 216.05879 215.23569 214.33058 213.69147 213.13837 213.46149 214.40204 215.90720
 216.92732 218.25111 219.83029 221.36063 223.03381 224.96671 228.26242 231.64017
 234.38029 236.74254 238.75603 241.03136 244.10666 247.81313 251.71762 255.36916
 258.72876 261.86960 264.78519 267.42178 269.71518 271.71909 273.62466 275.76233
 277.87976 279.75446 281.54681 283.14624 284.53040 285.75504 286.87231 287.88449
 288.79483 289.60550 290.31369 291.21619
 366.78100 356.33410 345.76521 334.63031 323.03241 311.22552 299.09462 286.89672
 274.60783 262.50393 250.51203 239.81213 229.93324 221.03634 213.21744 206.21855
 200.05165 194.98875 191.56986 189.61096 188.64706 188.71017 189.54427 190.85137
 192.57548 194.66958 196.93168 199.28978 201.73389 204.21299 206.30009 208.14120
 209.76630 210.91040 211.13851 211.36561 211.30171 211.00582 210.63792 210.26702
 209.88313 209.59223 209.39933 209.26244 209.18954 209.51964 209.90474 210.29285
 211.08495 212.26205 213.51116 215.29326 217.22036 219.26247 221.35657 223.43867
 225.49778 227.58088 229.67698 231.78209 233.91019 236.08129 238.33639 240.70550
 243.32560 245.57570 247.57681 249.34091 250.75701 251.87912 252.70022 253.01532
 253.05143 252.82453 252.18363 251.13074 249.73584 247.89594 245.80404 243.63615
 241.42625 239.22935 237.04846 234.88656 232.74566 230.61177 228.63687 226.79297
 225.07508 223.54618 222.17528 220.94639 219.82749 218.78659 217.88970 217.02980
 216.27090 215.45000 214.54711 213.91021 213.35931 213.58658 214.44806 216.09163
 217.04463 218.34096 219.85196 221.46164 223.13896 224.94467 228.40286 231.62335
 234.23441 236.53825 238.50490 240.75209 243.81769 247.64111 251.59860 255.28130
 258.67108 261.82565 264.76303 267.41733 269.68341 271.61288 273.69119 276.11874
 278.41125 280.58450 282.46506 284.11633 285.54538 286.80972 287.96323 289.00824
 289.94812 290.78506 291.51620 292.44797
 366.78100 356.33378 345.76456 334.62933 323.03111 311.22389 299.09267 286.89444
 274.60522 262.50100 250.50878 239.80855 229.92933 221.03211 213.21289 206.21367
 200.04644 194.98322 191.56400 189.60478 188.64055 188.70333 189.53711 190.84389
 192.56766 194.66144 196.92322 199.28100 201.72477 204.20355 206.29033 208.13111
 209.75589 210.89966 211.12744 211.35422 211.29000 210.99377 210.62555 210.25433
 209.87011 209.57888 209.38566 209.24844 209.17522 209.50500 209.88977 210.27755
 211.06933 212.24611 213.49488 215.27666 217.20344 219.24522 221.33899 223.42077
 225.47955 227.56233 229.65810 231.76288 233.89066 236.06144 238.31622 240.68499
 243.30477 245.55455 247.55533 249.31910 250.73488 251.85666 252.67744 252.99221
 253.02799 252.80077 252.15955 251.10633 249.71110 247.87088 245.77866 243.61044
 241.40021 239.20299 237.02177 234.85955 232.71832 230.58410 228.60888 226.76466
 225.04643 223.51721 222.14599 220.91677 219.79755 218.75632 217.85910 216.99888
 216.23966 215.41843 214.51521 213.87799 213.32677 213.57565 214.47316 216.28908
 217.14098 218.42708 219.99229 221.51572 223.06624 225.17159 228.38911 231.68532
 234.27434 236.35883 238.12233 240.31493 243.49951 247.43117 251.47110 255.22675
 258.63312 261.81708 264.77982 267.38782 269.57556 271.53043 273.66702 276.06546
 278.20499 280.15948 282.02872 283.67007 285.09048 286.34723 287.49377 288.53250
 289.46671 290.29861 291.02536 291.95151
 366.78100 356.32908 345.75516 334.61524 323.01233 311.20041 299.06449 286.86157
 274.56765 262.45873 250.46182 239.75690 229.87298 220.97106 213.14714 206.14322
 199.97131 194.90339 191.47947 189.51555 188.54663 188.60471 189.43380 190.73588
 192.45496 194.54404 196.80112 199.15420 201.59329 204.06737 206.14945 207.98553
 209.60561 210.74469 210.96778 211.18986 211.12094 210.82002 210.44710 210.07118
 209.68226 209.38635 209.18843 209.04651 208.96859 209.29367 209.67375 210.05684
 210.84392 212.01600 213.26008 215.03716 216.95924 218.99633 221.08541 223.16249
 225.21657 227.29465 229.38573 231.48582 233.60890 235.77498 238.02506 240.38914
 243.00422 245.24931 247.24539 249.00447 250.41555 251.53263 252.34871 252.65880
 252.68988 252.45796 251.81204 250.75412 249.35420 247.50929 245.41237 243.23945
 241.02453 238.82261 236.63669 234.46977 232.32386 230.18494 228.20502 226.35610
 224.63318 223.09926 221.72335 220.48943 219.36551 218.31959 217.41767 216.55275
 215.78884 214.96292 214.05500 213.41308 212.85716 213.33966 214.57719 216.52087
 217.09953 217.96593 220.00383 221.57341 223.12866 225.24200 228.48547 231.49690
 233.99065 236.04492 237.86540 240.13516 243.33038 247.23148 251.28268 255.11105
 258.58960 261.80838 264.78629 267.40475 269.65793 271.71423 273.72446 275.75241
 277.80588 279.60220 281.16116 282.54391 283.75882 284.87805 285.94165 286.90518
 287.77179 288.54352 289.21765 290.07678
 366.78100 356.32688 345.75077 334.60865 323.00353 311.18942 299.05130 286.84618
 274.55007 262.43895 250.43983 239.73272 229.84660 220.94248 213.11637 206.11025
 199.93613 194.86602 191.43990 189.47378 188.50267 188.55855 189.38543 190.68532
 192.40220 194.48908 196.74397 199.09485 201.53173 204.00362 206.08350 207.91738
 209.53527 210.67215 210.89303 211.11292 211.04180 210.73868 210.36357 209.98545
 209.59433 209.29621 209.09610 208.95198 208.87186 209.19475 209.57263 209.95351
 210.73840 211.90828 213.15016 214.92505 216.84493 218.87981 220.96670 223.04158
 225.09346 227.16935 229.25823 231.35611 233.47700 235.64088 237.88876 240.25065
 242.86353 245.10641 247.10030 248.85718 250.26606 251.38095 252.19483 252.50271
 252.53160 252.29748 251.64936 250.58925 249.18713 247.34001 245.24090 243.06578
 240.84866 238.64455 236.45643 234.28731 232.13920 229.99808 228.01596 226.16485
 224.43973 222.90361 221.52550 220.28938 219.16326 218.11515 217.21103 216.34391
 215.57780 214.74968 213.83956 213.19545 212.63733 213.23035 214.63141 216.62706
 217.49855 218.21535 220.11069 221.73589 223.21352 225.24594 228.56306 231.36163
 233.80101 235.75659 237.44592 239.68149 243.01376 247.08063 251.22121 255.08427
 258.58035 261.79797 264.80667 267.47488 269.77029 271.80685 273.79315 275.75571
 277.62375 279.31537 280.82504 282.16348 283.35236 284.32764 285.05771 285.71692
 286.45020 287.15582 287.82788 288.68848
 366.78100 356.32641 345.74983 334.60724 323.00165 311.18707 299.04848 286.84289
 274.54631 262.43472 250.43513 239.72755 229.84096 220.93637 213.10979 206.10320
 199.92861 194.85803 191.43144 189.46485 188.49327 188.54868 189.37509 190.67451
 192.39092 194.47733 196.73175 199.08216 201.51857 203.98999 206.06940 207.90281
 209.52023 210.65664 210.87705 211.09647 211.02488 210.72129 210.34571 209.96712
 209.57553 209.27695 209.07636 208.93177 208.85119 209.17360 209.55101 209.93143
 210.71584 211.88525 213.12667 214.90108 216.82049 218.85491 220.94132 223.01573
 225.06715 227.14256 229.23097 231.32839 233.44880 235.61221 237.85963 240.22104
 242.83345 245.07587 247.06928 248.82569 250.23411 251.34852 252.16193 252.46935
 252.49776 252.26317 251.61459 250.55400 249.15141 247.30383 245.20424 243.02865
 240.81107 238.60648 236.41789 234.24831 232.09972 229.95813 227.97555 226.12396
 224.39837 222.86179 221.48320 220.24661 219.12003 218.07144 217.16685 216.29927
 215.53268 214.70409 213.79351 213.14892 212.59033 213.21837 214.70218 216.69562
 217.67551 218.46811 220.18095 221.89325 223.37427 225.34825 228.51993 231.32971
 233.58836 235.43048 237.06425 239.34082 242.81212 246.98811 251.17105 255.06084
 258.56512 261.79193 264.78979 267.45959 269.75302 271.78134 273.76035 275.70978
 277.58871 279.28406 280.75824 282.03677 283.21652 284.26779 285.07791 285.60397
 286.27878 286.96774 287.59744 288.46353
 366.78100 356.32651 345.75003 334.60754 323.00205 311.18757 299.04908 286.84359
 274.54710 262.43562 250.43613 239.72864 229.84216 220.93767 213.11118 206.10470
 199.93021 194.85972 191.43324 189.46675 188.49526 188.55078 189.37729 190.67680
 192.39331 194.47983 196.73434 199.08485 201.52137 203.99288 206.07239 207.90591
 209.52342 210.65993 210.88045 211.09996 211.02847 210.72499 210.34950 209.97101
 209.57952 209.28104 209.08055 208.93606 208.85558 209.17809 209.55560 209.93612
 210.72063 211.89014 213.13166 214.90617 216.82568 218.86019 220.94671 223.02122
 225.07273 227.14825 229.23676 231.33427 233.45479 235.61830 237.86581 240.22733
 242.83984 245.08235 247.07587 248.83238 250.24089 251.35540 252.16892 252.47643
 252.50494 252.27046 251.62197 250.56148 249.15900 247.31151 245.21202 243.03654
 240.81905 238.61456 236.42608 234.25659 232.10810 229.96661 227.98413 226.13264
 224.40715 222.87067 221.49218 220.25569 219.12921 218.08072 217.17623 216.30875
 215.54226 214.71377 213.80329 213.15880 212.60031 213.23415 214.73166 216.83444
 217.82843 218.56767 220.26692 222.05096 223.53578 225.44792 228.50151 231.27296
 233.39136 235.06996 236.67186 239.02904 242.62688 246.87192 251.08281 255.02243
 258.56659 261.81009 264.80081 267.46548 269.75479 271.77652 273.72992 275.64178
 277.50705 279.20642 280.69009 281.95728 283.00751 284.04178 285.00259 285.55182
 286.28284 286.98032 287.60965 288.48309
 366.78100 356.32649 345.74999 334.60748 323.00198 311.18747 299.04897 286.84346
 274.54696 262.43545 250.43595 239.72844 229.84194 220.93743 213.11093 206.10442
 199.92992 194.85941 191.43291 189.46640 188.49490 188.55039 189.37689 190.67638
 192.39288 194.47937 196.73387 199.08436 201.52086 203.99235 206.07185 207.90534
 209.52284 210.65933 210.87983 211.09932 211.02782 210.72431 210.34881 209.97030
 209.57880 209.28029 209.07979 208.93528 208.85478 209.17727 209.55477 209.93526
 210.71976 211.88925 213.13075 214.90524 216.82474 218.85923 220.94573 223.02022
 225.07172 227.14721 229.23571 231.33320 233.45370 235.61719 237.86469 240.22618
 242.83868 245.08117 247.07467 248.83116 250.23966 251.35415 252.16765 252.47514
 252.50364 252.26913 251.62063 250.56012 249.15762 247.31011 245.21061 243.03510
 240.81760 238.61309 236.42459 234.25508 232.10658 229.96507 227.98257 226.13106
 224.40556 222.86905 221.49055 220.25404 219.12754 218.07903 217.17453 216.30702
 215.54052 214.71201 213.80151 213.15700 212.59850 213.24413 214.76950 216.94836
 217.98857 218.67747 220.42026 222.22705 223.65691 225.54198 228.51909 231.15338
 233.11581 234.64355 236.23923 238.73758 242.46272 246.76114 251.00667 254.99091
 258.57410 261.83246 264.81854 267.47672 269.76334 271.77576 273.68387 275.54541
 277.40060 279.10928 280.59891 281.86392 282.93295 283.96915 284.93607 285.54675
 286.30057 286.99881 287.63080 288.49506
 366.78100 356.32720 345.75139 334.60959 323.00478 311.19098 299.05318 286.84837
 274.55257 262.44176 250.44296 239.73616 229.85035 220.94655 213.12075 206.11494
 199.94114 194.87133 191.44553 189.47973 188.50892 188.56512 189.39231 190.69251
 192.40971 194.49690 196.75210 199.10329 201.54049 204.01269 206.09288 207.92708
 209.54528 210.68247 210.90367 211.12386 211.05306 210.75026 210.37545 209.99765
 209.60684 209.30904 209.10924 208.96543 208.88563 209.20882 209.58702 209.96822
 210.75341 211.92361 213.16580 214.94100 216.86120 218.89639 220.98359 223.05879
 225.11098 227.18718 229.27637 231.37457 233.49577 235.65996 237.90816 240.27035
 242.88355 245.12675 247.12094 248.87814 250.28733 251.40253 252.21673 252.52492
 252.55412 252.32032 251.67251 250.61271 249.21090 247.36410 245.26530 243.09049
 240.87369 238.66988 236.48208 234.31328 232.16547 230.02467 228.04286 226.19206
 224.46726 222.93145 221.55365 220.31784 219.19204 218.14424 217.24043 216.37363
 215.60783 214.78002 213.87022 213.22641 212.66861 213.29179 214.76416 217.07137
 218.16495 218.78528 220.57625 222.41154 223.83147 225.62001 228.48846 230.99454
 232.80954 234.22797 235.86040 238.48499 242.31812 246.65926 250.94547 254.96632
 258.57956 261.85098 264.82956 267.47513 269.75891 271.76447 273.62900 275.44690
 277.29553 279.00235 280.48547 281.75858 282.88614 283.92889 284.89398 285.62024
 286.37903 287.07773 287.71152 288.57285
 366.78100 356.32732 345.75165 334.60997 323.00529 311.19162 299.05394 286.84926
 274.55359 262.44291 250.44424 239.73756 229.85188 220.94821 213.12253 206.11685
 199.94318 194.87350 191.44782 189.48215 188.51147 188.56779 189.39512 190.69544
 192.41276 194.50009 196.75541 199.10673 201.54406 204.01638 206.09671 207.93103
 209.54935 210.68668 210.90800 211.12832 211.05765 210.75497 210.38029 210.00262
 209.61194 209.31426 209.11459 208.97091 208.89123 209.21456 209.59288 209.97420
 210.75953 211.92985 213.17218 214.94750 216.86782 218.90315 220.99047 223.06579
 225.11812 227.19444 229.28376 231.38209 233.50341 235.66773 237.91606 240.27838
 242.89170 245.13503 247.12935 248.88667 250.29600 251.41132 252.22565 252.53397
 252.56329 252.32962 251.68194 250.62226 249.22059 247.37391 245.27523 243.10056
 240.88388 238.68020 236.49253 234.32385 232.17617 230.03550 228.05382 226.20315
 224.47847 222.94279 221.56512 220.32944 219.20376 218.15609 217.25241 216.38573
 215.62006 214.79238 213.88270 213.23903 212.68135 213.31543 214.81351 217.06116
 218.45638 218.97322 220.67749 222.52306 223.88094 225.67281 228.51201 230.88126
 232.52769 233.81816 235.46262 238.25117 242.19881 246.57138 250.89734 254.94975
 258.58661 261.86450 264.83041 267.45322 269.72882 271.73117 273.55740 275.33264
 277.16776 278.87787 280.37131 281.71387 282.88931 283.93500 284.90021 285.77029
 286.54651 287.23874 287.85419 288.68253
 366.78100 356.32698 345.75095 334.60893 323.00391 311.18988 299.05186 286.84683
 274.55081 262.43979 250.44076 239.73374 229.84772 220.94369 213.11767 206.11165
 199.93762 194.86760 191.44157 189.47555 188.50453 188.56050 189.38748 190.68746
 192.40443 194.49141 196.74639 199.09736 201.53434 204.00631 206.08629 207.92027
 209.53824 210.67522 210.89620 211.11617 211.04515 210.74213 210.36710 209.98908
 209.59805 209.30003 209.10001 208.95598 208.87596 209.19894 209.57691 209.95789
 210.74287 211.91284 213.15482 214.92979 216.84977 218.88475 220.97172 223.04670
 225.09868 227.17465 229.26363 231.36161 233.48258 235.64656 237.89453 240.25651
 242.86949 245.11246 247.10644 248.86342 250.27239 251.38737 252.20135 252.50932
 252.53830 252.30427 251.65625 250.59623 249.19420 247.34718 245.24816 243.07313
 240.85611 238.65209 236.46406 234.29504 232.14702 230.00599 228.02397 226.17294
 224.44792 222.91190 221.53387 220.29785 219.17183 218.12380 217.21978 216.35276
 215.58673 214.75871 213.84868 213.20466 212.64664 213.31555 214.89592 217.03044
 218.60925 219.34038 220.84764 222.55066 223.90533 225.75841 228.54977 230.76291
 232.16447 233.32259 235.07184 238.06831 242.11316 246.50795 250.85551 254.93057
 258.58875 261.87137 264.82034 267.41776 269.68872 271.69797 273.49625 275.25803
 277.05942 278.76959 280.31409 281.67868 282.86075 283.91559 284.89200 285.77625
 286.56122 287.25861 287.87781 288.71741
 366.78100 356.32737 345.75174 334.61011 323.00548 311.19185 299.05422 286.84959
 274.55396 262.44332 250.44469 239.73806 229.85243 220.94880 213.12317 206.11754
 199.94391 194.87428 191.44865 189.48302 188.51239 188.56876 189.39613 190.69650
 192.41387 194.50124 196.75661 199.10797 201.54534 204.01771 206.09808 207.93245
 209.55082 210.68819 210.90956 211.12993 211.05930 210.75667 210.38204 210.00441
 209.61378 209.31615 209.11652 208.97289 208.89326 209.21662 209.59499 209.97636
 210.76173 211.93210 213.17447 214.94984 216.87021 218.90558 220.99295 223.06832
 225.12069 227.19706 229.28643 231.38480 233.50617 235.67054 237.91891 240.28127
 242.89464 245.13801 247.13238 248.88975 250.29912 251.41449 252.22886 252.53723
 252.56660 252.33297 251.68534 250.62571 249.22408 247.37745 245.27882 243.10419
 240.88755 238.68392 236.49629 234.32766 232.18003 230.03940 228.05777 226.20714
 224.48251 222.94688 221.56925 220.33362 219.20799 218.16036 217.25673 216.39010
 215.62447 214.79684 213.88720 213.24357 212.68594 213.35007 214.91911 217.10052
 218.66792 219.63440 221.04260 222.60674 223.98763 225.85963 228.60181 230.71661
 231.76631 232.70813 234.74832 237.94293 242.03372 246.45490 250.81105 254.90341
 258.58429 261.87234 264.80569 267.38052 269.65387 271.69229 273.50128 275.20474
 276.99786 278.65671 280.20102 281.56448 282.74765 283.80121 284.77969 285.66989
 286.47168 287.17633 287.80695 288.65530
 366.78100 356.32797 345.75294 334.61191 323.00788 311.19485 299.05783 286.85380
 274.55877 262.44874 250.45071 239.74468 229.85965 220.95662 213.13159 206.12656
 199.95353 194.88451 191.45948 189.49445 188.52442 188.58139 189.40936 190.71033
 192.42830 194.51627 196.77224 199.12422 201.56219 204.03516 206.11613 207.95110
 209.57007 210.70804 210.93001 211.15098 211.08095 210.77892 210.40490 210.02787
 209.63784 209.34081 209.14178 208.99875 208.91972 209.24369 209.62266 210.00463
 210.79060 211.96158 213.20455 214.98052 216.90149 218.93746 221.02543 223.10140
 225.15437 227.23134 229.32131 231.42029 233.54226 235.70723 237.95620 240.31917
 242.93314 245.17711 247.17208 248.93005 250.34002 251.45599 252.27097 252.57994
 252.60991 252.37688 251.72985 250.67082 249.26979 247.42376 245.32573 243.15170
 240.93567 238.73265 236.54562 234.37759 232.23056 230.09053 228.10950 226.25947
 224.53544 223.00041 221.62338 220.38836 219.26333 218.21630 217.31327 216.44724
 215.68221 214.85518 213.94615 213.30312 212.74609 213.39433 214.92586 217.19838
 218.71843 219.87611 221.26344 222.71638 224.10381 225.91959 228.63045 230.64273
 231.40225 232.16376 234.45816 237.82738 241.95425 246.39803 250.75999 254.86623
 258.56442 261.85934 264.78375 267.34750 269.63037 271.68732 273.46350 275.16830
 276.88071 278.55112 280.09402 281.45822 282.63971 283.69025 284.64453 285.53204
 286.35669 287.08923 287.71667 288.57571
 366.78100 356.32846 345.75392 334.61338 323.00984 311.19730 299.06076 286.85722
 274.56268 262.45314 250.45560 239.75006 229.86552 220.96298 213.13844 206.13390
 199.96136 194.89282 191.46829 189.50375 188.53421 188.59167 189.42013 190.72159
 192.44005 194.52851 196.78497 199.13743 201.57589 204.04935 206.13081 207.96627
 209.58573 210.72419 210.94665 211.16811 211.09857 210.79703 210.42349 210.04695
 209.65741 209.36087 209.16233 209.01979 208.94125 209.26571 209.64517 210.02763
 210.81409 211.98555 213.22901 215.00547 216.92693 218.96340 221.05186 223.12832
 225.18178 227.25924 229.34970 231.44916 233.57162 235.73708 237.98654 240.35000
 242.96446 245.20892 247.20438 248.96284 250.37330 251.48976 252.30522 252.61468
 252.64514 252.41260 251.76606 250.70752 249.30698 247.46144 245.36390 243.19036
 240.97482 238.77228 236.58574 234.41820 232.27166 230.13212 228.15158 226.30204
 224.57851 223.04397 221.66743 220.43289 219.30835 218.26181 217.35927 216.49373
 215.72919 214.90265 213.99411 213.35157 212.79503 213.43459 214.94560 217.27194
 218.78680 220.07596 221.49593 222.88448 224.23630 225.94144 228.60799 230.50697
 231.06470 231.71426 234.17154 237.70375 241.88658 246.34599 250.71385 254.82767
 258.53424 261.82788 264.74069 267.29187 269.58234 271.66049 273.42960 275.06177
 276.76599 278.49133 280.04230 281.40857 282.59402 283.64633 284.60605 285.49121
 286.30975 287.05350 287.68115 288.54541
 366.78100 356.32879 345.75457 334.61436 323.01114 311.19893 299.06271 286.85950
 274.56529 262.45607 250.45886 239.75364 229.86943 220.96721 213.14300 206.13879
 199.96657 194.89836 191.47414 189.50993 188.54072 188.59850 189.42729 190.72907
 192.44786 194.53664 196.79343 199.14622 201.58500 204.05879 206.14057 207.97636
 209.59614 210.73493 210.95772 211.17950 211.11029 210.80907 210.43586 210.05964
 209.67043 209.37422 209.17600 209.03379 208.95557 209.28036 209.66014 210.04293
 210.82972 212.00150 213.24529 215.02207 216.94386 218.98065 221.06943 223.14622
 225.20000 227.27779 229.36857 231.46836 233.59115 235.75693 238.00672 240.37050
 242.98529 245.23007 247.22586 248.98465 250.39543 251.51222 252.32800 252.63779
 252.66857 252.43636 251.79015 250.73193 249.33172 247.48650 245.38929 243.21607
 241.00086 238.79865 236.61243 234.44522 232.29900 230.15979 228.17958 226.33036
 224.60715 223.07293 221.69672 220.46250 219.33829 218.29208 217.38986 216.52465
 215.76043 214.93422 214.02600 213.38379 212.82758 213.46864 214.98320 217.31548
 218.86703 220.24147 221.71785 223.09056 224.38786 225.96577 228.55193 230.32362
 230.74184 231.33418 233.90016 237.57707 241.82350 246.29300 250.66537 254.78635
 258.50214 261.79822 264.70547 267.24515 269.53989 271.64172 273.41849 274.72006
 276.67511 278.46777 280.02206 281.39050 282.57669 283.62961 284.59293 285.47699
 286.28687 287.02271 287.65955 288.52640
 366.78100 356.32904 345.75508 334.61511 323.01215 311.20019 299.06423 286.86126
 274.56730 262.45834 250.46138 239.75642 229.87245 220.97049 213.14653 206.14257
 199.97061 194.90264 191.47868 189.51472 188.54576 188.60379 189.43283 190.73487
 192.45391 194.54295 196.79998 199.15302 201.59206 204.06610 206.14813 207.98417
 209.60421 210.74325 210.96629 211.18832 211.11936 210.81840 210.44544 210.06948
 209.68051 209.38455 209.18659 209.04463 208.96666 209.29170 209.67174 210.05478
 210.84182 212.01385 213.25789 215.03493 216.95697 218.99401 221.08304 223.16008
 225.21412 227.29216 229.38319 231.48323 233.60627 235.77231 238.02235 240.38638
 243.00142 245.24646 247.24250 249.00153 250.41257 251.52961 252.34565 252.65569
 252.68672 252.45476 251.80880 250.75084 249.35088 247.50591 245.40895 243.23599
 241.02103 238.81906 236.63310 234.46614 232.32018 230.18122 228.20125 226.35229
 224.62933 223.09537 221.71940 220.48544 219.36148 218.31552 217.41356 216.54859
 215.78463 214.95867 214.05071 213.40875 212.85278 213.49963 215.02791 217.34145
 218.95457 220.39621 221.91998 223.29683 224.54832 226.01118 228.48244 230.10970
 230.43980 231.01097 233.64728 237.45760 241.76010 246.23561 250.60681 254.73007
 258.45169 261.75027 264.65204 267.17896 269.47150 271.58319 273.31592 274.76492
 276.59787 278.38263 279.94778 281.32230 282.51529 283.57278 284.54242 285.42889
 286.24042 286.97491 287.61932 288.51917
 366.78100 356.32943 345.75586 334.61629 323.01372 311.20215 299.06657 286.86400
 274.57043 262.46186 250.46529 239.76072 229.87715 220.97558 213.15201 206.14844
 199.97687 194.90929 191.48572 189.52215 188.55358 188.61201 189.44144 190.74387
 192.46330 194.55273 196.81016 199.16358 201.60301 204.07744 206.15987 207.99630
 209.61673 210.75616 210.97959 211.20202 211.13345 210.83288 210.46030 210.08473
 209.69616 209.40059 209.20302 209.06145 208.98388 209.30931 209.68974 210.07317
 210.86060 212.03302 213.27745 215.05488 216.97731 219.01474 221.10417 223.18160
 225.23603 227.31446 229.40589 231.50631 233.62974 235.79617 238.04660 240.41103
 243.02646 245.27189 247.26832 249.02775 250.43918 251.55661 252.37303 252.68346
 252.71489 252.48332 251.83775 250.78018 249.38061 247.53604 245.43947 243.26690
 241.05233 238.85075 236.66518 234.49861 232.35304 230.21447 228.23490 226.38633
 224.66376 223.13019 221.75462 220.52105 219.39747 218.35190 217.45033 216.58576
 215.82219 214.99662 214.08905 213.44748 212.89191 213.53859 215.06644 217.35501
 219.04036 220.56030 222.11470 223.48804 224.70662 226.07237 228.41313 229.87688
 230.14868 230.72845 233.41373 237.34698 241.70116 246.17859 250.54442 254.66476
 258.38678 261.68619 264.58746 267.11038 269.41315 271.53848 273.21301 274.75702
 276.53226 278.31091 279.87839 281.25519 282.44998 283.51108 284.48038 285.36652
 286.17606 286.90335 287.54984 288.44876
 366.78100 356.32995 345.75690 334.61785 323.01580 311.20475 299.06970 286.86765
 274.57460 262.46655 250.47050 239.76646 229.88341 220.98236 213.15931 206.15626
 199.98521 194.91816 191.49511 189.53206 188.56401 188.62296 189.45291 190.75586
 192.47581 194.56576 196.82371 199.17766 201.61761 204.09256 206.17551 208.01246
 209.63341 210.77337 210.99732 211.22027 211.15222 210.85217 210.48012 210.10507
 209.71702 209.42197 209.22492 209.08387 209.00682 209.33277 209.71372 210.09767
 210.88562 212.05857 213.30352 215.08147 217.00442 219.04237 221.13232 223.21028
 225.26523 227.34418 229.43613 231.53708 233.66103 235.82798 238.07893 240.44388
 243.05983 245.30578 247.30273 249.06268 250.47463 251.59258 252.40953 252.72048
 252.75243 252.52138 251.87633 250.81928 249.42023 247.57619 245.48014 243.30809
 241.09404 238.89299 236.70794 234.54189 232.39684 230.25879 228.27974 226.43169
 224.70964 223.17659 221.80154 220.56849 219.44544 218.40039 217.49934 216.63529
 215.87224 215.04719 214.14015 213.49910 212.94405 213.58577 215.10191 217.36176
 219.11311 220.72449 222.30522 223.66714 224.85625 226.13872 228.35359 229.64442
 229.86617 230.47589 233.20119 237.24202 241.64539 246.12068 250.47954 254.59175
 258.30725 261.60422 264.50562 267.03207 269.35181 271.49423 273.12897 274.72464
 276.48300 278.25995 279.82721 281.20560 282.40063 283.46161 284.43268 285.32001
 286.12784 286.85831 287.50342 288.40524
 366.78100 356.33053 345.75807 334.61960 323.01814 311.20767 299.07321 286.87174
 274.57928 262.47181 250.47635 239.77288 229.89042 220.98995 213.16749 206.16502
 199.99456 194.92809 191.50563 189.54316 188.57570 188.63523 189.46577 190.76930
 192.48984 194.58037 196.83891 199.19344 201.63398 204.10951 206.19305 208.03058
 209.65212 210.79265 211.01719 211.24072 211.17326 210.87379 210.50233 210.12786
 209.74039 209.44593 209.24946 209.10900 209.03253 209.35907 209.74060 210.12514
 210.91367 212.08721 213.33274 215.11128 217.03481 219.07335 221.16388 223.24242
 225.29795 227.37749 229.47002 231.57156 233.69609 235.86363 238.11516 240.48070
 243.09723 245.34377 247.34130 249.10184 250.51437 251.63291 252.45044 252.76198
 252.79451 252.56405 251.91958 250.86312 249.46465 247.62119 245.52572 243.35425
 241.14079 238.94032 236.75586 234.59039 232.44593 230.30846 228.33000 226.48253
 224.76107 223.22860 221.85414 220.62167 219.49921 218.45474 217.55428 216.69081
 215.92835 215.10388 214.19742 213.55695 213.00249 213.63799 215.13939 217.36082
 219.17744 220.88289 222.49263 223.84288 224.99519 226.20384 228.29959 229.41347
 229.58485 230.24620 233.01497 237.14874 241.59425 246.06407 250.41370 254.51219
 258.21524 261.50494 264.40524 266.93747 269.28009 271.44034 273.06400 274.68698
 276.45364 278.23141 279.79950 281.17758 282.37393 283.43594 284.40759 285.29486
 286.10614 286.83774 287.48288 288.39056
 366.78100 356.33120 345.75940 334.62160 323.02080 311.21100 299.07720 286.87640
 274.58460 262.47781 250.48301 239.78021 229.89841 220.99861 213.17681 206.17501
 200.00521 194.93941 191.51761 189.55581 188.58901 188.64921 189.48041 190.78461
 192.50581 194.59702 196.85622 199.21142 201.65262 204.12882 206.21302 208.05122
 209.67342 210.81462 211.03982 211.26402 211.19722 210.89842 210.52762 210.15382
 209.76702 209.47323 209.27743 209.13763 209.06183 209.38903 209.77123 210.15643
 210.94563 212.11983 213.36603 215.14523 217.06943 219.10863 221.19983 223.27903
 225.33523 227.41543 229.50864 231.61084 233.73604 235.90424 238.15644 240.52264
 243.13984 245.38704 247.38524 249.14644 250.55964 251.67884 252.49704 252.80924
 252.84244 252.61264 251.96885 250.91305 249.51525 247.67245 245.57765 243.40685
 241.19405 238.99425 236.81045 234.64565 232.50185 230.36505 228.38725 226.54045
 224.81965 223.28785 221.91406 220.68226 219.56046 218.51666 217.61686 216.75406
 215.99226 215.16846 214.26266 213.62286 213.06906 213.69582 215.17661 217.35223
 219.24161 221.03201 222.67783 224.02275 225.13017 226.27136 228.25229 229.18507
 229.30161 230.03699 232.85461 237.06654 241.54480 246.00803 250.34584 254.42593
 258.11218 261.39560 264.29660 266.83981 269.20044 271.34958 272.97479 274.68109
 276.43298 278.20935 279.77924 281.15936 282.35645 283.42062 284.39319 285.28082
 286.09445 286.82874 287.47400 288.38129
 366.78100 356.33182 345.76064 334.62345 323.02327 311.21409 299.08091 286.88072
 274.58954 262.48336 250.48918 239.78699 229.90581 221.00663 213.18545 206.18427
 200.01508 194.94990 191.52872 189.56754 188.60135 188.66217 189.49399 190.79881
 192.52062 194.61244 196.87226 199.22808 201.66989 204.14671 206.23153 208.07035
 209.69317 210.83498 211.06080 211.28562 211.21944 210.92125 210.55107 210.17789
 209.79171 209.49852 209.30334 209.16416 209.08898 209.41680 209.79961 210.18543
 210.97525 212.15007 213.39688 215.17670 217.10152 219.14134 221.23315 223.31297
 225.36979 227.45061 229.54443 231.64724 233.77306 235.94188 238.19470 240.56151
 243.17933 245.42715 247.42597 249.18778 250.60160 251.72142 252.54024 252.85306
 252.88687 252.65769 252.01451 250.95933 249.56214 247.71996 245.62578 243.45560
 241.24341 239.04423 236.86105 234.69687 232.55368 230.41750 228.44032 226.59414
 224.87396 223.34277 221.96959 220.73841 219.61723 218.57404 217.67486 216.81268
 216.05150 215.22831 214.32313 213.68395 213.13077 213.75079 215.21571 217.34413
 219.30472 221.16464 222.84904 224.19795 225.26973 226.34753 228.19896 228.95363
 229.02759 229.85551 232.72334 236.99628 241.49684 245.95111 250.27391 254.33017
 257.99612 261.27338 264.18027 266.74472 269.12515 271.25839 272.87842 274.66687
 276.42859 278.20593 279.77704 281.15756 282.35641 283.41989 284.39554 285.28369
 286.09714 286.83438 287.47897 288.38666
 366.78100 356.33250 345.76201 334.62551 323.02602 311.21752 299.08503 286.88553
 274.59504 262.48954 250.49605 239.79455 229.91406 221.01556 213.19507 206.19457
 200.02608 194.96158 191.54109 189.58059 188.61510 188.67660 189.50911 190.81461
 192.53712 194.62962 196.89013 199.24663 201.68914 204.16664 206.25215 208.09165
 209.71516 210.85766 211.08417 211.30967 211.24418 210.94668 210.57719 210.20469
 209.81920 209.52670 209.33221 209.19371 209.11922 209.44772 209.83123 210.21773
 211.00824 212.18374 213.43125 215.21175 217.13726 219.17776 221.27027 223.35077
 225.40828 227.48978 229.58429 231.68779 233.81430 235.98380 238.23731 240.60481
 243.22332 245.47182 247.47133 249.23383 250.64834 251.76884 252.58835 252.90185
 252.93636 252.70786 252.06537 251.01087 249.61437 247.77288 245.67938 243.50989
 241.29839 239.09990 236.91740 234.75391 232.61141 230.47592 228.49942 226.65393
 224.93443 223.40394 222.03144 220.80095 219.68045 218.63796 217.73946 216.87797
 216.11747 215.29498 214.39048 213.75199 213.19949 213.80977 215.25163 217.33064
 219.36151 221.28261 223.01691 224.36819 225.40627 226.43411 228.15698 228.71594
 228.73921 229.69031 232.61565 236.93297 241.44963 245.89600 250.20329 254.23421
 257.88083 261.15372 264.06888 266.65442 269.04190 271.13824 272.76306 274.66360
 276.44086 278.21918 279.79037 281.17078 282.36902 283.43295 284.40652 285.29639
 286.11057 286.84390 287.48816 288.39371
 366.78100 356.33321 345.76342 334.62764 323.02885 311.22106 299.08927 286.89049
 274.60070 262.49591 250.50312 239.80233 229.92255 221.02476 213.20497 206.20518
 200.03739 194.97361 191.55382 189.59403 188.62924 188.69146 189.52467 190.83088
 192.55409 194.64730 196.90852 199.26573 201.70894 204.18715 206.27337 208.11358
 209.73779 210.88100 211.10821 211.33443 211.26964 210.97285 210.60406 210.23227
 209.84749 209.55570 209.36191 209.22412 209.15034 209.47955 209.86376 210.25097
 211.04218 212.21840 213.46661 215.24782 217.17403 219.21525 221.30846 223.38967
 225.44788 227.53009 229.62531 231.72952 233.85673 236.02694 238.28116 240.64937
 243.26858 245.51779 247.51800 249.28122 250.69643 251.81764 252.63785 252.95206
 252.98728 252.75949 252.11770 251.06391 249.66813 247.82734 245.73455 243.56576
 241.35497 239.15719 236.97540 234.81261 232.67082 230.53604 228.56025 226.71546
 224.99667 223.46688 222.09510 220.86531 219.74552 218.70373 217.80594 216.94516
 216.18537 215.36358 214.45979 213.82201 213.27022 213.87000 215.28702 217.31168
 219.40718 221.40446 223.18771 224.54568 225.55466 226.51767 228.09351 228.48569
 228.48160 229.54443 232.52350 236.88020 241.40857 245.84457 250.13264 254.13379
 257.75690 261.01984 263.93900 266.54834 268.94104 271.00916 272.67899 274.64734
 276.46725 278.24536 279.81229 281.19098 282.38724 283.45120 284.42419 285.31332
 286.12912 286.86417 287.50983 288.41260
 366.78100 356.33341 345.76381 334.62822 323.02962 311.22203 299.09043 286.89184
 274.60224 262.49765 250.50505 239.80446 229.92486 221.02727 213.20767 206.20808
 200.04048 194.97689 191.55729 189.59770 188.63310 188.69551 189.52891 190.83532
 192.55872 194.65213 196.91354 199.27094 201.71435 204.19275 206.27916 208.11956
 209.74397 210.88737 211.11478 211.34118 211.27659 210.97999 210.61140 210.23980
 209.85521 209.56361 209.37002 209.23242 209.15883 209.48823 209.87264 210.26004
 211.05145 212.22785 213.47626 215.25767 217.18407 219.22548 221.31888 223.40029
 225.45869 227.54110 229.63650 231.74091 233.86831 236.03872 238.29312 240.66153
 243.28093 245.53034 247.53074 249.29415 250.70955 251.83096 252.65136 252.96577
 253.00117 252.77358 252.13198 251.07839 249.68280 247.84220 245.74961 243.58101
 241.37042 239.17282 236.99123 234.82863 232.68704 230.55244 228.57685 226.73225
 225.01366 223.48406 222.11247 220.88287 219.76328 218.72168 217.82409 216.96349
 216.20390 215.38230 214.47871 213.84112 213.28952 213.90363 215.35449 217.29965
 219.42076 221.48914 223.35458 224.72842 225.71288 226.63652 228.06537 228.22951
 228.18192 229.42081 232.46097 236.83151 241.36140 245.78265 250.04881 254.01883
 257.62125 260.88428 263.82483 266.46890 268.86978 270.91483 272.48151 274.58487
 276.51004 278.28799 279.84656 281.21838 282.41110 283.47299 284.44379 285.33270
 286.14697 286.88174 287.53027 288.42792
 366.78100 356.33331 345.76362 334.62793 323.02923 311.22154 299.08985 286.89116
 274.60147 262.49678 250.50408 239.80339 229.92370 221.02601 213.20632 206.20663
 200.03894 194.97524 191.55555 189.59586 188.63117 188.69348 189.52679 190.83309
 192.55640 194.64971 196.91102 199.26833 201.71164 204.18995 206.27625 208.11656
 209.74087 210.88418 211.11149 211.33780 211.27310 210.97641 210.60772 210.23603
 209.85134 209.55965 209.36596 209.22826 209.15457 209.48388 209.86819 210.25550
 211.04681 212.22311 213.47142 215.25273 217.17904 219.22035 221.31366 223.39497
 225.45327 227.53558 229.63089 231.73520 233.86251 236.03282 238.28712 240.65543
 243.27474 245.52405 247.52436 249.28767 250.70298 251.82428 252.64459 252.95890
 252.99421 252.76652 252.12483 251.07113 249.67544 247.83475 245.74206 243.57337
 241.36268 239.16499 236.98329 234.82060 232.67891 230.54422 228.56853 226.72384
 225.00514 223.47545 222.10376 220.87407 219.75438 218.71269 217.81500 216.95430
 216.19461 215.37292 214.46923 213.83154 213.27985 213.92026 215.43330 217.31355
 219.42892 221.54697 223.47289 224.88542 225.84512 226.76260 228.06569 228.05786
 227.95425 229.28877 232.39145 236.78343 241.31291 245.71994 249.96315 253.90038
 257.47888 260.73380 263.68152 266.33966 268.71286 270.70493 272.62106 274.56989
 276.58423 278.33566 279.88550 281.25360 282.44336 283.50165 284.47086 285.35822
 286.16989 286.90515 287.55197 288.44135
 366.78100 356.33340 345.76380 334.62821 323.02961 311.22201 299.09041 286.89181
 274.60221 262.49762 250.50502 239.80442 229.92482 221.02722 213.20763 206.20803
 200.04043 194.97683 191.55723 189.59764 188.63304 188.69544 189.52884 190.83524
 192.55864 194.65205 196.91345 199.27085 201.71425 204.19265 206.27906 208.11946
 209.74386 210.88726 211.11466 211.34106 211.27647 210.97987 210.61127 210.23967
 209.85507 209.56348 209.36988 209.23228 209.15868 209.48808 209.87248 210.25989
 211.05129 212.22769 213.47609 215.25749 217.18390 219.22530 221.31870 223.40010
 225.45850 227.54091 229.63631 231.74071 233.86811 236.03851 238.29291 240.66132
 243.28072 245.53012 247.53052 249.29392 250.70933 251.83073 252.65113 252.96553
 253.00093 252.77333 252.13174 251.07814 249.68254 247.84194 245.74934 243.58075
 241.37015 239.17255 236.99095 234.82835 232.68676 230.55216 228.57656 226.73196
 225.01336 223.48376 222.11217 220.88257 219.76297 218.72137 217.82377 216.96318
 216.20358 215.38198 214.47838 213.84078 213.28918 213.94366 215.48993 217.34947
 219.43765 221.60291 223.55774 224.99870 225.93495 226.84079 228.05428 227.97322
 227.83113 229.18282 232.33676 236.75232 241.27730 245.66739 249.88385 253.78661
 257.34167 260.59171 263.55331 266.22711 268.56647 270.51648 272.64716 274.57413
 276.59521 278.36865 279.91379 281.27869 282.46552 283.52161 284.48828 285.37460
 286.18283 286.91748 287.56268 288.45221
 366.78100 356.33392 345.76484 334.62977 323.03169 311.22461 299.09353 286.89546
 274.60638 262.50230 250.51022 239.81014 229.93107 221.03399 213.21491 206.21583
 200.04875 194.98568 191.56660 189.60752 188.64344 188.70637 189.54029 190.84721
 192.57113 194.66505 196.92698 199.28490 201.72882 204.20774 206.29467 208.13559
 209.76051 210.90443 211.13235 211.35928 211.29520 210.99912 210.63104 210.25996
 209.87589 209.58481 209.39173 209.25465 209.18158 209.51150 209.89642 210.28434
 211.07626 212.25319 213.50211 215.28403 217.21095 219.25288 221.34680 223.42872
 225.48764 227.57056 229.66649 231.77141 233.89933 236.07025 238.32517 240.69410
 243.31402 245.56394 247.56486 249.32879 250.74471 251.86663 252.68755 253.00247
 253.03840 252.81132 252.17024 251.11716 249.72208 247.88201 245.78993 243.62185
 241.41177 239.21470 237.03362 234.87154 232.73046 230.59638 228.62131 226.77723
 225.05915 223.53007 222.15900 220.92992 219.81084 218.76976 217.87268 217.01261
 216.25353 215.43245 214.52937 213.89229 213.34122 213.98810 215.51643 217.39703
 219.46744 221.66655 223.64314 225.09352 226.00496 226.89494 228.02734 227.88936
 227.71361 229.08586 232.30380 236.73549 241.24904 245.62125 249.81265 253.68488
 257.22092 260.47049 263.44388 266.11740 268.40286 270.34125 272.65530 274.56509
 276.58804 278.36823 279.91702 281.28287 282.46924 283.52621 284.49243 285.37622
 286.18549 286.91595 287.55920 288.44217
 366.78100 356.33455 345.76610 334.63165 323.03421 311.22776 299.09731 286.89986
 274.61141 262.50796 250.51652 239.81707 229.93862 221.04217 213.22372 206.22527
 200.05883 194.99638 191.57793 189.61948 188.65603 188.71958 189.55414 190.86169
 192.58624 194.68079 196.94334 199.30189 201.74644 204.22600 206.31355 208.15510
 209.78065 210.92520 211.15375 211.38131 211.31786 211.02241 210.65496 210.28451
 209.90106 209.61062 209.41817 209.28172 209.20927 209.53982 209.92537 210.31392
 211.10648 212.28403 213.53358 215.31613 217.24368 219.28623 221.38079 223.46334
 225.52289 227.60644 229.70299 231.80854 233.93710 236.10865 238.36420 240.73375
 243.35430 245.60485 247.60641 249.37096 250.78751 251.91006 252.73161 253.04716
 253.08371 252.85727 252.21682 251.16437 249.76992 247.93047 245.83902 243.67158
 241.46213 239.26568 237.08523 234.92378 232.78333 230.64989 228.67544 226.83199
 225.11454 223.58609 222.21564 220.98720 219.86875 218.82830 217.93185 217.07240
 216.31395 215.49350 214.59106 213.95461 213.40416 214.03944 215.54039 217.43581
 219.51135 221.72430 223.72047 225.18309 226.08128 226.95091 227.99219 227.79468
 227.58629 228.99338 232.28561 236.72812 241.22792 245.58388 249.75313 253.60049
 257.11917 260.36328 263.33926 266.00595 268.25998 270.15796 272.54984 274.55795
 276.58450 278.35608 279.90536 281.27151 282.45963 283.51474 284.48099 285.36383
 286.17029 286.89957 287.54221 288.41772
 366.78100 356.33467 345.76635 334.63202 323.03469 311.22836 299.09804 286.90071
 274.61238 262.50906 250.51773 239.81840 229.94007 221.04375 213.22542 206.22709
 200.06077 194.99844 191.58011 189.62179 188.65846 188.72213 189.55680 190.86448
 192.58915 194.68382 196.94650 199.30517 201.74984 204.22951 206.31719 208.15886
 209.78453 210.92921 211.15788 211.38555 211.32222 211.02690 210.65957 210.28924
 209.90592 209.61559 209.42326 209.28693 209.21461 209.54528 209.93095 210.31963
 211.11230 212.28997 213.53965 215.32232 217.24999 219.29266 221.38734 223.47001
 225.52968 227.61336 229.71003 231.81570 233.94437 236.11605 238.37172 240.74139
 243.36207 245.61274 247.61441 249.37908 250.79576 251.91843 252.74010 253.05578
 253.09245 252.86612 252.22579 251.17347 249.77914 247.93981 245.84849 243.68116
 241.47183 239.27551 237.09518 234.93385 232.79352 230.66020 228.68587 226.84254
 225.12522 223.59689 222.22656 220.99823 219.87991 218.83958 217.94325 217.08393
 216.32560 215.50527 214.60294 213.96662 213.41629 214.06143 215.58566 217.48242
 219.54944 221.75111 223.76231 225.25385 226.17532 227.03659 227.97681 227.72600
 227.48209 228.91069 232.27171 236.71939 241.20177 245.53847 249.68297 253.50330
 257.00443 260.24457 263.22101 265.86884 268.09796 270.24265 272.49713 274.55212
 276.56699 278.33490 279.88519 281.25119 282.43878 283.49356 284.45877 285.34109
 286.14694 286.87662 287.51547 288.38947
 366.78100 356.33435 345.76571 334.63106 323.03341 311.22677 299.09612 286.89847
 274.60982 262.50618 250.51453 239.81488 229.93624 221.03959 213.22094 206.22230
 200.05565 194.99300 191.57436 189.61571 188.65206 188.71541 189.54977 190.85712
 192.58147 194.67583 196.93818 199.29653 201.74089 204.22024 206.30759 208.14895
 209.77430 210.91865 211.14700 211.37436 211.31071 211.01506 210.64742 210.27677
 209.89312 209.60248 209.40983 209.27318 209.20054 209.53089 209.91624 210.30459
 211.09695 212.27430 213.52365 215.30601 217.23336 219.27571 221.37007 223.45242
 225.51177 227.59513 229.69148 231.79683 233.92518 236.09654 238.35189 240.72124
 243.34160 245.59195 247.59330 249.35766 250.77401 251.89636 252.71772 253.03307
 253.06942 252.84277 252.20213 251.14948 249.75483 247.91519 245.82354 243.65589
 241.44625 239.24960 237.06895 234.90731 232.76666 230.63301 228.65836 226.81472
 225.09707 223.56842 222.19778 220.96913 219.85048 218.80984 217.91319 217.05354
 216.29490 215.47425 214.57160 213.93495 213.38431 214.05736 215.64749 217.55737
 219.58763 221.75206 223.75725 225.28061 226.24863 227.12209 227.97836 227.70143
 227.42825 228.85616 232.26784 236.71674 241.18240 245.50000 249.62099 253.41615
 256.89890 260.13016 263.10196 265.73514 267.95782 270.20169 272.44687 274.58902
 276.54916 278.30780 279.85614 281.22278 282.40884 283.46179 284.42725 285.30765
 286.11108 286.83759 287.47729 288.34500
 366.78100 356.33407 345.76514 334.63022 323.03229 311.22536 299.09443 286.89650
 274.60757 262.50365 250.51172 239.81179 229.93286 221.03593 213.21701 206.21808
 200.05115 194.98822 191.56929 189.61037 188.64644 188.70951 189.54358 190.85065
 192.57472 194.66880 196.93087 199.28894 201.73301 204.21208 206.29916 208.14023
 209.76530 210.90937 211.13744 211.36452 211.30059 211.00466 210.63673 210.26580
 209.88187 209.59095 209.39802 209.26109 209.18816 209.51823 209.90331 210.29138
 211.08345 212.26052 213.50959 215.29166 217.21874 219.26081 221.35488 223.43695
 225.49602 227.57910 229.67517 231.78024 233.90831 236.07938 238.33446 240.70353
 243.32360 245.57367 247.57474 249.33881 250.75489 251.87696 252.69803 253.01310
 253.04917 252.82225 252.18132 251.12839 249.73346 247.89353 245.80161 243.63368
 241.42375 239.22682 237.04589 234.88396 232.74304 230.60911 228.63418 226.79025
 225.07232 223.54340 222.17247 220.94354 219.82461 218.78368 217.88675 217.02683
 216.26790 215.44697 214.54404 213.90711 213.35619 214.05270 215.69829 217.64757
 219.64288 221.75854 223.72235 225.26135 226.29132 227.18939 227.97319 227.68546
 227.39496 228.81766 232.26857 236.71835 241.17068 245.47289 249.57640 253.35182
 256.81924 260.04068 262.99887 265.60126 267.81760 270.12421 272.42340 274.56702
 276.50684 278.26627 279.81332 281.17880 282.36423 283.41644 284.37903 285.25787
 286.06125 286.78537 287.42410 288.28708
 366.78100 356.33402 345.76504 334.63007 323.03209 311.22511 299.09413 286.89616
 274.60718 262.50320 250.51122 239.81125 229.93227 221.03529 213.21631 206.21734
 200.05036 194.98738 191.56840 189.60943 188.64545 188.70847 189.54249 190.84952
 192.57354 194.66756 196.92958 199.28761 201.73163 204.21065 206.29767 208.13870
 209.76372 210.90774 211.13576 211.36278 211.29881 211.00283 210.63485 210.26387
 209.87990 209.58892 209.39594 209.25896 209.18599 209.51601 209.90103 210.28905
 211.08108 212.25810 213.50712 215.28914 217.21617 219.25819 221.35221 223.43423
 225.49326 227.57628 229.67230 231.77732 233.90535 236.07637 238.33139 240.70041
 243.32043 245.57046 247.57148 249.33550 250.75152 251.87355 252.69457 253.00959
 253.04561 252.81864 252.17766 251.12468 249.72970 247.88973 245.79775 243.62977
 241.41979 239.22282 237.04184 234.87986 232.73888 230.60491 228.62993 226.78595
 225.06797 223.53900 222.16802 220.93904 219.82006 218.77909 217.88211 217.02213
 216.26315 215.44217 214.53920 213.90222 213.35124 214.05872 215.73021 217.74361
 219.72313 221.78568 223.67596 225.20709 226.30620 227.23712 227.95422 227.66196
 227.36824 228.79333 232.27820 236.73036 241.17365 245.46384 249.55342 253.31404
 256.76645 259.97122 262.90155 265.46133 267.67935 270.09207 272.36026 274.54205
 276.45477 278.20972 279.75684 281.12085 282.30521 283.35657 284.31924 285.19849
 286.00116 286.72845 287.37122 288.22763
 366.78100 356.33411 345.76522 334.63033 323.03244 311.22554 299.09465 286.89676
 274.60787 262.50398 250.51209 239.81220 229.93331 221.03641 213.21752 206.21863
 200.05174 194.98885 191.56996 189.61107 188.64718 188.71028 189.54439 190.85150
 192.57561 194.66972 196.93183 199.28994 201.73405 204.21315 206.30026 208.14137
 209.76648 210.91059 211.13870 211.36581 211.30192 211.00603 210.63813 210.26724
 209.88335 209.59246 209.39957 209.26268 209.18979 209.51990 209.90500 210.29311
 211.08522 212.26233 213.51144 215.29355 217.22066 219.26277 221.35687 223.43898
 225.49809 227.58120 229.67731 231.78242 233.91053 236.08164 238.33674 240.70585
 243.32596 245.57607 247.57718 249.34129 250.75740 251.87951 252.70061 253.01572
 253.05183 252.82494 252.18405 251.13116 249.73627 247.89638 245.80449 243.63659
 241.42670 239.22981 237.04892 234.88703 232.74614 230.61225 228.63736 226.79346
 225.07557 223.54668 222.17579 220.94690 219.82801 218.78712 217.89023 217.03033
 216.27144 215.45055 214.54766 213.91077 213.35988 214.07059 215.74973 217.84425
 219.83090 221.83008 223.62476 225.12711 226.28879 227.25697 227.91666 227.62567
 227.34393 228.78305 232.29752 236.75397 241.19337 245.47235 249.54961 253.29755
 256.73224 259.91391 262.81735 265.35376 267.56805 270.03430 272.28995 274.48676
 276.38724 278.13647 279.67831 281.04120 282.22372 283.27359 284.23114 285.10953
 285.91370 286.64053 287.27817 288.11359
 366.78100 356.33427 345.76554 334.63081 323.03308 311.22635 299.09562 286.89789
 274.60915 262.50542 250.51369 239.81396 229.93523 221.03850 213.21977 206.22104
 200.05431 194.99158 191.57285 189.61412 188.65039 188.71366 189.54792 190.85519
 192.57946 194.67373 196.93600 199.29427 201.73854 204.21781 206.30508 208.14635
 209.77162 210.91589 211.14416 211.37143 211.30770 211.01196 210.64423 210.27350
 209.88977 209.59904 209.40631 209.26958 209.19685 209.52712 209.91239 210.30066
 211.09293 212.27020 213.51947 215.30173 217.22900 219.27127 221.36554 223.44781
 225.50708 227.59035 229.68662 231.79189 233.92016 236.09143 238.34670 240.71597
 243.33624 245.58651 247.58777 249.35204 250.76831 251.89058 252.71185 253.02712
 253.06339 252.83666 252.19593 251.14320 249.74847 247.90874 245.81701 243.64928
 241.43954 239.24281 237.06208 234.90035 232.75962 230.62589 228.65116 226.80743
 225.08970 223.56097 222.19024 220.96151 219.84278 218.80205 217.90531 217.04558
 216.28685 215.46612 214.56339 213.92666 213.37593 214.08398 215.75685 217.94724
 219.95850 221.88487 223.57399 225.03566 226.24997 227.25558 227.86584 227.57849
 227.31712 228.77789 232.32092 236.78532 241.22365 245.49063 249.55363 253.28590
 256.70026 259.85922 262.74677 265.28897 267.52515 270.00220 272.24725 274.40421
 276.30087 278.04126 279.57590 280.93427 282.11560 283.16223 284.11844 284.99356
 285.79767 286.52786 287.15509 287.99249
 366.78100 356.33446 345.76592 334.63138 323.03384 311.22730 299.09676 286.89922
 274.61069 262.50715 250.51561 239.81607 229.93753 221.04099 213.22245 206.22391
 200.05737 194.99483 191.57629 189.61775 188.65421 188.71767 189.55213 190.85960
 192.58406 194.67852 196.94098 199.29944 201.74390 204.22336 206.31082 208.15228
 209.77774 210.92220 211.15066 211.37812 211.31458 211.01904 210.65150 210.28097
 209.89743 209.60689 209.41435 209.27781 209.20527 209.53573 209.92119 210.30965
 211.10211 212.27957 213.52903 215.31149 217.23895 219.28141 221.37588 223.45834
 225.51780 227.60126 229.69772 231.80318 233.93164 236.10310 238.35856 240.72802
 243.34848 245.59894 247.60040 249.36486 250.78132 251.90379 252.72525 253.04071
 253.07717 252.85063 252.21009 251.15755 249.76301 247.92347 245.83193 243.66439
 241.45485 239.25831 237.07777 234.91623 232.77569 230.64216 228.66762 226.82408
 225.10654 223.57800 222.20746 220.97892 219.86038 218.81984 217.92330 217.06376
 216.30522 215.48468 214.58214 213.94560 213.39507 214.09673 215.75449 218.05130
 220.10602 221.94568 223.52588 224.94060 226.18993 227.23036 227.80211 227.51816
 227.28470 228.77777 232.35103 236.82707 241.26852 245.52354 249.57204 253.28978
 256.68552 259.82300 262.69678 265.23853 267.47281 269.96420 272.17963 274.31326
 276.20193 277.93024 279.45441 280.80768 281.98267 283.02795 283.98148 284.85522
 285.66180 286.39304 287.01767 287.84851
 366.78100 356.33455 345.76609 334.63164 323.03418 311.22773 299.09727 286.89982
 274.61137 262.50791 250.51646 239.81700 229.93855 221.04209 213.22364 206.22518
 200.05873 194.99628 191.57782 189.61937 188.65591 188.71946 189.55400 190.86155
 192.58610 194.68064 196.94319 199.30173 201.74628 204.22582 206.31337 208.15491
 209.78046 210.92501 211.15355 211.38110 211.31764 211.02219 210.65473 210.28428
 209.90083 209.61037 209.41792 209.28146 209.20901 209.53955 209.92510 210.31365
 211.10619 212.28374 213.53328 215.31583 217.24337 219.28592 221.38046 223.46301
 225.52256 227.60610 229.70265 231.80819 233.93674 236.10828 238.36383 240.73338
 243.35392 245.60447 247.60601 249.37056 250.78710 251.90965 252.73120 253.04674
 253.08329 252.85683 252.21638 251.16392 249.76947 247.93001 245.83856 243.67111
 241.46165 239.26520 237.08474 234.92329 232.78283 230.64938 228.67493 226.83147
 225.11402 223.58556 222.21511 220.98665 219.86820 218.82774 217.93129 217.07184
 216.31338 215.49293 214.59047 213.95402 213.40356 214.10286 215.75507 218.15340
 220.26842 222.02287 223.47711 224.83604 226.11919 227.18329 227.70898 227.42336
 227.23392 228.78325 232.38866 236.87904 241.32930 245.57277 249.60580 253.31232
 256.68906 259.80231 262.65936 265.20419 267.46414 269.91965 272.09274 274.21393
 276.08713 277.80212 279.31729 280.66553 281.83987 282.88339 283.83389 284.70584
 285.51447 286.24582 286.86554 287.69580
 366.78100 356.33499 345.76699 334.63298 323.03597 311.22997 299.09996 286.90295
 274.61495 262.51194 250.52093 239.82193 229.94392 221.04791 213.22990 206.23190
 200.06589 195.00388 191.58588 189.62787 188.66486 188.72886 189.56385 190.87184
 192.59684 194.69183 196.95482 199.31382 201.75881 204.23880 206.32680 208.16879
 209.79478 210.93978 211.16877 211.39676 211.33375 211.03875 210.67174 210.30173
 209.91873 209.62872 209.43671 209.30071 209.22870 209.55969 209.94569 210.33468
 211.12767 212.30567 213.55566 215.33865 217.26665 219.30964 221.40463 223.48763
 225.54762 227.63161 229.72860 231.83460 233.96359 236.13558 238.39158 240.76157
 243.38256 245.63356 247.63555 249.40054 250.81754 251.94053 252.76252 253.07852
 253.11551 252.88950 252.24950 251.19749 249.80348 247.96448 245.87347 243.70646
 241.49745 239.30145 237.12144 234.96043 232.82043 230.68742 228.71341 226.87041
 225.15340 223.62539 222.25539 221.02738 219.90937 218.86937 217.97336 217.11435
 216.35635 215.53634 214.63433 213.99833 213.44832 214.12721 215.73116 218.26588
 220.45299 222.10909 223.45245 224.74942 226.01495 227.07623 227.59084 227.30795
 227.16971 228.79524 232.43753 236.94109 241.40048 245.63921 249.66133 253.36028
 256.71799 259.79919 262.62878 265.16870 267.44858 269.90610 272.00427 274.11374
 275.96918 277.67062 279.17929 280.51498 281.67200 282.70123 283.64117 284.51160
 285.32849 286.05774 286.67300 287.50552
 366.78100 356.33584 345.76867 334.63551 323.03934 311.23418 299.10502 286.90885
 274.62169 262.51952 250.52936 239.83120 229.95403 221.05887 213.24171 206.24454
 200.07938 195.01821 191.60105 189.64389 188.68172 188.74656 189.58239 190.89123
 192.61707 194.71290 196.97674 199.33657 201.78241 204.26325 206.35208 208.19492
 209.82175 210.96759 211.19743 211.42626 211.36410 211.06993 210.70377 210.33461
 209.95244 209.66328 209.47212 209.33695 209.26579 209.59762 209.98446 210.37430
 211.16813 212.34697 213.59780 215.38164 217.31048 219.35431 221.45015 223.53398
 225.59482 227.67966 229.77749 231.88433 234.01416 236.18700 238.44384 240.81467
 243.43651 245.68835 247.69118 249.45702 250.87485 251.99869 252.82153 253.13836
 253.17620 252.95103 252.31187 251.26071 249.86754 248.02938 245.93921 243.77305
 241.56489 239.36972 237.19056 235.03039 232.89123 230.75907 228.78590 226.94374
 225.22758 223.70041 222.33125 221.10408 219.98692 218.94776 218.05259 217.19443
 216.43726 215.61810 214.71694 214.08177 213.53261 214.17532 215.69383 218.31200
 220.70020 222.30356 223.43991 224.56514 225.82324 226.92818 227.43127 227.20503
 227.14905 228.83264 232.49391 237.01408 241.49486 245.72130 249.72409 253.41597
 256.75565 259.80765 262.63541 265.22601 267.37350 269.85535 271.90997 274.03189
 275.84644 277.51379 279.00290 280.31339 281.45111 282.48691 283.44516 284.32343
 285.11685 285.81650 286.43182 287.25336
 366.78100 356.33762 345.77224 334.64085 323.04647 311.24309 299.11571 286.92133
 274.63595 262.53556 250.54718 239.85080 229.97542 221.08204 213.26665 206.27127
 200.10789 195.04851 191.63313 189.67774 188.71736 188.78398 189.62160 190.93222
 192.65984 194.75745 197.02307 199.38469 201.83231 204.31493 206.40554 208.25016
 209.87878 211.02640 211.25802 211.48864 211.42825 211.13587 210.77149 210.40411
 210.02373 209.73634 209.54696 209.41358 209.34420 209.67782 210.06644 210.45805
 211.25367 212.43429 213.68691 215.47253 217.40314 219.44876 221.54638 223.63200
 225.69462 227.78123 229.88085 231.98947 234.12109 236.29571 238.55433 240.92694
 243.55056 245.80418 247.80880 249.57642 250.99603 252.12165 252.94627 253.26489
 253.30451 253.08113 252.44374 251.39436 250.00298 248.16660 246.07822 243.91383
 241.70745 239.51407 237.33669 235.17831 233.04092 230.91054 228.93916 227.09878
 225.38440 223.85902 222.49163 221.26625 220.15087 219.11349 218.22011 217.36372
 216.60834 215.79096 214.89158 214.25820 213.71082 214.28159 215.64383 218.29012
 220.86487 222.43138 223.45920 224.43019 225.64125 226.75206 227.17889 227.09525
 226.98096 228.84039 232.55518 237.10358 241.61102 245.84679 249.83432 253.51549
 256.83884 259.85150 262.63007 265.15594 267.49765 269.91766 271.87341 273.85477
 275.72614 277.41922 278.93985 280.30493 281.49225 282.54895 283.52829 284.42725
 285.26083 286.03180 286.70526 287.56354
 366.78100 356.33774 345.77247 334.64121 323.04694 311.24368 299.11641 286.92215
 274.63688 262.53662 250.54835 239.85209 229.97682 221.08356 213.26829 206.27303
 200.10976 195.05050 191.63523 189.67997 188.71970 188.78644 189.62417 190.93491
 192.66264 194.76038 197.02611 199.38785 201.83559 204.31832 206.40906 208.25379
 209.88253 211.03026 211.26200 211.49273 211.43247 211.14020 210.77594 210.40867
 210.02841 209.74114 209.55188 209.41861 209.34935 209.68308 210.07182 210.46355
 211.25929 212.44002 213.69276 215.47849 217.40923 219.45497 221.55270 223.63844
 225.70117 227.78791 229.88764 231.99638 234.12811 236.30285 238.56158 240.93432
 243.55805 245.81179 247.81652 249.58426 251.00399 252.12973 252.95446 253.27320
 253.31293 253.08967 252.45240 251.40314 250.01187 248.17561 246.08734 243.92308
 241.71682 239.52355 237.34629 235.18802 233.05076 230.92049 228.94923 227.10896
 225.39470 223.86943 222.50217 221.27690 220.16164 219.12437 218.23111 217.37484
 216.61958 215.80231 214.90305 214.26978 213.72252 214.29797 215.73369 218.31984
 220.76283 222.40532 223.58110 224.42796 225.53238 226.70752 227.00700 227.05359
 226.60304 228.68005 232.53514 237.14220 241.70294 245.96536 249.96449 253.66533
 256.99799 259.99039 262.76489 265.22437 267.41742 269.78757 271.90607 273.82742
 275.55316 277.17953 278.63437 279.94098 281.07971 282.09592 283.01578 283.84326
 284.58749 285.25021 285.82916 286.56699
 366.78100 356.33563 345.76826 334.63489 323.03851 311.23314 299.10377 286.90740
 274.62003 262.51766 250.52728 239.82891 229.95154 221.05617 213.23880 206.24143
 200.07605 195.01468 191.59731 189.63994 188.67757 188.74220 189.57782 190.88645
 192.61208 194.70771 196.97134 199.33097 201.77660 204.25722 206.34585 208.18848
 209.81511 210.96074 211.19037 211.41899 211.35662 211.06225 210.69588 210.32651
 209.94414 209.65476 209.46339 209.32802 209.25665 209.58828 209.97491 210.36454
 211.15816 212.33679 213.58742 215.37105 217.29968 219.34331 221.43893 223.52256
 225.58319 227.66782 229.76545 231.87208 234.00170 236.17433 238.43096 240.80159
 243.42322 245.67485 247.67747 249.44310 250.86073 251.98436 252.80699 253.12362
 253.16125 252.93587 252.29650 251.24513 249.85176 248.01339 245.92302 243.75664
 241.54827 239.35290 237.17353 235.01316 232.87379 230.74141 228.76804 226.92567
 225.20930 223.68193 222.31256 221.08519 219.96781 218.92844 218.03307 217.17470
 216.41733 215.59796 214.69658 214.06121 213.51184 214.18959 215.82428 218.33504
 220.95341 222.65268 223.67082 224.51778 225.56006 226.57581 226.95343 226.54686
 226.48778 228.62682 232.53514 237.17720 241.75650 246.00313 250.00346 253.70224
 257.03989 260.03464 262.79568 265.28253 267.45236 269.66498 271.82031 273.72220
 275.51672 277.09500 278.53629 279.82535 280.94220 281.95758 282.90582 283.77347
 284.55554 285.25201 285.86041 286.63577
 366.78100 356.33534 345.76768 334.63402 323.03737 311.23171 299.10205 286.90539
 274.61773 262.51507 250.52441 239.82576 229.94810 221.05244 213.23478 206.23712
 200.07146 195.00980 191.59215 189.63449 188.67183 188.73617 189.57151 190.87985
 192.60519 194.70053 196.96388 199.32322 201.76856 204.24890 206.33724 208.17958
 209.80592 210.95127 211.18061 211.40895 211.34629 211.05163 210.68497 210.31531
 209.93266 209.64300 209.45134 209.31568 209.24402 209.57536 209.96170 210.35105
 211.14439 212.32273 213.57307 215.35641 217.28475 219.32809 221.42344 223.50678
 225.56712 227.65146 229.74880 231.85514 233.98448 236.15682 238.41317 240.78351
 243.40485 245.65619 247.65853 249.42387 250.84121 251.96456 252.78690 253.10324
 253.14058 252.91492 252.27526 251.22360 249.82995 247.99129 245.90063 243.73397
 241.52531 239.32965 237.14999 234.98934 232.84968 230.71702 228.74336 226.90070
 225.18404 223.65638 222.28673 221.05907 219.94141 218.90175 218.00609 217.14743
 216.38977 215.57011 214.66846 214.03280 213.48314 214.17769 215.84720 218.38568
 221.11696 222.78172 223.60863 224.44139 225.51326 226.49765 226.88229 226.56644
 226.42715 228.58173 232.52495 237.21815 241.79903 246.05927 250.03966 253.73285
 257.07315 260.03000 262.74957 265.30292 267.47467 269.61264 271.79285 273.69687
 275.24994 276.78900 278.26184 279.51651 280.57779 281.56491 282.50681 283.34232
 284.02597 284.63477 285.16660 285.84433
 366.78100 356.33785 345.77269 334.64154 323.04739 311.24424 299.11708 286.92293
 274.63778 262.53763 250.54947 239.85332 229.97817 221.08502 213.26986 206.27471
 200.11156 195.05241 191.63725 189.68210 188.72195 188.78880 189.62664 190.93749
 192.66534 194.76319 197.02903 199.39088 201.83873 204.32158 206.41242 208.25727
 209.88612 211.03397 211.26581 211.49666 211.43651 211.14436 210.78020 210.41305
 210.03290 209.74575 209.55659 209.42344 209.35429 209.68814 210.07698 210.46883
 211.26468 212.44553 213.69837 215.48422 217.41507 219.46092 221.55876 223.64461
 225.70746 227.79431 229.89415 232.00300 234.13485 236.30970 238.56854 240.94139
 243.56524 245.81909 247.82393 249.59178 251.01163 252.13748 252.96232 253.28117
 253.32102 253.09787 252.46071 251.41156 250.02041 248.18426 246.09610 243.93195
 241.72580 239.53265 237.35549 235.19734 233.06019 230.93004 228.95888 227.11873
 225.40458 223.87943 222.51227 221.28712 220.17197 219.13482 218.24166 217.38551
 216.63036 215.81321 214.91405 214.28090 213.73375 214.32021 215.80444 218.45512
 221.19553 222.73177 223.55482 224.35600 225.40067 226.38831 226.74506 226.85069
 226.64850 228.74368 232.58517 237.18839 241.76892 246.05800 250.05688 253.75827
 257.10587 260.04333 262.75412 265.37936 267.37289 269.67703 271.78778 273.64407
 275.14163 276.55219 277.86652 279.05490 280.18518 281.21405 282.15543 283.00824
 283.77527 284.45828 285.05496 285.81537
 366.78100 356.33974 345.77648 334.64722 323.05496 311.25370 299.12845 286.93619
 274.65293 262.55467 250.56841 239.87415 230.00089 221.10963 213.29637 206.30311
 200.14186 195.08460 191.67134 189.71808 188.75982 188.82856 189.66830 190.98104
 192.71078 194.81052 197.07826 199.44201 201.89175 204.37649 206.46923 208.31597
 209.94671 211.09645 211.33019 211.56293 211.50467 211.21442 210.85216 210.48690
 210.10864 209.82338 209.63612 209.50486 209.43760 209.77334 210.16408 210.55782
 211.35557 212.53831 213.79305 215.58079 217.51353 219.56127 221.66101 223.74875
 225.81349 227.90223 230.00398 232.11472 234.24846 236.42520 238.68594 241.06068
 243.68642 245.94216 247.94890 249.71864 251.14039 252.26813 253.09487 253.41561
 253.45735 253.23609 252.60083 251.55357 250.16431 248.33005 246.24379 244.08154
 241.87728 239.68602 237.51076 235.35450 233.21924 231.09098 229.12172 227.28346
 225.57120 224.04795 222.68269 221.45943 220.34617 219.31091 218.41965 217.56539
 216.81213 215.99687 215.09961 214.46835 213.92310 214.43582 215.77281 218.42360
 221.38446 222.89819 223.65199 224.40207 225.35518 226.24750 226.61359 226.71648
 226.63986 228.80675 232.66629 237.25710 241.84918 246.15315 250.15816 253.86182
 257.22897 260.16043 262.82416 265.40427 267.42419 269.59998 271.70657 273.50119
 275.03421 276.46454 277.75046 278.93756 280.10718 281.20706 282.21674 283.13141
 283.95407 284.68668 285.32663 286.14221
 366.78100 356.33902 345.77504 334.64505 323.05207 311.25009 299.12411 286.93112
 274.64714 262.54816 250.56118 239.86620 229.99221 221.10023 213.28625 206.29227
 200.13029 195.07230 191.65832 189.70434 188.74536 188.81337 189.65239 190.96441
 192.69343 194.79245 197.05946 199.42248 201.87150 204.35552 206.44754 208.29355
 209.92357 211.07259 211.30561 211.53762 211.47864 211.18766 210.82468 210.45870
 210.07971 209.79373 209.60575 209.47377 209.40579 209.74080 210.13082 210.52384
 211.32086 212.50287 213.75689 215.54391 217.47593 219.52295 221.62196 223.70898
 225.77300 227.86102 229.96203 232.07205 234.20507 236.38109 238.64111 241.01512
 243.64014 245.89516 247.90118 249.67020 251.09121 252.21823 253.04425 253.36427
 253.40528 253.18330 252.54732 251.49934 250.10936 248.27437 246.18739 244.02441
 241.81943 239.62745 237.45146 235.29448 233.15850 231.02952 229.05953 227.22055
 225.50757 223.98359 222.61761 221.39362 220.27964 219.24366 218.35168 217.49670
 216.74271 215.92673 215.02875 214.39677 213.85078 214.41534 215.85037 218.40135
 221.31905 223.00478 223.82599 224.54587 225.44193 226.27080 226.46710 226.32788
 226.29118 228.65511 232.65138 237.28836 241.91063 246.23210 250.25540 253.98727
 257.37997 260.34204 262.99234 265.58578 267.70090 269.55011 271.57343 273.40530
 275.06024 276.47171 277.74261 278.89923 280.07706 281.21173 282.28799 283.26300
 284.13992 284.92084 285.60303 286.47238
 366.78100 356.33793 345.77286 334.64178 323.04771 311.24464 299.11757 286.92350
 274.63842 262.53835 250.55028 239.85421 229.97913 221.08606 213.27099 206.27592
 200.11285 195.05377 191.63870 189.68363 188.72356 188.79049 189.62841 190.93934
 192.66727 194.76520 197.03113 199.39305 201.84098 204.32391 206.41484 208.25977
 209.88869 211.03662 211.26855 211.49948 211.43940 211.14733 210.78326 210.41619
 210.03612 209.74904 209.55997 209.42690 209.35783 209.69176 210.08068 210.47261
 211.26854 212.44947 213.70240 215.48832 217.41925 219.46518 221.56311 223.64903
 225.71196 227.79889 229.89882 232.00775 234.13967 236.31460 238.57353 240.94646
 243.57039 245.82431 247.82924 249.59717 251.01710 252.14303 252.96795 253.28688
 253.32681 253.10374 252.46667 251.41759 250.02652 248.19045 246.10238 243.93830
 241.73223 239.53916 237.36209 235.20402 233.06694 230.93687 228.96580 227.12573
 225.41166 223.88658 222.51951 221.29444 220.17937 219.14230 218.24922 217.39315
 216.63808 215.82101 214.92193 214.28886 213.74179 214.37236 215.95473 218.48134
 221.18515 222.95757 223.96783 224.69092 225.56516 226.37973 226.45866 226.08391
 226.05611 228.50830 232.60114 237.27013 241.87888 246.18764 250.20486 253.93446
 257.33835 260.32605 262.99548 265.63406 267.91293 269.64700 271.52588 273.44635
 275.11819 276.53705 277.74615 278.96124 280.16351 281.32486 282.43747 283.44543
 284.35196 285.15924 285.86447 286.76321
 366.78100 356.33850 345.77400 334.64349 323.04999 311.24749 299.12099 286.92749
 274.64299 262.54348 250.55598 239.86048 229.98598 221.09348 213.27898 206.28447
 200.12197 195.06347 191.64897 189.69447 188.73497 188.80246 189.64096 190.95246
 192.68096 194.77946 197.04596 199.40845 201.85695 204.34045 206.43195 208.27745
 209.90694 211.05544 211.28794 211.51944 211.45994 211.16844 210.80493 210.43843
 210.05893 209.77243 209.58393 209.45143 209.38292 209.71742 210.10692 210.49942
 211.29592 212.47742 213.73091 215.51741 217.44891 219.49541 221.59391 223.68041
 225.74390 227.83140 229.93190 232.04140 234.17390 236.34940 238.60889 240.98239
 243.60689 245.86139 247.86689 249.63538 251.05588 252.18238 253.00788 253.32738
 253.36788 253.14537 252.50887 251.46037 250.06987 248.23437 246.14687 243.98336
 241.77786 239.58536 237.40886 235.25136 233.11486 230.98535 229.01485 227.17535
 225.46185 223.93735 222.57085 221.34634 220.23184 219.19534 218.30284 217.44734
 216.69283 215.87633 214.97783 214.34533 213.79883 214.40456 215.92073 218.53027
 221.31792 222.91315 223.77644 224.57375 225.56474 226.47096 226.61539 226.07161
 225.90678 228.38580 232.56053 237.24181 241.82927 246.13806 250.17873 253.92065
 257.32022 260.29120 262.97961 265.61533 267.95547 269.71820 271.52649 273.42334
 275.11737 276.53271 277.73694 278.97440 280.15878 281.24957 282.33636 283.32089
 284.20636 284.99490 285.68375 286.56158
 366.78100 356.34066 345.77832 334.64998 323.05863 311.25829 299.13395 286.94261
 274.66027 262.56293 250.57758 239.88424 230.01190 221.12156 213.30922 206.31688
 200.15654 195.10019 191.68785 189.73551 188.77817 188.84783 189.68849 191.00214
 192.73280 194.83346 197.10212 199.46678 201.91744 204.40310 206.49675 208.34441
 209.97607 211.12673 211.36139 211.59505 211.53770 211.24836 210.88702 210.52268
 210.14534 209.86100 209.67466 209.54431 209.47797 209.81463 210.20629 210.60095
 211.39961 212.58326 213.83892 215.62758 217.56124 219.60990 221.71056 223.79922
 225.86487 227.95453 230.05719 232.16885 234.30351 236.48117 238.74283 241.11848
 243.74514 246.00180 248.00946 249.78012 251.20278 252.33143 253.15909 253.48075
 253.52341 253.30307 252.66873 251.62239 250.23404 248.40070 246.31536 244.15402
 241.95068 239.76034 237.58599 235.43065 233.29631 231.16897 229.20063 227.36329
 225.65195 224.12960 222.76526 221.54292 220.43058 219.39624 218.50590 217.65255
 216.90021 216.08587 215.18953 214.55919 214.01485 214.53435 215.90054 218.55070
 221.45857 222.96828 223.84215 224.71750 225.67661 226.40974 226.46765 226.07077
 226.02782 228.45338 232.55490 237.21573 241.81310 246.16078 250.23291 253.99695
 257.42664 260.44406 263.10223 265.62335 267.88806 269.73553 271.44846 273.22290
 274.88187 276.25018 277.48169 278.82690 280.10382 281.31982 282.42926 283.43433
 284.33826 285.14322 285.84641 286.74255
 366.78100 356.33947 345.77594 334.64641 323.05388 311.25235 299.12682 286.93429
 274.65076 262.55223 250.56570 239.87117 229.99764 221.10611 213.29258 206.29905
 200.13752 195.07999 191.66646 189.71293 188.75440 188.82287 189.66234 190.97481
 192.70428 194.80375 197.07122 199.43468 201.88415 204.36862 206.46109 208.30756
 209.93803 211.08750 211.32097 211.55344 211.49491 211.20438 210.84185 210.47632
 210.09779 209.81226 209.62473 209.49320 209.42567 209.76114 210.15161 210.54508
 211.34255 212.52502 213.77949 215.56696 217.49943 219.54690 221.64637 223.73384
 225.79831 227.88678 229.98825 232.09872 234.23219 236.40866 238.66913 241.04360
 243.66907 245.92454 247.93101 249.70048 251.12195 252.24942 253.07589 253.39636
 253.43783 253.21630 252.58077 251.53324 250.14371 248.30918 246.22265 244.06011
 241.85558 239.66405 237.48852 235.33199 233.19646 231.06793 229.09840 227.25987
 225.54734 224.02381 222.65828 221.43475 220.32122 219.28569 218.39416 217.53963
 216.78610 215.97057 215.07304 214.44151 213.89598 214.50246 216.09067 218.52548
 221.31363 223.13635 224.25710 225.08203 225.86307 226.26408 226.22086 225.59508
 225.86890 228.42331 232.58432 237.26587 241.89023 246.27663 250.38707 254.19470
 257.62698 260.67776 263.40509 265.92471 268.12979 269.95236 271.62900 273.22064
 274.71127 276.18558 277.80649 279.48563 280.93878 282.22443 283.39740 284.46002
 285.41574 286.26682 287.01028 287.95776
 366.78100 356.33832 345.77364 334.64296 323.04928 311.24659 299.11991 286.92623
 274.64155 262.54187 250.55419 239.85851 229.98383 221.09114 213.27646 206.28178
 200.11910 195.06042 191.64574 189.69106 188.73138 188.79870 189.63701 190.94833
 192.67665 194.77497 197.04129 199.40361 201.85193 204.33525 206.42657 208.27188
 209.90120 211.04952 211.28184 211.51316 211.45348 211.16180 210.79812 210.43143
 210.05175 209.76507 209.57639 209.44371 209.37503 209.70935 210.09867 210.49099
 211.28730 212.46862 213.72194 215.50826 217.43958 219.48590 221.58422 223.67054
 225.73385 227.82117 229.92149 232.03081 234.16313 236.33845 238.59777 240.97109
 243.59541 245.84972 247.85504 249.62336 251.04368 252.17000 252.99532 253.31464
 253.35496 253.13228 252.49559 251.44691 250.05623 248.22055 246.13287 243.96919
 241.76351 239.57083 237.39414 235.23646 233.09978 230.97010 228.99942 227.15974
 225.44606 223.92138 222.55470 221.33001 220.21533 219.17865 218.28597 217.43029
 216.67561 215.85893 214.96025 214.32756 213.78088 214.46025 216.19608 218.55261
 221.19397 223.21040 224.32600 225.03760 225.76581 226.30476 226.35023 225.59984
 225.72935 228.24127 232.44421 237.12459 241.74002 246.14902 250.31734 254.18517
 257.68167 260.81085 263.62210 266.20764 268.49002 270.39539 272.06000 273.51520
 274.94122 276.56689 278.21582 279.94577 281.47498 282.82794 284.06232 285.18057
 286.18634 287.08197 287.86435 288.86145
 366.78100 356.34090 345.77880 334.65070 323.05959 311.25949 299.13539 286.94429
 274.66219 262.56509 250.57998 239.88688 230.01478 221.12468 213.31258 206.32048
 200.16037 195.10427 191.69217 189.74007 188.78297 188.85287 189.69376 191.00766
 192.73856 194.83946 197.10836 199.47326 201.92415 204.41005 206.50395 208.35185
 209.98375 211.13465 211.36954 211.60344 211.54634 211.25724 210.89614 210.53204
 210.15493 209.87083 209.68473 209.55463 209.48853 209.82543 210.21732 210.61222
 211.41112 212.59502 213.85092 215.63982 217.57371 219.62261 221.72351 223.81241
 225.87831 227.96821 230.07110 232.18300 234.31790 236.49580 238.75770 241.13360
 243.76049 246.01739 248.02529 249.79619 251.21909 252.34799 253.17588 253.49778
 253.54068 253.32058 252.68648 251.64038 250.25227 248.41917 246.33407 244.17297
 241.96987 239.77977 237.60566 235.45056 233.31646 231.18936 229.22126 227.38416
 225.67305 224.15095 222.78685 221.56475 220.45265 219.41855 218.52844 217.67534
 216.92324 216.10914 215.21304 214.58294 214.03883 214.60539 216.09616 218.60997
 221.28503 223.24382 224.22192 224.78052 225.52013 226.32387 226.48935 225.83202
 225.96741 228.27246 232.38933 237.02074 241.58763 245.95428 250.09956 253.94344
 257.41058 260.54727 263.42929 266.09363 268.47403 270.49313 272.26367 273.79855
 275.20721 276.82324 278.41092 279.92215 281.38312 282.67572 283.85501 284.92337
 285.88425 286.73990 287.48740 288.43997
 366.78100 356.34247 345.78194 334.65540 323.06587 311.26734 299.14481 286.95528
 274.67475 262.57921 250.59568 239.90415 230.03362 221.14509 213.33455 206.34402
 200.18549 195.13096 191.72043 189.76990 188.81436 188.88583 189.72830 191.04377
 192.77624 194.87870 197.14917 199.51564 201.96811 204.45558 206.55104 208.40051
 210.03398 211.18645 211.42292 211.65839 211.60285 211.31532 210.95579 210.59326
 210.21773 209.93519 209.75066 209.62213 209.55760 209.89607 210.28954 210.68600
 211.48647 212.67194 213.92941 215.71988 217.65534 219.70581 221.80828 223.89875
 225.96622 228.05769 230.16215 232.27562 234.41209 236.59156 238.85503 241.23249
 243.86096 246.11943 248.12890 249.90137 251.32583 252.45630 253.28577 253.60924
 253.65371 253.43518 252.80264 251.75811 250.37158 248.54005 246.45652 244.29698
 242.09545 239.90692 237.73439 235.58086 233.44833 231.32279 229.35626 227.52073
 225.81120 224.29067 222.92813 221.70760 220.59707 219.56454 218.67601 217.82448
 217.07394 216.26141 215.36688 214.73835 214.19582 214.70750 216.06229 218.56883
 221.32298 223.31390 224.28134 224.74466 225.33127 226.12900 226.43834 225.81534
 226.09506 228.36403 232.43777 237.05276 241.62102 245.99658 250.14658 254.00539
 257.48529 260.58450 263.41226 266.04163 268.41183 270.46140 272.28323 273.91016
 275.36163 276.96942 278.53860 279.97198 281.36566 282.63153 283.78644 284.83267
 285.77368 286.61163 287.34366 288.27655
 366.78100 356.34137 345.77974 334.65211 323.06148 311.26186 299.13823 286.94760
 274.66597 262.56934 250.58471 239.89208 230.02045 221.13082 213.31919 206.32757
 200.16794 195.11231 191.70068 189.74905 188.79242 188.86279 189.70416 191.01853
 192.74991 194.85128 197.12065 199.48602 201.93739 204.42376 206.51813 208.36650
 209.99887 211.15024 211.38562 211.61999 211.56336 211.27473 210.91410 210.55047
 210.17384 209.89021 209.70458 209.57496 209.50933 209.84670 210.23907 210.63444
 211.43381 212.61818 213.87455 215.66392 217.59829 219.64767 221.74904 223.83841
 225.90478 227.99515 230.09852 232.21089 234.34626 236.52463 238.78701 241.16338
 243.79075 246.04812 248.05649 249.82786 251.25123 252.38060 253.20897 253.53134
 253.57472 253.35509 252.72146 251.67583 250.28820 248.45557 246.37094 244.21031
 242.00768 239.81806 237.64443 235.48980 233.35617 231.22954 229.26191 227.42528
 225.71465 224.19302 222.82939 221.60777 220.49614 219.46251 218.57288 217.72025
 216.96862 216.15499 215.25936 214.62973 214.08611 214.67351 216.17148 218.51627
 221.16614 223.32999 224.49210 224.91187 225.27916 225.96808 226.36075 225.62065
 225.97670 228.31586 232.43222 237.05815 241.63844 246.03700 250.21576 254.11636
 257.65341 260.77454 263.57022 266.16110 268.50821 270.54410 272.34641 273.99420
 275.48444 277.05240 278.60422 280.00378 281.33484 282.58487 283.72534 284.75851
 285.68774 286.51526 287.23813 288.15936
 366.78100 356.34045 345.77790 334.64935 323.05780 311.25724 299.13269 286.94114
 274.65859 262.56104 250.57549 239.88194 230.00939 221.11884 213.30629 206.31373
 200.15318 195.09663 191.68408 189.73153 188.77398 188.84343 189.68388 190.99733
 192.72778 194.82822 197.09667 199.46112 201.91157 204.39702 206.49047 208.33792
 209.96937 211.11982 211.35426 211.58771 211.53016 211.24061 210.87906 210.51451
 210.13696 209.85241 209.66586 209.53531 209.46875 209.80520 210.19665 210.59110
 211.38955 212.57300 213.82845 215.61690 217.55035 219.59880 221.69924 223.78769
 225.85314 227.94259 230.04504 232.15649 234.29094 236.46839 238.72984 241.10528
 243.73173 245.98818 247.99563 249.76608 251.18853 252.31698 253.14443 253.46588
 253.50833 253.28777 252.65322 251.60667 250.21812 248.38457 246.29902 244.13747
 241.93392 239.74337 237.56882 235.41326 233.27871 231.15116 229.18261 227.34506
 225.63351 224.11096 222.74641 221.52386 220.41130 219.37675 218.48620 217.63265
 216.88010 216.06555 215.16900 214.53845 213.99390 214.64737 216.28711 218.52795
 220.99146 223.25665 224.66626 225.12849 225.35422 225.92657 226.30774 225.48512
 225.80812 228.22675 232.39645 237.03729 241.62740 246.04555 250.25731 254.19614
 257.74710 260.90323 263.72098 266.30917 268.63858 270.65759 272.43002 274.05405
 275.55881 277.16531 278.71820 280.12286 281.50430 282.79221 283.96719 285.03168
 285.98904 286.84158 287.58636 288.53549
 366.78100 356.34018 345.77736 334.64854 323.05672 311.25590 299.13108 286.93925
 274.65643 262.55861 250.57279 239.87897 230.00615 221.11533 213.30251 206.30969
 200.14887 195.09205 191.67923 189.72640 188.76858 188.83776 189.67794 190.99112
 192.72130 194.82148 197.08966 199.45384 201.90402 204.38920 206.48238 208.32955
 209.96073 211.11091 211.34509 211.57827 211.52045 211.23063 210.86881 210.50399
 210.12617 209.84135 209.65453 209.52371 209.45688 209.79306 210.18424 210.57842
 211.37660 212.55978 213.81496 215.60314 217.53632 219.58450 221.68468 223.77286
 225.83803 227.92721 230.02939 232.14057 234.27475 236.45193 238.71311 241.08829
 243.71447 245.97065 247.97783 249.74801 251.17018 252.29836 253.12554 253.44672
 253.48890 253.26808 252.63326 251.58644 250.19762 248.36380 246.27798 244.11616
 241.91234 239.72151 237.54669 235.39087 233.25605 231.12823 229.15941 227.32159
 225.60977 224.08695 222.72213 221.49931 220.38649 219.35166 218.46084 217.60702
 216.85420 216.03938 215.14256 214.51174 213.96692 214.65182 216.35501 218.56128
 220.87346 223.07199 224.70038 225.31520 225.48322 225.99359 226.34270 225.34187
 225.61038 228.07742 232.31639 236.98032 241.58643 246.03650 250.29607 254.29535
 257.89410 261.09656 263.94788 266.52826 268.85718 270.88162 272.62985 274.21738
 275.68481 277.20868 278.75497 280.15247 281.47864 282.74112 283.89294 284.93640
 285.87491 286.71063 287.44070 288.37109
 366.78100 356.33954 345.77607 334.64661 323.05414 311.25268 299.12721 286.93475
 274.65129 262.55282 250.56636 239.87189 229.99843 221.10696 213.29350 206.30004
 200.13857 195.08111 191.66764 189.71418 188.75571 188.82425 189.66379 190.97632
 192.70586 194.80539 197.07293 199.43646 201.88600 204.37054 206.46307 208.30961
 209.94014 211.08968 211.32321 211.55575 211.49729 211.20682 210.84436 210.47889
 210.10043 209.81496 209.62750 209.49604 209.42857 209.76411 210.15464 210.54818
 211.34571 212.52825 213.78279 215.57032 217.50286 219.55039 221.64993 223.73746
 225.80200 227.89054 229.99207 232.10261 234.23614 236.41268 238.67322 241.04775
 243.67329 245.92882 247.93536 249.70489 251.12643 252.25397 253.08050 253.40104
 253.44257 253.22111 252.58564 251.53818 250.14872 248.31425 246.22779 244.06532
 241.86086 239.66939 237.49393 235.33747 233.20200 231.07354 229.10407 227.26561
 225.55314 224.02968 222.66422 221.44075 220.32729 219.29182 218.40036 217.54589
 216.79243 215.97697 215.07950 214.44804 213.90257 214.63028 216.40802 218.59764
 220.76616 222.82664 224.54045 225.30856 225.55873 226.20850 226.66147 225.24423
 225.40179 227.85144 232.16272 236.83009 241.44231 245.91798 250.22162 254.25554
 257.90848 261.18213 264.11496 266.72900 269.08948 271.16818 272.96518 274.54660
 275.97314 277.27972 278.71655 280.08749 281.31375 282.49054 283.62408 284.65100
 285.57458 286.39706 287.11554 288.03119
 366.78100 356.33921 345.77543 334.64564 323.05285 311.25107 299.12528 286.93249
 274.64871 262.54992 250.56313 239.86835 229.99456 221.10277 213.28899 206.29520
 200.13342 195.07563 191.66184 189.70806 188.74927 188.81748 189.65670 190.96891
 192.69812 194.79734 197.06455 199.42776 201.87698 204.36119 206.45340 208.29962
 209.92983 211.07904 211.31226 211.54447 211.48568 211.19490 210.83211 210.46632
 210.08754 209.80175 209.61397 209.48218 209.41439 209.74961 210.13982 210.53303
 211.33025 212.51246 213.76667 215.55389 217.48610 219.53331 221.63253 223.71974
 225.78395 227.87217 229.97338 232.08359 234.21681 236.39302 238.65323 241.02745
 243.65266 245.90787 247.91409 249.68330 251.10452 252.23173 253.05794 253.37816
 253.41937 253.19758 252.56180 251.51401 250.12422 248.28944 246.20265 244.03986
 241.83508 239.64329 237.46750 235.31072 233.17493 231.04614 229.07636 227.23757
 225.52478 224.00100 222.63521 221.41142 220.29764 219.26185 218.37007 217.51528
 216.76149 215.94571 215.04792 214.41613 213.87035 214.61812 216.42468 218.69124
 220.69478 222.66699 224.35721 225.12068 225.52773 226.42445 227.08234 225.33719
 225.24539 227.65746 232.01927 236.66534 241.26436 245.73900 250.04889 254.07860
 257.74728 261.07004 264.08569 266.79263 269.22162 271.38791 273.27170 274.91260
 276.34488 277.60364 278.81033 280.11328 281.32928 282.44684 283.51578 284.53363
 285.44907 286.26428 286.97644 287.88400
 366.78100 356.34074 345.77848 334.65022 323.05896 311.25870 299.13444 286.94318
 274.66093 262.56367 250.57841 239.88515 230.01289 221.12263 213.31037 206.31811
 200.15785 195.10159 191.68933 189.73707 188.77981 188.84955 189.69030 191.00404
 192.73478 194.83552 197.10426 199.46900 201.91974 204.40548 206.49922 208.34696
 209.97870 211.12944 211.36418 211.59792 211.54067 211.25141 210.89015 210.52589
 210.14863 209.86437 209.67811 209.54785 209.48159 209.81833 210.21007 210.60481
 211.40355 212.58729 213.84304 215.63178 217.56552 219.61426 221.71500 223.80374
 225.86948 227.95922 230.06196 232.17370 234.30844 236.48618 238.74792 241.12366
 243.75041 246.00715 248.01489 249.78563 251.20837 252.33711 253.16485 253.48659
 253.52933 253.30907 252.67481 251.62855 250.24029 248.40703 246.32178 244.16052
 241.95726 239.76700 237.59274 235.43748 233.30322 231.17596 229.20770 227.37044
 225.65918 224.13692 222.77266 221.55040 220.43815 219.40389 218.51363 217.66037
 216.90811 216.09385 215.19759 214.56733 214.02307 214.70169 216.33354 218.81650
 220.73039 222.66771 224.34673 224.97456 225.42734 226.37637 227.19797 225.62804
 225.44513 227.68562 231.95815 236.57990 241.17035 245.64282 249.95044 253.96706
 257.62161 260.94846 263.99677 266.75223 269.22263 271.43774 273.40601 275.13443
 276.62292 277.89529 278.99045 280.20676 281.41440 282.51785 283.52597 284.45529
 285.33661 286.12143 286.80704 287.68076
 366.78100 356.34179 345.78058 334.65337 323.06316 311.26395 299.14074 286.95053
 274.66932 262.57311 250.58889 239.89668 230.02547 221.13626 213.32505 206.33384
 200.17463 195.11942 191.70821 189.75700 188.80079 188.87158 189.71337 191.02816
 192.75995 194.86174 197.13153 199.49732 201.94910 204.43589 206.53068 208.37947
 210.01226 211.16405 211.39984 211.63463 211.57842 211.29021 210.93000 210.56679
 210.19058 209.90737 209.72216 209.59295 209.52774 209.86553 210.25831 210.65410
 211.45389 212.63868 213.89547 215.68526 217.62005 219.66984 221.77163 223.86142
 225.92821 228.01900 230.12279 232.23558 234.37137 236.55016 238.81295 241.18974
 243.81752 246.07531 248.08410 249.85589 251.27968 252.40947 253.23826 253.56105
 253.60484 253.38563 252.75242 251.70721 250.32000 248.48779 246.40358 244.24337
 242.04116 239.85195 237.67873 235.52452 233.39131 231.26510 229.29789 227.46168
 225.75147 224.23026 222.86705 221.64584 220.53463 219.50142 218.61221 217.76000
 217.00879 216.19558 215.30037 214.67116 214.12794 214.76851 216.28435 218.82564
 220.83018 222.72099 224.37524 224.93939 225.33328 226.18701 227.08484 225.81540
 225.62898 227.83498 231.96953 236.56416 241.15334 245.63750 249.96107 253.98894
 257.63333 260.93124 263.95813 266.69839 269.15533 271.36508 273.35880 275.14005
 276.68524 277.99731 279.12839 280.28079 281.48801 282.56995 283.54126 284.39139
 285.16327 285.89008 286.52499 287.33411
 366.78100 356.34134 345.77968 334.65201 323.06135 311.26169 299.13803 286.94737
 274.66571 262.56904 250.58438 239.89172 230.02006 221.13040 213.31874 206.32707
 200.16741 195.11175 191.70009 189.74843 188.79176 188.86210 189.70344 191.01778
 192.74912 194.85046 197.11979 199.48513 201.93647 204.42281 206.51715 208.36549
 209.99782 211.14916 211.38450 211.61884 211.56218 211.27352 210.91285 210.54919
 210.17253 209.88887 209.70321 209.57354 209.50788 209.84522 210.23756 210.63290
 211.43224 212.61657 213.87291 215.66225 217.59659 219.64593 221.74727 223.83660
 225.90294 227.99328 230.09662 232.20896 234.34429 236.52263 238.78497 241.16131
 243.78865 246.04599 248.05432 249.82566 251.24900 252.37834 253.20668 253.52902
 253.57235 253.35269 252.71903 251.67337 250.28571 248.45305 246.36838 244.20772
 242.00506 239.81540 237.64174 235.48707 233.35341 231.22675 229.25909 227.42243
 225.71177 224.19010 222.82644 221.60478 220.49312 219.45946 218.56980 217.71713
 216.96547 216.15181 215.25615 214.62649 214.08282 214.75951 216.35825 218.74330
 220.93425 222.79498 224.32672 224.93376 225.31700 226.05435 226.90623 225.91887
 225.72049 227.93666 231.98099 236.56557 241.15746 245.65802 249.99400 254.03650
 257.68619 260.96686 263.96762 266.67841 269.11032 271.29041 273.26849 275.05716
 276.62747 277.96811 279.13196 280.22864 281.33527 282.39453 283.39807 284.26593
 284.99210 285.67203 286.30756 287.12198
 366.78100 356.34138 345.77975 334.65213 323.06150 311.26188 299.13825 286.94763
 274.66600 262.56938 250.58475 239.89213 230.02050 221.13088 213.31925 206.32763
 200.16801 195.11238 191.70076 189.74913 188.79251 188.86288 189.70426 191.01863
 192.75001 194.85138 197.12076 199.48613 201.93751 204.42388 206.51826 208.36664
 209.99901 211.15039 211.38576 211.62014 211.56351 211.27489 210.91426 210.55064
 210.17401 209.89039 209.70476 209.57514 209.50951 209.84689 210.23926 210.63464
 211.43402 212.61839 213.87477 215.66414 217.59852 219.64789 221.74927 223.83864
 225.90502 227.99539 230.09877 232.21114 234.34652 236.52489 238.78727 241.16365
 243.79102 246.04840 248.05677 249.82815 251.25152 252.38090 253.20927 253.53165
 253.57502 253.35540 252.72177 251.67615 250.28852 248.45590 246.37128 244.21065
 242.00803 239.81840 237.64478 235.49015 233.35653 231.22990 229.26228 227.42565
 225.71503 224.19340 222.82978 221.60815 220.49653 219.46291 218.57328 217.72066
 216.96903 216.15541 215.25978 214.63016 214.08653 214.77359 216.39685 218.70430
 220.98126 222.83449 224.25230 224.89810 225.32092 226.01462 226.77440 225.96243
 225.75673 227.99788 231.99413 236.57182 241.16614 245.67659 250.01703 254.05942
 257.70523 260.98245 263.97177 266.66910 269.09003 271.25638 273.22189 275.00156
 276.56732 277.91705 279.08875 280.14041 281.20828 282.25067 283.24744 284.12946
 284.76825 285.45810 286.07788 286.91553
 366.78100 356.34218 345.78136 334.65454 323.06471 311.26589 299.14307 286.95325
 274.67243 262.57661 250.59278 239.90096 230.03014 221.14132 213.33050 206.33968
 200.18085 195.12603 191.71521 189.76439 188.80857 188.87975 189.72192 191.03710
 192.76928 194.87146 197.14164 199.50782 201.96000 204.44717 206.54235 208.39153
 210.02471 211.17689 211.41307 211.64824 211.59242 211.30460 210.94478 210.58196
 210.20614 209.92331 209.73849 209.60967 209.54485 209.88303 210.27621 210.67238
 211.47256 212.65774 213.91492 215.70510 217.64028 219.69045 221.79263 223.88281
 225.94999 228.04117 230.14535 232.25853 234.39470 236.57388 238.83706 241.21424
 243.84242 246.10060 248.10977 249.88195 251.30613 252.43631 253.26549 253.58867
 253.63284 253.41402 252.78120 251.73638 250.34956 248.51774 246.43391 244.27409
 242.07227 239.88345 237.71063 235.55681 233.42399 231.29816 229.33134 227.49552
 225.78570 224.26488 222.90206 221.68123 220.57041 219.53759 218.64877 217.79695
 217.04613 216.23330 215.33848 214.70966 214.16684 214.82600 216.38333 218.72899
 220.95406 222.81546 224.20056 224.84299 225.27907 225.99150 226.71432 225.96132
 225.80902 228.05545 232.01776 236.57874 241.17641 245.69434 250.03603 254.07359
 257.71033 260.98196 263.96957 266.66574 269.08142 271.24109 273.19696 274.96994
 276.52628 277.87317 279.05313 280.10562 281.11136 282.13937 283.15399 284.04889
 284.61984 285.30020 285.92227 286.75067
 366.78100 356.34268 345.78235 334.65603 323.06670 311.26838 299.14605 286.95673
 274.67641 262.58108 250.59776 239.90643 230.03611 221.14779 213.33746 206.34714
 200.18881 195.13449 191.72416 189.77384 188.81852 188.89019 189.73287 191.04854
 192.78122 194.88390 197.15457 199.52125 201.97392 204.46160 206.55727 208.40695
 210.04063 211.19330 211.42998 211.66565 211.61033 211.32301 210.96368 210.60136
 210.22603 209.94371 209.75938 209.63106 209.56674 209.90541 210.29909 210.69576
 211.49644 212.68212 213.93979 215.73047 217.66614 219.71682 221.81949 223.91017
 225.97785 228.06952 230.17420 232.28787 234.42455 236.60423 238.86790 241.24558
 243.87425 246.13293 248.14260 249.91528 251.33996 252.47063 253.30031 253.62398
 253.66866 253.45034 252.81801 251.77369 250.38736 248.55604 246.47271 244.31339
 242.11207 239.92374 237.75142 235.59809 233.46577 231.34045 229.37412 227.53880
 225.82947 224.30915 222.94682 221.72650 220.61618 219.58385 218.69553 217.84420
 217.09388 216.28156 215.38723 214.75891 214.21658 214.86229 216.38783 218.73839
 220.94794 222.79117 224.13762 224.78067 225.23019 225.94640 226.64375 225.98601
 225.90254 228.12325 232.04620 236.59140 241.18932 245.71057 250.04929 254.07861
 257.70856 260.97925 263.96860 266.66696 269.08096 271.23672 273.18268 274.94302
 276.48715 277.82867 279.01602 280.08487 281.08148 282.11108 283.14005 284.04529
 284.48349 285.15036 285.77469 286.60602
 366.78100 356.34248 345.78195 334.65543 323.06590 311.26738 299.14485 286.95533
 274.67481 262.57928 250.59576 239.90423 230.03371 221.14518 213.33466 206.34413
 200.18561 195.13109 191.72056 189.77004 188.81451 188.88599 189.72846 191.04394
 192.77642 194.87889 197.14937 199.51584 201.96832 204.45579 206.55127 208.40074
 210.03422 211.18670 211.42317 211.65865 211.60312 211.31560 210.95607 210.59355
 210.21803 209.93550 209.75098 209.62245 209.55793 209.89640 210.28988 210.68635
 211.48683 212.67231 213.92978 215.72026 217.65573 219.70621 221.80868 223.89916
 225.96664 228.05811 230.16259 232.27606 234.41254 236.59201 238.85549 241.23297
 243.86144 246.11992 248.12939 249.90187 251.32634 252.45682 253.28629 253.60977
 253.65425 253.43572 252.80320 251.75867 250.37215 248.54062 246.45710 244.29758
 242.09605 239.90753 237.73500 235.58148 233.44895 231.32343 229.35690 227.52138
 225.81186 224.29133 222.92881 221.70828 220.59776 219.56523 218.67671 217.82519
 217.07466 216.26214 215.36761 214.73909 214.19656 214.86349 216.43918 218.69405
 220.96890 222.81281 224.05692 224.70114 225.16446 225.87723 226.57207 225.97604
 225.97491 228.22012 232.08752 236.60262 241.20181 245.72789 250.06519 254.08701
 257.71106 260.97769 263.95978 266.65695 269.07520 271.23593 273.17838 274.92636
 276.45728 277.79358 278.98627 280.07938 281.02386 282.03888 283.02408 283.91034
 284.66528 285.34149 285.94507 286.75708
 366.78100 356.34197 345.78094 334.65391 323.06387 311.26484 299.14181 286.95178
 274.67075 262.57472 250.59068 239.89865 230.02762 221.13859 213.32756 206.33653
 200.17749 195.12246 191.71143 189.76040 188.80437 188.87534 189.71731 191.03227
 192.76424 194.86621 197.13618 199.50215 201.95412 204.44108 206.53605 208.38502
 210.01799 211.16996 211.40593 211.64090 211.58486 211.29683 210.93680 210.57377
 210.19774 209.91471 209.72967 209.60064 209.53561 209.87358 210.26655 210.66252
 211.46248 212.64745 213.90442 215.69439 217.62936 219.67933 221.78130 223.87126
 225.93823 228.02920 230.13317 232.24614 234.38211 236.56107 238.82404 241.20101
 243.82898 246.08695 248.09592 249.86789 251.29185 252.42182 253.25079 253.57376
 253.61773 253.39870 252.76566 251.72063 250.33360 248.50157 246.41754 244.25751
 242.05547 239.86644 237.69341 235.53938 233.40635 231.28032 229.31329 227.47725
 225.76722 224.24619 222.88316 221.66213 220.55110 219.51806 218.62903 217.77700
 217.02597 216.21294 215.31791 214.68888 214.14584 214.84789 216.50656 218.65411
 220.94788 222.86493 224.02531 224.63936 225.08327 225.73050 226.44194 226.07047
 226.13336 228.26546 232.10426 236.62062 241.22594 245.76129 250.09993 254.11545
 257.73132 260.98526 263.94873 266.63718 269.05872 271.22879 273.16940 274.90515
 276.41736 277.74438 278.94086 280.05643 281.04620 282.07303 283.06363 283.97171
 284.78107 285.48114 286.09372 286.89932
 366.78100 356.34166 345.78031 334.65297 323.06263 311.26329 299.13994 286.94960
 274.66826 262.57192 250.58757 239.89523 230.02389 221.13455 213.32320 206.33186
 200.17252 195.11718 191.70583 189.75449 188.79815 188.86881 189.71046 191.02512
 192.75678 194.85844 197.12809 199.49375 201.94541 204.43207 206.52672 208.37538
 210.00804 211.15970 211.39535 211.63001 211.57367 211.28533 210.92498 210.56164
 210.18530 209.90196 209.71661 209.58727 209.52193 209.85959 210.25224 210.64790
 211.44756 212.63222 213.88887 215.67853 217.61319 219.66285 221.76450 223.85416
 225.92082 228.01148 230.11513 232.22779 234.36345 236.54211 238.80476 241.18142
 243.80908 246.06673 248.07539 249.84705 251.27071 252.40036 253.22902 253.55168
 253.59534 253.37599 252.74265 251.69731 250.30997 248.47762 246.39328 244.23294
 242.03060 239.84125 237.66791 235.51357 233.38023 231.25388 229.28654 227.45020
 225.73986 224.21851 222.85517 221.63383 220.52249 219.48914 218.59980 217.74746
 216.99612 216.18277 215.28743 214.65809 214.11475 214.84103 216.55698 218.64847
 220.88396 222.89978 224.06602 224.60944 224.97932 225.52019 226.25330 226.16133
 226.31703 228.32895 232.13304 236.65282 241.26758 245.81346 250.15289 254.15895
 257.76163 260.99686 263.93579 266.61502 269.04236 271.22455 273.16785 274.89499
 276.39328 277.71317 278.91116 280.04092 281.05756 282.08392 283.04129 283.92465
 284.75360 285.51157 286.13275 286.95032
 366.78100 356.34162 345.78023 334.65285 323.06246 311.26308 299.13969 286.94931
 274.66793 262.57154 250.58716 239.89477 230.02339 221.13400 213.32262 206.33123
 200.17185 195.11647 191.70508 189.75370 188.79731 188.86793 189.70954 191.02416
 192.75578 194.85739 197.12701 199.49262 201.94424 204.43085 206.52547 208.37409
 210.00670 211.15832 211.39393 211.62855 211.57216 211.28378 210.92339 210.56001
 210.18363 209.90024 209.71486 209.58547 209.52009 209.85770 210.25032 210.64594
 211.44555 212.63017 213.88678 215.67640 217.61101 219.66063 221.76225 223.85186
 225.91848 228.00909 230.11271 232.22532 234.36094 236.53955 238.80217 241.17879
 243.80640 246.06402 248.07263 249.84425 251.26786 252.39748 253.22610 253.54871
 253.59233 253.37294 252.73956 251.69417 250.30679 248.47441 246.39002 244.22964
 242.02725 239.83787 237.66448 235.51010 233.37671 231.25033 229.28295 227.44656
 225.73618 224.21479 222.85141 221.63002 220.51864 219.48526 218.59587 217.74349
 216.99210 216.17872 215.28333 214.65395 214.11057 214.84828 216.59122 218.65543
 220.82382 222.90041 224.13643 224.59720 224.85382 225.28470 226.04475 226.22426
 226.49573 228.41927 232.18024 236.69736 241.32185 245.87773 250.21671 254.20967
 257.79428 261.00671 263.92151 266.59238 269.02545 271.21875 273.16559 274.88928
 276.37903 277.69727 278.90250 280.04794 281.08029 282.11026 283.06955 283.94977
 284.77417 285.53760 286.17151 286.98816
 366.78100 356.34165 345.78030 334.65295 323.06261 311.26326 299.13991 286.94956
 274.66821 262.57186 250.58751 239.89516 230.02382 221.13447 213.32312 206.33177
 200.17242 195.11707 191.70572 189.75438 188.79803 188.86868 189.71033 191.02498
 192.75663 194.85828 197.12794 199.49359 201.94524 204.43189 206.52654 208.37519
 210.00784 211.15949 211.39515 211.62980 211.57345 211.28510 210.92475 210.56140
 210.18505 209.90171 209.71636 209.58701 209.52166 209.85931 210.25196 210.64761
 211.44727 212.63192 213.88857 215.67822 217.61287 219.66252 221.76417 223.85382
 225.92048 228.01113 230.11478 232.22743 234.36308 236.54173 238.80438 241.18104
 243.80869 246.06634 248.07499 249.84664 251.27029 252.39994 253.22860 253.55125
 253.59490 253.37555 252.74220 251.69685 250.30950 248.47715 246.39281 244.23246
 242.03011 239.84076 237.66741 235.51306 233.37971 231.25337 229.28602 227.44967
 225.73932 224.21797 222.85462 221.63327 220.52192 219.48858 218.59923 217.74688
 216.99553 216.18218 215.28683 214.65748 214.11414 214.86026 216.62305 218.65427
 220.78375 222.88293 224.19702 224.58504 224.72075 225.05759 225.84341 226.25430
 226.64758 228.52049 232.23590 236.74594 241.38161 245.94887 250.28755 254.26688
 257.83292 261.02255 263.91388 266.57550 269.01144 271.21347 273.16162 274.88187
 276.36676 277.68964 278.90225 280.07587 281.13596 282.16928 283.13101 284.01419
 284.82990 285.57971 286.22873 287.04382
 366.78100 356.34170 345.78039 334.65309 323.06278 311.26348 299.14017 286.94987
 274.66857 262.57226 250.58796 239.89565 230.02435 221.13504 213.32374 206.33244
 200.17313 195.11783 191.70652 189.75522 188.79892 188.86961 189.71131 191.02600
 192.75770 194.85939 197.12909 199.49479 201.94648 204.43318 206.52787 208.37657
 210.00926 211.16096 211.39666 211.63135 211.57505 211.28674 210.92644 210.56313
 210.18683 209.90353 209.71822 209.58892 209.52361 209.86131 210.25400 210.64970
 211.44940 212.63409 213.89079 215.68048 217.61518 219.66488 221.76657 223.85627
 225.92296 228.01366 230.11735 232.23005 234.36575 236.54444 238.80714 241.18383
 243.81153 246.06922 248.07792 249.84962 251.27331 252.40301 253.23170 253.55440
 253.59809 253.37879 252.74549 251.70018 250.31288 248.48057 246.39627 244.23597
 242.03366 239.84436 237.67105 235.51675 233.38344 231.25714 229.28984 227.45353
 225.74323 224.22192 222.85862 221.63731 220.52601 219.49271 218.60340 217.75110
 216.99979 216.18649 215.29118 214.66188 214.11858 214.87289 216.65503 218.64784
 220.75233 222.86240 224.23685 224.56544 224.58905 224.85040 225.65623 226.25031
 226.76355 228.62079 232.29509 236.79657 241.44440 246.02451 250.36478 254.33186
 257.88071 261.04889 263.91721 266.56818 269.00500 271.21286 273.16180 274.87714
 276.35727 277.68558 278.91605 280.06720 281.21536 282.26340 283.22379 284.10431
 284.91205 285.65106 286.30273 287.11496
 366.78100 356.34179 345.78058 334.65338 323.06317 311.26396 299.14075 286.95054
 274.66934 262.57313 250.58892 239.89671 230.02550 221.13629 213.32509 206.33388
 200.17467 195.11946 191.70825 189.75705 188.80084 188.87163 189.71342 191.02821
 192.76001 194.86180 197.13159 199.49738 201.94917 204.43596 206.53076 208.37955
 210.01234 211.16413 211.39992 211.63472 211.57851 211.29030 210.93009 210.56688
 210.19068 209.90747 209.72226 209.59305 209.52784 209.86564 210.25843 210.65422
 211.45401 212.63880 213.89559 215.68539 217.62018 219.66997 221.77176 223.86155
 225.92835 228.01914 230.12293 232.23572 234.37151 236.55031 238.81310 241.18989
 243.81768 246.07547 248.08426 249.85606 251.27985 252.40964 253.23843 253.56122
 253.60502 253.38581 252.75260 251.70739 250.32018 248.48798 246.40377 244.24356
 242.04135 239.85214 237.67894 235.52473 233.39152 231.26531 229.29810 227.46189
 225.75169 224.23048 222.86727 221.64606 220.53485 219.50165 218.61244 217.76023
 217.00902 216.19581 215.30061 214.67140 214.12819 214.88814 216.68358 218.64606
 220.72044 222.83963 224.25784 224.53831 224.46307 224.66037 225.48123 226.21698
 226.84628 228.71724 232.35649 236.84972 241.51096 246.10524 250.44908 254.40439
 257.93661 261.08334 263.92810 266.56815 269.00552 271.21936 273.16742 274.87576
 276.34998 277.68268 278.92181 280.12631 281.29449 282.34769 283.31253 284.19482
 284.99979 285.73389 286.37933 287.20532
 366.78100 356.34198 345.78096 334.65395 323.06393 311.26491 299.14189 286.95187
 274.67086 262.57484 250.59082 239.89880 230.02778 221.13877 213.32775 206.33673
 200.17771 195.12269 191.71168 189.76066 188.80464 188.87562 189.71760 191.03259
 192.76457 194.86655 197.13653 199.50251 201.95450 204.44148 206.53646 208.38544
 210.01842 211.17041 211.40639 211.64137 211.58535 211.29733 210.93732 210.57430
 210.19828 209.91526 209.73024 209.60123 209.53621 209.87419 210.26717 210.66315
 211.46314 212.64812 213.90510 215.69508 217.63006 219.68005 221.78203 223.87201
 225.93899 228.02997 230.13396 232.24694 234.38292 236.56190 238.82488 241.20187
 243.82985 246.08783 248.09681 249.86880 251.29278 252.42276 253.25174 253.57472
 253.61871 253.39969 252.76667 251.72165 250.33463 248.50262 246.41860 244.25858
 242.05656 239.86754 237.69453 235.54051 233.40749 231.28147 229.31445 227.47844
 225.76842 224.24740 222.88438 221.66336 220.55235 219.51933 218.63031 217.77829
 217.02727 216.21426 215.31924 214.69022 214.14720 214.90840 216.70683 218.65135
 220.68686 222.80966 224.26111 224.50282 224.34387 224.48541 225.31670 226.16325
 226.90373 228.80875 232.42020 236.90770 241.58241 246.19095 250.53819 254.48114
 257.99619 261.12268 263.94733 266.57733 269.01572 271.23535 273.18219 274.88327
 276.34842 277.68549 278.95041 280.19101 281.36481 282.41690 283.38330 284.26477
 285.06671 285.79138 286.43292 287.25732
 366.78100 356.34227 345.78153 334.65480 323.06507 311.26633 299.14360 286.95387
 274.67313 262.57740 250.59367 239.90193 230.03120 221.14247 213.33173 206.34100
 200.18227 195.12753 191.71680 189.76607 188.81033 188.88160 189.72387 191.03913
 192.77140 194.87366 197.14393 199.51020 201.96246 204.44973 206.54500 208.39426
 210.02753 211.17980 211.41606 211.65133 211.59560 211.30786 210.94813 210.58540
 210.20966 209.92693 209.74220 209.61346 209.54873 209.88700 210.28026 210.67653
 211.47680 212.66206 213.91933 215.70960 217.64486 219.69513 221.79740 223.88766
 225.95493 228.04620 230.15046 232.26373 234.40000 236.57926 238.84253 241.21980
 243.84806 246.10633 248.11560 249.88786 251.31213 252.44239 253.27166 253.59493
 253.63919 253.42046 252.78773 251.74299 250.35626 248.52453 246.44079 244.28106
 242.07933 239.89059 237.71786 235.56413 233.43139 231.30566 229.33893 227.50319
 225.79346 224.27273 222.90999 221.68926 220.57853 219.54579 218.65706 217.80533
 217.05459 216.24186 215.34713 214.71839 214.17566 214.93428 216.72662 218.66035
 220.65424 222.77058 224.24501 224.45724 224.23242 224.32321 225.16176 226.09961
 226.94200 228.89282 232.48769 236.97298 241.66006 246.28004 250.62819 254.55867
 258.05621 261.16428 263.97275 266.59573 269.03464 271.25854 273.20291 274.89578
 276.35510 277.69708 278.93808 280.25900 281.44360 282.49515 283.45886 284.33878
 285.13965 285.86386 286.49933 287.32407
 366.78100 356.34259 345.78219 334.65578 323.06637 311.26797 299.14556 286.95615
 274.67575 262.58034 250.59693 239.90553 230.03512 221.14671 213.33631 206.34590
 200.18749 195.13309 191.72268 189.77227 188.81687 188.88846 189.73105 191.04665
 192.77924 194.88183 197.15243 199.51902 201.97161 204.45921 206.55480 208.40439
 210.03799 211.19058 211.42717 211.66276 211.60736 211.31995 210.96054 210.59814
 210.22273 209.94032 209.75592 209.62751 209.56310 209.90170 210.29529 210.69188
 211.49248 212.67807 213.93566 215.72626 217.66185 219.71244 221.81504 223.90563
 225.97322 228.06482 230.16941 232.28300 234.41960 236.59919 238.86278 241.24038
 243.86897 246.12756 248.13716 249.90975 251.33434 252.46494 253.29453 253.61812
 253.66272 253.44431 252.81190 251.76750 250.38109 248.54968 246.46628 244.30687
 242.10546 239.91706 237.74465 235.59124 233.45884 231.33343 229.36702 227.53162
 225.82221 224.30180 222.93940 221.71899 220.60858 219.57618 218.68777 217.83636
 217.08596 216.27355 215.37914 214.75073 214.20833 214.96315 216.74652 218.66815
 220.62413 222.72821 224.21106 224.39856 224.12515 224.17299 225.01413 226.02959
 226.96469 228.96724 232.55901 237.04703 241.74472 246.37126 250.71648 254.63358
 258.11356 261.20590 264.00388 266.62268 269.06183 271.28595 273.22473 274.90674
 276.36462 277.71368 278.98331 280.31717 281.50500 282.56152 283.52695 284.40808
 285.20724 285.93478 286.57007 287.39261
 366.78100 356.34293 345.78286 334.65680 323.06773 311.26966 299.14759 286.95853
 274.67846 262.58339 250.60032 239.90926 230.03919 221.15112 213.34105 206.35098
 200.19292 195.13885 191.72878 189.77871 188.82365 188.89558 189.73851 191.05444
 192.78738 194.89031 197.16124 199.52817 201.98111 204.46904 206.56497 208.41490
 210.04883 211.20177 211.43870 211.67463 211.61956 211.33250 210.97343 210.61136
 210.23629 209.95423 209.77016 209.64209 209.57802 209.91695 210.31089 210.70782
 211.50875 212.69468 213.95262 215.74355 217.67948 219.73041 221.83335 223.92428
 225.99221 228.08414 230.18908 232.30301 234.43994 236.61987 238.88380 241.26174
 243.89067 246.14960 248.15953 249.93247 251.35740 252.48833 253.31826 253.64220
 253.68713 253.46906 252.83699 251.79292 250.40686 248.57579 246.49272 244.33365
 242.13259 239.94452 237.77245 235.61938 233.48732 231.36225 229.39618 227.56111
 225.85205 224.33198 222.96991 221.74984 220.63977 219.60771 218.71964 217.86857
 217.11850 216.30644 215.41237 214.78430 214.24223 214.99234 216.76453 218.67532
 220.59575 222.68506 224.16782 224.33124 224.01811 224.02557 224.87132 225.95845
 226.97253 229.03076 232.63568 237.13147 241.83646 246.46426 250.80203 254.70454
 258.16702 261.24698 264.04007 266.65735 269.09393 271.31335 273.24197 274.91302
 276.37320 277.73468 279.04138 280.38187 281.57065 282.62567 283.59198 284.47495
 285.27649 286.00195 286.63892 287.46249
 366.78100 356.34328 345.78357 334.65785 323.06914 311.27142 299.14971 286.96099
 274.68128 262.58656 250.60385 239.91313 230.04341 221.15570 213.34598 206.35627
 200.19855 195.14484 191.73512 189.78541 188.83069 188.90297 189.74626 191.06254
 192.79583 194.89911 197.17040 199.53768 201.99097 204.47925 206.57554 208.42582
 210.06010 211.21339 211.45067 211.68696 211.63224 211.34553 210.98681 210.62510
 210.25038 209.96866 209.78495 209.65723 209.59352 209.93280 210.32709 210.72437
 211.52566 212.71194 213.97023 215.76151 217.69779 219.74908 221.85236 223.94365
 226.01193 228.10422 230.20950 232.32379 234.46107 236.64135 238.90564 241.28392
 243.91321 246.17249 248.18278 249.95606 251.38135 252.51263 253.34292 253.66720
 253.71248 253.49477 252.86305 251.81934 250.43362 248.60291 246.52019 244.36148
 242.16076 239.97304 237.80133 235.64861 233.51690 231.39218 229.42647 227.59175
 225.88304 224.36332 223.00161 221.78189 220.67217 219.64046 218.75274 217.90203
 217.15231 216.34060 215.44688 214.81917 214.27745 215.02164 216.77986 218.68178
 220.57451 222.64024 224.11342 224.26146 223.91901 223.88470 224.72163 225.88367
 226.97427 229.08553 232.71687 237.22672 241.93520 246.55800 250.88443 254.77148
 258.21701 261.28754 264.08075 266.69751 269.13071 271.34000 273.25485 274.91287
 276.38052 277.75745 279.10175 280.44745 281.63739 282.69318 283.66077 284.54233
 285.34525 286.07172 286.70871 287.53317
 366.78100 356.34361 345.78423 334.65884 323.07046 311.27307 299.15168 286.96330
 274.68391 262.58953 250.60714 239.91675 230.04737 221.15998 213.35060 206.36121
 200.20382 195.15044 191.74105 189.79166 188.83728 188.90989 189.75351 191.07012
 192.80373 194.90735 197.17896 199.54658 202.00019 204.48880 206.58542 208.43603
 210.07065 211.22426 211.46187 211.69849 211.64410 211.35772 210.99933 210.63794
 210.26356 209.98217 209.79879 209.67140 209.60801 209.94763 210.34224 210.73986
 211.54147 212.72808 213.98670 215.77831 217.71493 219.76654 221.87015 223.96177
 226.03038 228.12299 230.22861 232.34322 234.48084 236.66145 238.92606 241.30468
 243.93429 246.19391 248.20452 249.97813 251.40375 252.53536 253.36598 253.69059
 253.73620 253.51882 252.88743 251.84405 250.45866 248.62827 246.54589 244.38750
 242.18712 239.99973 237.82834 235.67596 233.54457 231.42019 229.45480 227.62041
 225.91203 224.39264 223.03125 221.81187 220.70248 219.67110 218.78371 217.93332
 217.18394 216.37255 215.47917 214.85178 214.31039 215.05019 216.79802 218.68234
 220.55571 222.60185 224.05083 224.17839 223.81595 223.74973 224.57990 225.79796
 226.95508 229.13498 232.80681 237.33366 242.04137 246.65146 250.96283 254.83348
 258.26184 261.32632 264.12579 266.74216 269.16833 271.36411 273.26031 274.90564
 276.38510 277.78232 279.16202 280.51279 281.70178 282.76022 283.72791 284.61029
 285.41400 286.13885 286.78030 287.60242
 366.78100 356.34397 345.78493 334.65990 323.07186 311.27483 299.15379 286.96576
 274.68672 262.59269 250.61066 239.92062 230.05159 221.16455 213.35552 206.36648
 200.20945 195.15641 191.74738 189.79834 188.84431 188.91728 189.76124 191.07821
 192.81217 194.91614 197.18810 199.55607 202.01003 204.49900 206.59597 208.44693
 210.08190 211.23586 211.47383 211.71079 211.65676 211.37072 211.01269 210.65165
 210.27762 209.99659 209.81355 209.68652 209.62348 209.96345 210.35841 210.75638
 211.55834 212.74531 214.00428 215.79624 217.73321 219.78517 221.88914 223.98110
 226.05007 228.14303 230.24900 232.36396 234.50193 236.68290 238.94786 241.32683
 243.95679 246.21676 248.22772 250.00169 251.42765 252.55962 253.39059 253.71555
 253.76152 253.54448 252.91345 251.87041 250.48538 248.65534 246.57331 244.41527
 242.21524 240.02821 237.85717 235.70514 233.57410 231.45007 229.48503 227.65100
 225.94296 224.42393 223.06290 221.84386 220.73483 219.70379 218.81676 217.96672
 217.21769 216.40665 215.51362 214.88659 214.34555 215.08044 216.81668 218.68211
 220.52841 222.56038 224.00029 224.10307 223.70424 223.59477 224.41568 225.73448
 226.96161 229.17766 232.89857 237.45160 242.15323 246.74432 251.03644 254.89023
 258.30182 261.36304 264.17264 266.78946 269.20538 271.38275 273.25656 274.89105
 276.38589 277.80518 279.22275 280.57852 281.76770 282.82581 283.79434 284.67639
 285.47977 286.20724 286.84784 287.66553
 366.78100 356.34444 345.78588 334.66132 323.07375 311.27719 299.15663 286.96907
 274.69051 262.59695 250.61538 239.92582 230.05726 221.17070 213.36214 206.37358
 200.21701 195.16445 191.75589 189.80733 188.85377 188.92721 189.77164 191.08908
 192.82352 194.92796 197.20040 199.56884 202.02327 204.51271 206.61015 208.46159
 210.09703 211.25147 211.48990 211.72734 211.67378 211.38822 211.03066 210.67010
 210.29654 210.01597 209.83341 209.70685 209.64429 209.98473 210.38017 210.77860
 211.58104 212.76848 214.02792 215.82036 217.75780 219.81023 221.91467 224.00711
 226.07655 228.16999 230.27643 232.39186 234.53030 236.71174 238.97718 241.35662
 243.98706 246.24749 248.25893 250.03337 251.45981 252.59225 253.42369 253.74912
 253.79556 253.57900 252.94844 251.90588 250.52132 248.69175 246.61019 244.45263
 242.25307 240.06651 237.89595 235.74439 233.61382 231.49026 229.52570 227.69214
 225.98458 224.46602 223.10545 221.88689 220.77833 219.74777 218.86121 218.01165
 217.26308 216.45252 215.55996 214.93340 214.39284 215.11641 216.82591 218.69061
 220.50000 222.49664 223.94444 224.05421 223.62938 223.45901 224.22937 225.55809
 226.91615 229.27141 233.02077 237.58173 242.27060 246.83659 251.10710 254.94366
 258.33960 261.40002 264.22119 266.83731 269.23874 271.39438 273.24551 274.87198
 276.38654 277.83102 279.28323 280.64175 281.83063 282.88745 283.85501 284.73874
 285.54233 286.27008 286.91101 287.72943
 366.78100 356.34499 345.78697 334.66296 323.07594 311.27993 299.15991 286.97290
 274.69488 262.60187 250.62085 239.93184 230.06382 221.17781 213.36979 206.38178
 200.22576 195.17375 191.76573 189.81772 188.86470 188.93869 189.78367 191.10166
 192.83664 194.94163 197.21461 199.58360 202.03858 204.52857 206.62655 208.47854
 210.11452 211.26951 211.50849 211.74648 211.69346 211.40845 211.05143 210.69142
 210.31840 210.03839 209.85637 209.73036 209.66834 210.00933 210.40531 210.80430
 211.60728 212.79527 214.05525 215.84824 217.78623 219.83921 221.94420 224.03718
 226.10717 228.20115 230.30814 232.42412 234.56311 236.74509 239.01108 241.39106
 244.02205 246.28303 248.29502 250.07000 251.49699 252.62997 253.46196 253.78794
 253.83493 253.61891 252.98890 251.94688 250.56287 248.73385 246.65284 244.49582
 242.29681 240.11079 237.94078 235.78976 233.65975 231.53673 229.57272 227.73970
 226.03269 224.51467 223.15466 221.93664 220.82863 219.79861 218.91260 218.06358
 217.31557 216.50555 215.61354 214.98752 214.44751 215.15472 216.82559 218.70226
 220.48450 222.42407 223.85878 223.99629 223.57355 223.35530 224.07001 225.36029
 226.83003 229.35089 233.14809 237.71721 242.38838 246.92574 251.17442 254.99464
 258.37527 261.43643 264.27133 266.88416 269.26834 271.39792 273.22574 274.84912
 276.37982 277.83850 279.34637 280.71155 281.89810 282.95276 283.92007 284.80328
 285.60608 286.33325 286.97156 287.79834
 366.78100 356.34552 345.78804 334.66456 323.07808 311.28260 299.16312 286.97664
 274.69916 262.60668 250.62620 239.93772 230.07024 221.18476 213.37728 206.38980
 200.23432 195.18284 191.77536 189.82788 188.87540 188.94992 189.79544 191.11397
 192.84949 194.95501 197.22853 199.59805 202.05357 204.54409 206.64261 208.49513
 210.13165 211.28717 211.52669 211.76521 211.71273 211.42825 211.07177 210.71229
 210.33981 210.06033 209.87885 209.75337 209.69189 210.03341 210.42993 210.82945
 211.63297 212.82149 214.08201 215.87553 217.81405 219.86757 221.97309 224.06661
 226.13713 228.23165 230.33917 232.45569 234.59521 236.77773 239.04425 241.42477
 244.05629 246.31781 248.33033 250.10585 251.53338 252.66690 253.49942 253.82594
 253.87346 253.65798 253.02850 251.98702 250.60354 248.77506 246.69458 244.53810
 242.33962 240.15414 237.98466 235.83418 233.70470 231.58222 229.61874 227.78626
 226.07978 224.56230 223.20282 221.98534 220.87786 219.84838 218.96290 218.11442
 217.36694 216.55746 215.66598 215.04050 214.50102 215.19209 216.82481 218.70268
 220.47989 222.36600 223.75497 223.91200 223.50739 223.26433 223.93439 225.17575
 226.72824 229.40787 233.27266 237.85629 242.50739 247.01630 251.24542 255.05016
 258.41376 261.47354 264.31726 266.92297 269.28778 271.39206 273.19513 274.81766
 276.37924 277.87607 279.39709 280.76620 281.95496 283.01099 283.97897 284.86301
 285.66428 286.39081 287.02744 287.85840
 366.78100 356.34602 345.78904 334.66605 323.08007 311.28509 299.16611 286.98013
 274.70314 262.61116 250.63118 239.94320 230.07622 221.19123 213.38425 206.39727
 200.24229 195.19131 191.78432 189.83734 188.88536 188.96038 189.80640 191.12541
 192.86143 194.96745 197.24147 199.61149 202.06750 204.55852 206.65754 208.51056
 210.14757 211.30359 211.54361 211.78263 211.73065 211.44666 211.09068 210.73170
 210.35972 210.08074 209.89975 209.77477 209.71379 210.05581 210.45283 210.85284
 211.65686 212.84588 214.10690 215.90092 217.83993 219.89395 221.99997 224.09399
 226.16501 228.26002 230.36804 232.48506 234.62508 236.80810 239.07511 241.45613
 244.08815 246.35017 248.36319 250.13920 251.56722 252.70124 253.53426 253.86128
 253.90929 253.69431 253.06533 252.02435 250.64137 248.81338 246.73340 244.57742
 242.37944 240.19446 238.02547 235.87549 233.74651 231.62453 229.66154 227.82956
 226.12358 224.60660 223.24762 222.03063 220.92365 219.89467 219.00969 218.16171
 217.41472 216.60574 215.71476 215.08978 214.55080 215.22832 216.82904 218.68877
 220.47458 222.32608 223.65471 223.80795 223.41800 223.16576 223.80391 225.00653
 226.63054 229.45923 233.40056 238.00006 242.63002 247.11034 251.32014 255.10735
 258.45328 261.51059 264.36542 266.96033 269.29742 271.36703 273.15259 274.78351
 276.35574 277.92108 279.45224 280.82047 282.00974 283.06448 284.03287 284.91599
 285.71686 286.44269 287.07922 287.90863
 366.78100 356.34645 345.78991 334.66736 323.08182 311.28727 299.16872 286.98318
 274.70663 262.61509 250.63554 239.94799 230.08145 221.19690 213.39036 206.40381
 200.24926 195.19872 191.79217 189.84563 188.89408 188.96954 189.81599 191.13544
 192.87190 194.97835 197.25281 199.62326 202.07971 204.57117 206.67062 208.52408
 210.16153 211.31798 211.55844 211.79789 211.74635 211.46280 211.10725 210.74871
 210.37716 210.09862 209.91807 209.79352 209.73298 210.07543 210.47289 210.87334
 211.67779 212.86725 214.12870 215.92316 217.86261 219.91707 222.02352 224.11797
 226.18943 228.28488 230.39334 232.51079 234.65124 236.83470 239.10215 241.48361
 244.11606 246.37851 248.39197 250.16842 251.59688 252.73133 253.56478 253.89224
 253.94069 253.72615 253.09760 252.05705 250.67451 248.84696 246.76742 244.61187
 242.41432 240.22978 238.06123 235.91169 233.78314 231.66160 229.69905 227.86750
 226.16196 224.64541 223.28687 222.07032 220.96377 219.93523 219.05068 218.20314
 217.45659 216.64804 215.75750 215.13295 214.59441 215.26117 216.83650 218.67358
 220.46336 222.28943 223.56395 223.69987 223.31192 223.05063 223.66388 224.84297
 226.54025 229.51385 233.53667 238.15329 242.76291 247.21556 251.40619 255.17244
 258.49435 261.54114 264.39676 266.97876 269.29657 271.34473 273.10486 274.73538
 276.39377 277.96252 279.49438 280.86307 282.05014 283.10645 284.07425 284.95691
 285.75784 286.48260 287.12067 287.94696
 366.78100 356.34691 345.79083 334.66874 323.08366 311.28957 299.17148 286.98640
 274.71031 262.61923 250.64014 239.95306 230.08697 221.20288 213.39680 206.41071
 200.25663 195.20654 191.80045 189.85437 188.90328 188.97920 189.82611 191.14602
 192.88294 194.98985 197.26477 199.63568 202.09260 204.58451 206.68442 208.53834
 210.17625 211.33317 211.57408 211.81399 211.76291 211.47982 211.12474 210.76665
 210.39556 210.11748 209.93739 209.81331 209.75322 210.09614 210.49405 210.89496
 211.69988 212.88979 214.15171 215.94662 217.88653 219.94145 222.04836 224.14328
 226.21519 228.31110 230.42002 232.53793 234.67885 236.86276 239.13068 241.51259
 244.14550 246.40842 248.42233 250.19925 251.62816 252.76307 253.59699 253.92490
 253.97382 253.75973 253.13164 252.09156 250.70947 248.88239 246.80330 244.64821
 242.45113 240.26704 238.09896 235.94987 233.82179 231.70070 229.73861 227.90753
 226.20244 224.68636 223.32827 222.11218 221.00610 219.97801 219.09393 218.24684
 217.50075 216.69267 215.80258 215.17850 214.64041 215.29404 216.83829 218.66052
 220.45215 222.25012 223.47527 223.59348 223.20480 222.93102 223.51228 224.67798
 226.45421 229.56792 233.67572 238.31032 242.89958 247.32652 251.49998 255.24829
 258.54935 261.58658 264.43719 266.99185 269.26114 271.25516 273.01855 274.72205
 276.31894 278.01334 279.55078 280.91516 282.10031 283.15375 284.11832 284.99835
 285.79471 286.51660 287.14911 287.97894
 366.78100 356.34744 345.79188 334.67032 323.08576 311.29220 299.17465 286.99009
 274.71453 262.62397 250.64541 239.95885 230.09329 221.20973 213.40417 206.41861
 200.26505 195.21549 191.80994 189.86438 188.91382 188.99026 189.83770 191.15814
 192.89558 195.00302 197.27846 199.64990 202.10734 204.59978 206.70023 208.55467
 210.19311 211.35055 211.59199 211.83243 211.78187 211.49931 211.14475 210.78719
 210.41663 210.13907 209.95952 209.83596 209.77640 210.11984 210.51828 210.91972
 211.72516 212.91560 214.17804 215.97348 217.91392 219.96936 222.07681 224.17225
 226.24469 228.34113 230.45057 232.56901 234.71045 236.89489 239.16333 241.54577
 244.17921 246.44266 248.45710 250.23454 251.66398 252.79942 253.63386 253.96230
 254.01174 253.79818 253.17062 252.13106 250.74950 248.92295 246.84439 244.68983
 242.49327 240.30971 238.14215 235.99359 233.86603 231.74547 229.78391 227.95335
 226.24879 224.73324 223.37568 222.16012 221.05456 220.02700 219.14344 218.29688
 217.55132 216.74376 215.85420 215.23064 214.69308 215.32770 216.82706 218.64040
 220.45084 222.22217 223.38803 223.47345 223.07962 222.80043 223.35362 224.52786
 226.38918 229.63130 233.82254 238.47264 243.03935 247.43974 251.58978 255.31311
 258.58951 261.61575 264.46011 266.99973 269.26135 271.25598 272.98434 274.54556
 276.40643 278.04572 279.57703 280.94089 282.12558 283.17737 284.14163 285.01840
 285.81534 286.53375 287.16818 287.99612
 366.78100 356.34783 345.79266 334.67149 323.08732 311.29415 299.17698 286.99281
 274.71763 262.62746 250.64929 239.96312 230.09795 221.21478 213.40961 206.42444
 200.27127 195.22210 191.81693 189.87176 188.92159 188.99842 189.84625 191.16707
 192.90490 195.01273 197.28856 199.66039 202.11822 204.61105 206.71188 208.56671
 210.20554 211.36337 211.60520 211.84603 211.79586 211.51369 211.15951 210.80234
 210.43217 210.15500 209.97583 209.85266 209.79349 210.13732 210.53615 210.93798
 211.74381 212.93464 214.19747 215.99330 217.93413 219.98995 222.09778 224.19361
 226.26644 228.36327 230.47310 232.59193 234.73376 236.91859 239.18742 241.57025
 244.20408 246.46791 248.48274 250.26057 251.69039 252.82622 253.66105 253.98988
 254.03971 253.82654 253.19937 252.16020 250.77903 248.95286 246.87469 244.72052
 242.52435 240.34118 238.17401 236.02583 233.89866 231.77849 229.81732 227.98715
 226.28298 224.76781 223.41064 222.19547 221.09030 220.06313 219.17996 218.33379
 217.58862 216.78145 215.89227 215.26910 214.73193 215.35323 216.82112 218.61511
 220.44293 222.20158 223.31183 223.34613 222.93205 222.64751 223.17790 224.38692
 226.34349 229.70358 233.97301 238.64124 243.19072 247.57277 251.70796 255.40858
 258.65576 261.65793 264.47632 266.97223 269.17526 271.11121 272.81613 274.68320
 276.39017 278.11038 279.61780 280.97232 282.15259 283.20200 284.16196 285.03992
 285.83286 286.55341 287.18558 288.01572
 366.78100 356.34812 345.79324 334.67236 323.08847 311.29559 299.17871 286.99483
 274.71995 262.63007 250.65218 239.96630 230.10142 221.21854 213.41366 206.42878
 200.27590 195.22701 191.82213 189.87725 188.92737 189.00449 189.85261 191.17373
 192.91184 195.01996 197.29608 199.66820 202.12632 204.61944 206.72055 208.57567
 210.21479 211.37291 211.61503 211.85615 211.80627 211.52438 211.17050 210.81362
 210.44374 210.16686 209.98798 209.86510 209.80621 210.15033 210.54945 210.95157
 211.75769 212.94881 214.21192 216.00804 217.94916 220.00528 222.11340 224.20952
 226.28264 228.37975 230.48987 232.60899 234.75111 236.93623 239.20535 241.58846
 244.22258 246.48670 248.50182 250.27994 251.71006 252.84618 253.68129 254.01041
 254.06053 253.84765 253.22077 252.18189 250.80101 248.97512 246.89724 244.74336
 242.54748 240.36460 238.19772 236.04983 233.92295 231.80307 229.84219 228.01231
 226.30843 224.79355 223.43666 222.22178 221.11690 220.09002 219.20714 218.36126
 217.61638 216.80949 215.92061 215.29773 214.76085 215.37512 216.82639 218.58424
 220.42650 222.18651 223.25026 223.21777 222.76266 222.47150 222.99129 224.25960
 226.31479 229.78397 234.12193 238.80511 243.34032 247.70923 251.83359 255.51335
 258.73029 261.70697 264.50275 266.97516 269.14935 271.02481 272.69028 274.72299
 276.35678 278.09549 279.59976 280.95142 282.13232 283.17963 284.13910 285.01602
 285.81290 286.53769 287.17441 288.00998
 366.78100 356.34847 345.79393 334.67340 323.08987 311.29734 299.18080 286.99727
 274.72274 262.63320 250.65567 239.97014 230.10560 221.22307 213.41854 206.43401
 200.28147 195.23294 191.82841 189.88387 188.93434 189.01181 189.86027 191.18174
 192.92021 195.02868 197.30514 199.67761 202.13608 204.62954 206.73101 208.58648
 210.22594 211.38441 211.62688 211.86835 211.81881 211.53728 211.18375 210.82721
 210.45768 210.18115 210.00261 209.88008 209.82155 210.16602 210.56548 210.96795
 211.77442 212.96588 214.22935 216.02582 217.96728 220.02375 222.13222 224.22869
 226.30215 228.39962 230.51009 232.62955 234.77202 236.95749 239.22695 241.61042
 244.24489 246.50936 248.52482 250.30329 251.73376 252.87022 253.70569 254.03516
 254.08562 253.87309 253.24656 252.20803 250.82749 249.00196 246.92443 244.77089
 242.57536 240.39283 238.22629 236.07876 233.95223 231.83270 229.87216 228.04263
 226.33910 224.82456 223.46803 222.25350 221.14896 220.12243 219.23990 218.39437
 217.64983 216.84330 215.95477 215.33223 214.79570 215.39926 216.82527 218.54431
 220.41057 222.18318 223.20323 223.08575 222.56564 222.25049 222.78148 224.14282
 226.31357 229.89447 234.28365 238.97510 243.50272 247.86386 251.97853 255.63881
 258.82245 261.74930 264.47906 266.89087 269.03839 270.94458 272.76358 274.61545
 276.40372 278.07510 279.57935 280.92987 282.10831 283.15427 284.11267 284.98798
 285.78662 286.51379 287.15393 287.97153
 366.78100 356.34869 345.79437 334.67406 323.09074 311.29843 299.18211 286.99880
 274.72448 262.63517 250.65786 239.97254 230.10823 221.22591 213.42160 206.43728
 200.28497 195.23665 191.83234 189.88802 188.93871 189.01640 189.86508 191.18677
 192.92545 195.03414 197.31082 199.68351 202.14219 204.63588 206.73757 208.59325
 210.23294 211.39162 211.63431 211.87599 211.82668 211.54536 211.19205 210.83573
 210.46642 210.19011 210.01179 209.88948 209.83116 210.17585 210.57553 210.97822
 211.78490 212.97659 214.24028 216.03696 217.97865 220.03533 222.14402 224.24070
 226.31439 228.41207 230.52276 232.64244 234.78513 236.97082 239.24050 241.62419
 244.25887 246.52356 248.53924 250.31793 251.74861 252.88530 253.72099 254.05067
 254.10136 253.88904 253.26273 252.22441 250.84410 249.01878 246.94147 244.78816
 242.59284 240.41053 238.24421 236.09690 233.97058 231.85127 229.89095 228.06164
 226.35832 224.84401 223.48770 222.27338 221.16907 220.14275 219.26044 218.41512
 217.67081 216.86449 215.97618 215.35387 214.81755 215.41371 216.82220 218.51814
 220.38174 222.16930 223.17473 222.98175 222.37068 221.99329 222.53578 223.99315
 226.30093 230.01456 234.45564 239.15854 243.68839 248.04631 252.15189 255.80098
 258.97318 261.87146 264.55069 266.89877 268.91666 270.47305 272.76047 274.57599
 276.38480 278.01688 279.50818 280.85159 282.02686 283.07214 284.02606 284.89865
 285.69901 286.42593 287.05478 287.87598
 366.78100 356.34864 345.79429 334.67393 323.09058 311.29822 299.18187 286.99851
 274.72416 262.63480 250.65744 239.97209 230.10773 221.22538 213.42102 206.43667
 200.28431 195.23596 191.83160 189.88724 188.93789 189.01553 189.86418 191.18582
 192.92447 195.03311 197.30976 199.68240 202.14104 204.63469 206.73633 208.59198
 210.23162 211.39027 211.63291 211.87456 211.82520 211.54385 211.19049 210.83413
 210.46478 210.18842 210.01007 209.88771 209.82936 210.17400 210.57365 210.97629
 211.78293 212.97458 214.23822 216.03487 217.97651 220.03316 222.14180 224.23845
 226.31209 228.40973 230.52038 232.64002 234.78267 236.96831 239.23796 241.62160
 244.25625 246.52089 248.53653 250.31518 251.74582 252.88247 253.71811 254.04776
 254.09840 253.88605 253.25969 252.22133 250.84098 249.01562 246.93827 244.78491
 242.58956 240.40720 238.24085 236.09349 233.96713 231.84778 229.88742 228.05807
 226.35471 224.84036 223.48400 222.26965 221.16529 220.13893 219.25658 218.41122
 217.66687 216.86051 215.97216 215.34980 214.81345 215.41106 216.82294 218.50966
 220.35085 222.13321 223.13266 222.89238 222.20856 221.74361 222.26018 223.82556
 226.29091 230.14197 234.63615 239.34692 243.87685 248.22624 252.30696 255.92982
 259.09253 261.98019 264.63129 266.88367 268.69769 270.83954 272.72690 274.63443
 276.24240 277.84579 279.30060 280.61664 281.76703 282.79974 283.74905 284.61823
 285.42102 286.15973 286.77823 287.59854
 366.78100 356.34859 345.79418 334.67377 323.09036 311.29794 299.18153 286.99812
 274.72371 262.63430 250.65689 239.97148 230.10707 221.22466 213.42024 206.43583
 200.28342 195.23501 191.83060 189.88619 188.93678 189.01437 189.86296 191.18455
 192.92313 195.03172 197.30831 199.68090 202.13949 204.63308 206.73467 208.59026
 210.22985 211.38843 211.63102 211.87261 211.82320 211.54179 211.18838 210.83197
 210.46256 210.18615 210.00773 209.88532 209.82691 210.17150 210.57109 210.97368
 211.78027 212.97186 214.23545 216.03203 217.97362 220.03021 222.13880 224.23539
 226.30898 228.40657 230.51716 232.63675 234.77934 236.96492 239.23451 241.61810
 244.25269 246.51728 248.53287 250.31146 251.74205 252.87864 253.71422 254.04381
 254.09440 253.88199 253.25558 252.21717 250.83676 249.01135 246.93394 244.78052
 242.58511 240.40270 238.23629 236.08888 233.96247 231.84306 229.88265 228.05324
 226.34982 224.83541 223.47900 222.26459 221.16018 220.13377 219.25136 218.40595
 217.66154 216.85513 215.96671 215.34430 214.80789 215.40730 216.82349 218.49049
 220.32669 222.10065 223.08997 222.79185 222.02170 221.48106 222.00769 223.66008
 226.27104 230.26410 234.83081 239.54427 244.06726 248.41003 252.46121 256.04880
 259.19720 262.08234 264.74524 267.02386 268.83429 270.79544 272.80478 274.55353
 276.15442 277.64853 279.01624 280.30692 281.46432 282.50748 283.46814 284.34952
 285.14172 285.84467 286.45886 287.28305
 366.78100 356.34875 345.79450 334.67425 323.09100 311.29876 299.18251 286.99926
 274.72501 262.63576 250.65851 239.97326 230.10901 221.22676 213.42252 206.43827
 200.28602 195.23777 191.83352 189.88927 188.94002 189.01777 189.86652 191.18828
 192.92703 195.03578 197.31253 199.68528 202.14403 204.63778 206.73953 208.59528
 210.23504 211.39379 211.63654 211.87829 211.82904 211.54779 211.19454 210.83829
 210.46904 210.19280 210.01455 209.89230 209.83405 210.17880 210.57855 210.98130
 211.78805 212.97980 214.24356 216.04031 217.98206 220.03881 222.14756 224.24431
 226.31806 228.41581 230.52656 232.64632 234.78907 236.97482 239.24457 241.62832
 244.26307 246.52782 248.54357 250.32232 251.75308 252.88983 253.72558 254.05533
 254.10608 253.89383 253.26758 252.22933 250.84909 249.02384 246.94659 244.79334
 242.59809 240.41584 238.24959 236.10234 233.97609 231.85685 229.89660 228.06735
 226.36410 224.84985 223.49360 222.27935 221.17510 220.14885 219.26661 218.42136
 217.67711 216.87086 215.98261 215.36036 214.82411 215.41495 216.81085 218.46939
 220.30547 222.05339 223.06454 222.72685 221.86086 221.22133 221.67041 223.42046
 226.24052 230.40340 235.04855 239.75938 244.27789 248.61996 252.65773 256.21490
 259.32910 262.17938 264.82034 267.15338 269.13058 270.83633 272.70123 274.51508
 276.11139 277.55133 278.85535 280.06940 281.18643 282.22028 283.18002 284.05756
 284.84561 285.54025 286.15540 286.98160
 366.78100 356.34889 345.79477 334.67466 323.09154 311.29943 299.18331 287.00020
 274.72608 262.63697 250.65985 239.97474 230.11062 221.22851 213.42440 206.44028
 200.28817 195.24005 191.83594 189.89182 188.94271 189.02059 189.86948 191.19136
 192.93025 195.03913 197.31602 199.68891 202.14779 204.64168 206.74356 208.59945
 210.23933 211.39822 211.64110 211.88299 211.83387 211.55276 211.19965 210.84353
 210.47442 210.19830 210.02019 209.89807 209.83996 210.18484 210.58473 210.98761
 211.79450 212.98638 214.25027 216.04716 217.98904 220.04593 222.15481 224.25170
 226.32558 228.42347 230.53435 232.65424 234.79712 236.98301 239.25289 241.63678
 244.27167 246.53655 248.55244 250.33132 251.76221 252.89909 253.73498 254.06486
 254.11575 253.90363 253.27752 252.23940 250.85929 249.03418 246.95706 244.80395
 242.60883 240.42672 238.26060 236.11349 233.98737 231.86826 229.90814 228.07903
 226.37591 224.86180 223.50569 222.29157 221.18746 220.16134 219.27923 218.43411
 217.69000 216.88388 215.99577 215.37365 214.83754 215.41840 216.79070 218.45831
 220.29381 222.00194 222.97507 222.70262 221.79066 220.85791 221.33508 223.30901
 226.26651 230.54259 235.26056 239.97035 244.47997 248.81520 252.83020 256.34970
 259.42224 262.21582 264.79044 267.11545 269.19458 271.01950 272.70596 274.50842
 276.10129 277.48831 278.74414 279.89951 280.88443 281.81177 282.74338 283.59821
 284.36349 285.05319 285.66769 286.49481
 366.78100 356.34871 345.79442 334.67413 323.09084 311.29855 299.18226 286.99897
 274.72468 262.63539 250.65810 239.97281 230.10852 221.22623 213.42194 206.43765
 200.28536 195.23707 191.83278 189.88849 188.93920 189.01691 189.86562 191.18733
 192.92604 195.03475 197.31146 199.68417 202.14288 204.63659 206.73830 208.59401
 210.23372 211.39243 211.63514 211.87685 211.82756 211.54627 211.19298 210.83669
 210.46740 210.19111 210.01282 209.89053 209.83224 210.17695 210.57666 210.97937
 211.78608 212.97779 214.24150 216.03821 217.97992 220.03663 222.14534 224.24205
 226.31576 228.41347 230.52418 232.64389 234.78660 236.97231 239.24202 241.62573
 244.26043 246.52514 248.54085 250.31956 251.75027 252.88698 253.72269 254.05240
 254.10311 253.89082 253.26453 252.22624 250.84595 249.02066 246.94337 244.79008
 242.59479 240.41250 238.24621 236.09892 233.97263 231.85334 229.89305 228.06376
 226.36047 224.84618 223.48989 222.27560 221.17131 220.14502 219.26273 218.41744
 217.67315 216.86686 215.97857 215.35628 214.81999 215.40324 216.78128 218.44385
 220.28085 221.96570 222.84935 222.61691 221.69519 220.54649 221.07336 223.24313
 226.30209 230.66476 235.45732 240.18452 244.68825 248.99313 252.96228 256.44000
 259.48691 262.24149 264.76135 267.06284 269.17197 271.11453 272.83286 274.54620
 276.08130 277.41269 278.61288 279.73578 280.67850 281.51968 282.42535 283.25833
 283.92294 284.60599 285.22916 286.07532
 366.78100 356.34857 345.79413 334.67370 323.09027 311.29784 299.18140 286.99797
 274.72354 262.63411 250.65667 239.97124 230.10681 221.22438 213.41994 206.43551
 200.28308 195.23465 191.83021 189.88578 188.93635 189.01392 189.86248 191.18405
 192.92262 195.03119 197.30775 199.68032 202.13889 204.63245 206.73402 208.58959
 210.22916 211.38772 211.63029 211.87186 211.82243 211.54099 211.18756 210.83113
 210.46170 210.18526 210.00683 209.88440 209.82597 210.17053 210.57010 210.97267
 211.77924 212.97080 214.23437 216.03094 217.97250 220.02907 222.13764 224.23421
 226.30777 228.40534 230.51591 232.63548 234.77804 236.96361 239.23318 241.61675
 244.25131 246.51588 248.53145 250.31002 251.74058 252.87715 253.71272 254.04229
 254.09285 253.88042 253.25399 252.21556 250.83512 249.00969 246.93226 244.77882
 242.58339 240.40096 238.23453 236.08709 233.96066 231.84123 229.88080 228.05136
 226.34793 224.83350 223.47707 222.26263 221.15820 220.13177 219.24934 218.40390
 217.65947 216.85304 215.96461 215.34217 214.80574 215.39001 216.77045 218.43536
 220.25554 221.92500 222.72766 222.48689 221.57854 220.28419 220.84230 223.14665
 226.33820 230.78233 235.62558 240.38660 244.89926 249.17409 253.09647 256.53598
 259.55984 262.27765 264.75113 267.03500 269.15109 271.12552 272.91583 274.57401
 276.03036 277.30923 278.47491 279.58350 280.53043 281.35706 282.22708 283.00195
 283.64532 284.32477 284.94510 285.79166
 366.78100 356.34844 345.79388 334.67332 323.08975 311.29719 299.18063 286.99707
 274.72251 262.63295 250.65538 239.96982 230.10526 221.22270 213.41814 206.43358
 200.28102 195.23245 191.82789 189.88333 188.93377 189.01121 189.85965 191.18108
 192.91952 195.02796 197.30440 199.67684 202.13528 204.62872 206.73015 208.58559
 210.22503 211.38347 211.62591 211.86735 211.81778 211.53622 211.18266 210.82610
 210.45654 210.17998 210.00142 209.87885 209.82029 210.16473 210.56417 210.96661
 211.77305 212.96448 214.22792 216.02436 217.96580 220.02224 222.13068 224.22712
 226.30055 228.39799 230.50843 232.62787 234.77031 236.95575 239.22518 241.60862
 244.24306 246.50750 248.52294 250.30138 251.73182 252.86825 253.70369 254.03313
 254.08357 253.87101 253.24445 252.20589 250.82532 248.99976 246.92220 244.76864
 242.57308 240.39052 238.22395 236.07639 233.94983 231.83027 229.86971 228.04015
 226.33659 224.82202 223.46546 222.25090 221.14634 220.11978 219.23722 218.39165
 217.64709 216.84053 215.95197 215.32941 214.79285 215.37805 216.76067 218.42366
 220.23697 221.88416 222.59897 222.30972 221.39030 220.04881 220.66145 223.02150
 226.36302 230.90105 235.80045 240.60356 245.10269 249.34970 253.24995 256.68829
 259.70615 262.39563 264.82068 267.07465 269.18146 271.14447 272.94046 274.53323
 275.91284 277.15332 278.31052 279.39127 280.31747 281.15338 281.99298 282.72308
 283.42960 284.12213 284.74203 285.58618
 366.78100 356.34839 345.79377 334.67316 323.08955 311.29693 299.18032 286.99671
 274.72210 262.63248 250.65487 239.96926 230.10464 221.22203 213.41742 206.43280
 200.28019 195.23158 191.82696 189.88235 188.93274 189.01012 189.85851 191.17990
 192.91829 195.02667 197.30306 199.67545 202.13383 204.62722 206.72861 208.58399
 210.22338 211.38177 211.62415 211.86554 211.81593 211.53432 211.18070 210.82409
 210.45448 210.17786 209.99925 209.87664 209.81802 210.16241 210.56180 210.96418
 211.77057 212.96196 214.22534 216.02173 217.96312 220.01951 222.12789 224.22428
 226.29767 228.39505 230.50544 232.62483 234.76721 236.95260 239.22199 241.60537
 244.23976 246.50415 248.51953 250.29792 251.72831 252.86470 253.70008 254.02947
 254.07986 253.86724 253.24063 252.20202 250.82140 248.99579 246.91818 244.76456
 242.56895 240.38634 238.21973 236.07211 233.94550 231.82589 229.86527 228.03566
 226.33205 224.81743 223.46082 222.24621 221.14159 220.11498 219.23237 218.38675
 217.64214 216.83553 215.94692 215.32430 214.78769 215.36815 216.73953 218.41690
 220.22870 221.85159 222.51649 222.11911 221.11676 219.77176 220.47205 222.91214
 226.40695 231.02765 235.96713 240.80865 245.31969 249.52890 253.39151 256.83405
 259.87451 262.56125 264.95383 267.17548 269.26315 271.20731 272.96716 274.50485
 275.82993 277.01926 278.11633 279.12906 280.02335 280.82739 281.55859 282.28604
 283.04352 283.74048 284.36710 285.21844
 366.78100 356.34790 345.79281 334.67171 323.08761 311.29452 299.17742 286.99332
 274.71823 262.62813 250.65003 239.96394 230.09884 221.21575 213.41065 206.42555
 200.27246 195.22336 191.81826 189.87317 188.92307 188.99997 189.84788 191.16878
 192.90668 195.01459 197.29049 199.66239 202.12030 204.61320 206.71410 208.56901
 210.20791 211.36582 211.60772 211.84862 211.79853 211.51643 211.16233 210.80524
 210.43514 210.15804 209.97895 209.85585 209.79675 210.14066 210.53956 210.94146
 211.74737 212.93827 214.20117 215.99708 217.93798 219.99389 222.10179 224.19769
 226.27060 228.36750 230.47740 232.59631 234.73821 236.92311 239.19202 241.57492
 244.20882 246.47273 248.48763 250.26553 251.69544 252.83134 253.66624 253.99515
 254.04505 253.83196 253.20486 252.16576 250.78467 248.95857 246.88047 244.72638
 242.53028 240.34718 238.18009 236.03199 233.90489 231.78480 229.82370 227.99360
 226.28951 224.77441 223.41731 222.20222 221.09712 220.07002 219.18693 218.34083
 217.59574 216.78864 215.89954 215.27645 214.73935 215.33607 216.74593 218.39052
 220.20337 221.80342 222.44839 221.95702 220.82529 219.45436 220.22365 222.77559
 226.47113 231.16135 236.13846 241.02026 245.56056 249.76208 253.59772 257.01910
 260.05334 262.71750 265.06070 267.23984 269.29657 271.20590 272.92584 274.45505
 275.78217 276.95435 277.97778 278.86874 279.62305 280.31500 280.99176 281.74078
 282.51166 283.21964 283.88559 284.78690
 354.97500 345.04800 334.58700 324.11500 313.32600 302.53700 291.65000 280.76700
 269.93100 259.19300 248.62200 238.61700 229.08700 220.35500 212.54000 205.53500
 199.46400 194.49300 191.14300 189.19000 188.08900 188.01400 188.72400 189.90600
 191.46900 193.38200 195.40300 197.55600 199.80700 202.06000 204.28800 206.47900
 208.55200 210.37800 212.02500 213.65900 214.99800 216.11800 217.17200 218.25900
 219.49400 220.64500 221.67900 222.61400 223.54500 224.98200 226.57100 228.19000
 229.79700 231.81100 233.86500 235.97200 238.24200 240.55300 242.89900 245.25300
 247.48800 249.53500 251.36600 252.84800 254.09800 255.16700 256.02700 256.25300
 256.09500 255.54300 253.93500 252.56600 251.38400 250.24500 249.05200 247.70100
 246.01600 243.99600 241.78400 239.39300 236.81300 234.22300 231.65800 229.14400
 226.74000 224.47300 222.33500 220.32500 218.44000 216.67700 214.96200 213.47200
 212.20000 211.10800 210.26000 209.63900 209.24400 209.03100 209.05800 209.33300
 209.78400 210.62600 211.33100 212.39100 213.62500 214.84668 217.72949 219.47640
 220.32566 220.86828 220.88710 220.27371 219.43733 218.84250 219.04934 220.86203
 222.60583 225.72206 229.03064 232.61777 236.12270 239.51333 242.70767 245.68587
 248.41061 250.90679 253.19353 254.91714 256.48655 257.94920 259.39966 260.69384
 261.81714 262.77997 263.71679 264.54570 265.26305 265.89772 266.47676 267.00133
 267.47312 267.89325 268.26027 268.72800
