|-------------------------------------------------------------------------|
|   File Name : in_temp.dat
|   Subject   : temperature profiles used for initial guess atmosphere
|   File Type : input of gmtr
|   Data Type : atmospherical data
|   Author/s  : WRF-Chem
|   Date      : Fri Jul 26 15:39:24 2024
|-------------------------------------------------------------------------|

 WRF-Chem temperature
#
 values of T (K)    (8f10.5)
#
 354.97500 345.04800 334.58700 324.11500 313.32600 302.53700 291.65000 280.76700
 269.93100 259.19300 248.62200 238.61700 229.08700 220.35500 212.54000 205.53500
 199.46400 194.49300 191.14300 189.19000 188.08900 188.01400 188.72400 189.90600
 191.46900 193.38200 195.40300 197.55600 199.80700 202.06000 204.28800 206.47900
 208.55200 210.37800 212.02500 213.65900 214.99800 216.11800 217.17200 218.25900
 219.49400 220.64500 221.67900 222.61400 223.54500 224.98200 226.57100 228.19000
 229.79700 231.81100 233.86500 235.97200 238.24200 240.55300 242.89900 245.25300
 247.48800 249.53500 251.36600 252.84800 254.09800 255.16700 256.02700 256.25300
 256.09500 255.54300 253.93500 252.56600 251.38400 250.24500 249.05200 247.70100
 246.01600 243.99600 241.78400 239.39300 236.81300 234.22300 231.65800 229.14400
 226.74000 224.47300 222.33500 220.32500 218.44000 216.67700 214.96200 213.47200
 212.20000 211.10800 210.26000 209.63900 209.24400 209.03100 209.05800 209.33300
 209.78400 210.62600 211.33100 212.39100 213.62500 214.84668 217.72949 219.47640
 220.32566 220.86828 220.88710 220.27371 219.43733 218.84250 219.04934 220.86203
 222.60583 225.72206 229.03064 232.61777 236.12270 239.51333 242.70767 245.68587
 248.41061 250.90679 253.19353 254.91714 256.48655 257.94920 259.39966 260.69384
 261.81714 262.77997 263.71679 264.54570 265.26305 265.89772 266.47676 267.00133
 267.47312 267.89325 268.26027 268.72800
 366.78100 356.33500 345.76700 334.63300 323.03600 311.23000 299.10000 286.90300
 274.61500 262.51200 250.52100 239.82200 229.94400 221.04800 213.23000 206.23200
 200.06600 195.00400 191.58600 189.62800 188.66500 188.72900 189.56400 190.87200
 192.59700 194.69200 196.95500 199.31400 201.75900 204.23900 206.32700 208.16900
 209.79500 210.94000 211.16900 211.39700 211.33400 211.03900 210.67200 210.30200
 209.91900 209.62900 209.43700 209.30100 209.22900 209.56000 209.94600 210.33500
 211.12800 212.30600 213.55600 215.33900 217.26700 219.31000 221.40500 223.48800
 225.54800 227.63200 229.72900 231.83500 233.96400 236.13600 238.39200 240.76200
 243.38300 245.63400 247.63600 249.40100 250.81800 251.94100 252.76300 253.07900
 253.11600 252.89000 252.25000 251.19800 249.80400 247.96500 245.87400 243.70700
 241.49800 239.30200 237.12200 234.96100 232.82100 230.68800 228.71400 226.87100
 225.15400 223.62600 222.25600 221.02800 219.91000 218.87000 217.97400 217.11500
 216.35700 215.53700 214.63500 213.99900 213.44900 212.85855 212.01316 212.61654
 214.26826 216.08686 218.14273 220.53346 223.40855 226.78828 231.49734 235.90155
 239.42278 243.28576 247.23140 251.11907 254.80144 258.23331 261.38913 264.27520
 266.89312 269.26852 271.44504 273.08845 274.58484 275.98591 277.39845 278.65879
 279.75272 280.69038 281.56708 282.34086 283.01050 283.60295 284.14348 284.63317
 285.07358 285.46577 285.80838 286.24500
 381.81900 372.39900 361.20600 349.77600 337.62200 324.85300 311.81000 298.35300
 284.86000 271.32400 258.56100 246.30400 236.08700 226.79600 218.44800 211.29000
 205.52200 200.89400 197.38100 194.84800 193.01500 192.31500 192.25000 192.43100
 192.91200 193.53700 194.13600 194.71200 195.26200 195.83100 196.39300 196.97600
 197.60400 198.14900 198.58400 199.05700 199.69500 200.37800 201.05400 201.70800
 202.31300 202.85700 203.35500 203.86200 204.56900 205.29700 206.02600 206.98700
 208.19300 209.44100 210.96900 212.57600 214.46200 216.51300 218.63000 220.85300
 223.34100 225.96200 228.73900 231.69700 234.70600 237.70600 240.69200 243.65700
 246.73700 249.69900 252.52100 255.06300 257.29000 259.23300 260.63300 261.68000
 262.46100 262.79800 262.69100 262.22400 261.06900 259.52500 257.70700 255.50700
 253.00100 250.30200 247.39800 244.45200 241.65400 239.05400 236.73300 234.59000
 232.59500 230.72500 228.83400 226.82600 224.66600 222.38700 220.10400 217.71500
 215.45900 213.06600 210.54600 208.09300 205.35400 202.08130 196.05959 200.71215
 209.01611 216.90438 223.84126 229.78593 235.00632 240.20838 245.98943 250.68668
 254.32982 257.93487 261.55666 264.96801 268.15192 271.06452 273.76717 276.25691
 278.57680 280.74479 282.77456 284.60533 286.27232 287.81705 289.31715 290.65561
 291.81734 292.81312 293.70701 294.49387 295.17482 295.77730 296.32696 296.82492
 297.27278 297.67160 298.02000 298.46400
 399.33000 389.90700 379.81300 368.66800 357.52200 345.30100 333.07400 320.22700
 307.21600 293.84800 280.37600 267.29600 254.61000 242.98700 232.15100 221.97700
 212.67200 204.28600 197.66900 192.82100 189.48600 187.45200 186.81400 187.08900
 187.78100 189.05400 190.64800 192.54200 194.63000 196.75200 198.67100 200.15800
 201.53500 202.48700 202.97500 203.34000 203.53900 203.49700 203.38500 203.24700
 203.00500 202.78600 202.60300 202.43700 202.42600 202.88800 203.42000 203.95100
 204.89500 205.99200 207.30100 208.95800 210.73800 213.10000 215.56400 218.18000
 220.96600 223.91800 226.96100 230.09200 233.29300 236.55700 239.95500 243.53700
 246.84500 249.39000 251.54200 253.47400 255.19500 256.48400 257.43100 258.05900
 258.21200 258.04000 257.58200 256.64300 255.23900 253.50700 251.40800 249.05600
 246.57600 243.99400 241.38900 238.83000 236.34400 233.98600 231.96900 230.11800
 228.42300 226.89900 225.54800 224.29700 223.10500 221.96500 220.95800 220.11300
 219.49000 218.92000 218.32500 217.88100 217.42300 216.96366 216.35568 216.80261
 217.73415 218.28582 218.64258 219.10077 220.44626 222.53987 226.38451 230.35736
 233.59734 237.39164 241.29814 245.22796 248.98002 252.51130 255.78595 258.80109
 261.54781 264.05210 266.34239 268.04198 269.58951 271.01303 272.35754 273.55718
 274.59842 275.49092 276.28989 276.99307 277.60161 278.14001 278.63122 279.07623
 279.47646 279.83287 280.14422 280.54100
 399.73800 389.78500 379.66200 368.15100 356.64100 344.35000 331.79200 318.88800
 305.72600 292.49300 279.20900 266.73800 254.69600 244.21100 234.45700 225.43300
 217.56900 210.45100 204.30000 199.30600 195.45800 192.57600 191.02700 190.38600
 190.23900 190.53400 191.16600 191.92500 192.79500 193.76600 194.73200 195.31200
 195.80000 196.05200 196.11500 196.11500 196.03900 195.72300 195.34000 194.98900
 194.75100 194.79200 195.13300 195.59800 196.50600 198.13600 199.85800 201.56600
 204.17900 206.82300 209.89300 213.28400 216.82800 220.60500 224.38700 228.20900
 232.03200 235.82500 239.56000 243.25800 246.84500 250.20100 253.70900 257.46800
 261.53000 264.22100 266.60100 268.68100 270.32900 271.74100 272.83600 273.47400
 273.89800 274.00200 273.75700 273.28800 272.37100 271.10000 269.58900 267.77900
 265.81600 263.72100 261.39300 258.91600 256.29800 253.42300 250.33100 247.11400
 243.83700 240.52900 237.24900 233.99900 230.72800 227.51500 224.25400 220.95200
 217.62700 213.65600 210.12100 206.78900 204.01000 201.99491 199.07309 198.76551
 199.40006 200.48994 201.46112 202.31912 203.45100 204.96110 207.47502 210.85391
 213.70530 217.29629 220.99574 224.72316 228.28753 231.64854 234.68024 237.40893
 239.70644 241.60899 243.46854 245.67368 247.68154 249.52395 251.24767 252.78566
 254.12057 255.26479 256.23740 257.09036 257.82852 258.48160 259.07744 259.61723
 260.10271 260.53504 260.91270 261.39400
 399.73800 389.78500 379.66200 368.15100 356.64100 344.35000 331.79200 318.88800
 305.72600 292.49300 279.20900 266.73800 254.69600 244.21100 234.45700 225.43300
 217.56900 210.45100 204.30000 199.30600 195.45800 192.57600 191.02700 190.38600
 190.23900 190.53400 191.16600 191.92500 192.79500 193.76600 194.73200 195.31200
 195.80000 196.05200 196.11500 196.11500 196.03900 195.72300 195.34000 194.98900
 194.75100 194.79200 195.13300 195.59800 196.50600 198.13600 199.85800 201.56600
 204.17900 206.82300 209.89300 213.28400 216.82800 220.60500 224.38700 228.20900
 232.03200 235.82500 239.56000 243.25800 246.84500 250.20100 253.70900 257.46800
 261.53000 264.22100 266.60100 268.68100 270.32900 271.74100 272.83600 273.47400
 273.89800 274.00200 273.75700 273.28800 272.37100 271.10000 269.58900 267.77900
 265.81600 263.72100 261.39300 258.91600 256.29800 253.42300 250.33100 247.11400
 243.83700 240.52900 237.24900 233.99900 230.72800 227.51500 224.25400 220.95200
 217.62700 213.65600 210.12100 206.78900 204.01000 201.99491 199.07309 198.76551
 199.40006 200.48994 201.46112 202.31912 203.45100 204.96110 207.47502 210.85391
 213.70530 217.29629 220.99574 224.72316 228.28753 231.64854 234.68024 237.40893
 239.70644 241.60899 243.46854 245.67368 247.68154 249.52395 251.24767 252.78566
 254.12057 255.26479 256.23740 257.09036 257.82852 258.48160 259.07744 259.61723
 260.10271 260.53504 260.91270 261.39400
 399.33000 389.90700 379.81300 368.66800 357.52200 345.30100 333.07400 320.22700
 307.21600 293.84800 280.37600 267.29600 254.61000 242.98700 232.15100 221.97700
 212.67200 204.28600 197.66900 192.82100 189.48600 187.45200 186.81400 187.08900
 187.78100 189.05400 190.64800 192.54200 194.63000 196.75200 198.67100 200.15800
 201.53500 202.48700 202.97500 203.34000 203.53900 203.49700 203.38500 203.24700
 203.00500 202.78600 202.60300 202.43700 202.42600 202.88800 203.42000 203.95100
 204.89500 205.99200 207.30100 208.95800 210.73800 213.10000 215.56400 218.18000
 220.96600 223.91800 226.96100 230.09200 233.29300 236.55700 239.95500 243.53700
 246.84500 249.39000 251.54200 253.47400 255.19500 256.48400 257.43100 258.05900
 258.21200 258.04000 257.58200 256.64300 255.23900 253.50700 251.40800 249.05600
 246.57600 243.99400 241.38900 238.83000 236.34400 233.98600 231.96900 230.11800
 228.42300 226.89900 225.54800 224.29700 223.10500 221.96500 220.95800 220.11300
 219.49000 218.92000 218.32500 217.88100 217.42300 216.96366 216.35568 216.80261
 217.73415 218.28582 218.64258 219.10077 220.44626 222.53987 226.38451 230.35736
 233.59734 237.39164 241.29814 245.22796 248.98002 252.51130 255.78595 258.80109
 261.54781 264.05210 266.34239 268.04198 269.58951 271.01303 272.35754 273.55718
 274.59842 275.49092 276.28989 276.99307 277.60161 278.14001 278.63122 279.07623
 279.47646 279.83287 280.14422 280.54100
 381.81900 372.39900 361.20600 349.77600 337.62200 324.85300 311.81000 298.35300
 284.86000 271.32400 258.56100 246.30400 236.08700 226.79600 218.44800 211.29000
 205.52200 200.89400 197.38100 194.84800 193.01500 192.31500 192.25000 192.43100
 192.91200 193.53700 194.13600 194.71200 195.26200 195.83100 196.39300 196.97600
 197.60400 198.14900 198.58400 199.05700 199.69500 200.37800 201.05400 201.70800
 202.31300 202.85700 203.35500 203.86200 204.56900 205.29700 206.02600 206.98700
 208.19300 209.44100 210.96900 212.57600 214.46200 216.51300 218.63000 220.85300
 223.34100 225.96200 228.73900 231.69700 234.70600 237.70600 240.69200 243.65700
 246.73700 249.69900 252.52100 255.06300 257.29000 259.23300 260.63300 261.68000
 262.46100 262.79800 262.69100 262.22400 261.06900 259.52500 257.70700 255.50700
 253.00100 250.30200 247.39800 244.45200 241.65400 239.05400 236.73300 234.59000
 232.59500 230.72500 228.83400 226.82600 224.66600 222.38700 220.10400 217.71500
 215.45900 213.06600 210.54600 208.09300 205.35400 202.08130 196.05959 200.71215
 209.01611 216.90438 223.84126 229.78593 235.00632 240.20838 245.98943 250.68668
 254.32982 257.93487 261.55666 264.96801 268.15192 271.06452 273.76717 276.25691
 278.57680 280.74479 282.77456 284.60533 286.27232 287.81705 289.31715 290.65561
 291.81734 292.81312 293.70701 294.49387 295.17482 295.77730 296.32696 296.82492
 297.27278 297.67160 298.02000 298.46400
 366.78100 356.34809 345.79319 334.67228 323.08837 311.29546 299.17856 286.99465
 274.71974 262.62983 250.65193 239.96602 230.10111 221.21821 213.41330 206.42839
 200.27548 195.22658 191.82167 189.87676 188.92685 189.00395 189.85204 191.17313
 192.91122 195.01932 197.29541 199.66750 202.12560 204.61869 206.71978 208.57487
 210.21397 211.37206 211.61415 211.85524 211.80534 211.52343 211.16952 210.81262
 210.44271 210.16580 209.98689 209.86399 209.80508 210.14917 210.54826 210.95036
 211.75645 212.94754 214.21064 216.00673 217.94782 220.00391 222.11201 224.20810
 226.28119 228.37828 230.48838 232.60747 234.74956 236.93465 239.20375 241.58684
 244.22093 246.48503 248.50012 250.27821 251.70830 252.84440 253.67949 254.00858
 254.05867 253.84577 253.21886 252.17995 250.79905 248.97314 246.89523 244.74132
 242.54542 240.36251 238.19560 236.04769 233.92079 231.80088 229.83997 228.01007
 226.30616 224.79125 223.43434 222.21944 221.11453 220.08762 219.20471 218.35881
 217.61390 216.80699 215.91808 215.29518 214.75827 213.37411 210.12564 209.44383
 210.31427 210.62993 211.86644 215.35953 219.71501 224.49138 230.27243 235.26997
 239.11700 243.14381 247.44391 251.66283 255.28705 258.38266 261.07260 263.65121
 266.49048 269.19513 271.80783 274.42822 276.54422 278.15338 279.44986 281.00858
 283.03345 284.81180 286.35730 287.71658 288.89316 289.93378 290.88208 291.74014
 292.50995 293.19385 293.78708 294.52542
 366.78100 356.34847 345.79394 334.67341 323.08988 311.29735 299.18082 286.99729
 274.72276 262.63323 250.65570 239.97017 230.10564 221.22311 213.41858 206.43405
 200.28152 195.23299 191.82846 189.88393 188.93440 189.01187 189.86034 191.18181
 192.92028 195.02876 197.30523 199.67770 202.13617 204.62964 206.73111 208.58658
 210.22605 211.38452 211.62699 211.86846 211.81893 211.53740 211.18387 210.82734
 210.45781 210.18128 210.00275 209.88022 209.82169 210.16616 210.56563 210.96810
 211.77457 212.96604 214.22951 216.02598 217.96745 220.02392 222.13239 224.22886
 226.30233 228.39980 230.51027 232.62974 234.77221 236.95768 239.22715 241.61062
 244.24509 246.50956 248.52503 250.30350 251.73397 252.87044 253.70591 254.03538
 254.08585 253.87332 253.24680 252.20827 250.82774 249.00221 246.92468 244.77115
 242.57562 240.39309 238.22656 236.07903 233.95250 231.83297 229.87244 228.04291
 226.33938 224.82485 223.46832 222.25379 221.14926 220.12273 219.24020 218.39467
 217.65014 216.84361 215.95508 215.33255 214.79602 213.41620 210.17702 209.50874
 210.32227 210.69258 211.89577 215.30725 219.67387 224.45134 230.18636 235.17801
 239.02661 243.05611 247.36073 251.58617 255.22539 258.35919 261.06882 263.63135
 266.45621 269.15082 271.75360 274.35516 276.44876 278.05115 279.38452 280.99692
 282.98038 284.76907 286.31836 287.67862 288.85574 289.89664 290.84518 291.70328
 292.47360 293.15680 293.74954 294.49033
 366.78100 356.34886 345.79472 334.67458 323.09145 311.29931 299.18317 287.00003
 274.72589 262.63675 250.65962 239.97448 230.11034 221.22820 213.42406 206.43992
 200.28779 195.23965 191.83551 189.89137 188.94223 189.02009 189.86896 191.19082
 192.92968 195.03854 197.31540 199.68826 202.14712 204.64099 206.74285 208.59871
 210.23857 211.39743 211.64029 211.88216 211.83302 211.55188 211.19874 210.84260
 210.47346 210.19733 210.01919 209.89705 209.83891 210.18377 210.58363 210.98649
 211.79336 212.98522 214.24908 216.04594 217.98780 220.04466 222.15353 224.25039
 226.32425 228.42211 230.53297 232.65283 234.79570 236.98156 239.25142 241.63528
 244.27014 246.53500 248.55087 250.32973 251.76059 252.89745 253.73331 254.06317
 254.11403 253.90190 253.27576 252.23762 250.85748 249.03234 246.95520 244.80207
 242.60693 240.42479 238.25865 236.11151 233.98537 231.86624 229.90610 228.07696
 226.37382 224.85968 223.50354 222.28940 221.18527 220.15913 219.27699 218.43185
 217.68771 216.88157 215.99344 215.37130 214.83516 213.45828 210.22510 209.57031
 210.33791 210.75446 211.92961 215.26614 219.62437 224.39694 230.10464 235.09521
 238.94505 242.97563 247.27974 251.50806 255.15991 258.33167 261.06180 263.60916
 266.41940 269.10327 271.69543 274.27750 276.35025 277.94846 279.31812 280.97043
 282.93530 284.72720 286.27765 287.63861 288.81570 289.85666 290.80502 291.66312
 292.43243 293.11603 293.70932 294.44934
 366.78100 356.34922 345.79545 334.67567 323.09289 311.30111 299.18534 287.00256
 274.72878 262.64001 250.66323 239.97845 230.11468 221.23290 213.42912 206.44534
 200.29357 195.24579 191.84201 189.89824 188.94946 189.02768 189.87690 191.19913
 192.93835 195.04757 197.32480 199.69802 202.15724 204.65146 206.75369 208.60991
 210.25013 211.40936 211.65258 211.89480 211.84603 211.56525 211.21247 210.85669
 210.48792 210.21214 210.03436 209.91259 209.85481 210.20003 210.60025 211.00348
 211.81070 213.00292 214.26715 216.06437 218.00659 220.06381 222.17304 224.27026
 226.34448 228.44271 230.55393 232.67415 234.81738 237.00360 239.27382 241.65804
 244.29327 246.55849 248.57471 250.35394 251.78516 252.92238 253.75860 254.08883
 254.14005 253.92827 253.30250 252.26472 250.88494 249.06016 246.98339 244.83061
 242.63583 240.45406 238.28828 236.14150 234.01573 231.89695 229.93717 228.10839
 226.40562 224.89184 223.53606 222.32229 221.21851 220.19273 219.31095 218.46618
 217.72240 216.91662 216.02885 215.40707 214.87129 213.49800 210.27225 209.62744
 210.36246 210.81067 211.96638 215.23651 219.56854 224.33264 230.02950 235.01970
 238.86829 242.89722 247.19913 251.42860 255.09267 258.30258 261.05322 263.58456
 266.37979 269.05148 271.63263 274.19513 276.24905 277.84589 279.25064 280.93597
 282.89117 284.68439 286.23547 287.59549 288.77267 289.81329 290.76123 291.61887
 292.38773 293.07071 293.66345 294.40271
 366.78100 356.34962 345.79625 334.67687 323.09450 311.30312 299.18775 287.00537
 274.73200 262.64362 250.66725 239.98287 230.11949 221.23812 213.43474 206.45137
 200.29999 195.25262 191.84924 189.90587 188.95749 189.03612 189.88574 191.20836
 192.94799 195.05761 197.33524 199.70886 202.16849 204.66311 206.76574 208.62236
 210.26299 211.42261 211.66623 211.90886 211.86048 211.58011 211.22773 210.87236
 210.50398 210.22861 210.05123 209.92985 209.87248 210.21810 210.61873 211.02235
 211.82998 213.02260 214.28723 216.08485 218.02748 220.08510 222.19472 224.29235
 226.36697 228.46560 230.57722 232.69785 234.84147 237.02810 239.29872 241.68335
 244.31897 246.58459 248.60122 250.38084 251.81247 252.95009 253.78672 254.11734
 254.16897 253.95759 253.33222 252.29484 250.91546 249.09109 247.01471 244.86234
 242.66796 240.48659 238.32121 236.17484 234.04946 231.93109 229.97171 228.14333
 226.44096 224.92758 223.57221 222.35883 221.25546 220.23008 219.34871 218.50433
 217.76096 216.95558 216.06820 215.44683 214.91145 213.53877 210.31352 209.68521
 210.39659 210.85901 212.00444 215.21645 219.50822 224.26591 229.95740 234.94751
 238.79341 242.81993 247.11952 251.35045 255.02686 258.27335 261.04300 263.55786
 266.33743 268.99573 271.56436 274.10742 276.14606 277.74512 279.18372 280.89359
 282.84732 284.64059 286.19003 287.55038 288.72723 289.76599 290.71329 291.56995
 292.33780 293.01971 293.61163 294.34946
 366.78100 356.34985 345.79671 334.67756 323.09541 311.30427 299.18912 287.00697
 274.73382 262.64568 250.66953 239.98538 230.12224 221.24109 213.43794 206.45480
 200.30365 195.25650 191.85336 189.91021 188.96206 189.04092 189.89077 191.21362
 192.95347 195.06333 197.34118 199.71503 202.17489 204.66974 206.77259 208.62945
 210.27030 211.43015 211.67401 211.91686 211.86871 211.58857 211.23642 210.88127
 210.51312 210.23798 210.06083 209.93968 209.88254 210.22839 210.62924 211.03310
 211.84095 213.03380 214.29866 216.09651 218.03936 220.09721 222.20707 224.30492
 226.37977 228.47863 230.59048 232.71133 234.85519 237.04204 239.31289 241.69775
 244.33360 246.59945 248.61631 250.39616 251.82801 252.96586 253.80272 254.13357
 254.18542 253.97428 253.34913 252.31198 250.93284 249.10869 247.03254 244.88040
 242.68625 240.50510 238.33995 236.19381 234.06866 231.95051 229.99137 228.16322
 226.46107 224.94793 223.59278 222.37963 221.27649 220.25134 219.37019 218.52605
 217.78290 216.97775 216.09060 215.46946 214.93431 213.56947 210.36166 209.74121
 210.43486 210.90100 212.04002 215.20552 219.44487 224.19781 229.88844 234.87651
 238.71921 242.74451 247.04236 251.27513 254.96414 258.24350 261.02975 263.52765
 266.29227 268.93625 271.49045 274.01532 276.04172 277.64502 279.11389 280.84387
 282.80130 284.59390 286.14160 287.50095 288.67581 289.71515 290.66095 291.51593
 292.28302 292.96338 293.55338 294.28461
 366.78100 356.35008 345.79715 334.67823 323.09631 311.30538 299.19046 287.00853
 274.73561 262.64769 250.67176 239.98784 230.12492 221.24399 213.44107 206.45815
 200.30722 195.26030 191.85737 189.91445 188.96653 189.04560 189.89568 191.21876
 192.95883 195.06891 197.34698 199.72106 202.18114 204.67621 206.77929 208.63637
 210.27744 211.43752 211.68160 211.92467 211.87675 211.59682 211.24490 210.88998
 210.52205 210.24713 210.07021 209.94928 209.89236 210.23844 210.63951 211.04359
 211.85166 213.04474 214.30982 216.10789 218.05097 220.10905 222.21912 224.31720
 226.39228 228.49135 230.60343 232.72450 234.86858 237.05566 239.32673 241.71181
 244.34789 246.61396 248.63104 250.41112 251.84319 252.98127 253.81834 254.14942
 254.20150 253.99057 253.36565 252.32873 250.94980 249.12588 247.04995 244.89803
 242.70411 240.52318 238.35826 236.21234 234.08741 231.96949 230.01057 228.18264
 226.48072 224.96779 223.61287 222.39995 221.29702 220.27210 219.39118 218.54725
 217.80433 216.99941 216.11248 215.49156 214.95663 213.59830 210.40491 209.80830
 210.47098 210.93701 212.07364 215.19907 219.38318 224.12425 229.81976 234.80591
 238.64699 242.67247 246.96846 251.20137 254.90268 258.21332 261.01511 263.49759
 266.24725 268.87506 271.41238 273.91852 275.93567 277.54700 279.04303 280.79346
 282.74976 284.54129 286.08698 287.44321 288.61694 289.65363 290.59778 291.45016
 292.21255 292.88803 293.47293 294.18607
 366.78100 356.35037 345.79774 334.67911 323.09748 311.30685 299.19223 287.01060
 274.73797 262.65034 250.67471 239.99108 230.12845 221.24782 213.44519 206.46256
 200.31193 195.26530 191.86268 189.92005 188.97242 189.05179 189.90216 191.22553
 192.96590 195.07627 197.35464 199.72901 202.18938 204.68475 206.78813 208.64550
 210.28687 211.44724 211.69161 211.93498 211.88735 211.60772 211.25609 210.90146
 210.53383 210.25920 210.08258 209.96195 209.90532 210.25169 210.65306 211.05743
 211.86580 213.05917 214.32454 216.12291 218.06628 220.12465 222.23503 224.33340
 226.40877 228.50814 230.62051 232.74188 234.88625 237.07362 239.34499 241.73036
 244.36673 246.63310 248.65048 250.43085 251.86322 253.00159 253.83896 254.17033
 254.22270 254.01207 253.38744 252.35081 250.97218 249.14855 247.07293 244.92130
 242.72767 240.54704 238.38241 236.23678 234.11215 231.99452 230.03589 228.20826
 226.50663 224.99400 223.63938 222.42675 221.32412 220.29949 219.41886 218.57523
 217.83260 217.02797 216.14134 215.52071 214.98608 213.63014 210.44165 209.87892
 210.51918 210.96664 212.11018 215.19865 219.31053 224.04758 229.75352 234.73384
 238.57278 242.59988 246.89490 251.12860 254.84372 258.18640 261.00558 263.47241
 266.20575 268.81265 271.32870 273.81332 275.82462 277.44815 278.97070 280.74060
 282.69043 284.47757 286.02185 287.37708 288.54950 289.58575 290.52936 291.38190
 292.14066 292.81540 293.39777 294.09521
 366.78100 356.35073 345.79846 334.68019 323.09892 311.30865 299.19438 287.01311
 274.74084 262.65356 250.67829 239.99502 230.13275 221.25248 213.45021 206.46794
 200.31767 195.27140 191.86913 189.92686 188.97959 189.05932 189.91005 191.23378
 192.97451 195.08524 197.36396 199.73869 202.19942 204.69515 206.79888 208.65661
 210.29834 211.45907 211.70380 211.94753 211.90026 211.62099 211.26972 210.91545
 210.54818 210.27391 210.09764 209.97737 209.92109 210.26782 210.66955 211.07428
 211.88301 213.07674 214.34247 216.14120 218.08493 220.14366 222.25439 224.35312
 226.42885 228.52858 230.64131 232.76304 234.90777 237.09549 239.36722 241.75295
 244.38968 246.65641 248.67414 250.45487 251.88760 253.02633 253.86406 254.19579
 254.24852 254.03825 253.41398 252.37771 250.99944 249.17617 247.10089 244.94962
 242.75635 240.57608 238.41181 236.26654 234.14227 232.02500 230.06673 228.23946
 226.53819 225.02592 223.67165 222.45938 221.35711 220.33284 219.45257 218.60930
 217.86702 217.06275 216.17648 215.55621 215.02194 213.66437 210.47134 209.94679
 210.58778 211.00705 212.12947 215.18727 219.23378 223.96214 229.68323 234.65952
 238.50014 242.53308 246.82823 251.06250 254.79161 258.16412 261.00064 263.44897
 266.16455 268.74774 271.23816 273.70078 275.71161 277.35074 278.89557 280.68274
 282.63037 284.41077 285.95193 287.30634 288.47882 289.51340 290.45309 291.30499
 292.06461 292.73505 293.30255 293.95312
 366.78100 356.35110 345.79920 334.68130 323.10040 311.31050 299.19660 287.01570
 274.74380 262.65690 250.68200 239.99910 230.13720 221.25730 213.45540 206.47350
 200.32360 195.27770 191.87580 189.93390 188.98700 189.06710 189.91820 191.24230
 192.98341 195.09451 197.37361 199.74871 202.20981 204.70591 206.81001 208.66811
 210.31021 211.47131 211.71641 211.96051 211.91361 211.63471 211.28381 210.92991
 210.56301 210.28911 210.11321 209.99331 209.93741 210.28451 210.68661 211.09171
 211.90081 213.09491 214.36101 216.16011 218.10421 220.16331 222.27441 224.37351
 226.44961 228.54971 230.66281 232.78491 234.93001 237.11811 239.39021 241.77631
 244.41341 246.68051 248.69861 250.47971 251.91281 253.05191 253.89001 254.22211
 254.27522 254.06532 253.44142 252.40552 251.02762 249.20472 247.12982 244.97892
 242.78602 240.60612 238.44222 236.29732 234.17342 232.05652 230.09862 228.27172
 226.57082 225.05892 223.70502 222.49312 221.39122 220.36732 219.48742 218.64452
 217.90262 217.09872 216.21282 215.59292 215.05902 213.69833 210.49718 210.01082
 210.69279 211.03349 212.11810 215.17996 219.14928 223.87621 229.61717 234.59283
 238.43575 242.47488 246.76698 250.99884 254.73898 258.13940 260.99341 263.42596
 266.12430 268.68253 271.14481 273.58514 275.60107 277.25784 278.82013 280.61783
 282.56488 284.33426 285.87445 287.22955 288.40173 289.43433 290.37433 291.22433
 291.98541 292.65601 293.20383 293.77512
 366.78100 356.35233 345.80166 334.68500 323.10533 311.31666 299.20399 287.02433
 274.75366 262.66799 250.69432 240.01266 230.15199 221.27332 213.47265 206.49199
 200.34332 195.29865 191.89798 189.95731 189.01165 189.09298 189.94531 191.27064
 193.01298 195.12531 197.40564 199.78197 202.24431 204.74164 206.84697 208.70630
 210.34964 211.51197 211.75830 212.00363 211.95796 211.68030 211.33063 210.97796
 210.61229 210.33963 210.16496 210.04629 209.99162 210.33996 210.74329 211.14962
 211.95995 213.15529 214.42262 216.22295 218.16828 220.22861 222.34095 224.44128
 226.51861 228.61994 230.73428 232.85761 235.00394 237.19327 239.46661 241.85394
 244.49227 246.76060 248.77994 250.56227 251.99660 253.13693 253.97627 254.30960
 254.36393 254.15526 253.53259 252.49793 251.12126 249.29959 247.22592 245.07626
 242.88459 240.70592 238.54325 236.39959 234.27692 232.16125 230.20458 228.37892
 226.67925 225.16858 223.81591 222.60524 221.50458 220.48191 219.60324 218.76157
 218.02091 217.21824 216.33357 215.71490 215.18224 213.77411 210.46144 210.12413
 210.80359 211.04590 212.13135 215.14104 219.04773 223.78831 229.55435 234.52841
 238.37321 242.41844 246.70689 250.93616 254.68774 258.11609 260.98917 263.40613
 266.08591 268.61737 271.04785 273.46585 275.49045 277.16928 278.74631 280.54987
 282.49332 284.24976 285.79153 287.14655 288.31735 289.34753 290.28589 291.13660
 291.90170 292.57950 293.15128 293.65436
 366.78100 356.35356 345.80412 334.68867 323.11023 311.32279 299.21135 287.03290
 274.76346 262.67902 250.70658 240.02613 230.16669 221.28925 213.48981 206.51036
 200.36292 195.31948 191.92004 189.98060 189.03615 189.11871 189.97227 191.29883
 193.04238 195.15594 197.43750 199.81506 202.27861 204.77717 206.88373 208.74429
 210.38884 211.55240 211.79996 212.04652 212.00207 211.72563 211.37719 211.02575
 210.66131 210.38986 210.21642 210.09898 210.04554 210.39509 210.79965 211.20721
 212.01877 213.21532 214.48388 216.28544 218.23200 220.29355 222.40711 224.50867
 226.58723 228.68979 230.80534 232.92990 235.07746 237.26802 239.54257 241.93113
 244.57069 246.84025 248.86080 250.64436 252.07992 253.22148 254.06203 254.39659
 254.45215 254.24471 253.62327 252.58982 251.21438 249.39394 247.32150 245.17305
 242.98261 240.80517 238.64373 236.50128 234.37984 232.26540 230.30996 228.48551
 226.78707 225.27763 223.92619 222.71675 221.61730 220.59586 219.71842 218.87798
 218.13853 217.33709 216.45365 215.83621 215.30476 213.85413 210.44017 210.12549
 211.08128 211.12202 211.96004 215.07341 218.98019 223.69528 229.49731 234.47318
 238.32123 242.37566 246.65852 250.88385 254.64565 258.09702 260.98431 263.38379
 266.04349 268.54602 270.94330 273.33862 275.37476 277.07510 278.66476 280.47479
 282.41409 284.16174 285.70407 287.06006 288.22736 289.25427 290.19189 291.04391
 291.81616 292.49789 292.94040 293.31812
 366.78100 356.35326 345.80351 334.68777 323.10903 311.32129 299.20954 287.03080
 274.76106 262.67631 250.70357 240.02283 230.16308 221.28534 213.48560 206.50586
 200.35811 195.31437 191.91463 189.97488 189.03014 189.11240 189.96565 191.29191
 193.03517 195.14843 197.42968 199.80694 202.27020 204.76845 206.87471 208.73497
 210.37923 211.54248 211.78974 212.03600 211.99125 211.71451 211.36577 211.01402
 210.64928 210.37754 210.20380 210.08605 210.03231 210.38157 210.78582 211.19308
 212.00434 213.20059 214.46885 216.27011 218.21637 220.27762 222.39088 224.49214
 226.57039 228.67265 230.78791 232.91217 235.05942 237.24968 239.52394 241.91219
 244.55145 246.82071 248.84096 250.62422 252.05948 253.20074 254.04099 254.37525
 254.43051 254.22276 253.60102 252.56728 251.19154 249.37079 247.29805 245.14931
 242.95856 240.78082 238.61908 236.47633 234.35459 232.23985 230.28411 228.45936
 226.76062 225.25088 223.89913 222.68939 221.58965 220.56790 219.69016 218.84942
 218.10968 217.30793 216.42419 215.80645 215.27470 213.86040 210.52954 210.05043
 211.15767 211.27856 211.96185 215.00748 218.91000 223.64714 229.44504 234.42580
 238.27771 242.34073 246.61441 250.83173 254.59909 258.07028 260.97253 263.35550
 265.99741 268.47339 270.83704 273.21167 275.26154 276.98691 278.58838 280.40042
 282.33087 284.06924 285.61185 286.96625 288.13333 289.15247 290.08771 290.94159
 291.71738 292.39099 292.73154 293.01913
 366.78100 356.35268 345.80236 334.68603 323.10671 311.31839 299.20607 287.02675
 274.75642 262.67110 250.69778 240.01646 230.15614 221.27781 213.47749 206.49717
 200.34885 195.30453 191.90420 189.96388 189.01856 189.10024 189.95292 191.27859
 193.02127 195.13395 197.41463 199.79131 202.25398 204.75166 206.85734 208.71702
 210.36069 211.52337 211.77005 212.01573 211.97041 211.69308 211.34376 210.99144
 210.62612 210.35380 210.17947 210.06115 210.00683 210.35551 210.75919 211.16586
 211.97654 213.17222 214.43990 216.24058 218.18625 220.24693 222.35961 224.46029
 226.53797 228.63964 230.75432 232.87800 235.02468 237.21436 239.48803 241.87571
 244.51439 246.78307 248.80275 250.58542 252.02010 253.16078 254.00046 254.33414
 254.38881 254.18049 253.55817 252.52385 251.14753 249.32620 247.25288 245.10356
 242.91224 240.73392 238.57159 236.42827 234.30595 232.19063 230.23431 228.40898
 226.70966 225.19934 223.84702 222.63670 221.53637 220.51405 219.63573 218.79441
 218.05408 217.25176 216.36744 215.74912 215.21680 213.84834 210.62384 210.06120
 211.11514 211.34070 212.09851 214.99451 218.80862 223.58745 229.39714 234.38547
 238.24052 242.31102 246.57384 250.78073 254.55368 258.04327 260.95425 263.32718
 265.95908 268.40247 270.73547 273.09003 275.15363 276.89938 278.50366 280.31464
 282.23932 283.97787 285.52182 286.87704 288.03564 289.03815 289.96927 290.82742
 291.61319 292.25180 292.51709 292.71964
 366.78100 356.35247 345.80193 334.68540 323.10587 311.31734 299.20480 287.02527
 274.75474 262.66920 250.69567 240.01414 230.15361 221.27507 213.47454 206.49401
 200.34547 195.30094 191.90041 189.95987 189.01434 189.09581 189.94828 191.27374
 193.01621 195.12868 197.40914 199.78561 202.24808 204.74555 206.85101 208.71048
 210.35395 211.51641 211.76288 212.00835 211.96282 211.68528 211.33575 210.98322
 210.61768 210.34515 210.17062 210.05208 209.99755 210.34602 210.74949 211.15595
 211.96642 213.16189 214.42935 216.22982 218.17529 220.23576 222.34822 224.44869
 226.52616 228.62762 230.74209 232.86556 235.01203 237.20149 239.47496 241.86243
 244.50089 246.76936 248.78883 250.57130 252.00576 253.14623 253.98570 254.31916
 254.37363 254.16510 253.54256 252.50803 251.13150 249.30997 247.23643 245.08690
 242.89537 240.71683 238.55430 236.41077 234.28824 232.17270 230.21617 228.39064
 226.69110 225.18057 223.82804 222.61751 221.51697 220.49444 219.61591 218.77437
 218.03384 217.23131 216.34678 215.72824 215.19571 213.85216 210.68794 210.12457
 211.09126 211.34563 212.22662 214.98796 218.70537 223.51057 229.34982 234.34438
 238.19614 242.27225 246.52425 250.72087 254.50839 258.02481 260.96854 263.33960
 265.92599 268.35922 270.64108 272.96307 275.03268 276.80365 278.42630 280.24225
 282.15125 283.87219 285.41391 286.76624 287.91702 288.91190 289.84512 290.70795
 291.49072 292.02728 292.27850 292.47278
 366.78100 356.35210 345.80120 334.68430 323.10440 311.31550 299.20260 287.02270
 274.75180 262.66590 250.69200 240.01010 230.14920 221.27030 213.46940 206.48850
 200.33960 195.29470 191.89380 189.95291 189.00701 189.08811 189.94021 191.26531
 193.00741 195.11951 197.39961 199.77571 202.23781 204.73491 206.84001 208.69911
 210.34221 211.50431 211.75041 211.99551 211.94961 211.67171 211.32181 210.96891
 210.60301 210.33011 210.15521 210.03631 209.98141 210.32951 210.73261 211.13871
 211.94881 213.14391 214.41101 216.21111 218.15621 220.21631 222.32841 224.42851
 226.50562 228.60672 230.72082 232.84392 234.99002 237.17912 239.45222 241.83932
 244.47742 246.74552 248.76462 250.54672 251.98082 253.12092 253.96002 254.29312
 254.34722 254.13832 253.51542 252.48052 251.10362 249.28172 247.20782 245.05792
 242.86602 240.68712 238.52422 236.38032 234.25742 232.14152 230.18462 228.35872
 226.65882 225.14792 223.79502 222.58412 221.48322 220.46033 219.58143 218.73953
 217.99863 217.19573 216.31083 215.69193 215.15903 213.85118 210.77872 210.16373
 211.07243 211.36891 212.31184 214.99126 218.65134 223.43776 229.29697 234.29837
 238.14264 242.22763 246.46948 250.65352 254.45399 257.98615 260.94815 263.36053
 265.94620 268.31918 270.58115 272.88049 274.96710 276.75168 278.37155 280.17200
 282.06427 283.78772 285.32697 286.67487 287.80981 288.77917 289.68167 290.56882
 291.33594 291.75085 291.81668 291.79257
 366.78100 356.35186 345.80071 334.68357 323.10342 311.31428 299.20114 287.02099
 274.74985 262.66371 250.68956 240.00742 230.14627 221.26713 213.46599 206.48484
 200.33570 195.29055 191.88941 189.94827 189.00212 189.08298 189.93483 191.25969
 193.00155 195.11340 197.39326 199.76912 202.23097 204.72783 206.83268 208.69154
 210.33440 211.49625 211.74211 211.98696 211.94082 211.66268 211.31253 210.95939
 210.59325 210.32010 210.14496 210.02581 209.97067 210.31853 210.72138 211.12724
 211.93709 213.13195 214.39881 216.19866 218.14352 220.20337 222.31523 224.41509
 226.49194 228.59280 230.70666 232.82951 234.97537 237.16422 239.43708 241.82394
 244.46179 246.72965 248.74850 250.53036 251.96422 253.10407 253.94293 254.27579
 254.32964 254.12050 253.49735 252.46221 251.08507 249.26292 247.18878 245.03863
 242.84649 240.66735 238.50420 236.36006 234.23691 232.12077 230.16363 228.33748
 226.63734 225.12620 223.77305 222.56191 221.46076 220.43762 219.55848 218.71633
 217.97519 217.17204 216.28690 215.66776 215.13461 213.85818 210.86552 210.19022
 211.04898 211.38785 212.39410 215.02893 218.62729 223.37473 229.25212 234.25533
 238.09315 242.18970 246.42303 250.58990 254.41016 257.94055 260.91397 263.34473
 265.86530 268.33432 270.58231 272.82791 274.90659 276.70755 278.34439 280.11838
 281.96848 283.67889 285.21115 286.54633 287.67041 288.66217 289.59454 290.45517
 291.13535 291.48938 291.57883 291.69284
 366.78100 356.35267 345.80233 334.68600 323.10667 311.31834 299.20600 287.02667
 274.75634 262.67101 250.69767 240.01634 230.15601 221.27767 213.47734 206.49701
 200.34868 195.30434 191.90401 189.96368 189.01835 189.10001 189.95268 191.27835
 193.02101 195.13368 197.41435 199.79102 202.25368 204.75135 206.85702 208.71669
 210.36035 211.52302 211.76969 212.01536 211.97002 211.69269 211.34336 210.99102
 210.62569 210.35336 210.17903 210.06069 210.00636 210.35503 210.75870 211.16536
 211.97603 213.17170 214.43936 216.24003 218.18570 220.24637 222.35903 224.45970
 226.53737 228.63904 230.75370 232.87737 235.02404 237.21370 239.48737 241.87504
 244.51371 246.78237 248.80204 250.58471 252.01938 253.16004 253.99971 254.33338
 254.38804 254.17971 253.55738 252.52305 251.14671 249.32538 247.25205 245.10272
 242.91138 240.73305 238.57072 236.42738 234.30505 232.18972 230.23339 228.40805
 226.70872 225.19839 223.84606 222.63572 221.53539 220.51306 219.63473 218.79339
 218.05306 217.25073 216.36639 215.74806 215.21573 213.92451 210.89757 210.18759
 211.03897 211.45990 212.51625 215.06950 218.61189 223.31314 229.19830 234.18385
 238.02576 242.13216 246.35901 250.51158 254.34959 257.88049 260.84875 263.26053
 265.81589 268.31989 270.53574 272.74652 274.81238 276.63736 278.33005 280.11108
 281.91547 283.58231 285.08273 286.39359 287.51056 288.52673 289.47372 290.32803
 290.99005 291.45331 291.68921 291.98981
 366.78100 356.35348 345.80395 334.68843 323.10990 311.32238 299.21085 287.03233
 274.76281 262.67828 250.70576 240.02523 230.16571 221.28818 213.48866 206.50914
 200.36161 195.31809 191.91856 189.97904 189.03451 189.11699 189.97047 191.29694
 193.04042 195.15389 197.43537 199.81284 202.27632 204.77480 206.88127 208.74175
 210.38622 211.54970 211.79717 212.04365 211.99913 211.72260 211.37408 211.02255
 210.65803 210.38650 210.21298 210.09546 210.04193 210.39141 210.79588 211.20336
 212.01483 213.21131 214.47978 216.28126 218.22774 220.28921 222.40269 224.50416
 226.58264 228.68511 230.80059 232.92507 235.07254 237.26302 239.53749 241.92597
 244.56544 246.83492 248.85540 250.63887 252.07435 253.21582 254.05630 254.39077
 254.44625 254.23873 253.61720 252.58368 251.20815 249.38763 247.31510 245.16658
 242.97606 240.79853 238.63701 236.49448 234.37296 232.25843 230.30291 228.47839
 226.77986 225.27034 223.91881 222.70929 221.60976 220.58824 219.71072 218.87019
 218.13067 217.32914 216.44562 215.82809 215.29657 213.99496 210.93468 210.12071
 211.01672 211.57629 212.65408 215.13226 218.62024 223.27271 229.16341 234.12755
 237.96463 242.07014 246.28767 250.42587 254.26416 257.78683 260.75864 263.17767
 265.70148 268.24139 270.46289 272.66257 274.73694 276.59338 278.29413 280.04794
 281.83917 283.50421 284.99127 286.29770 287.43927 288.48102 289.44583 290.28061
 290.92996 291.39594 291.54401 291.62631
 366.78100 356.35429 345.80557 334.69086 323.11314 311.32643 299.21572 287.03800
 274.76929 262.68557 250.71386 240.03415 230.17543 221.29872 213.50000 206.52129
 200.37458 195.33186 191.93315 189.99443 189.05072 189.13400 189.98829 191.31558
 193.05986 195.17415 197.45643 199.83472 202.29901 204.79829 206.90558 208.76686
 210.41215 211.57644 211.82472 212.07201 212.02829 211.75258 211.40487 211.05415
 210.69044 210.41972 210.24701 210.13030 210.07758 210.42787 210.83315 211.24144
 212.05373 213.25101 214.52030 216.32258 218.26987 220.33215 222.44644 224.54873
 226.62801 228.73130 230.84758 232.97287 235.12116 237.31244 239.58773 241.97701
 244.61730 246.88759 248.90887 250.69316 252.12944 253.27173 254.11302 254.44830
 254.50459 254.29787 253.67716 252.64445 251.26973 249.45002 247.37830 245.23059
 243.04088 240.86416 238.70345 236.56173 234.44102 232.32730 230.37259 228.54888
 226.85116 225.34245 223.99173 222.78302 221.68431 220.66359 219.78688 218.94716
 218.20845 217.40774 216.52502 215.90831 215.37759 214.06755 210.98752 210.11249
 211.01486 211.57297 212.73615 215.24467 218.65549 223.22856 229.11148 234.07822
 237.91757 242.01784 246.22433 250.35074 254.19028 257.68762 260.59576 263.01230
 265.86377 268.26724 270.45007 272.61938 274.65637 276.49173 278.20398 279.95422
 281.70630 283.31467 284.78577 286.09973 287.25662 288.29874 289.20428 289.91608
 290.53506 291.17307 291.77109 292.53726
 366.78100 356.35256 345.80211 334.68567 323.10622 311.31778 299.20533 287.02589
 274.75544 262.67000 250.69656 240.01511 230.15467 221.27622 213.47578 206.49533
 200.34689 195.30245 191.90200 189.96156 189.01611 189.09767 189.95022 191.27578
 193.01833 195.13089 197.41145 199.78800 202.25056 204.74811 206.85367 208.71322
 210.35678 211.51933 211.76589 212.01145 211.96600 211.68856 211.33911 210.98667
 210.62122 210.34878 210.17433 210.05589 210.00145 210.35000 210.75356 211.16011
 211.97067 213.16622 214.43378 216.23434 218.17989 220.24045 222.35300 224.45356
 226.53111 228.63267 230.74722 232.87078 235.01734 237.20689 239.48045 241.86800
 244.50656 246.77511 248.79467 250.57722 252.01178 253.15234 253.99189 254.32545
 254.38000 254.17156 253.54911 252.51467 251.13823 249.31678 247.24334 245.09389
 242.90245 240.72400 238.56156 236.41811 234.29567 232.18023 230.22378 228.39834
 226.69889 225.18845 223.83600 222.62556 221.52511 220.50267 219.62423 218.78278
 218.04234 217.23989 216.35545 215.73700 215.20456 214.00458 211.19560 210.19798
 210.95799 211.59183 212.78815 215.23033 218.59138 223.14761 229.01740 233.97472
 237.82242 241.94292 246.15434 250.27762 254.13165 257.62106 260.47635 262.99155
 265.93964 268.35590 270.51108 272.62186 274.62820 276.43469 278.11841 279.86932
 281.59036 283.17883 284.59961 285.88458 287.03751 288.06772 288.83841 289.48712
 290.23160 290.93588 291.55112 292.33521
 366.78100 356.34815 345.79331 334.67246 323.08862 311.29577 299.17893 286.99508
 274.72024 262.63039 250.65255 239.96670 230.10186 221.21901 213.41417 206.42932
 200.27647 195.22763 191.82278 189.87794 188.92809 189.00525 189.85340 191.17456
 192.91271 195.02087 197.29702 199.66918 202.12733 204.62048 206.72164 208.57679
 210.21595 211.37410 211.61626 211.85741 211.80757 211.52572 211.17188 210.81503
 210.44519 210.16834 209.98950 209.86665 209.80780 210.15196 210.55111 210.95327
 211.75942 212.95058 214.21373 216.00989 217.95104 220.00720 222.11535 224.21151
 226.28466 228.38182 230.49197 232.61112 234.75328 236.93843 239.20759 241.59074
 244.22490 246.48905 248.50421 250.28236 251.71252 252.84867 253.68383 254.01298
 254.06314 253.85029 253.22344 252.18460 250.80375 248.97791 246.90006 244.74622
 242.55037 240.36753 238.20068 236.05284 233.92599 231.80615 229.84530 228.01545
 226.31161 224.79676 223.43992 222.22507 221.12023 220.09338 219.21054 218.36469
 217.61985 216.81300 215.92416 215.30131 214.76447 213.78209 211.48314 210.41740
 210.82330 211.54544 212.73819 215.05820 218.46190 223.05846 228.93399 233.90654
 237.75731 241.90005 246.12569 250.26630 254.15482 257.65784 260.52982 263.11697
 265.84329 268.30176 270.52225 272.63770 274.65445 276.47519 278.12100 279.81387
 281.51868 283.11420 284.51782 285.76578 286.86304 287.86395 288.74734 289.59253
 290.40997 291.13791 291.77380 292.58420
 366.78100 356.34528 345.78755 334.66383 323.07710 311.28138 299.16166 286.97493
 274.69721 262.60448 250.62376 239.93504 230.06731 221.18159 213.37386 206.38614
 200.23041 195.17869 191.77097 189.82324 188.87052 188.94479 189.79007 191.10835
 192.84362 194.94890 197.22217 199.59145 202.04673 204.53700 206.63528 208.48755
 210.12383 211.27911 211.51838 211.75666 211.70393 211.41921 211.06249 210.70276
 210.33004 210.05031 209.86859 209.74286 209.68114 210.02242 210.41869 210.81797
 211.62124 212.80952 214.06980 215.86307 217.80135 219.85462 221.95990 224.05318
 226.12345 228.21773 230.32500 232.44128 234.58056 236.76283 239.02911 241.40938
 244.04066 246.30194 248.31421 250.08949 251.51676 252.65004 253.48232 253.80859
 253.85587 253.64014 253.01042 251.96869 250.58497 248.75625 246.67552 244.51880
 242.32007 240.13435 237.96463 235.81390 233.68418 231.56145 229.59773 227.76501
 226.05828 224.54056 223.18083 221.96311 220.85539 219.82566 218.93994 218.09121
 217.34349 216.53377 215.64204 215.01632 214.47659 213.63422 211.65739 210.56088
 210.77995 211.37225 212.65149 215.00008 218.40181 223.01479 228.89848 233.88625
 237.72975 241.88084 246.11789 250.27773 254.20236 257.73895 260.52332 263.20990
 265.99741 268.45346 270.61630 272.65094 274.60809 276.41754 278.02841 279.69156
 281.35156 282.88120 284.22031 285.50781 286.68115 287.72238 288.68390 289.57925
 290.38452 291.10162 291.72806 292.52640
 366.78100 356.34671 345.79042 334.66814 323.08285 311.28856 299.17027 286.98498
 274.70869 262.61741 250.63812 239.95083 230.08454 221.20025 213.39396 206.40768
 200.25339 195.20310 191.79681 189.85052 188.89924 188.97495 189.82166 191.14137
 192.87808 194.98479 197.25951 199.63022 202.08693 204.57864 206.67835 208.53207
 210.16978 211.32649 211.56720 211.80691 211.75562 211.47234 211.11705 210.75876
 210.38747 210.10918 209.92889 209.80461 209.74432 210.08703 210.48474 210.88545
 211.69017 212.87988 214.14159 215.93630 217.87601 219.93072 222.03744 224.13215
 226.20386 228.29957 230.40828 232.52600 234.66671 236.85042 239.11813 241.49984
 244.13255 246.39527 248.40898 250.18569 251.61440 252.74911 253.58282 253.91054
 253.95925 253.74496 253.11667 252.07638 250.69410 248.86681 246.78752 244.63223
 242.43494 240.25065 238.08237 235.93308 233.80479 231.68350 229.72121 227.88993
 226.18464 224.66835 223.31006 222.09377 220.98748 219.95920 219.07491 218.22762
 217.48133 216.67304 215.78275 215.15847 214.62018 213.72928 211.64543 210.57701
 210.92030 211.46832 212.78680 215.13547 218.46701 223.02243 228.88385 233.84599
 237.69550 241.85506 246.11235 250.29613 254.25818 257.87372 260.57767 263.26346
 266.03085 268.46780 270.67557 272.68710 274.57941 276.33115 277.90536 279.57465
 281.18228 282.56216 283.96481 285.32700 286.57990 287.75562 288.82828 289.80002
 290.67401 291.45230 292.13220 292.99863
 366.78100 356.34951 345.79602 334.67653 323.09404 311.30255 299.18706 287.00457
 274.73108 262.64259 250.66610 239.98161 230.11812 221.23663 213.43314 206.44965
 200.29816 195.25067 191.84718 189.90369 188.95520 189.03371 189.88322 191.20573
 192.94523 195.05474 197.33225 199.70576 202.16527 204.65978 206.76229 208.61880
 210.25931 211.41882 211.66233 211.90484 211.85635 211.57586 211.22337 210.86788
 210.49939 210.22390 210.04641 209.92492 209.86743 210.21294 210.61345 211.01696
 211.82447 213.01698 214.28149 216.07900 218.02151 220.07902 222.18853 224.28604
 226.36055 228.45906 230.57057 232.69108 234.83459 237.02110 239.29161 241.67612
 244.31163 246.57714 248.59365 250.37316 251.80467 252.94218 253.77869 254.10919
 254.16070 253.94921 253.32372 252.28623 250.90674 249.08225 247.00576 244.85327
 242.65878 240.47729 238.31180 236.16531 234.03982 231.92133 229.96184 228.13335
 226.43086 224.91737 223.56188 222.34839 221.24490 220.21941 219.33792 218.49343
 217.74994 216.94445 216.05696 215.43547 214.89998 213.89590 211.56752 210.56102
 211.15494 211.79544 212.96205 215.13434 218.35556 222.90376 228.75145 233.70859
 237.56027 241.72701 245.99181 250.18738 254.18575 257.75055 260.56516 263.27570
 265.96027 268.44940 270.67078 272.73578 274.67435 276.43350 278.00055 279.67206
 281.26315 282.62921 284.14758 285.57584 286.97705 288.21695 289.34818 290.37302
 291.29471 292.11551 292.83255 293.74631
 366.78100 356.34860 345.79420 334.67379 323.09039 311.29799 299.18159 286.99819
 274.72378 262.63438 250.65698 239.97158 230.10718 221.22477 213.42037 206.43597
 200.28357 195.23517 191.83077 189.88636 188.93696 189.01456 189.86316 191.18476
 192.92335 195.03195 197.30855 199.68115 202.13975 204.63334 206.73494 208.59054
 210.23014 211.38874 211.63133 211.87293 211.82353 211.54213 211.18873 210.83232
 210.46292 210.18652 210.00812 209.88572 209.82732 210.17191 210.57151 210.97411
 211.78071 212.97231 214.23590 216.03250 217.97410 220.03070 222.13930 224.23589
 226.30949 228.40709 230.51769 232.63729 234.77988 236.96548 239.23508 241.61868
 244.25328 246.51787 248.53347 250.31207 251.74267 252.87927 253.71487 254.04446
 254.09506 253.88266 253.25626 252.21786 250.83745 249.01205 246.93465 244.78125
 242.58585 240.40344 238.23704 236.08964 233.96324 231.84384 229.88343 228.05403
 226.35063 224.83623 223.47983 222.26542 221.16102 220.13462 219.25222 218.40682
 217.66242 216.85601 215.96761 215.34521 214.80881 213.86232 211.65753 210.62227
 211.20322 212.05913 213.15224 215.00764 218.15639 222.77914 228.65446 233.58797
 237.42767 241.58936 245.84158 250.02295 253.99274 257.46780 260.24664 262.93893
 265.88605 268.39902 270.60376 272.72452 274.67923 276.43628 278.02481 279.71591
 281.25320 282.66284 284.19604 285.59958 286.91516 288.08444 289.15125 290.11768
 290.98688 291.76093 292.43710 293.29880
 366.78100 356.34765 345.79230 334.67095 323.08660 311.29325 299.17590 286.99155
 274.71620 262.62585 250.64750 239.96115 230.09580 221.21244 213.40709 206.42174
 200.26839 195.21904 191.81369 189.86834 188.91799 188.99464 189.84229 191.16294
 192.90059 195.00824 197.28389 199.65554 202.11319 204.60584 206.70649 208.56114
 210.19979 211.35744 211.59909 211.83974 211.78939 211.50703 211.15268 210.79533
 210.42498 210.14763 209.96828 209.84493 209.78558 210.12923 210.52788 210.92953
 211.73518 212.92583 214.18848 215.98413 217.92478 219.98043 222.08808 224.18373
 226.25638 228.35303 230.46268 232.58133 234.72298 236.90762 239.17627 241.55892
 244.19257 246.45622 248.47087 250.24852 251.67817 252.81382 253.64847 253.97712
 254.02677 253.81342 253.18607 252.14672 250.76537 248.93902 246.86067 244.70632
 242.50997 240.32662 238.15927 236.01092 233.88357 231.76321 229.80186 227.97151
 226.26716 224.75181 223.39446 222.17911 221.07376 220.04641 219.16306 218.31671
 217.57136 216.76401 215.87466 215.25131 214.71396 213.84109 211.78354 210.71951
 211.14243 212.05165 213.32922 215.07991 218.08015 222.69969 228.67406 233.58974
 237.43304 241.59219 245.84482 250.03693 254.00105 257.42899 260.25220 262.87680
 265.71829 268.28748 270.50107 272.57242 274.49680 276.23947 277.88730 279.47626
 280.99454 282.48416 284.15747 285.71219 287.05765 288.24805 289.33411 290.31799
 291.20291 291.99091 292.67929 293.55658
 366.78100 356.34596 345.78893 334.66589 323.07985 311.28482 299.16578 286.97974
 274.70270 262.61067 250.63063 239.94259 230.07556 221.19052 213.38348 206.39645
 200.24141 195.19037 191.78333 189.83630 188.88426 188.95922 189.80519 191.12415
 192.86011 194.96608 197.24004 199.61000 202.06596 204.55693 206.65589 208.50885
 210.14582 211.30178 211.54174 211.78071 211.72867 211.44463 211.08860 210.72956
 210.35752 210.07848 209.89745 209.77241 209.71137 210.05334 210.45030 210.85026
 211.65423 212.84319 214.10415 215.89811 217.83708 219.89104 221.99700 224.09097
 226.16193 228.25689 230.36486 232.48182 234.62178 236.80475 239.07171 241.45267
 244.08463 246.34660 248.35956 250.13552 251.56349 252.69745 253.53041 253.85738
 253.90534 253.69030 253.06126 252.02023 250.63719 248.80915 246.72912 244.57308
 242.37504 240.19001 238.02097 235.87093 233.74189 231.61986 229.65682 227.82478
 226.11875 224.60171 223.24267 222.02564 220.91860 219.88956 219.00453 218.15649
 217.40945 216.60041 215.70938 215.08434 214.54530 213.80075 211.93684 210.71443
 211.03926 211.91983 213.28372 215.23602 218.26692 222.69881 228.67024 233.61797
 237.47987 241.65881 245.93419 250.17482 254.21364 257.73471 260.60626 263.24432
 265.88757 268.28540 270.45648 272.53757 274.45996 276.20731 277.90515 279.51459
 280.97726 282.98468 284.78403 286.36395 287.73126 288.94095 290.04465 291.04449
 291.94376 292.74457 293.44412 294.33563
 366.78100 356.34375 345.78450 334.65926 323.07101 311.27376 299.15251 286.96427
 274.68502 262.59077 250.60852 239.91827 230.04903 221.16178 213.35253 206.36328
 200.20604 195.15279 191.74354 189.79429 188.84004 188.91280 189.75655 191.07330
 192.80705 194.91080 197.18256 199.55031 202.00406 204.49281 206.58957 208.44032
 210.07507 211.22882 211.46657 211.70333 211.64908 211.36283 211.00458 210.64334
 210.26909 209.98784 209.80459 209.67734 209.61410 209.95385 210.34860 210.74635
 211.54810 212.73486 213.99361 215.78536 217.72211 219.77387 221.87762 223.96937
 226.03812 228.13087 230.23663 232.35138 234.48913 236.66988 238.93464 241.31339
 243.94314 246.20289 248.21364 249.98740 251.41315 252.54490 253.37565 253.70041
 253.74616 253.52891 252.89766 251.85441 250.46917 248.63892 246.55667 244.39842
 242.19817 240.01093 237.83968 235.68743 233.55618 231.43194 229.46669 227.63244
 225.92419 224.40494 223.04370 221.82445 220.71520 219.68395 218.79671 217.94646
 217.19721 216.38596 215.49271 214.86547 214.32422 213.69833 212.08681 210.78467
 210.99091 211.75826 213.18640 215.20319 218.20605 222.67265 228.66095 233.57301
 237.42455 241.60901 245.89523 250.15790 254.25148 257.85629 260.78186 263.44299
 266.09216 268.47931 270.70114 272.74496 274.65576 276.38239 278.03033 279.65277
 281.29010 283.21005 285.15408 286.86108 288.33835 289.64536 290.83780 291.91806
 292.88965 293.75485 294.51065 295.47388
 366.78100 356.34327 345.78355 334.65782 323.06909 311.27137 299.14964 286.96092
 274.68119 262.58646 250.60374 239.91301 230.04328 221.15556 213.34583 206.35611
 200.19838 195.14465 191.73493 189.78520 188.83047 188.90275 189.74602 191.06229
 192.79557 194.89884 197.17012 199.53739 201.99066 204.47894 206.57521 208.42548
 210.05976 211.21303 211.45030 211.68658 211.63185 211.34513 210.98640 210.62467
 210.24995 209.96822 209.78449 209.65677 209.59304 209.93232 210.32659 210.72386
 211.52514 212.71141 213.96968 215.76096 217.69723 219.74850 221.85178 223.94305
 226.01133 228.10360 230.20887 232.32315 234.46042 236.64069 238.90497 241.28324
 243.91252 246.17179 248.18206 249.95534 251.38061 252.51188 253.34216 253.66643
 253.71170 253.49398 252.86225 251.81853 250.43280 248.60207 246.51935 244.36062
 242.15989 239.97217 237.80044 235.64771 233.51599 231.39126 229.42554 227.59081
 225.88208 224.36236 223.00063 221.78090 220.67118 219.63945 218.75173 217.90100
 217.15127 216.33955 215.44582 214.81809 214.27637 213.65817 212.13580 210.92662
 211.01549 211.67235 213.13632 215.25581 218.24651 222.70912 228.58316 233.47658
 237.29092 241.46178 245.73824 249.98752 254.05876 257.59491 260.53268 263.20886
 265.89297 268.42441 270.73392 272.82291 274.75262 276.46030 278.14917 279.83307
 281.28534 282.81012 284.39349 285.97101 287.38455 288.63516 289.77615 290.80981
 291.73950 292.56738 293.29059 294.21225
 366.78100 356.34432 345.78565 334.66097 323.07330 311.27662 299.15594 286.96827
 274.68959 262.59592 250.61424 239.92456 230.05589 221.16921 213.36054 206.37186
 200.21518 195.16251 191.75383 189.80515 188.85148 188.92480 189.76913 191.08645
 192.82077 194.92510 197.19742 199.56575 202.02007 204.50939 206.60672 208.45804
 210.09337 211.24769 211.48601 211.72334 211.66966 211.38399 211.02631 210.66563
 210.29196 210.01128 209.82861 209.70193 209.63925 209.97958 210.37490 210.77322
 211.57555 212.76287 214.02220 215.81452 217.75184 219.80417 221.90849 224.00082
 226.07014 228.16346 230.26979 232.38511 234.52344 236.70476 238.97008 241.34941
 243.97973 246.24006 248.25138 250.02570 251.45203 252.58435 253.41568 253.74100
 253.78732 253.57065 252.93997 251.89730 250.51262 248.68294 246.60127 244.44359
 242.24391 240.05724 237.88656 235.73489 233.60421 231.48053 229.51586 227.68218
 225.97451 224.45583 223.09515 221.87648 220.76780 219.73713 218.85045 218.00077
 217.25210 216.44142 215.54875 214.92207 214.38139 213.72293 212.13414 211.02800
 211.12433 211.78035 213.15221 215.20924 218.20628 222.66083 228.52975 233.39766
 237.19826 241.37128 245.64848 249.90334 254.01294 257.47488 260.31976 262.94543
 265.61163 268.19052 270.68124 272.80762 274.73520 276.39395 277.98761 279.65753
 281.06363 282.40561 283.94400 285.44067 286.76758 287.94156 289.01263 289.98294
 290.85562 291.63275 292.31165 293.17682
 366.78100 356.34477 345.78655 334.66232 323.07510 311.27887 299.15864 286.97142
 274.69319 262.59996 250.61874 239.92951 230.06129 221.17506 213.36683 206.37861
 200.22238 195.17015 191.76193 189.81370 188.86048 188.93425 189.77902 191.09680
 192.83157 194.93634 197.20912 199.57789 202.03267 204.52244 206.62021 208.47199
 210.10776 211.26253 211.50131 211.73908 211.68586 211.40063 211.04340 210.68318
 210.30995 210.02972 209.84750 209.72127 209.65905 209.99982 210.39559 210.79437
 211.59714 212.78491 214.04469 215.83746 217.77524 219.82801 221.93278 224.02556
 226.09533 228.18910 230.29588 232.41165 234.55043 236.73220 238.99797 241.37775
 244.00852 246.26929 248.28107 250.05584 251.48262 252.61539 253.44716 253.77294
 253.81971 253.60348 252.97326 251.93103 250.54681 248.71758 246.63635 244.47913
 242.27990 240.09367 237.92345 235.77222 233.64200 231.51877 229.55454 227.72132
 226.01409 224.49586 223.13564 221.91741 220.80919 219.77896 218.89273 218.04351
 217.29528 216.48506 215.59283 214.96660 214.42638 213.79202 212.21860 211.05643
 211.18413 211.94279 213.20547 215.12903 218.10478 222.57101 228.46028 233.32352
 237.13814 241.31093 245.60075 249.91240 254.00800 257.49072 260.32138 262.83496
 265.46405 268.13046 270.64502 272.81335 274.57144 276.21265 278.07959 279.57440
 280.85117 282.51379 284.19080 285.66333 286.93768 288.06516 289.09378 290.02567
 290.86380 291.61017 292.26215 293.09305
 366.78100 356.34328 345.78356 334.65784 323.06913 311.27141 299.14969 286.96097
 274.68125 262.58653 250.60381 239.91310 230.04338 221.15566 213.34594 206.35622
 200.19850 195.14478 191.73507 189.78535 188.83063 188.90291 189.74619 191.06247
 192.79575 194.89904 197.17032 199.53760 201.99088 204.47916 206.57544 208.42573
 210.06001 211.21329 211.45057 211.68685 211.63213 211.34541 210.98670 210.62498
 210.25026 209.96854 209.78482 209.65710 209.59338 209.93267 210.32695 210.72423
 211.52551 212.71179 213.97007 215.76135 217.69764 219.74892 221.85220 223.94348
 226.01176 228.10404 230.20932 232.32361 234.46089 236.64117 238.90545 241.28373
 243.91301 246.17229 248.18258 249.95586 251.38114 252.51242 253.34270 253.66698
 253.71226 253.49455 252.86283 251.81911 250.43339 248.60267 246.51995 244.36123
 242.16052 239.97280 237.80108 235.64836 233.51664 231.39192 229.42621 227.59149
 225.88277 224.36305 223.00133 221.78161 220.67189 219.64018 218.75246 217.90174
 217.15202 216.34030 215.44658 214.81886 214.27715 213.75459 212.37621 211.08563
 211.07541 211.91240 213.18930 215.21205 218.21126 222.56334 228.41917 233.30453
 237.12878 241.30734 245.60352 249.94124 254.08237 257.65692 260.49500 262.98370
 265.53159 268.18213 270.63156 272.80942 274.50287 276.27979 278.07300 279.54010
 281.09546 283.05792 284.76587 286.26556 287.56342 288.71170 289.75931 290.70840
 291.56198 292.32211 292.98615 293.83237
 366.78100 356.34436 345.78572 334.66107 323.07343 311.27679 299.15615 286.96851
 274.68986 262.59622 250.61458 239.92494 230.05630 221.16966 213.36101 206.37237
 200.21573 195.16309 191.75445 189.80580 188.85216 188.92552 189.76988 191.08724
 192.82159 194.92595 197.19831 199.56667 202.02103 204.51039 206.60774 208.45910
 210.09446 211.24882 211.48718 211.72453 211.67089 211.38525 211.02761 210.66697
 210.29332 210.01268 209.83004 209.70340 209.64076 209.98112 210.37647 210.77483
 211.57719 212.76455 214.02391 215.81626 217.75362 219.80598 221.91034 224.00270
 226.07205 228.16541 230.27177 232.38713 234.52549 236.70684 238.97220 241.35156
 243.98192 246.24228 248.25364 250.02799 251.45435 252.58671 253.41807 253.74343
 253.78978 253.57314 252.94250 251.89986 250.51522 248.68557 246.60393 244.44629
 242.24665 240.06001 237.88937 235.73772 233.60708 231.48344 229.51880 227.68516
 225.97751 224.45887 223.09823 221.87959 220.77095 219.74030 218.85366 218.00402
 217.25538 216.44474 215.55210 214.92545 214.38481 213.80309 212.36232 211.23575
 211.08984 211.81435 213.09425 215.09352 218.07158 222.49141 228.41251 233.27483
 237.09680 241.28831 245.59108 249.90933 254.06631 257.69427 260.64203 263.09351
 265.69589 268.37628 270.82370 273.09238 274.97449 276.31683 278.11041 279.84460
 281.41211 283.41678 285.26373 286.88547 288.28897 289.53070 290.66357 291.68991
 292.61295 293.43494 294.15302 295.06812
 366.78100 356.34682 345.79064 334.66846 323.08328 311.28910 299.17093 286.98575
 274.70957 262.61839 250.63921 239.95203 230.08585 221.20167 213.39549 206.40931
 200.25513 195.20496 191.79878 189.85260 188.90142 188.97724 189.82406 191.14388
 192.88070 194.98752 197.26234 199.63316 202.08998 204.58181 206.68163 208.53545
 210.17327 211.33009 211.57091 211.81073 211.75955 211.47637 211.12119 210.76301
 210.39184 210.11366 209.93348 209.80930 209.74912 210.09194 210.48976 210.89058
 211.69540 212.88522 214.14704 215.94187 217.88169 219.93651 222.04333 224.13815
 226.20997 228.30579 230.41461 232.53243 234.67325 236.85707 239.12489 241.50672
 244.13954 246.40236 248.41618 250.19300 251.62182 252.75664 253.59046 253.91828
 253.96710 253.75292 253.12475 252.08457 250.70239 248.87521 246.79603 244.64085
 242.44367 240.25949 238.09131 235.94213 233.81395 231.69278 229.73060 227.89942
 226.19424 224.67806 223.31988 222.10370 220.99752 219.96934 219.08516 218.23798
 217.49180 216.68363 215.79345 215.16927 214.63109 213.91295 212.23105 211.28638
 211.29323 211.88499 213.05936 214.96442 217.99847 222.51065 228.24113 233.14459
 236.94658 241.15787 245.49240 249.82549 253.94139 257.42603 260.26758 262.88528
 265.59616 268.29044 270.76727 273.01083 274.99545 276.73087 278.41153 280.26819
 281.96970 283.53198 285.05173 286.53271 287.90952 289.12766 290.23898 291.24582
 292.15134 292.95770 293.66211 294.55981
 366.78100 356.34511 345.78723 334.66334 323.07646 311.28057 299.16069 286.97380
 274.69592 262.60303 250.62215 239.93326 230.06538 221.17949 213.37161 206.38372
 200.22784 195.17595 191.76807 189.82018 188.86730 188.94141 189.78653 191.10464
 192.83976 194.94487 197.21798 199.58710 202.04221 204.53233 206.63044 208.48256
 210.11867 211.27379 211.51290 211.75102 211.69813 211.41325 211.05636 210.69648
 210.32359 210.04371 209.86182 209.73594 209.67405 210.01517 210.41128 210.81040
 211.61351 212.80163 214.06174 215.85485 217.79297 219.84608 221.95120 224.04431
 226.11443 228.20854 230.31566 232.43177 234.57089 236.75300 239.01912 241.39923
 244.03035 246.29146 248.30358 250.07869 251.50581 252.63892 253.47104 253.79715
 253.84427 253.62838 252.99850 251.95661 250.57272 248.74384 246.66295 244.50607
 242.30718 240.12130 237.95141 235.80053 233.67064 231.54776 229.58387 227.75099
 226.04410 224.52622 223.16633 221.94845 220.84056 219.81068 218.92479 218.07591
 217.32802 216.51814 215.62625 215.00036 214.46048 213.80663 212.26894 211.40788
 211.19447 211.81029 213.13570 215.04105 217.99902 222.39067 228.17278 232.99835
 236.87857 241.06514 245.39970 249.67268 253.68837 257.16400 260.03857 262.65500
 265.37790 268.11014 270.55521 272.76834 274.79599 276.67734 278.44989 280.15466
 281.75317 283.16043 284.35254 285.46863 286.41702 287.28018 288.13770 288.99335
 289.80865 290.55624 291.20929 292.04153
 366.78100 356.34571 345.78842 334.66513 323.07884 311.28356 299.16427 286.97798
 274.70069 262.60840 250.62811 239.93982 230.07253 221.18724 213.37996 206.39267
 200.23738 195.18609 191.77880 189.83151 188.87922 188.95393 189.79964 191.11836
 192.85407 194.95978 197.23349 199.60320 202.05891 204.54962 206.64833 208.50104
 210.13776 211.29347 211.53318 211.77189 211.71960 211.43531 211.07902 210.71973
 210.34744 210.06816 209.88687 209.76158 209.70029 210.04200 210.43871 210.83842
 211.64213 212.83084 214.09156 215.88527 217.82398 219.87769 221.98340 224.07711
 226.14782 228.24253 230.35024 232.46696 234.60667 236.78938 239.05609 241.43680
 244.06851 246.33022 248.34293 250.11864 251.54636 252.68007 253.51278 253.83949
 253.88720 253.67191 253.04262 252.00133 250.61804 248.78976 246.70947 244.55318
 242.35489 240.16960 238.00031 235.85002 233.72073 231.59844 229.63516 227.80287
 226.09658 224.57929 223.22000 222.00271 220.89542 219.86613 218.98084 218.13256
 217.38527 216.57598 215.68469 215.05940 214.52011 213.84351 212.24495 211.43877
 211.28400 211.93193 213.22545 215.00102 217.89145 222.30621 228.20709 232.89038
 236.82913 241.04054 245.40077 249.70766 253.80070 257.27908 260.04654 262.53894
 265.26923 267.99677 270.37857 272.56146 274.59064 276.50854 278.30588 280.04510
 281.69916 283.11951 284.12820 285.24026 286.24185 286.97815 287.58548 288.11569
 288.57532 288.95673 289.24988 289.87311
 366.78100 356.34199 345.78098 334.65396 323.06395 311.26494 299.14193 286.95192
 274.67090 262.57489 250.59088 239.89887 230.02786 221.13884 213.32783 206.33682
 200.17781 195.12280 191.71178 189.76077 188.80476 188.87575 189.71774 191.03272
 192.76471 194.86670 197.13669 199.50268 201.95466 204.44165 206.53664 208.38563
 210.01861 211.17060 211.40659 211.64158 211.58557 211.29755 210.93754 210.57453
 210.19852 209.91551 209.73049 209.60148 209.53647 209.87446 210.26745 210.66343
 211.46342 212.64841 213.90540 215.69539 217.63037 219.68036 221.78235 223.87234
 225.93933 228.03031 230.13430 232.24729 234.38328 236.56227 238.82525 241.20224
 243.83023 246.08822 248.09721 249.86919 251.29318 252.42317 253.25216 253.57515
 253.61913 253.40012 252.76711 251.72210 250.33509 248.50307 246.41906 244.25905
 242.05704 239.86803 237.69501 235.54100 233.40799 231.28198 229.31497 227.47895
 225.76894 224.24793 222.88492 221.66390 220.55289 219.51988 218.63087 217.77886
 217.02784 216.21483 215.31982 214.69081 214.14780 213.70790 212.62982 211.25703
 211.13953 211.71550 213.06633 215.12534 218.14064 222.45302 228.15263 232.99930
 236.81598 241.04039 245.40045 249.72409 253.78677 257.27011 260.11627 262.66458
 265.29666 267.86600 270.21875 272.39511 274.40628 276.35345 278.19830 279.96942
 281.56274 282.92908 284.06516 285.00943 285.87604 286.54755 287.32089 288.26108
 289.11115 289.86810 290.52936 291.37207
 366.78100 356.33957 345.77613 334.64670 323.05427 311.25283 299.12740 286.93497
 274.65153 262.55310 250.56667 239.87223 229.99880 221.10737 213.29393 206.30050
 200.13907 195.08163 191.66820 189.71477 188.75633 188.82490 189.66447 190.97703
 192.70660 194.80617 197.07373 199.43730 201.88687 204.37143 206.46400 208.31057
 209.94113 211.09070 211.32427 211.55683 211.49840 211.20797 210.84553 210.48010
 210.10167 209.81623 209.62880 209.49737 209.42993 209.76550 210.15607 210.54963
 211.34720 212.52977 213.78434 215.57190 217.50447 219.55204 221.65160 223.73917
 225.80374 227.89230 229.99387 232.10444 234.23800 236.41457 238.67514 241.04970
 243.67527 245.93084 247.93740 249.70697 251.12854 252.25610 253.08267 253.40324
 253.44480 253.22337 252.58794 251.54050 250.15107 248.31664 246.23020 244.06777
 241.86334 239.67190 237.49647 235.34004 233.20460 231.07617 229.10674 227.26830
 225.55587 224.03244 222.66700 221.44357 220.33014 219.29470 218.40327 217.54884
 216.79540 215.97997 215.08254 214.45110 213.90567 213.64653 212.84854 211.31445
 211.12970 211.69588 213.21249 215.39450 218.35338 222.58252 228.22134 232.96744
 236.76489 240.98314 245.33963 249.67590 253.74947 257.22766 260.08084 262.70114
 265.39688 267.91360 270.23642 272.41357 274.46262 276.40515 278.15735 279.89005
 281.38696 282.60028 283.63681 285.09579 286.40561 287.56448 288.62180 289.57962
 290.44110 291.20825 291.87839 292.73245
 366.78100 356.34140 345.77981 334.65221 323.06162 311.26202 299.13843 286.94783
 274.66624 262.56964 250.58505 239.89245 230.02086 221.13126 213.31967 206.32807
 200.16848 195.11288 191.70129 189.74969 188.79310 188.86350 189.70491 191.01931
 192.75071 194.85212 197.12152 199.48693 201.93833 204.42474 206.51914 208.36755
 209.99995 211.15136 211.38676 211.62117 211.56457 211.27598 210.91538 210.55179
 210.17519 209.89160 209.70600 209.57641 209.51081 209.84821 210.24062 210.63602
 211.43543 212.61983 213.87624 215.66564 217.60005 219.64945 221.75086 223.84026
 225.90667 227.99707 230.10048 232.21288 234.34829 236.52669 238.78910 241.16550
 243.79291 246.05031 248.05872 249.83012 251.25352 252.38293 253.21133 253.53374
 253.57714 253.35755 252.72395 251.67836 250.29076 248.45817 246.37357 244.21298
 242.01038 239.82079 237.64719 235.49260 233.35900 231.23241 229.26481 227.42822
 225.71762 224.19603 222.83243 221.61083 220.49924 219.46564 218.57605 217.72345
 216.97186 216.15826 215.26267 214.63307 214.08948 213.76808 212.84689 211.48846
 211.04866 211.68037 213.38867 215.54482 218.33105 222.50235 228.18327 232.89014
 236.67397 240.87831 245.22470 249.55489 253.60966 257.04507 259.85635 262.57559
 265.41754 268.15399 270.43878 272.53397 274.43204 276.36658 278.09067 279.65848
 281.19077 282.63608 284.29807 285.79590 287.09213 288.23898 289.28531 290.23318
 291.08572 291.84491 292.50812 293.35327
 366.78100 356.34066 345.77831 334.64997 323.05862 311.25828 299.13393 286.94259
 274.66024 262.56290 250.57756 239.88421 230.01187 221.12152 213.30918 206.31683
 200.15649 195.10014 191.68780 189.73546 188.77811 188.84777 189.68842 191.00208
 192.73273 194.83339 197.10204 199.46670 201.91736 204.40301 206.49667 208.34432
 209.97598 211.12663 211.36129 211.59494 211.53760 211.24826 210.88691 210.52257
 210.14522 209.86088 209.67453 209.54419 209.47785 209.81450 210.20616 210.60081
 211.39947 212.58312 213.83878 215.62743 217.56109 219.60975 221.71040 223.79906
 225.86471 227.95437 230.05702 232.16868 234.30333 236.48099 238.74265 241.11830
 243.74496 246.00161 248.00927 249.77992 251.20258 252.33123 253.15889 253.48055
 253.52320 253.30286 252.66851 251.62217 250.23382 248.40048 246.31513 244.15379
 241.95045 239.76010 237.58576 235.43041 233.29607 231.16872 229.20038 227.36303
 225.65169 224.12935 222.76500 221.54266 220.43031 219.39597 218.50562 217.65228
 216.89993 216.08559 215.18925 214.55890 214.01456 213.76901 212.97697 211.57938
 210.85310 211.61067 213.38861 215.62047 218.47621 222.49127 228.13528 232.88545
 236.69440 240.89510 245.23671 249.57492 253.64970 257.09702 259.82620 262.44089
 265.22134 268.01849 270.49478 272.60510 274.36310 276.40170 278.06094 279.45276
 281.08740 283.06586 284.77789 286.28119 287.58215 288.73315 289.78329 290.73465
 291.59027 292.35220 293.01782 293.86609
 366.78100 356.34133 345.77966 334.65199 323.06132 311.26165 299.13797 286.94730
 274.66563 262.56896 250.58429 239.89162 230.01995 221.13028 213.31861 206.32694
 200.16727 195.11159 191.69992 189.74825 188.79158 188.86191 189.70324 191.01757
 192.74890 194.85023 197.11956 199.48489 201.93621 204.42254 206.51687 208.36520
 209.99753 211.14886 211.38419 211.61852 211.56185 211.27318 210.91251 210.54883
 210.17216 209.88849 209.70282 209.57315 209.50748 209.84481 210.23714 210.63247
 211.43180 212.61613 213.87245 215.66178 217.59611 219.64544 221.74677 223.83610
 225.90243 227.99276 230.09609 232.20842 234.34375 236.52207 238.78440 241.16073
 243.78806 246.04539 248.05372 249.82505 251.24838 252.37771 253.20604 253.52837
 253.57169 253.35202 252.71835 251.67268 250.28501 248.45234 246.36767 244.20700
 242.00433 239.81466 237.64099 235.48631 233.35264 231.22597 229.25830 227.42163
 225.71096 224.18929 222.82562 221.60395 220.49228 219.45861 218.56893 217.71626
 216.96459 216.15092 215.25525 214.62558 214.08191 213.83014 213.03833 211.72324
 210.79570 211.39397 213.07664 215.42818 218.46880 222.55707 228.13283 232.93964
 236.78511 241.02898 245.40958 249.78242 253.88170 257.39673 260.30270 262.93466
 265.58676 268.23193 270.57568 272.49081 274.31824 276.36877 277.93610 279.45221
 280.97491 282.28012 283.40958 284.40128 285.25955 286.01889 286.71167 287.33926
 287.90375 288.40640 288.84552 289.40509
 366.78100 356.34601 345.78902 334.66603 323.08004 311.28506 299.16607 286.98008
 274.70309 262.61110 250.63111 239.94312 230.07613 221.19114 213.38416 206.39717
 200.24218 195.19119 191.78420 189.83721 188.88522 188.96023 189.80624 191.12526
 192.86127 194.96728 197.24129 199.61130 202.06731 204.55832 206.65733 208.51034
 210.14736 211.30337 211.54338 211.78239 211.73040 211.44641 211.09042 210.73143
 210.35944 210.08046 209.89947 209.77448 209.71349 210.05550 210.45251 210.85252
 211.65653 212.84554 214.10655 215.90057 217.83958 219.89359 221.99960 224.09361
 226.16462 228.25963 230.36764 232.48465 234.62467 236.80768 239.07469 241.45570
 244.08771 246.34972 248.36273 250.13874 251.56675 252.70077 253.53378 253.86079
 253.90880 253.69381 253.06482 252.02383 250.64084 248.81285 246.73287 244.57688
 242.37889 240.19390 238.02491 235.87492 233.74593 231.62394 229.66095 227.82897
 226.12298 224.60599 223.24700 222.03001 220.92302 219.89403 219.00904 218.16105
 217.41407 216.60508 215.71409 215.08910 214.55011 214.06973 212.90150 211.96880
 211.16679 211.38959 212.83116 215.04137 218.10628 222.31790 227.94443 232.76840
 236.63406 240.92926 245.36490 249.79933 254.00356 257.60522 260.50119 263.09927
 265.84247 268.57169 270.96719 272.75150 274.34207 276.28635 277.97412 280.13458
 282.63794 284.78369 286.64050 288.27090 289.68188 290.93024 292.06918 293.10098
 294.02896 294.85535 295.57724 296.49722
 366.78100 356.34957 345.79614 334.67670 323.09427 311.30284 299.18741 287.00497
 274.73154 262.64311 250.66668 239.98224 230.11881 221.23738 213.43395 206.45051
 200.29908 195.25165 191.84822 189.90478 188.95635 189.03492 189.88449 191.20706
 192.94662 195.05619 197.33376 199.70733 202.16689 204.66146 206.76403 208.62060
 210.26116 211.42073 211.66430 211.90687 211.85843 211.57800 211.22557 210.87014
 210.50170 210.22627 210.04884 209.92741 209.86998 210.21554 210.61611 211.01968
 211.82725 213.01981 214.28438 216.08195 218.02452 220.08208 222.19165 224.28922
 226.36379 228.46235 230.57392 232.69449 234.83806 237.02462 239.29519 241.67976
 244.31533 246.58090 248.59746 250.37703 251.80860 252.94617 253.78273 254.11330
 254.16487 253.95344 253.32800 252.29057 250.91114 249.08671 247.01027 244.85784
 242.66341 240.48198 238.31654 236.17011 234.04468 231.92625 229.96682 228.13838
 226.43595 224.92252 223.56709 222.35365 221.25022 220.22479 219.34336 218.49892
 217.75549 216.95006 216.06263 215.44119 214.90576 214.26315 212.75371 211.87621
 211.57640 211.97345 213.07536 214.93153 217.80817 222.06340 227.62517 232.45357
 236.33682 240.64906 245.10474 249.51567 253.63687 257.12817 260.08334 262.90158
 265.75864 268.49142 270.95059 273.09766 275.00833 276.67636 278.45337 280.48196
 282.78104 284.99606 286.91278 288.59583 290.05234 291.34097 292.51666 293.58176
 294.53970 295.39276 296.13797 297.08765
 366.78100 356.34786 345.79273 334.67159 323.08746 311.29432 299.17719 286.99305
 274.71791 262.62778 250.64964 239.96351 230.09837 221.21524 213.41010 206.42496
 200.27183 195.22269 191.81756 189.87242 188.92229 188.99915 189.84701 191.16788
 192.90574 195.01361 197.28947 199.66134 202.11920 204.61206 206.71293 208.56779
 210.20666 211.36452 211.60639 211.84725 211.79711 211.51498 211.16084 210.80371
 210.43357 210.15644 209.97730 209.85416 209.79503 210.13889 210.53776 210.93962
 211.74549 212.93635 214.19921 215.99508 217.93594 219.99181 222.09967 224.19554
 226.26840 228.36526 230.47513 232.59399 234.73586 236.92072 239.18959 241.57245
 244.20631 246.47018 248.48504 250.26291 251.69277 252.82864 253.66350 253.99236
 254.04223 253.82909 253.20196 252.16282 250.78169 248.95555 246.87741 244.72328
 242.52714 240.34401 238.17687 236.02874 233.90160 231.78146 229.82033 227.99019
 226.28606 224.77092 223.41379 222.19865 221.09351 220.06638 219.18324 218.33711
 217.59197 216.78484 215.89570 215.27256 214.73543 214.17314 212.82436 211.69313
 211.19875 211.96892 213.49323 215.31851 218.07822 222.23434 227.60364 232.42673
 236.27042 240.55092 244.96199 249.27216 253.27116 256.76770 259.76706 262.53650
 265.27271 267.92917 270.40854 272.73074 274.91138 276.97205 278.93921 280.75815
 282.47018 284.07608 285.57660 286.95566 288.21335 289.37152 290.42816 291.38541
 292.24637 293.01303 293.68280 294.53632
 366.78100 356.34580 345.78861 334.66541 323.07922 311.28402 299.16483 286.97863
 274.70143 262.60924 250.62904 239.94085 230.07365 221.18845 213.38126 206.39406
 200.23887 195.18767 191.78048 189.83328 188.88108 188.95589 189.80169 191.12050
 192.85630 194.96210 197.23591 199.60571 202.06152 204.55232 206.65113 208.50393
 210.14073 211.29654 211.53634 211.77515 211.72295 211.43876 211.08256 210.72336
 210.35117 210.07197 209.89078 209.76558 209.70438 210.04619 210.44299 210.84280
 211.64660 212.83541 214.09621 215.89001 217.82882 219.88262 221.98843 224.08223
 226.15303 228.24784 230.35564 232.47245 234.61225 236.79506 239.06186 241.44266
 244.07447 246.33627 248.34908 250.12488 251.55268 252.68649 253.51929 253.84610
 253.89390 253.67871 253.04951 252.00831 250.62512 248.79692 246.71673 244.56053
 242.36234 240.17714 238.00794 235.85775 233.72855 231.60636 229.64316 227.81096
 226.10477 224.58757 223.22838 222.01118 220.90399 219.87479 218.98959 218.14140
 217.39420 216.58501 215.69381 215.06861 214.52942 214.05704 212.93518 211.96463
 210.97678 211.47052 213.25641 215.37733 218.15649 222.28964 227.77637 232.46683
 236.34320 240.58955 245.01340 249.34187 253.36610 256.85922 259.82224 262.54993
 265.27698 267.94809 270.37405 272.53259 274.53043 276.51904 278.52286 280.40161
 282.07645 283.52954 284.74460 285.79987 286.72351 287.66635 288.61731 289.53271
 290.39294 291.15900 291.82819 292.68103
 366.78100 356.34726 345.79153 334.66979 323.08506 311.29132 299.17358 286.98885
 274.71311 262.62238 250.64364 239.95691 230.09117 221.20743 213.40170 206.41596
 200.26223 195.21249 191.80675 189.86102 188.91028 188.98655 189.83381 191.15408
 192.89134 194.99860 197.27387 199.64513 202.10240 204.59466 206.69492 208.54919
 210.18745 211.34472 211.58598 211.82625 211.77551 211.49277 211.13804 210.78030
 210.40957 210.13183 209.95209 209.82836 209.76862 210.11189 210.51015 210.91142
 211.71668 212.90694 214.16921 215.96447 217.90474 219.96000 222.06726 224.16253
 226.23479 228.33106 230.44032 232.55858 234.69985 236.88411 239.15238 241.53464
 244.16791 246.43117 248.44543 250.22270 251.65196 252.78723 253.62149 253.94975
 253.99902 253.78528 253.15755 252.11781 250.73608 248.90934 246.83060 244.67587
 242.47913 240.29540 238.12766 235.97892 233.85119 231.73045 229.76872 227.93798
 226.23325 224.71751 223.35977 222.14404 221.03830 220.01057 219.12683 218.28009
 217.53436 216.72662 215.83689 215.21315 214.67542 214.15823 212.93982 212.03795
 211.12933 211.41742 213.05965 215.22095 218.15187 222.34132 227.74388 232.48814
 236.32387 240.59871 245.01364 249.34808 253.37904 256.85309 259.82327 262.57895
 265.35400 268.03857 270.47379 272.65262 274.65237 276.61179 278.54776 280.38599
 282.02081 283.39951 284.52792 285.47092 286.62158 287.78687 288.86752 289.84653
 290.72702 291.51111 292.19608 293.06900
 366.78100 356.34772 345.79244 334.67117 323.08689 311.29361 299.17633 286.99205
 274.71677 262.62650 250.64822 239.96194 230.09666 221.21338 213.40810 206.42283
 200.26955 195.22027 191.81499 189.86971 188.91944 188.99616 189.84388 191.16460
 192.90232 195.01004 197.28577 199.65749 202.11521 204.60793 206.70865 208.56337
 210.20210 211.35982 211.60154 211.84226 211.79198 211.50971 211.15543 210.79815
 210.42787 210.15059 209.97131 209.84804 209.78876 210.13248 210.53120 210.93292
 211.73864 212.92937 214.19209 215.98781 217.92853 219.98425 222.09198 224.18770
 226.26042 228.35714 230.46686 232.58558 234.72731 236.91203 239.18075 241.56347
 244.19719 246.46091 248.47564 250.25336 251.68308 252.81880 253.65352 253.98225
 254.03197 253.81869 253.19141 252.15213 250.77085 248.94458 246.86630 244.71202
 242.51574 240.33246 238.16518 236.01691 233.88963 231.76935 229.80807 227.97779
 226.27352 224.75824 223.40096 222.18568 221.08040 220.05312 219.16985 218.32357
 217.57829 216.77101 215.88173 215.25845 214.72118 214.20979 212.98390 211.92638
 211.26787 211.62575 213.06627 215.09891 218.04152 222.27950 227.68596 232.43117
 236.26372 240.55101 244.97925 249.32222 253.34927 256.78754 259.73410 262.53540
 265.39215 268.14261 270.65543 272.86371 274.83704 276.76660 278.68515 280.50079
 282.12485 283.50089 284.60580 285.55341 286.77060 287.93185 288.99408 289.95639
 290.82190 291.59262 292.26590 293.12393
 366.78100 356.34687 345.79074 334.66862 323.08349 311.28936 299.17123 286.98610
 274.70997 262.61885 250.63972 239.95259 230.08646 221.20233 213.39621 206.41008
 200.25595 195.20582 191.79969 189.85357 188.90244 188.97831 189.82518 191.14505
 192.88192 194.98880 197.26367 199.63454 202.09141 204.58328 206.68316 208.53703
 210.17490 211.33177 211.57264 211.81251 211.76139 211.47826 211.12313 210.76500
 210.39387 210.11575 209.93562 209.81149 209.75136 210.09423 210.49210 210.89298
 211.69785 212.88772 214.14959 215.94446 217.88434 219.93921 222.04608 224.14095
 226.21282 228.30870 230.41757 232.53544 234.67631 236.86018 239.12805 241.50993
 244.14280 246.40567 248.41954 250.19641 251.62529 252.76016 253.59403 253.92190
 253.97077 253.75664 253.12852 252.08839 250.70626 248.87913 246.80000 244.64488
 242.44775 240.26362 238.09549 235.94636 233.81824 231.69711 229.73498 227.90385
 226.19872 224.68259 223.32447 222.10834 221.00221 219.97408 219.08995 218.24283
 217.49670 216.68857 215.79844 215.17431 214.63618 214.17317 213.06224 211.90833
 211.25609 211.65471 213.07976 215.07988 217.99066 222.20317 227.67474 232.34587
 236.22150 240.48534 244.90854 249.20393 253.15672 256.58252 259.55957 262.39597
 265.23553 267.98639 270.52750 272.79578 274.82214 276.76483 278.68021 280.49817
 282.13098 283.55359 284.77328 285.80746 286.76251 287.76865 288.74911 289.71075
 290.59830 291.38867 292.07913 292.95905
 366.78100 356.34604 345.78908 334.66612 323.08017 311.28521 299.16625 286.98029
 274.70333 262.61137 250.63141 239.94345 230.07650 221.19154 213.38458 206.39762
 200.24266 195.19170 191.78474 189.83778 188.88583 188.96087 189.80691 191.12595
 192.86199 194.96803 197.24207 199.61212 202.06816 204.55920 206.65824 208.51128
 210.14832 211.30436 211.54440 211.78345 211.73149 211.44753 211.09157 210.73261
 210.36065 210.08169 209.90074 209.77578 209.71482 210.05686 210.45390 210.85394
 211.65798 212.84702 214.10807 215.90211 217.84115 219.89519 222.00123 224.09527
 226.16631 228.26135 230.36940 232.48644 234.62648 236.80952 239.07656 241.45760
 244.08964 246.35169 248.36473 250.14077 251.56881 252.70285 253.53589 253.86293
 253.91097 253.69602 253.06706 252.02610 250.64314 248.81518 246.73522 244.57926
 242.38130 240.19635 238.02739 235.87743 233.74847 231.62651 229.66355 227.83159
 226.12564 224.60868 223.24972 222.03276 220.92580 219.89684 219.01188 218.16392
 217.41697 216.60801 215.71705 215.09209 214.55313 214.13658 213.14072 211.91331
 211.25912 211.73508 213.13965 215.10234 217.95322 222.15901 227.67621 232.27625
 236.17003 240.44368 244.88528 249.17795 253.11589 256.51697 259.46176 262.27982
 265.11310 267.85425 270.37421 272.64160 274.70380 276.67523 278.60083 280.41434
 282.04816 283.47821 284.69717 285.70740 286.59979 287.54019 288.48526 289.36118
 290.19211 290.96597 291.64200 292.50351
 366.78100 356.34591 345.78881 334.66572 323.07963 311.28454 299.16544 286.97935
 274.70226 262.61016 250.63007 239.94198 230.07488 221.18979 213.38270 206.39561
 200.24051 195.18942 191.78233 189.83523 188.88314 188.95805 189.80395 191.12286
 192.85877 194.96468 197.23858 199.60849 202.06440 204.55530 206.65421 208.50712
 210.14403 211.29993 211.53984 211.77875 211.72665 211.44256 211.08647 210.72737
 210.35528 210.07619 209.89510 209.77000 209.70891 210.05082 210.44772 210.84763
 211.65154 212.84044 214.10135 215.89526 217.83417 219.88807 221.99398 224.08789
 226.15879 228.25370 230.36161 232.47851 234.61842 236.80133 239.06824 241.44914
 244.08105 246.34296 248.35586 250.13177 251.55968 252.69359 253.52649 253.85340
 253.90131 253.68621 253.05712 252.01603 250.63293 248.80484 246.72475 244.56866
 242.37056 240.18547 238.01638 235.86628 233.73719 231.61510 229.65200 227.81991
 226.11382 224.59673 223.23763 222.02054 220.91345 219.88435 218.99926 218.15117
 217.40408 216.59498 215.70389 215.07880 214.53970 214.14017 213.18454 211.91499
 211.22365 211.73859 213.19051 215.16451 217.97511 222.14465 227.64375 232.22525
 236.11046 240.40216 244.85580 249.15451 253.09068 256.48694 259.44003 262.27158
 265.10165 267.82831 270.32553 272.57529 274.65039 276.64578 278.57999 280.38623
 282.00406 283.41190 284.62024 285.58972 286.43433 287.33505 288.26120 289.12860
 289.94849 290.72250 291.39871 292.26041
 366.78100 356.34795 345.79291 334.67186 323.08781 311.29477 299.17772 286.99367
 274.71863 262.62858 250.65053 239.96449 230.09944 221.21639 213.41135 206.42630
 200.27325 195.22421 191.81916 189.87411 188.92406 189.00102 189.84897 191.16992
 192.90788 195.01583 197.29178 199.66374 202.12169 204.61464 206.71560 208.57055
 210.20950 211.36746 211.60941 211.85036 211.80032 211.51827 211.16422 210.80718
 210.43713 210.16008 209.98104 209.85799 209.79894 210.14290 210.54185 210.94380
 211.74976 212.94071 214.20366 215.99962 217.94057 219.99652 222.10447 224.20043
 226.27338 228.37033 230.48029 232.59924 234.74119 236.92615 239.19510 241.57805
 244.21201 246.47596 248.49091 250.26887 251.69882 252.83477 253.66973 253.99868
 254.04863 253.83559 253.20854 252.16949 250.78845 248.96240 246.88435 244.73031
 242.53426 240.35121 238.18417 236.03612 233.90907 231.78903 229.82798 227.99793
 226.29388 224.77884 223.42179 222.20674 221.10170 220.07465 219.19160 218.34556
 217.60051 216.79346 215.90442 215.28137 214.74432 214.25409 213.09048 212.01241
 211.27486 211.67877 213.19891 215.22287 218.01163 222.13400 227.58868 232.16162
 236.03914 240.33904 244.79303 249.08490 253.00786 256.40350 259.38898 262.25766
 265.09299 267.80710 270.28625 272.52426 274.61362 276.63205 278.57025 280.36060
 281.95346 283.33212 284.50912 285.46524 286.32465 287.21356 288.13965 289.01828
 289.85394 290.63177 291.31128 292.17725
 366.78100 356.35002 345.79703 334.67805 323.09606 311.30508 299.19010 287.00811
 274.73513 262.64714 250.67116 239.98718 230.12419 221.24321 213.44022 206.45724
 200.30625 195.25927 191.85629 189.91330 188.96532 189.04433 189.89435 191.21737
 192.95738 195.06740 197.34541 199.71943 202.17945 204.67446 206.77748 208.63449
 210.27551 211.43553 211.67954 211.92256 211.87457 211.59459 211.24260 210.88762
 210.51964 210.24465 210.06767 209.94668 209.88970 210.23572 210.63673 211.04075
 211.84876 213.04178 214.30680 216.10481 218.04783 220.10584 222.21586 224.31388
 226.38889 228.48791 230.59992 232.72094 234.86496 237.05197 239.32299 241.70800
 244.34402 246.61003 248.62705 250.40707 251.83908 252.97710 253.81411 254.14513
 254.19715 253.98616 253.36118 252.32419 250.94521 249.12123 247.04524 244.89326
 242.69927 240.51829 238.35331 236.20732 234.08234 231.96435 230.00537 228.17739
 226.47540 224.96242 223.60743 222.39445 221.29146 220.26648 219.38550 218.54151
 217.79853 216.99354 216.10656 215.48558 214.95059 214.36847 212.99472 212.07141
 211.39566 211.63661 213.13344 215.24564 218.06221 222.14972 227.55341 232.11598
 235.97766 240.28156 244.73076 249.00925 252.91171 256.30679 259.32782 262.23660
 265.08350 267.79178 270.25534 272.48056 274.57892 276.61365 278.55237 280.32657
 281.90433 283.26480 284.42200 285.39175 286.28137 287.09430 288.01498 288.88538
 289.71225 290.46628 291.12497 291.96442
 366.78100 356.34929 345.79558 334.67587 323.09316 311.30145 299.18574 287.00303
 274.72932 262.64061 250.66390 239.97919 230.11548 221.23377 213.43006 206.44635
 200.29464 195.24693 191.84322 189.89951 188.95080 189.02909 189.87838 191.20067
 192.93996 195.04925 197.32654 199.69983 202.15912 204.65341 206.75570 208.61199
 210.25228 211.41157 211.65486 211.89715 211.84844 211.56773 211.21502 210.85931
 210.49060 210.21489 210.03718 209.91547 209.85776 210.20305 210.60334 211.00663
 211.81392 213.00621 214.27050 216.06779 218.01008 220.06737 222.17665 224.27394
 226.34823 228.44652 230.55781 232.67810 234.82139 237.00768 239.27797 241.66226
 244.29755 246.56284 248.57913 250.35842 251.78971 252.92700 253.76329 254.09358
 254.14487 253.93316 253.30745 252.26974 250.89003 249.06532 246.98861 244.83590
 242.64119 240.45948 238.29377 236.14706 234.02135 231.90264 229.94293 228.11422
 226.41151 224.89780 223.54209 222.32838 221.22467 220.19896 219.31725 218.47254
 217.72883 216.92312 216.03541 215.41370 214.87799 214.33879 213.06288 212.03557
 211.47188 211.62634 213.08142 215.25877 218.10391 222.17761 227.55769 232.08685
 235.93922 240.24554 244.69518 248.96121 252.84099 256.22937 259.27167 262.21219
 265.06793 267.77539 270.22757 272.43381 274.53152 276.56952 278.50208 280.26645
 281.83112 283.18649 284.33606 285.34714 286.27328 287.04779 287.87820 288.73795
 289.54153 290.29575 290.95459 291.79425
 366.78100 356.34819 345.79338 334.67257 323.08877 311.29596 299.17915 286.99534
 274.72053 262.63072 250.65291 239.96711 230.10230 221.21949 213.41468 206.42987
 200.27706 195.22825 191.82345 189.87864 188.92883 189.00602 189.85421 191.17540
 192.91359 195.02179 197.29798 199.67017 202.12836 204.62155 206.72274 208.57793
 210.21713 211.37532 211.61751 211.85870 211.80889 211.52708 211.17327 210.81647
 210.44666 210.16985 209.99104 209.86823 209.80942 210.15361 210.55281 210.95500
 211.76119 212.95238 214.21557 216.01176 217.95295 220.00915 222.11734 224.21353
 226.28672 228.38391 230.49410 232.61329 234.75549 236.94068 239.20987 241.59306
 244.22725 246.49144 248.50663 250.28483 251.71502 252.85121 253.68640 254.01559
 254.06578 253.85297 253.22617 252.18736 250.80655 248.98074 246.90293 244.74912
 242.55331 240.37051 238.20370 236.05589 233.92908 231.80927 229.84846 228.01865
 226.31485 224.80004 223.44323 222.22842 221.12361 220.09680 219.21399 218.36819
 217.62338 216.81657 215.92776 215.30495 214.76814 214.28458 213.13956 212.01942
 211.53012 211.64864 213.04034 215.23715 218.11072 222.18474 227.56244 232.05013
 235.89412 240.20627 244.66081 248.91672 252.76929 256.14413 259.20306 262.17245
 265.03406 267.73624 270.17731 272.36130 274.45618 276.50421 278.43826 280.19376
 281.74414 283.08493 284.22195 285.27097 286.28094 287.02512 287.79523 288.66138
 289.45685 290.21036 290.88443 291.74344
 366.78100 356.34843 345.79387 334.67330 323.08973 311.29716 299.18060 286.99703
 274.72246 262.63290 250.65533 239.96976 230.10519 221.22263 213.41806 206.43349
 200.28093 195.23236 191.82779 189.88322 188.93366 189.01109 189.85952 191.18095
 192.91939 195.02782 197.30425 199.67669 202.13512 204.62855 206.72998 208.58542
 210.22485 211.38328 211.62572 211.86715 211.81758 211.53601 211.18245 210.82588
 210.45631 210.17975 210.00118 209.87861 209.82004 210.16448 210.56391 210.96634
 211.77278 212.96421 214.22764 216.02407 217.96551 220.02194 222.13037 224.22681
 226.30024 228.39767 230.50810 232.62754 234.76997 236.95540 239.22483 241.60827
 244.24270 246.50713 248.52257 250.30100 251.73143 252.86786 253.70330 254.03273
 254.08316 253.87060 253.24403 252.20546 250.82489 248.99933 246.92176 244.76819
 242.57263 240.39006 238.22349 236.07592 233.94936 231.82979 229.86922 228.03966
 226.33609 224.82152 223.46495 222.25039 221.14582 220.11925 219.23669 218.39112
 217.64655 216.83998 215.95142 215.32885 214.79228 214.29840 213.13045 212.04729
 211.57565 211.65446 213.03400 215.25458 218.12599 222.18289 227.54631 232.00064
 235.84251 240.16238 244.62181 248.87178 252.70105 256.06787 259.15097 262.15051
 265.01736 267.71329 270.14651 272.31021 274.39957 276.44327 278.35547 280.07932
 281.60327 282.92172 284.06787 285.20105 286.24561 286.87579 287.71890 288.58749
 289.38016 290.12198 290.79553 291.65390
 366.78100 356.34861 345.79421 334.67382 323.09042 311.29803 299.18164 286.99824
 274.72385 262.63446 250.65706 239.97167 230.10727 221.22488 213.42049 206.43609
 200.28370 195.23530 191.83091 189.88652 188.93712 189.01473 189.86334 191.18494
 192.92355 195.03215 197.30876 199.68137 202.13997 204.63358 206.73518 208.59079
 210.23040 211.38900 211.63161 211.87322 211.82382 211.54243 211.18903 210.83264
 210.46325 210.18685 210.00846 209.88606 209.82767 210.17228 210.57188 210.97449
 211.78110 212.97270 214.23631 216.03291 217.97452 220.03113 222.13973 224.23634
 226.30995 228.40755 230.51816 232.63776 234.78037 236.96598 239.23558 241.61919
 244.25379 246.51840 248.53401 250.31261 251.74322 252.87983 253.71543 254.04504
 254.09564 253.88325 253.25686 252.21846 250.83807 249.01267 246.93528 244.78189
 242.58649 240.40410 238.23771 236.09031 233.96392 231.84452 229.88413 228.05474
 226.35134 224.83695 223.48055 222.26616 221.16177 220.13537 219.25298 218.40759
 217.66319 216.85680 215.96840 215.34601 214.80962 214.31227 213.13460 212.10091
 211.55835 211.59023 213.08270 215.34669 218.18420 222.18466 227.50261 231.96599
 235.78133 240.11169 244.57863 248.82791 252.63953 256.00583 259.11618 262.13751
 265.00546 267.69797 270.12643 272.27219 274.33899 276.37097 278.26166 279.95224
 281.43539 282.71072 283.81155 284.93860 286.03159 286.86432 287.70163 288.56216
 289.37604 290.16013 290.84509 291.71799
 366.78100 356.34811 345.79322 334.67233 323.08844 311.29555 299.17866 286.99476
 274.71987 262.62998 250.65209 239.96620 230.10131 221.21842 213.41353 206.42864
 200.27575 195.22686 191.82197 189.87707 188.92718 189.00429 189.85240 191.17351
 192.91162 195.01973 197.29584 199.66795 202.12606 204.61917 206.72028 208.57538
 210.21449 211.37260 211.61471 211.85582 211.80593 211.52404 211.17015 210.81326
 210.44337 210.16648 209.98759 209.86469 209.80580 210.14991 210.54902 210.95113
 211.75724 212.94835 214.21146 216.00757 217.94868 220.00479 222.11290 224.20901
 226.28211 228.37922 230.48933 232.60844 234.75055 236.93566 239.20477 241.58788
 244.22199 246.48610 248.50121 250.27932 251.70942 252.84553 253.68064 254.00975
 254.05986 253.84697 253.22008 252.18119 250.80030 248.97441 246.89652 244.74263
 242.54673 240.36384 238.19695 236.04906 233.92217 231.80228 229.84139 228.01150
 226.30761 224.79272 223.43583 222.22094 221.11604 220.08915 219.20626 218.36037
 217.61548 216.80859 215.91970 215.29681 214.75992 214.30481 213.21204 212.16225
 211.39938 211.47537 213.15163 215.44826 218.30293 222.24083 227.41867 231.92526
 235.72061 240.06082 244.51888 248.74564 252.53387 255.91158 259.09085 262.14117
 265.01340 267.70535 270.10547 272.22815 274.28506 276.28012 278.13992 279.82047
 281.29056 282.56909 283.73773 284.76773 285.88626 286.95660 287.98981 288.92822
 289.77225 290.52383 291.18039 292.01712
 366.78100 356.34897 345.79494 334.67491 323.09188 311.29985 299.18382 287.00079
 274.72676 262.63773 250.66069 239.97566 230.11163 221.22960 213.42557 206.44154
 200.28951 195.24148 191.83745 189.89342 188.94439 189.02236 189.87133 191.19330
 192.93227 195.04124 197.31821 199.69118 202.15015 204.64411 206.74608 208.60205
 210.24202 211.40099 211.64396 211.88593 211.83690 211.55587 211.20284 210.84681
 210.47778 210.20175 210.02372 209.90169 209.84366 210.18863 210.58860 210.99157
 211.79853 212.99050 214.25447 216.05144 217.99341 220.05038 222.15935 224.25632
 226.33029 228.42826 230.53923 232.65920 234.80217 236.98814 239.25811 241.64208
 244.27705 246.54202 248.55799 250.33695 251.76792 252.90489 253.74086 254.07083
 254.12180 253.90977 253.28374 252.24571 250.86568 249.04065 246.96362 244.81059
 242.61556 240.43353 238.26750 236.12047 233.99444 231.87541 229.91537 228.08634
 226.38331 224.86928 223.51325 222.29922 221.19519 220.16916 219.28713 218.44210
 217.69807 216.89204 216.00401 215.38198 214.84595 214.37956 213.23384 212.17007
 211.54904 211.77670 213.36465 215.59537 218.38388 222.26103 227.44414 231.86066
 235.64073 239.98535 244.46565 248.69696 252.46550 255.83017 259.00403 262.04868
 264.92682 267.62128 270.05179 272.24307 274.30792 276.25946 278.07245 279.68610
 281.06979 282.33511 283.91071 285.44849 286.78397 287.96555 289.04355 290.02014
 290.89847 291.68063 292.36392 293.23468
 366.78100 356.34908 345.79516 334.67525 323.09233 311.30041 299.18449 287.00157
 274.72766 262.63874 250.66182 239.97690 230.11298 221.23107 213.42715 206.44323
 200.29131 195.24340 191.83948 189.89556 188.94664 189.02472 189.87381 191.19589
 192.93497 195.04405 197.32113 199.69422 202.15330 204.64738 206.74946 208.60554
 210.24563 211.40471 211.64779 211.88987 211.84095 211.56004 211.20712 210.85120
 210.48228 210.20637 210.02845 209.90653 209.84861 210.19369 210.59378 210.99686
 211.80394 212.99602 214.26010 216.05719 217.99927 220.05635 222.16543 224.26251
 226.33660 228.43468 230.54576 232.66584 234.80892 236.99501 239.26509 241.64917
 244.28425 246.54934 248.56542 250.34450 251.77558 252.91266 253.74875 254.07883
 254.12991 253.91799 253.29207 252.25416 250.87424 249.04932 246.97240 244.81948
 242.62457 240.44265 238.27673 236.12981 234.00389 231.88498 229.92506 228.09614
 226.39322 224.87931 223.52339 222.30947 221.20555 220.17963 219.29772 218.45280
 217.70888 216.90296 216.01504 215.39313 214.85721 214.44576 213.28624 212.07104
 211.58522 211.92578 213.42401 215.68803 218.48500 222.24304 227.34404 231.81250
 235.63226 239.96565 244.41490 248.61520 252.35220 255.76048 258.97369 262.00348
 264.83090 267.43314 269.83463 272.10162 274.24619 276.21475 277.91986 279.48972
 281.96173 284.12949 286.00531 287.65244 289.07788 290.33902 291.48962 292.53201
 293.46948 294.30435 295.03366 295.96307
 366.78100 356.34919 345.79537 334.67556 323.09275 311.30093 299.18512 287.00231
 274.72849 262.63968 250.66287 239.97805 230.11424 221.23243 213.42861 206.44480
 200.29299 195.24517 191.84136 189.89755 188.94874 189.02692 189.87611 191.19830
 192.93748 195.04667 197.32386 199.69704 202.15623 204.65042 206.75260 208.60879
 210.24898 211.40816 211.65135 211.89354 211.84472 211.56391 211.21110 210.85528
 210.48647 210.21066 210.03284 209.91103 209.85322 210.19840 210.59859 211.00178
 211.80896 213.00115 214.26534 216.06252 218.00471 220.06190 222.17108 224.26827
 226.34246 228.44065 230.55183 232.67202 234.81521 237.00139 239.27158 241.65577
 244.29095 246.55614 248.57233 250.35151 251.78270 252.91989 253.75607 254.08626
 254.13745 253.92563 253.29982 252.26201 250.88219 249.05738 246.98057 244.82775
 242.63294 240.45113 238.28531 236.13850 234.01269 231.89387 229.93406 228.10525
 226.40243 224.88862 223.53281 222.31899 221.21518 220.18937 219.30756 218.46274
 217.71893 216.91312 216.02530 215.40349 214.86768 214.50142 213.30440 212.07755
 211.36475 211.66858 213.42822 215.64880 218.36801 222.37563 227.28624 231.77254
 235.57768 239.93404 244.43721 248.68427 252.46585 255.89526 259.18558 262.33167
 265.22446 267.75317 269.98724 272.16275 274.22653 275.88620 278.90002 281.99719
 284.68542 286.98962 288.98355 290.73438 292.24954 293.59009 294.81311 295.92111
 296.91763 297.80502 298.58023 299.56818
 366.78100 356.35019 345.79738 334.67856 323.09675 311.30594 299.19113 287.00932
 274.73650 262.64869 250.67288 239.98907 230.12625 221.24544 213.44263 206.45982
 200.30901 195.26219 191.85938 189.91657 188.96876 189.04795 189.89813 191.22132
 192.96151 195.07170 197.34989 199.72407 202.18426 204.67945 206.78264 208.63982
 210.28101 211.44120 211.68539 211.92858 211.88076 211.60095 211.24914 210.89433
 210.52652 210.25170 210.07489 209.95408 209.89727 210.24345 210.64464 211.04883
 211.85702 213.05021 214.31539 216.11358 218.05677 220.11496 222.22515 224.32333
 226.39852 228.49771 230.60990 232.73109 234.87527 237.06246 239.33365 241.71884
 244.35502 246.62121 248.63840 250.41859 251.85078 252.98896 253.82615 254.15734
 254.20953 253.99872 253.37390 252.33709 250.95828 249.13447 247.05866 244.90684
 242.71303 240.53222 238.36741 236.22159 234.09678 231.97897 230.02016 228.19235
 226.49053 224.97772 223.62291 222.41010 221.30729 220.28247 219.40166 218.55785
 217.81504 217.01023 216.12341 215.50260 214.96779 214.50800 213.27148 212.04848
 211.74753 212.00737 213.27869 215.40096 218.32431 222.23051 227.19209 231.79634
 235.64328 239.98036 244.39445 248.55714 252.33470 255.81900 259.13055 262.25909
 265.16010 267.84976 270.33035 272.61432 274.72446 276.64426 278.37534 280.20151
 282.31924 284.40906 286.21747 287.80536 289.17957 290.39536 291.50461 292.50949
 293.41330 294.21811 294.92120 295.81720
 366.78100 356.34892 345.79484 334.67476 323.09168 311.29960 299.18353 287.00045
 274.72637 262.63729 250.66021 239.97513 230.11105 221.22897 213.42489 206.44081
 200.28874 195.24066 191.83658 189.89250 188.94342 189.02134 189.87026 191.19218
 192.93110 195.04002 197.31694 199.68987 202.14879 204.64271 206.74463 208.60055
 210.24047 211.39939 211.64231 211.88423 211.83515 211.55408 211.20100 210.84492
 210.47584 210.19976 210.02168 209.89960 209.84152 210.18644 210.58636 210.98928
 211.79621 212.98813 214.25205 216.04897 217.99089 220.04781 222.15673 224.25365
 226.32757 228.42549 230.53642 232.65634 234.79926 236.98518 239.25510 241.63902
 244.27394 246.53886 248.55478 250.33370 251.76462 252.90155 253.73747 254.06739
 254.11831 253.90623 253.28015 252.24207 250.86199 249.03691 246.95983 244.80676
 242.61168 240.42960 238.26352 236.11644 233.99036 231.87128 229.91120 228.08212
 226.37904 224.86496 223.50889 222.29481 221.19073 220.16465 219.28257 218.43749
 217.69341 216.88733 215.99925 215.37717 214.84109 214.37341 213.25732 212.15637
 211.63445 211.94287 213.19850 215.30655 218.21739 222.16322 227.20657 231.63310
 235.54271 239.78078 244.14485 248.28448 252.05801 255.51614 258.76584 261.84027
 264.71857 267.41580 269.94611 272.30698 274.51321 276.57742 278.46097 280.12598
 281.52139 282.69250 283.73428 284.81964 285.83496 286.66827 287.57642 288.48120
 289.32785 290.08179 290.74045 291.57980
 366.78100 356.34850 345.79399 334.67349 323.08998 311.29748 299.18097 286.99747
 274.72296 262.63346 250.65595 239.97045 230.10594 221.22344 213.41893 206.43443
 200.28192 195.23342 191.82891 189.88441 188.93490 189.01240 189.86090 191.18239
 192.92089 195.02938 197.30588 199.67837 202.13687 204.63036 206.73186 208.58735
 210.22685 211.38534 211.62784 211.86933 211.81983 211.53832 211.18482 210.82831
 210.45881 210.18230 210.00380 209.88129 209.82279 210.16729 210.56678 210.96928
 211.77577 212.96727 214.23076 216.02726 217.96875 220.02525 222.13374 224.23024
 226.30373 228.40123 230.51172 232.63122 234.77371 236.95921 239.22870 241.61220
 244.24669 246.51119 248.52669 250.30518 251.73568 252.87217 253.70767 254.03716
 254.08766 253.87515 253.24865 252.21014 250.82964 249.00413 246.92663 244.77312
 242.57762 240.39511 238.22861 236.08110 233.95460 231.83509 229.87459 228.04508
 226.34158 224.82708 223.47057 222.25607 221.15156 220.12506 219.24255 218.39705
 217.65254 216.84604 215.95753 215.33503 214.79852 214.33467 213.23781 212.25482
 211.73083 212.00571 213.20219 215.20802 218.12886 222.10832 227.25253 231.52083
 235.48708 239.73186 244.14662 248.30141 252.03777 255.45807 258.72882 261.85281
 264.76248 267.43790 269.88342 272.09982 274.18747 276.22531 278.14557 279.83182
 281.22659 282.36331 283.32968 284.24304 285.28571 286.29794 287.02527 287.76306
 288.55490 289.31839 289.99783 290.86371
 366.78100 356.34523 345.78747 334.66370 323.07693 311.28117 299.16140 286.97463
 274.69687 262.60410 250.62333 239.93457 230.06680 221.18103 213.37327 206.38550
 200.22973 195.17797 191.77020 189.82243 188.86967 188.94390 189.78913 191.10737
 192.84260 194.94783 197.22107 199.59030 202.04553 204.53577 206.63400 208.48623
 210.12247 211.27770 211.51693 211.75517 211.70240 211.41763 211.06087 210.70110
 210.32833 210.04857 209.86680 209.74103 209.67927 210.02050 210.41673 210.81597
 211.61920 212.80743 214.06767 215.86090 217.79913 219.85237 221.95760 224.05083
 226.12107 228.21530 230.32253 232.43877 234.57800 236.76023 239.02647 241.40670
 244.03793 246.29917 248.31140 250.08663 251.51387 252.64710 253.47934 253.80557
 253.85280 253.63704 253.00727 251.96550 250.58174 248.75297 246.67220 244.51544
 242.31667 240.13090 237.96114 235.81037 233.68060 231.55784 229.59407 227.76130
 226.05454 224.53677 223.17700 221.95924 220.85147 219.82170 218.93594 218.08717
 217.33940 216.52964 215.63787 215.01210 214.47234 214.18622 213.47513 212.15433
 211.48430 211.87791 213.15048 215.23799 218.27367 222.25093 227.27138 231.67625
 235.53262 239.79350 244.18517 248.32933 252.06358 255.50810 258.82297 261.99875
 264.95169 267.65097 270.07889 272.23331 274.23697 276.17795 277.97171 279.48767
 280.72366 281.78174 282.83170 284.05063 285.23141 286.27316 287.24469 288.20364
 289.06857 289.83878 290.51163 291.36911
 366.78100 356.34337 345.78374 334.65811 323.06948 311.27185 299.15022 286.96159
 274.68196 262.58733 250.60469 239.91406 230.04443 221.15680 213.34717 206.35754
 200.19991 195.14628 191.73665 189.78702 188.83239 188.90476 189.74813 191.06450
 192.79787 194.90124 197.17261 199.53998 201.99335 204.48172 206.57808 208.42845
 210.06282 211.21619 211.45356 211.68993 211.63530 211.34867 210.99004 210.62841
 210.25378 209.97215 209.78852 209.66089 209.59726 209.93663 210.33100 210.72837
 211.52974 212.71611 213.97447 215.76584 217.70221 219.75358 221.85695 223.94832
 226.01669 228.10906 230.21443 232.32880 234.46617 236.64654 238.91091 241.28928
 243.91865 246.17802 248.18839 249.96176 251.38713 252.51850 253.34886 253.67323
 253.71860 253.50097 252.86934 251.82571 250.44008 248.60945 246.52682 244.36819
 242.16756 239.97993 237.80830 235.65567 233.52404 231.39941 229.43378 227.59915
 225.89052 224.37089 223.00925 221.78962 220.67999 219.64836 218.76073 217.91010
 217.16047 216.34884 215.45521 214.82758 214.28595 214.08179 213.56346 212.35544
 211.37207 211.69286 213.04951 215.16621 218.22014 222.23926 227.28941 231.71259
 235.57707 239.85475 244.25616 248.38528 252.07677 255.48578 258.79358 261.97369
 264.94235 267.68835 270.17123 272.32104 274.26099 276.15582 277.88007 279.32254
 280.52158 281.62518 282.77240 284.07938 285.27609 286.34433 287.34293 288.35965
 289.27408 290.08838 290.79974 291.70627
 366.78100 356.34572 345.78845 334.66517 323.07890 311.28362 299.16435 286.97807
 274.70080 262.60852 250.62825 239.93997 230.07270 221.18742 213.38015 206.39287
 200.23760 195.18632 191.77904 189.83177 188.87949 188.95422 189.79994 191.11867
 192.85439 194.96012 197.23384 199.60357 202.05929 204.55002 206.64874 208.50147
 210.13819 211.29391 211.53364 211.77236 211.72009 211.43581 211.07954 210.72026
 210.34799 210.06871 209.88744 209.76216 209.70089 210.04261 210.43934 210.83906
 211.64279 212.83151 214.09223 215.88596 217.82468 219.87841 221.98413 224.07786
 226.14858 228.24331 230.35103 232.46776 234.60748 236.79021 239.05693 241.43766
 244.06938 246.33110 248.34383 250.11955 251.54728 252.68100 253.51373 253.84045
 253.88818 253.67290 253.04363 252.00235 250.61908 248.79080 246.71053 244.55425
 242.35598 240.17070 238.00142 235.85115 233.72187 231.59960 229.63632 227.80405
 226.09777 224.58050 223.22122 222.00395 220.89667 219.86740 218.98212 218.13385
 217.38657 216.57730 215.68602 215.06074 214.52147 214.17984 213.37115 212.56847
 211.81265 211.64882 212.85756 215.00377 218.02295 222.09659 227.29047 231.62778
 235.56853 239.85992 244.29056 248.44089 252.12587 255.47983 258.70834 261.79663
 264.71426 267.47668 270.02563 272.26599 274.26343 276.16068 277.90735 279.39325
 280.64560 281.75125 282.82153 283.94107 285.12918 286.16235 287.05264 287.88013
 288.67166 289.43082 290.09634 290.94449
 366.78100 356.34605 345.78910 334.66614 323.08019 311.28524 299.16629 286.98033
 274.70338 262.61143 250.63148 239.94352 230.07657 221.19162 213.38467 206.39771
 200.24276 195.19181 191.78486 189.83790 188.88595 188.96100 189.80705 191.12609
 192.86214 194.96819 197.24224 199.61228 202.06833 204.55938 206.65843 208.51147
 210.14852 211.30457 211.54462 211.78366 211.73171 211.44776 211.09181 210.73286
 210.36090 210.08195 209.90100 209.77605 209.71509 210.05714 210.45419 210.85424
 211.65828 212.84733 214.10838 215.90243 217.84147 219.89552 222.00157 224.09562
 226.16666 228.26171 230.36976 232.48681 234.62685 236.80990 239.07695 241.45800
 244.09004 246.35209 248.36514 250.14119 251.56923 252.70328 253.53633 253.86338
 253.91142 253.69647 253.06752 252.02657 250.64362 248.81566 246.73571 244.57976
 242.38181 240.19685 238.02790 235.87795 233.74900 231.62704 229.66409 227.83214
 226.12619 224.60923 223.25028 222.03333 220.92638 219.89742 219.01247 218.16452
 217.41757 216.60861 215.71766 215.09271 214.55376 214.19035 213.33176 212.55606
 212.11951 211.76451 212.70871 214.89713 217.88814 221.98151 227.25479 231.51433
 235.51367 239.82005 244.27782 248.45093 252.15736 255.53789 258.77197 261.81570
 264.63583 267.32812 269.85794 272.11545 274.14182 276.07129 277.82648 279.29712
 280.56873 281.70224 282.77411 283.85037 284.95584 285.99792 286.83789 287.51505
 288.23767 288.92950 289.55203 290.37814
 366.78100 356.34432 345.78564 334.66097 323.07329 311.27661 299.15593 286.96826
 274.68958 262.59590 250.61422 239.92455 230.05587 221.16919 213.36051 206.37184
 200.21516 195.16248 191.75380 189.80513 188.85145 188.92477 189.76909 191.08642
 192.82074 194.92506 197.19738 199.56571 202.02003 204.50935 206.60667 208.45799
 210.09332 211.24764 211.48596 211.72328 211.66961 211.38393 211.02625 210.66557
 210.29190 210.01122 209.82854 209.70186 209.63919 209.97951 210.37483 210.77315
 211.57548 212.76280 214.02212 215.81444 217.75177 219.80409 221.90841 224.00073
 226.07005 228.16338 230.26970 232.38502 234.52334 236.70467 238.96999 241.34931
 243.97963 246.23996 248.25128 250.02560 251.45192 252.58425 253.41557 253.74089
 253.78721 253.57054 252.93986 251.89718 250.51250 248.68283 246.60115 244.44347
 242.24379 240.05712 237.88644 235.73476 233.60408 231.48040 229.51573 227.68205
 225.97437 224.45569 223.09502 221.87634 220.76766 219.73698 218.85031 218.00063
 217.25195 216.44127 215.54860 214.92192 214.38124 214.10027 213.43642 212.57712
 212.14203 211.79907 212.62311 214.86548 217.89404 221.95654 227.21849 231.49557
 235.45956 239.77962 244.22542 248.38055 252.08656 255.53249 258.84128 261.92392
 264.71069 267.32831 269.80136 272.03748 274.07193 276.00626 277.70419 279.13977
 280.42368 281.57797 282.65448 283.71469 284.82208 285.86386 286.67575 287.25226
 287.99200 288.68460 289.30289 290.13486
 366.78100 356.34418 345.78535 334.66053 323.07271 311.27588 299.15506 286.96724
 274.68841 262.59459 250.61277 239.92294 230.05412 221.16730 213.35847 206.36965
 200.21283 195.16000 191.75118 189.80236 188.84853 188.92171 189.76589 191.08306
 192.81724 194.92142 197.19359 199.56177 202.01595 204.50512 206.60230 208.45348
 210.08865 211.24283 211.48101 211.71818 211.66436 211.37854 211.02071 210.65989
 210.28607 210.00524 209.82242 209.69560 209.63277 209.97295 210.36813 210.76630
 211.56848 212.75566 214.01483 215.80701 217.74419 219.79636 221.90054 223.99272
 226.06189 228.15507 230.26125 232.37642 234.51460 236.69578 238.96095 241.34013
 243.97031 246.23048 248.24166 250.01584 251.44201 252.57419 253.40537 253.73054
 253.77672 253.55990 252.92907 251.88625 250.50143 248.67160 246.58978 244.43196
 242.23213 240.04531 237.87449 235.72267 233.59184 231.46802 229.50320 227.66937
 225.96155 224.44273 223.08190 221.86308 220.75426 219.72343 218.83661 217.98679
 217.23796 216.42714 215.53432 214.90749 214.36667 214.09485 213.45267 212.64439
 212.16000 211.81494 212.59282 214.85612 217.91800 221.93069 227.16269 231.46704
 235.42384 239.73653 244.15045 248.26205 251.94646 255.45827 258.84933 262.01266
 264.81857 267.39520 269.80811 272.00995 274.03528 275.92987 277.55887 278.98434
 280.27606 281.46109 282.54208 283.60141 284.68686 285.71341 286.50244 287.17532
 287.93149 288.62714 289.25613 290.09290
 366.78100 356.34349 345.78397 334.65846 323.06994 311.27243 299.15091 286.96240
 274.68288 262.58837 250.60585 239.91534 230.04582 221.15831 213.34879 206.35928
 200.20176 195.14825 191.73873 189.78922 188.83470 188.90719 189.75067 191.06716
 192.80064 194.90413 197.17561 199.54310 201.99658 204.48507 206.58155 208.43204
 210.06653 211.22001 211.45750 211.69398 211.63947 211.35295 210.99444 210.63292
 210.25841 209.97689 209.79338 209.66586 209.60235 209.94183 210.33632 210.73380
 211.53529 212.72177 213.98026 215.77174 217.70823 219.75971 221.86320 223.95468
 226.02317 228.11565 230.22114 232.33562 234.47311 236.65359 238.91808 241.29656
 243.92605 246.18554 248.19602 249.96951 251.39499 252.52648 253.35696 253.68145
 253.72693 253.50942 252.87790 251.83439 250.44887 248.61836 246.53584 244.37733
 242.17681 239.98930 237.81778 235.66527 233.53375 231.40924 229.44372 227.60921
 225.90069 224.38118 223.01966 221.80015 220.69063 219.65912 218.77160 217.92109
 217.17158 216.36006 215.46655 214.83903 214.29752 214.07187 213.53874 212.59662
 212.17874 211.86832 212.55437 214.83005 217.96533 221.95462 227.12836 231.52332
 235.39140 239.71236 244.08363 248.13916 251.77847 255.29335 258.73862 262.00394
 264.94040 267.52966 269.89551 272.04770 274.00085 275.79645 277.34418 278.75549
 280.08463 281.28064 282.38965 283.44913 284.52634 285.44394 286.15195 286.85846
 287.62909 288.34247 288.99365 289.82355
 366.78100 356.34311 345.78322 334.65733 323.06844 311.27055 299.14866 286.95977
 274.67988 262.58499 250.60210 239.91121 230.04132 221.15344 213.34355 206.35366
 200.19577 195.14188 191.73199 189.78210 188.82721 188.89932 189.74243 191.05854
 192.79165 194.89476 197.16587 199.53298 201.98609 204.47420 206.57031 208.42042
 210.05453 211.20764 211.44475 211.68086 211.62597 211.33908 210.98020 210.61831
 210.24342 209.96153 209.77764 209.64975 209.58586 209.92497 210.31908 210.71619
 211.51730 212.70341 213.96152 215.75263 217.68874 219.73985 221.84296 223.93407
 226.00218 228.09429 230.19940 232.31351 234.45062 236.63073 238.89484 241.27296
 243.90207 246.16118 248.17129 249.94440 251.36951 252.50062 253.33073 253.65484
 253.69995 253.48206 252.85017 251.80628 250.42039 248.58950 246.50661 244.34772
 242.14683 239.95894 237.78705 235.63416 233.50227 231.37738 229.41149 227.57661
 225.86772 224.34783 222.98594 221.76605 220.65616 219.62427 218.73638 217.88549
 217.13560 216.32371 215.42982 214.80193 214.26004 214.06070 213.58482 212.68826
 212.13689 211.62933 212.45148 214.87515 218.09535 222.07796 227.19327 231.66127
 235.45137 239.75476 244.10399 248.13196 251.73763 255.21985 258.65103 261.89850
 264.86267 267.49283 269.89166 272.05823 274.00018 275.71786 277.21008 278.55173
 279.83224 281.04715 282.18137 283.27338 284.17267 284.98639 285.74359 286.57126
 287.36728 288.10931 288.75754 289.58362
 366.78100 356.34298 345.78296 334.65694 323.06792 311.26991 299.14789 286.95887
 274.67885 262.58383 250.60081 239.90979 230.03977 221.15175 213.34173 206.35172
 200.19370 195.13968 191.72966 189.77964 188.82462 188.89660 189.73958 191.05556
 192.78854 194.89153 197.16251 199.52949 201.98247 204.47045 206.56643 208.41641
 210.05039 211.20337 211.44035 211.67634 211.62132 211.33430 210.97528 210.61326
 210.23824 209.95622 209.77220 209.64418 209.58016 209.91915 210.31313 210.71011
 211.51109 212.69707 213.95505 215.74603 217.68201 219.73299 221.83597 223.92696
 225.99494 228.08692 230.19190 232.30588 234.44286 236.62284 238.88682 241.26480
 243.89378 246.15277 248.16275 249.93573 251.36071 252.49169 253.32167 253.64565
 253.69063 253.47261 252.84059 251.79658 250.41056 248.57954 246.49652 244.33750
 242.13648 239.94846 237.77644 235.62342 233.49140 231.36639 229.40037 227.56535
 225.85633 224.33631 222.97429 221.75427 220.64425 219.61223 218.72421 217.87320
 217.12318 216.31116 215.41714 214.78912 214.24710 214.05383 213.59216 212.89270
 212.06519 211.43878 212.45393 214.81558 218.04184 222.06441 227.21767 231.72440
 235.50110 239.79381 244.13669 248.16943 251.78841 255.25827 258.65356 261.84503
 264.79349 267.44458 269.86325 272.03912 273.95538 275.62460 277.10080 278.40775
 279.62146 280.82498 281.97171 283.02579 283.91528 284.72025 285.50339 286.36435
 287.17490 287.91165 288.55527 289.37549
 366.78100 356.34135 345.77971 334.65206 323.06142 311.26177 299.13812 286.94748
 274.66583 262.56918 250.58454 239.89189 230.02025 221.13060 213.31895 206.32731
 200.16766 195.11201 191.70037 189.74872 188.79208 188.86243 189.70378 191.01814
 192.74949 194.85085 197.12020 199.48555 201.93691 204.42326 206.51761 208.36597
 209.99832 211.14968 211.38503 211.61938 211.56274 211.27409 210.91344 210.54980
 210.17315 209.88951 209.70386 209.57421 209.50857 209.84592 210.23828 210.63363
 211.43298 212.61734 213.87369 215.66304 217.59740 219.64675 221.74811 223.83746
 225.90381 227.99417 230.09752 232.20987 234.34523 236.52358 238.78594 241.16229
 243.78964 246.04700 248.05535 249.82671 251.25006 252.37941 253.20777 253.53012
 253.57347 253.35383 252.72018 251.67454 250.28689 248.45424 246.36960 244.20895
 242.00630 239.81666 237.64301 235.48837 233.35472 231.22807 229.26043 227.42378
 225.71314 224.19149 222.82784 221.60620 220.49455 219.46090 218.57126 217.71861
 216.96697 216.15332 215.25767 214.62803 214.08438 213.96715 213.68434 213.05011
 212.01045 211.51605 212.46080 214.62534 217.85970 221.94167 227.16087 231.66158
 235.49406 239.78554 244.12454 248.16615 251.81892 255.30798 258.70316 261.87366
 264.79276 267.41901 269.84009 272.06992 273.95764 275.53305 276.95334 278.30054
 279.71683 280.89331 281.89432 282.93912 283.88599 284.64130 285.42438 286.28073
 287.06732 287.77313 288.38971 289.17548
 366.78100 356.34107 345.77914 334.65121 323.06028 311.26035 299.13642 286.94549
 274.66356 262.56663 250.58170 239.88877 230.01684 221.12691 213.31498 206.32305
 200.16312 195.10718 191.69525 189.74332 188.78639 188.85646 189.69753 191.01160
 192.74267 194.84374 197.11281 199.47788 201.92895 204.41502 206.50909 208.35716
 209.98923 211.14030 211.37537 211.60944 211.55251 211.26358 210.90265 210.53872
 210.16179 209.87786 209.69193 209.56200 209.49607 209.83314 210.22521 210.62028
 211.41935 212.60341 213.85948 215.64855 217.58262 219.63169 221.73276 223.82183
 225.88790 227.97797 230.08104 232.19311 234.32818 236.50625 238.76832 241.14439
 243.77146 246.02853 248.03660 249.80767 251.23074 252.35981 253.18788 253.50995
 253.55302 253.33309 252.69916 251.65323 250.26530 248.43237 246.34744 244.18651
 241.98358 239.79365 237.61971 235.46478 233.33085 231.20392 229.23599 227.39906
 225.68813 224.16620 222.80227 221.58034 220.46841 219.43448 218.54455 217.69162
 216.93969 216.12576 215.22983 214.59990 214.05597 213.94359 213.67719 213.23949
 212.11710 211.51854 212.33862 214.44080 217.71434 221.87602 227.16475 231.62239
 235.51093 239.79387 244.12564 248.15872 251.80939 255.29926 258.70697 261.88281
 264.81052 267.44977 269.87726 272.12067 273.93475 275.44345 276.79727 278.27609
 279.75082 280.92395 282.01328 283.04126 284.09955 284.86819 285.56561 286.34525
 287.08383 287.75052 288.33337 289.07617
 366.78100 356.34166 345.78032 334.65298 323.06264 311.26330 299.13996 286.94962
 274.66829 262.57195 250.58761 239.89527 230.02393 221.13459 213.32325 206.33191
 200.17257 195.11723 191.70589 189.75455 188.79821 188.86887 189.71053 191.02520
 192.75686 194.85852 197.12818 199.49384 201.94550 204.43216 206.52682 208.37548
 210.00814 211.15980 211.39546 211.63012 211.57378 211.28544 210.92511 210.56177
 210.18543 209.90209 209.71675 209.58741 209.52207 209.85973 210.25239 210.64805
 211.44771 212.63237 213.88903 215.67869 217.61335 219.66302 221.76468 223.85434
 225.92100 228.01166 230.11532 232.22798 234.36364 236.54230 238.80496 241.18162
 243.80928 246.06694 248.07560 249.84726 251.27093 252.40059 253.22925 253.55191
 253.59557 253.37623 252.74289 251.69755 250.31021 248.47787 246.39353 244.23319
 242.03085 239.84151 237.66817 235.51384 233.38050 231.25416 229.28682 227.45048
 225.74014 224.21880 222.85546 221.63412 220.52278 219.48944 218.60010 217.74776
 216.99642 216.18308 215.28775 214.65841 214.11507 213.97627 213.64836 213.25534
 212.47966 211.52858 212.08759 214.21579 217.53720 221.80165 227.17670 231.63026
 235.56084 239.84628 244.18895 248.22911 251.86198 255.31137 258.68341 261.83450
 264.76071 267.44110 269.90692 272.14056 273.87811 275.28241 276.69858 278.29105
 279.73303 280.94305 282.11136 283.20953 284.25745 284.96170 285.69263 286.46478
 287.17474 287.82642 288.40225 289.13608
 366.78100 356.33994 345.77689 334.64783 323.05578 311.25472 299.12967 286.93761
 274.65456 262.55650 250.57045 239.87639 230.00334 221.11228 213.29923 206.30617
 200.14512 195.08806 191.67501 189.72195 188.76390 188.83284 189.67279 190.98573
 192.71568 194.81562 197.08357 199.44751 201.89746 204.38240 206.47535 208.32229
 209.95324 211.10318 211.33713 211.57007 211.51202 211.22196 210.85991 210.49485
 210.11680 209.83174 209.64469 209.51363 209.44658 209.78252 210.17347 210.56741
 211.36536 212.54830 213.80325 215.59119 217.52414 219.57208 221.67203 223.75997
 225.82492 227.91386 230.01581 232.12675 234.26070 236.43764 238.69859 241.07353
 243.69948 245.95542 247.96237 249.73231 251.15426 252.28220 253.10915 253.43009
 253.47204 253.25098 252.61593 251.56887 250.17982 248.34576 246.25971 244.09765
 241.89360 239.70254 237.52749 235.37143 233.23638 231.10832 229.13927 227.30121
 225.58916 224.06610 222.70105 221.47799 220.36494 219.32988 218.43883 217.58477
 216.83172 216.01666 215.11961 214.48855 213.94350 213.90506 213.80908 213.09520
 212.59367 211.85500 212.16431 214.06279 217.28134 221.58632 226.99342 231.51523
 235.51616 239.84045 244.21860 248.29720 251.96053 255.40494 258.73865 261.85587
 264.75604 267.46014 269.97189 272.20294 273.87979 275.27933 276.66034 278.20947
 279.67468 280.98175 282.21783 283.31122 284.31335 285.08554 285.86670 286.61539
 287.35464 288.03531 288.62994 289.38773
 366.78100 356.33859 345.77417 334.64376 323.05035 311.24793 299.12152 286.92811
 274.64370 262.54428 250.55687 239.86146 229.98704 221.09463 213.28022 206.28580
 200.12339 195.06498 191.65056 189.69615 188.73674 188.80433 189.64291 190.95450
 192.68309 194.78167 197.04826 199.41085 201.85943 204.34302 206.43461 208.28019
 209.90978 211.05837 211.29096 211.52254 211.46313 211.17172 210.80830 210.44189
 210.06248 209.77606 209.58765 209.45524 209.38683 209.72141 210.11100 210.50359
 211.30017 212.48176 213.73535 215.52193 217.45352 219.50011 221.59869 223.68528
 225.74887 227.83646 229.93704 232.04663 234.17922 236.35480 238.61439 240.98798
 243.61256 245.86715 247.87274 249.64132 251.06191 252.18850 253.01409 253.33367
 253.37426 253.15185 252.51543 251.46702 250.07661 248.24119 246.15378 243.99037
 241.78495 239.59254 237.41613 235.25872 233.12230 230.99289 229.02248 227.18306
 225.46965 223.94524 222.57882 221.35441 220.24000 219.20358 218.31117 217.45576
 216.70135 215.88493 214.98652 214.35411 213.80769 213.85329 213.93393 213.08484
 212.35255 212.07172 212.48332 214.19897 217.22681 221.41464 226.73514 231.33345
 235.32950 239.68965 244.07715 248.18510 251.92850 255.46219 258.84561 261.98279
 264.86581 267.49884 269.98712 272.24869 273.96606 275.35223 276.71997 278.13342
 279.67700 281.07022 282.27686 283.34396 284.37576 285.29453 286.22351 287.11545
 287.93790 288.67032 289.31012 290.12549
 366.78100 356.34111 345.77922 334.65132 323.06043 311.26054 299.13665 286.94576
 274.66387 262.56697 250.58208 239.88919 230.01730 221.12741 213.31552 206.32362
 200.16373 195.10784 191.69595 189.74406 188.78717 188.85727 189.69838 191.01249
 192.74360 194.84471 197.11382 199.47892 201.93003 204.41614 206.51025 208.35836
 209.99047 211.14157 211.37668 211.61079 211.55390 211.26501 210.90412 210.54022
 210.16333 209.87944 209.69355 209.56366 209.49777 209.83487 210.22698 210.62209
 211.42120 212.60531 213.86141 215.65052 217.58463 219.63374 221.73485 223.82396
 225.89006 227.98017 230.08328 232.19539 234.33050 236.50861 238.77071 241.14682
 243.77393 246.03104 248.03915 249.81026 251.23336 252.36247 253.19058 253.51269
 253.55580 253.33591 252.70201 251.65612 250.26823 248.43534 246.35045 244.18956
 241.98666 239.79677 237.62288 235.46799 233.33410 231.20721 229.23931 227.40242
 225.69153 224.16964 222.80575 221.58386 220.47196 219.43807 218.54818 217.69529
 216.94340 216.12950 215.23361 214.60372 214.05983 213.99358 213.81262 213.24716
 212.22841 211.87686 212.53210 214.44110 217.48962 221.56041 226.71855 231.33556
 235.24684 239.57730 243.91919 247.99759 251.77647 255.41219 258.89606 262.10660
 265.03436 267.60449 270.03625 272.20370 273.78903 275.13480 276.44907 278.21997
 279.69666 281.09143 282.48587 283.83832 285.04117 286.13873 287.18744 288.13748
 288.99194 289.75284 290.41754 291.26462
 366.78100 356.34249 345.78199 334.65548 323.06597 311.26747 299.14496 286.95546
 274.67495 262.57944 250.59594 239.90443 230.03392 221.14542 213.33491 206.34440
 200.18590 195.13139 191.72089 189.77038 188.81487 188.88637 189.72886 191.04435
 192.77685 194.87934 197.14983 199.51633 201.96882 204.45632 206.55181 208.40130
 210.03480 211.18729 211.42378 211.65928 211.60377 211.31626 210.95676 210.59425
 210.21875 209.93624 209.75173 209.62323 209.55872 209.89721 210.29071 210.68720
 211.48769 212.67319 213.93068 215.72118 217.65667 219.70716 221.80966 223.90015
 225.96764 228.05914 230.16363 232.27712 234.41362 236.59311 238.85661 241.23410
 243.86259 246.12109 248.13058 249.90307 251.32757 252.45806 253.28755 253.61105
 253.65554 253.43704 252.80453 251.76002 250.37352 248.54201 246.45850 244.29900
 242.09749 239.90899 237.73648 235.58297 233.45047 231.32496 229.35845 227.52295
 225.81344 224.29293 222.93043 221.70992 220.59942 219.56691 218.67840 217.82690
 217.07639 216.26388 215.36938 214.74087 214.19836 214.06805 213.75620 213.37630
 212.30951 211.67108 212.34874 214.44687 217.64516 221.73473 226.86714 231.42618
 235.26854 239.54927 243.84077 247.88344 251.65860 255.33437 258.89508 262.19360
 265.18341 267.77847 270.13013 272.14346 273.60367 274.89853 276.44904 278.08908
 279.66449 281.21326 282.73599 284.10565 285.30130 286.36084 287.34207 288.23102
 289.03055 289.74249 290.36447 291.15707
 366.78100 356.34061 345.77821 334.64982 323.05842 311.25803 299.13363 286.94224
 274.65984 262.56245 250.57705 239.88366 230.01126 221.12087 213.30847 206.31608
 200.15568 195.09929 191.68689 189.73450 188.77710 188.84671 189.68731 191.00092
 192.73152 194.83213 197.10073 199.46534 201.91594 204.40155 206.49515 208.34276
 209.97436 211.12497 211.35957 211.59318 211.53578 211.24639 210.88499 210.52060
 210.14320 209.85881 209.67241 209.54202 209.47562 209.81223 210.20383 210.59844
 211.39704 212.58065 213.83625 215.62486 217.55846 219.60707 221.70767 223.79628
 225.86188 227.95149 230.05409 232.16570 234.30030 236.47791 238.73951 241.11512
 243.74172 245.99833 248.00593 249.77654 251.19914 252.32775 253.15535 253.47696
 253.51956 253.29917 252.66477 251.61838 250.22998 248.39659 246.31119 244.14980
 241.94640 239.75601 237.58162 235.42622 233.29183 231.16443 229.19604 227.35864
 225.64725 224.12485 222.76046 221.53806 220.42567 219.39127 218.50088 217.64748
 216.89509 216.08069 215.18430 214.55390 214.00951 213.97450 213.87762 213.49263
 212.40509 211.63884 212.08638 214.14673 217.53809 221.75078 226.92505 231.48907
 235.31708 239.55659 243.78607 247.75610 251.48729 255.17813 258.78729 262.16321
 265.24387 267.92325 270.26227 272.22455 273.61795 274.85480 276.35175 278.06842
 279.76163 281.30212 282.76834 284.12381 285.31351 286.37024 287.42596 288.38239
 289.24258 290.00861 290.67776 291.53055
 366.78100 356.34127 345.77954 334.65181 323.06108 311.26136 299.13763 286.94690
 274.66517 262.56844 250.58371 239.89098 230.01925 221.12952 213.31780 206.32607
 200.16634 195.11061 191.69888 189.74715 188.79042 188.86069 189.70196 191.01624
 192.74751 194.84878 197.11805 199.48332 201.93459 204.42086 206.51513 208.36340
 209.99568 211.14695 211.38222 211.61649 211.55976 211.27103 210.91030 210.54657
 210.16984 209.88612 209.70039 209.57066 209.50493 209.84220 210.23447 210.62974
 211.42901 212.61328 213.86956 215.65883 217.59310 219.64237 221.74364 223.83291
 225.89918 227.98945 230.09272 232.20500 234.34027 236.51854 238.78081 241.15708
 243.78435 246.04162 248.04989 249.82116 251.24444 252.37371 253.20198 253.52425
 253.56752 253.34779 252.71406 251.66833 250.28060 248.44788 246.36315 244.20242
 241.99969 239.80996 237.63623 235.48150 233.34777 231.22104 229.25332 227.41659
 225.70586 224.18413 222.82040 221.59867 220.48694 219.45321 218.56348 217.71076
 216.95903 216.14530 215.24957 214.61984 214.07611 214.02505 213.88899 213.53354
 212.57941 211.73306 212.12636 214.11244 217.42992 221.68881 226.97095 231.55058
 235.39037 239.64905 243.89342 247.82779 251.43820 254.98973 258.52368 261.90192
 265.03290 267.82135 270.23837 272.19138 273.61044 274.88181 276.41788 278.19168
 279.98471 281.53244 283.05435 284.46667 285.82077 287.05252 288.17633 289.19443
 290.11008 290.92548 291.63779 292.54553
 366.78100 356.34402 345.78505 334.66007 323.07210 311.27512 299.15415 286.96617
 274.68720 262.59322 250.61124 239.92127 230.05229 221.16532 213.35634 206.36737
 200.21039 195.15741 191.74844 189.79946 188.84549 188.91851 189.76254 191.07956
 192.81359 194.91761 197.18963 199.55766 202.01168 204.50071 206.59773 208.44876
 210.08378 211.23781 211.47583 211.71285 211.65888 211.37290 211.01493 210.65395
 210.27998 209.99900 209.81602 209.68905 209.62607 209.96610 210.36112 210.75915
 211.56117 212.74820 214.00722 215.79924 217.73627 219.78829 221.89232 223.98434
 226.05337 228.14639 230.25242 232.36744 234.50546 236.68649 238.95151 241.33054
 243.96056 246.22059 248.23161 250.00564 251.43166 252.56368 253.39471 253.71973
 253.76576 253.54878 252.91781 251.87483 250.48985 248.65988 246.57790 244.41993
 242.21995 240.03298 237.86200 235.71003 233.57905 231.45507 229.49010 227.65612
 225.94815 224.42917 223.06820 221.84922 220.74025 219.70927 218.82229 217.97232
 217.22334 216.41237 215.51939 214.89242 214.35144 214.20090 213.83577 213.47159
 212.70404 211.84105 212.14294 214.07870 217.32458 221.56497 226.98224 231.60632
 235.46793 239.72885 243.97969 247.94696 251.61398 255.14937 258.60397 261.91269
 264.99094 267.76367 270.16345 272.04681 273.40234 274.64703 276.25073 278.24783
 280.33636 282.36401 284.33063 286.05746 287.55188 288.87408 290.08035 291.17319
 292.15607 293.03131 293.79590 294.77029
 366.78100 356.34334 345.78369 334.65803 323.06938 311.27172 299.15007 286.96141
 274.68176 262.58710 250.60445 239.91379 230.04414 221.15648 213.34682 206.35717
 200.19951 195.14586 191.73620 189.78655 188.83189 188.90424 189.74758 191.06393
 192.79727 194.90062 197.17196 199.53930 201.99265 204.48099 206.57734 208.42768
 210.06203 211.21537 211.45272 211.68906 211.63441 211.34775 210.98910 210.62744
 210.25279 209.97113 209.78747 209.65982 209.59616 209.93551 210.32985 210.72720
 211.52854 212.71489 213.97323 215.76458 217.70092 219.75227 221.85561 223.94695
 226.01530 228.10764 230.21299 232.32733 234.46468 236.64502 238.90937 241.28771
 243.91706 246.17640 248.18675 249.96009 251.38543 252.51678 253.34712 253.67147
 253.71681 253.49916 252.86750 251.82385 250.43819 248.60754 246.52488 244.36623
 242.16557 239.97791 237.80626 235.65360 233.52195 231.39729 229.43164 227.59698
 225.88833 224.36867 223.00702 221.78736 220.67771 219.64605 218.75839 217.90774
 217.15808 216.34643 215.45277 214.82512 214.28346 214.20413 213.91354 213.38625
 212.84109 212.05553 212.14706 213.97292 217.13692 221.34532 226.69626 231.41844
 235.36629 239.69815 243.99597 247.99330 251.68579 255.27130 258.79266 262.15677
 265.30215 268.15723 270.61618 272.51611 273.78143 274.72357 276.35757 278.55008
 280.86652 283.13553 285.09897 286.82300 288.31503 289.63507 290.83942 291.93048
 292.91177 293.78561 294.54898 295.52179
 366.78100 356.34221 345.78142 334.65463 323.06485 311.26606 299.14327 286.95348
 274.67269 262.57690 250.59312 239.90133 230.03054 221.14175 213.33096 206.34017
 200.18138 195.12660 191.71581 189.76502 188.80923 188.88044 189.72265 191.03786
 192.77008 194.87229 197.14250 199.50871 201.96092 204.44813 206.54335 208.39256
 210.02577 211.17798 211.41419 211.64940 211.59361 211.30583 210.94604 210.58325
 210.20746 209.92467 209.73988 209.61109 209.54631 209.88452 210.27773 210.67394
 211.47415 212.65936 213.91658 215.70679 217.64200 219.69221 221.79442 223.88463
 225.95184 228.04306 230.14727 232.26048 234.39669 236.57590 238.83911 241.21632
 243.84454 246.10275 248.11196 249.88417 251.30838 252.43859 253.26781 253.59102
 253.63523 253.41644 252.78365 251.73886 250.35207 248.52029 246.43650 244.27671
 242.07492 239.88613 237.71334 235.55956 233.42677 231.30098 229.33419 227.49840
 225.78861 224.26782 222.90504 221.68425 220.57346 219.54067 218.65188 217.80009
 217.04930 216.23652 215.34173 214.71294 214.17015 214.14745 213.99222 213.35568
 212.85486 212.39470 212.50836 214.08401 217.06537 221.26340 226.36676 231.14777
 235.06120 239.33623 243.55603 247.52240 251.27307 254.96484 258.60748 262.11163
 265.42868 268.47324 271.14410 273.31088 274.76324 275.63345 276.62021 278.61060
 280.75214 282.71155 284.73810 286.51755 288.05750 289.41998 290.66302 291.78915
 292.80197 293.70389 294.49179 295.49588
 366.78100 356.34235 345.78171 334.65506 323.06542 311.26677 299.14413 286.95448
 274.67384 262.57819 250.59455 239.90290 230.03226 221.14361 213.33297 206.34232
 200.18368 195.12903 191.71839 189.76774 188.81210 188.88345 189.72581 191.04116
 192.77351 194.87587 197.14622 199.51258 201.96493 204.45229 206.54764 208.39700
 210.03035 211.18271 211.41906 211.65442 211.59877 211.31113 210.95148 210.58884
 210.21319 209.93055 209.74590 209.61726 209.55261 209.89097 210.28432 210.68068
 211.48103 212.66638 213.92374 215.71409 217.64945 219.69980 221.80216 223.89251
 225.95987 228.05122 230.15558 232.26893 234.40529 236.58464 238.84800 241.22535
 243.85371 246.11206 248.12142 249.89377 251.31813 252.44848 253.27784 253.60119
 253.64554 253.42690 252.79425 251.74961 250.36296 248.53132 246.44767 244.28803
 242.08638 239.89774 237.72509 235.57145 233.43880 231.31316 229.34651 227.51087
 225.80122 224.28058 222.91793 221.69729 220.58664 219.55400 218.66535 217.81370
 217.06306 216.25041 215.35577 214.72712 214.18448 214.14590 214.00006 213.43733
 212.69452 212.20557 212.61386 214.35831 217.38934 221.50146 226.52119 231.17209
 235.03752 239.28195 243.42455 247.27690 250.91673 254.53587 258.12100 261.59464
 264.91541 268.00916 270.77020 273.02762 274.62436 275.73047 276.97781 278.65778
 280.72583 282.57486 284.23691 285.85110 287.27542 288.53558 289.68527 290.72684
 291.66360 292.49777 293.22650 294.15521
 366.78100 356.34250 345.78200 334.65551 323.06601 311.26751 299.14501 286.95552
 274.67502 262.57952 250.59602 239.90452 230.03403 221.14553 213.33503 206.34453
 200.18604 195.13154 191.72104 189.77054 188.81504 188.88655 189.72905 191.04455
 192.77705 194.87955 197.15006 199.51656 201.96906 204.45656 206.55207 208.40157
 210.03507 211.18757 211.42407 211.65958 211.60408 211.31658 210.95708 210.59459
 210.21909 209.93659 209.75209 209.62359 209.55910 209.89760 210.29110 210.68760
 211.48810 212.67361 213.93111 215.72161 217.65711 219.70762 221.81012 223.90062
 225.96812 228.05962 230.16413 232.27763 234.41413 236.59363 238.85714 241.23464
 243.86314 246.12164 248.13114 249.90365 251.32815 252.45865 253.28815 253.61166
 253.65616 253.43766 252.80516 251.76066 250.37417 248.54267 246.45917 244.29967
 242.09817 239.90968 237.73718 235.58368 233.45118 231.32569 229.35919 227.52369
 225.81419 224.29369 222.93120 221.71070 220.60020 219.56770 218.67921 217.82771
 217.07721 216.26471 215.37021 214.74172 214.19922 214.16112 214.01694 213.48975
 212.72772 211.79402 212.33160 214.33324 217.50882 221.68906 226.86584 231.41074
 235.24565 239.48775 243.67320 247.53723 251.11098 254.61041 258.06180 261.38489
 264.56723 267.55502 270.24884 272.41989 273.86731 275.09677 276.71918 278.66028
 280.74841 282.59204 284.25156 285.81036 287.18988 288.41040 289.52396 290.53275
 291.44003 292.24799 292.95380 293.85327
 366.78100 356.34381 345.78463 334.65944 323.07126 311.27407 299.15289 286.96470
 274.68552 262.59133 250.60915 239.91896 230.04978 221.16259 213.35341 206.36422
 200.20704 195.15385 191.74467 189.79548 188.84129 188.91411 189.75792 191.07474
 192.80855 194.91237 197.18418 199.55200 202.00581 204.49463 206.59144 208.44226
 210.07707 211.23089 211.46870 211.70552 211.65133 211.36515 211.00696 210.64578
 210.27159 209.99040 209.80722 209.68003 209.61685 209.95666 210.35148 210.74929
 211.55111 212.73792 213.99674 215.78855 217.72537 219.77718 221.88100 223.97281
 226.04163 228.13444 230.24026 232.35507 234.49288 236.67370 238.93851 241.31733
 243.94714 246.20696 248.21777 249.99159 251.41740 252.54922 253.38003 253.70485
 253.75066 253.53348 252.90229 251.85911 250.47392 248.64374 246.56155 244.40337
 242.20318 240.01599 237.84481 235.69262 233.56144 231.43725 229.47207 227.63788
 225.92970 224.41051 223.04933 221.83014 220.72096 219.68977 218.80259 217.95240
 217.20322 216.39203 215.49885 214.87166 214.33047 214.24985 213.99954 213.56746
 212.89270 211.74802 212.07289 214.02319 217.24951 221.55963 226.94402 231.51837
 235.34825 239.58966 243.81474 247.75948 251.40701 254.91064 258.30988 261.54501
 264.59793 267.42188 269.93634 271.94104 273.28821 274.53513 276.38812 278.75452
 280.93045 282.81113 284.63251 286.24301 287.63675 288.86987 289.99490 291.01410
 291.93076 292.74704 293.46014 294.36890
 366.78100 356.34582 345.78865 334.66547 323.07930 311.28412 299.16495 286.97877
 274.70160 262.60942 250.62925 239.94107 230.07390 221.18872 213.38154 206.39437
 200.23919 195.18802 191.78084 189.83367 188.88149 188.95632 189.80214 191.12097
 192.85679 194.96262 197.23644 199.60627 202.06209 204.55291 206.65174 208.50456
 210.14139 211.29721 211.53704 211.77586 211.72369 211.43951 211.08334 210.72416
 210.35199 210.07281 209.89163 209.76646 209.70528 210.04711 210.44393 210.84376
 211.64758 212.83641 214.09723 215.89106 217.82988 219.88371 221.98953 224.08335
 226.15418 228.24900 230.35683 232.47365 234.61348 236.79630 239.06313 241.44395
 244.07578 246.33760 248.35043 250.12625 251.55408 252.68790 253.52072 253.84755
 253.89537 253.68020 253.05102 252.00985 250.62667 248.79850 246.71832 244.56215
 242.36397 240.17880 238.00962 235.85944 233.73027 231.60809 229.64492 227.81274
 226.10657 224.58939 223.23022 222.01304 220.90587 219.87669 218.99152 218.14334
 217.39617 216.58699 215.69581 215.07064 214.53146 214.38361 213.96616 213.58458
 213.08128 212.01035 211.90479 213.71332 216.91191 221.25095 226.73981 231.37729
 235.25374 239.53061 243.80801 247.83743 251.58038 255.17979 258.64807 261.90991
 264.93048 267.67157 270.02783 271.87338 273.18372 274.49289 276.47952 278.94897
 281.41177 283.79913 285.86496 287.67892 289.24875 290.63766 291.90482 293.05276
 294.08524 295.00464 295.80783 296.83139
 366.78100 356.34504 345.78708 334.66312 323.07616 311.28019 299.16023 286.97327
 274.69531 262.60235 250.62139 239.93243 230.06447 221.17851 213.37055 206.38258
 200.22662 195.17466 191.76670 189.81874 188.86578 188.93982 189.78486 191.10290
 192.83794 194.94297 197.21601 199.58505 202.04009 204.53013 206.62817 208.48021
 210.11625 211.27129 211.51032 211.74836 211.69540 211.41044 211.05348 210.69352
 210.32056 210.04060 209.85864 209.73268 209.67071 210.01175 210.40779 210.80683
 211.60987 212.79791 214.05795 215.85099 217.78903 219.84206 221.94710 224.04014
 226.11018 228.20422 230.31126 232.42730 234.56634 236.74838 239.01442 241.39445
 244.02549 246.28653 248.29857 250.07361 251.50065 252.63369 253.46573 253.79177
 253.83881 253.62284 252.99288 251.95092 250.56696 248.73800 246.65704 244.50008
 242.30112 240.11516 237.94519 235.79423 233.66427 231.54131 229.57735 227.74439
 226.03743 224.51947 223.15951 221.94155 220.83358 219.80362 218.91766 218.06870
 217.32074 216.51078 215.61882 214.99286 214.45290 214.36385 214.03745 213.42899
 213.13008 212.55963 212.35194 213.60663 216.63785 221.01996 226.33450 231.08189
 234.99156 239.26791 243.51947 247.56352 251.41553 255.17416 258.81436 262.24081
 265.40933 268.26089 270.71530 272.52322 273.63788 274.64459 276.53674 278.98856
 281.23447 283.61688 285.70654 287.54144 289.12936 290.53427 291.81604 292.97723
 294.02161 294.95160 295.76404 296.79941
 366.78100 356.34288 345.78276 334.65664 323.06752 311.26940 299.14728 286.95816
 274.67804 262.58292 250.59980 239.90868 230.03857 221.15045 213.34033 206.35021
 200.19209 195.13797 191.72785 189.77773 188.82261 188.89449 189.73737 191.05325
 192.78613 194.88901 197.15989 199.52677 201.97965 204.46753 206.56341 208.41329
 210.04717 211.20005 211.43694 211.67282 211.61770 211.33058 210.97146 210.60934
 210.23422 209.95210 209.76798 209.63986 209.57574 209.91462 210.30850 210.70538
 211.50626 212.69214 213.95002 215.74090 217.67678 219.72766 221.83054 223.92142
 225.98931 228.08119 230.18607 232.29995 234.43683 236.61671 238.88059 241.25847
 243.88735 246.14623 248.15611 249.92899 251.35387 252.48475 253.31463 253.63851
 253.68339 253.46527 252.83315 251.78903 250.40291 248.57179 246.48868 244.32956
 242.12844 239.94032 237.76820 235.61508 233.48296 231.35784 229.39172 227.55660
 225.84748 224.32736 222.96524 221.74512 220.63500 219.60288 218.71476 217.86364
 217.11352 216.30140 215.40728 214.77916 214.23705 214.24141 214.17506 213.48253
 212.75665 212.50832 212.86636 214.22945 216.97110 221.10840 226.18294 230.91553
 234.72989 238.92961 243.08586 247.07646 250.94788 254.78169 258.52704 262.07202
 265.34662 268.28986 270.80762 272.77866 274.15198 275.29343 276.78079 278.73685
 280.84894 282.69617 284.33875 285.90591 287.30933 288.55096 289.68378 290.71005
 291.63306 292.45499 293.17300 294.08804
 366.78100 356.34284 345.78269 334.65653 323.06737 311.26921 299.14706 286.95790
 274.67774 262.58258 250.59943 239.90827 230.03811 221.14996 213.33980 206.34964
 200.19148 195.13733 191.72717 189.77701 188.82186 188.89370 189.73654 191.05238
 192.78523 194.88807 197.15891 199.52575 201.97860 204.46644 206.56228 208.41213
 210.04597 211.19881 211.43565 211.67150 211.61634 211.32918 210.97003 210.60787
 210.23271 209.95055 209.76640 209.63824 209.57408 209.91292 210.30677 210.70361
 211.50445 212.69030 213.94814 215.73898 217.67482 219.72567 221.82851 223.91935
 225.98719 228.07904 230.18388 232.29772 234.43457 236.61441 238.87825 241.25609
 243.88494 246.14378 248.15362 249.92647 251.35131 252.48215 253.31199 253.63584
 253.68068 253.46252 252.83036 251.78621 250.40005 248.56889 246.48574 244.32658
 242.12542 239.93726 237.76511 235.61195 233.47979 231.35463 229.38848 227.55332
 225.84416 224.32401 222.96185 221.74169 220.63153 219.59938 218.71122 217.86006
 217.10991 216.29775 215.40359 214.77543 214.23328 214.23640 214.19759 213.66855
 212.78084 212.03355 212.48257 214.28235 217.19997 221.30634 226.43100 231.04030
 234.83707 238.99458 243.11598 247.03378 250.79311 254.54720 258.26212 261.80499
 265.11575 268.10410 270.64828 272.65887 274.06155 275.19012 276.74033 278.70468
 280.72690 282.54382 284.14499 285.57446 286.95172 288.17413 289.28943 290.29980
 291.20853 292.01776 292.72467 293.62555
 366.78100 356.34377 345.78454 334.65931 323.07108 311.27385 299.15262 286.96438
 274.68515 262.59092 250.60869 239.91846 230.04923 221.16200 213.35277 206.36354
 200.20631 195.15308 191.74385 189.79462 188.84039 188.91315 189.75692 191.07369
 192.80746 194.91123 197.18300 199.55077 202.00454 204.49331 206.59008 208.44085
 210.07562 211.22939 211.46716 211.70392 211.64969 211.36346 211.00523 210.64400
 210.26977 209.98854 209.80531 209.67808 209.61485 209.95462 210.34939 210.74716
 211.54893 212.73569 213.99446 215.78623 217.72300 219.77477 221.87854 223.97031
 226.03908 228.13185 230.23762 232.35239 234.49016 236.67093 238.93570 241.31446
 243.94423 246.20400 248.21477 249.98854 251.41431 252.54608 253.37685 253.70162
 253.74739 253.53016 252.89893 251.85570 250.47047 248.64023 246.55800 244.39977
 242.19954 240.01231 237.84108 235.68885 233.55762 231.43339 229.46816 227.63393
 225.92570 224.40647 223.04523 221.82600 220.71677 219.68554 218.79831 217.94808
 217.19885 216.38762 215.49439 214.86716 214.32593 214.31047 214.19580 213.63585
 213.05312 212.03259 212.12216 213.96576 217.08324 221.32733 226.57362 231.17879
 234.97612 239.15007 243.30334 247.24295 250.99365 254.68846 258.32108 261.79248
 265.05142 268.00833 270.52777 272.48593 273.89117 275.13120 276.80002 278.79904
 280.85971 282.71820 284.41971 286.07269 287.50320 288.76883 289.92352 290.96960
 291.91043 292.74823 293.48013 294.41284
 366.78100 356.34371 345.78442 334.65913 323.07084 311.27355 299.15226 286.96397
 274.68468 262.59039 250.60810 239.91781 230.04852 221.16123 213.35194 206.36265
 200.20536 195.15207 191.74278 189.79349 188.83920 188.91191 189.75562 191.07233
 192.80604 194.90975 197.18146 199.54917 202.00288 204.49159 206.58830 208.43901
 210.07372 211.22743 211.46514 211.70185 211.64756 211.36127 211.00298 210.64169
 210.26740 209.98611 209.80282 209.67553 209.61224 209.95195 210.34666 210.74437
 211.54608 212.73279 213.99150 215.78321 217.71992 219.77163 221.87534 223.96705
 226.03576 228.12847 230.23418 232.34889 234.48660 236.66731 238.93202 241.31073
 243.94043 246.20014 248.21085 249.98456 251.41027 252.54198 253.37269 253.69740
 253.74311 253.52582 252.89453 251.85124 250.46595 248.63566 246.55337 244.39508
 242.19479 240.00750 237.83621 235.68392 233.55263 231.42834 229.46305 227.62876
 225.92047 224.40118 223.03989 221.82060 220.71131 219.68002 218.79273 217.94244
 217.19315 216.38186 215.48857 214.86128 214.31999 214.33034 214.24530 213.59581
 213.16422 212.25052 212.06763 213.71349 216.84114 221.19559 226.50700 231.15445
 234.97192 239.18030 243.37444 247.34874 251.10977 254.78799 258.38611 261.81284
 265.04080 267.99316 270.50647 272.48575 273.84619 275.04657 276.74225 278.87628
 281.00259 282.87680 284.63379 286.27365 287.69281 288.94839 290.09393 291.13168
 292.06506 292.89624 293.62231 294.54764
 366.78100 356.34420 345.78540 334.66059 323.07279 311.27599 299.15519 286.96738
 274.68858 262.59478 250.61298 239.92317 230.05437 221.16757 213.35877 206.36996
 200.21316 195.16036 191.75156 189.80275 188.84895 188.92215 189.76635 191.08354
 192.81774 194.92194 197.19414 199.56233 202.01653 204.50573 206.60293 208.45413
 210.08932 211.24352 211.48172 211.71892 211.66511 211.37931 211.02151 210.66071
 210.28690 210.00610 209.82330 209.69650 209.63369 209.97389 210.36909 210.76729
 211.56948 212.75668 214.01588 215.80808 217.74527 219.79747 221.90167 223.99387
 226.06307 228.15626 230.26246 232.37766 234.51586 236.69705 238.96225 241.34145
 243.97165 246.23184 248.24304 250.01724 251.44344 252.57563 253.40683 253.73203
 253.77823 253.56142 252.93062 251.88782 250.50302 248.67321 246.59141 244.43361
 242.23381 240.04700 237.87620 235.72440 233.59360 231.46980 229.50499 227.67119
 225.96339 224.44459 223.08378 221.86498 220.75618 219.72538 218.83857 217.98877
 217.23997 216.42917 215.53636 214.90956 214.36876 214.36569 214.27145 213.67079
 213.14519 212.36044 212.14238 213.68219 216.73878 221.08652 226.35620 231.02885
 234.85318 239.08481 243.29776 247.30148 251.09686 254.80061 258.40305 261.80658
 265.00928 267.95285 270.49301 272.50546 273.84125 275.00876 276.75101 278.90808
 281.03110 282.89719 284.64862 286.31396 287.75516 289.03027 290.19363 291.24753
 292.19540 293.03949 293.77686 294.71658
 366.78100 356.34546 345.78793 334.66439 323.07785 311.28231 299.16278 286.97624
 274.69870 262.60616 250.62563 239.93709 230.06955 221.18401 213.37648 206.38894
 200.23340 195.18186 191.77433 189.82679 188.87425 188.94871 189.79418 191.11264
 192.84810 194.95356 197.22703 199.59649 202.05195 204.54241 206.64088 208.49334
 210.12980 211.28526 211.52473 211.76319 211.71065 211.42611 211.06958 210.71004
 210.33750 210.05796 209.87643 209.75089 209.68935 210.03081 210.42728 210.82674
 211.63020 212.81866 214.07913 215.87259 217.81105 219.86451 221.96998 224.06344
 226.13390 228.22837 230.33583 232.45229 234.59175 236.77422 239.04068 241.42114
 244.05260 246.31407 248.32653 250.10199 251.52945 252.66292 253.49538 253.82184
 253.86930 253.65377 253.02423 251.98269 250.59915 248.77062 246.69008 244.53354
 242.33500 240.14947 237.97993 235.82939 233.69985 231.57732 229.61378 227.78124
 226.07470 224.55717 223.19763 221.98009 220.87255 219.84302 218.95748 218.10894
 217.36140 216.55187 215.66033 215.03479 214.49525 214.44478 214.26274 213.73163
 213.13490 212.40398 212.18370 213.72620 216.74513 221.04323 226.25140 230.90971
 234.73019 238.96300 243.18517 247.22623 251.08534 254.85007 258.48404 261.88522
 265.06647 267.97293 270.50421 272.54199 273.89896 275.08041 276.80362 278.91003
 281.03134 282.90891 284.71951 286.34814 287.75760 289.00458 290.14227 291.17294
 292.09991 292.92538 293.64648 294.56546
 366.78100 356.34590 345.78880 334.66570 323.07960 311.28450 299.16540 286.97930
 274.70220 262.61009 250.62999 239.94189 230.07479 221.18969 213.38259 206.39549
 200.24039 195.18929 191.78219 189.83509 188.88299 188.95789 189.80379 191.12269
 192.85859 194.96449 197.23838 199.60828 202.06418 204.55508 206.65398 208.50688
 210.14378 211.29968 211.53958 211.77848 211.72638 211.44228 211.08618 210.72708
 210.35498 210.07588 209.89477 209.76967 209.70857 210.05047 210.44737 210.84727
 211.65117 212.84007 214.10097 215.89487 217.83377 219.88767 221.99357 224.08747
 226.15837 228.25327 230.36117 232.47806 234.61796 236.80086 239.06776 241.44866
 244.08056 246.34246 248.35536 250.13126 251.55916 252.69306 253.52596 253.85286
 253.90076 253.68566 253.05656 252.01546 250.63235 248.80425 246.72415 244.56805
 242.36995 240.18485 238.01575 235.86565 233.73655 231.61445 229.65135 227.81925
 226.11315 224.59605 223.23695 222.01985 220.91275 219.88364 218.99854 218.15044
 217.40334 216.59424 215.70314 215.07804 214.53894 214.48772 214.29997 213.74673
 213.11247 212.44035 212.22176 213.78146 216.79478 221.02519 226.16460 230.80460
 234.61635 238.83827 243.05960 247.13135 251.05179 254.88716 258.57394 261.99442
 265.17090 268.06073 270.59583 272.66495 274.02243 275.16910 276.88025 278.92465
 281.04688 282.95776 284.76083 286.34409 287.71423 288.92645 290.03244 291.03439
 291.93552 292.73798 293.43900 294.33237
 366.78100 356.34474 345.78648 334.66222 323.07496 311.27870 299.15844 286.97118
 274.69292 262.59966 250.61840 239.92914 230.06088 221.17461 213.36635 206.37809
 200.22183 195.16957 191.76131 189.81305 188.85979 188.93353 189.77827 191.09601
 192.83075 194.93549 197.20823 199.57697 202.03171 204.52145 206.61919 208.47093
 210.10667 211.26141 211.50015 211.73789 211.68463 211.39936 211.04210 210.68184
 210.30858 210.02832 209.84606 209.71980 209.65754 209.99828 210.39402 210.79276
 211.59550 212.78324 214.04298 215.83572 217.77346 219.82620 221.93094 224.02368
 226.09342 228.18716 230.29390 232.40964 234.54838 236.73011 238.99585 241.37559
 244.00633 246.26707 248.27881 250.05355 251.48029 252.61303 253.44477 253.77051
 253.81725 253.60099 252.97073 251.92847 250.54421 248.71495 246.63369 244.47643
 242.27717 240.09091 237.92065 235.76939 233.63913 231.51586 229.55160 227.71834
 226.01108 224.49282 223.13256 221.91430 220.80604 219.77578 218.88952 218.04026
 217.29200 216.48174 215.58948 214.96322 214.42296 214.45090 214.40448 213.73221
 213.11369 212.40089 212.24481 213.85945 216.90373 221.05708 226.09845 230.73456
 234.52184 238.71982 242.91611 246.98610 250.94121 254.82658 258.55844 262.00909
 265.20883 268.11588 270.67075 272.78302 274.21359 275.33575 276.99130 279.00162
 281.08282 282.95856 284.78308 286.41061 287.81912 289.06531 290.20224 291.23224
 292.15860 292.98352 293.70416 294.62253
 366.78100 356.34273 345.78247 334.65620 323.06693 311.26867 299.14640 286.95713
 274.67687 262.58160 250.59833 239.90707 230.03680 221.14853 213.33827 206.34800
 200.18973 195.13547 191.72520 189.77493 188.81967 188.89140 189.73413 191.04987
 192.78260 194.88533 197.15607 199.52280 201.97553 204.46327 206.55900 208.40873
 210.04247 211.19520 211.43193 211.66767 211.61240 211.32513 210.96587 210.60360
 210.22833 209.94607 209.76180 209.63353 209.56927 209.90800 210.30173 210.69847
 211.49920 212.68493 213.94267 215.73340 217.66913 219.71987 221.82260 223.91333
 225.98107 228.07280 230.17753 232.29127 234.42800 236.60773 238.87147 241.24920
 243.87793 246.13667 248.14640 249.91913 251.34387 252.47460 253.30434 253.62807
 253.67280 253.45454 252.82227 251.77800 250.39174 248.56047 246.47720 244.31794
 242.11667 239.92840 237.75614 235.60287 233.47060 231.34534 229.37907 227.54380
 225.83454 224.31427 222.95200 221.73174 220.62147 219.58920 218.70094 217.84967
 217.09940 216.28714 215.39287 214.76460 214.22234 214.36790 214.55400 213.67821
 213.11864 212.33150 212.20111 213.89848 217.00739 221.12303 226.10461 230.72594
 234.48409 238.66492 242.83241 246.88364 250.84497 254.74809 258.49786 261.96167
 265.16119 268.08658 270.68423 272.82385 274.29626 275.41321 277.07227 279.05185
 281.07895 282.92010 284.59106 286.22314 287.63556 288.88519 290.02530 291.05817
 291.98709 292.81430 293.53696 294.45789
 366.78100 356.34131 345.77963 334.65194 323.06126 311.26157 299.13789 286.94720
 274.66552 262.56883 250.58415 239.89146 230.01978 221.13009 213.31841 206.32672
 200.16704 195.11135 191.69967 189.74798 188.79130 188.86161 189.70293 191.01724
 192.74856 194.84987 197.11919 199.48450 201.93582 204.42213 206.51645 208.36476
 209.99708 211.14839 211.38371 211.61802 211.56134 211.27265 210.91197 210.54828
 210.17160 209.88791 209.70223 209.57254 209.50686 209.84417 210.23649 210.63180
 211.43112 212.61543 213.87175 215.66106 217.59537 219.64469 221.74600 223.83532
 225.90163 227.99195 230.09526 232.20758 234.34289 236.52121 238.78352 241.15984
 243.78715 246.04447 248.05278 249.82410 251.24741 252.37673 253.20504 253.52736
 253.57067 253.35099 252.71730 251.67162 250.28393 248.45125 246.36656 244.20588
 242.00319 239.81351 237.63982 235.48514 233.35145 231.22477 229.25708 227.42040
 225.70971 224.18803 222.82434 221.60266 220.49097 219.45729 218.56760 217.71492
 216.96323 216.14955 215.25386 214.62418 214.08049 214.30525 214.68877 213.70378
 213.02911 212.28592 212.11385 213.83752 217.00343 221.12799 226.11771 230.72180
 234.47913 238.63654 242.79753 246.84700 250.81017 254.72600 258.48752 261.94836
 265.13708 268.05768 270.65683 272.83966 274.38895 275.57990 277.17715 279.08813
 280.90222 282.66846 284.24536 285.63342 286.86530 287.95517 288.94949 289.85031
 290.66049 291.38196 292.01221 292.81540
 366.78100 356.34266 345.78232 334.65598 323.06664 311.26830 299.14596 286.95662
 274.67628 262.58094 250.59760 239.90626 230.03592 221.14758 213.33724 206.34690
 200.18856 195.13422 191.72388 189.77354 188.81820 188.88986 189.73252 191.04818
 192.78084 194.88350 197.15416 199.52082 201.97348 204.46114 206.55680 208.40646
 210.04012 211.19278 211.42944 211.66510 211.60976 211.32242 210.96308 210.60074
 210.22540 209.94306 209.75872 209.63038 209.56605 209.90471 210.29837 210.69503
 211.49569 212.68135 213.93901 215.72967 217.66533 219.71599 221.81865 223.90931
 225.97697 228.06863 230.17329 232.28695 234.42361 236.60327 238.86693 241.24459
 243.87325 246.13191 248.14157 249.91423 251.33889 252.46955 253.29921 253.62287
 253.66753 253.44919 252.81685 251.77251 250.38617 248.55483 246.47149 244.31215
 242.11081 239.92247 237.75013 235.59679 233.46445 231.33911 229.37277 227.53743
 225.82809 224.30775 222.94541 221.72507 220.61473 219.58239 218.69405 217.84271
 217.09237 216.28003 215.38569 214.75735 214.21501 214.37581 214.66319 213.90706
 212.89984 212.22426 212.10851 213.79486 216.96655 221.09700 226.09245 230.69078
 234.44539 238.58557 242.73982 246.79330 250.76849 254.70137 258.47726 261.94089
 265.13449 268.06024 270.67154 272.88019 274.46027 275.62585 277.18936 279.11572
 280.89667 282.48123 284.03998 285.41455 286.68698 287.81934 288.85242 289.78836
 290.63013 291.37970 292.03455 292.86902
 366.78100 356.34584 345.78868 334.66552 323.07936 311.28420 299.16504 286.97888
 274.70172 262.60955 250.62939 239.94123 230.07407 221.18891 213.38175 206.39459
 200.23943 195.18827 191.78111 189.83395 188.88179 188.95663 189.80247 191.12131
 192.85715 194.96299 197.23683 199.60666 202.06250 204.55334 206.65218 208.50502
 210.14186 211.29770 211.53754 211.77638 211.72422 211.44006 211.08390 210.72474
 210.35258 210.07342 209.89226 209.76710 209.70594 210.04777 210.44461 210.84445
 211.64829 212.83713 214.09797 215.89181 217.83065 219.88449 221.99033 224.08417
 226.15501 228.24985 230.35769 232.47453 234.61437 236.79721 239.06405 241.44488
 244.07672 246.33856 248.35140 250.12724 251.55508 252.68892 253.52176 253.84860
 253.89644 253.68128 253.05212 252.01096 250.62780 248.79964 246.71948 244.56332
 242.36515 240.17999 238.01083 235.86067 233.73151 231.60935 229.64619 227.81403
 226.10787 224.59071 223.23155 222.01439 220.90723 219.87807 218.99291 218.14475
 217.39759 216.58843 215.69726 215.07210 214.53294 214.54927 214.54964 214.07153
 212.91182 212.12128 212.17598 213.88727 217.00974 221.10982 226.12543 230.66608
 234.41577 238.54698 242.69093 246.73535 250.71072 254.64124 258.40427 261.87076
 265.06979 268.00281 270.64383 272.86438 274.48874 275.77548 277.33221 279.12372
 280.81979 282.41772 283.98883 285.45505 286.72690 287.85217 288.87878 289.80887
 290.64532 291.39023 292.04095 292.87024
 366.78100 356.34735 345.79170 334.67004 323.08539 311.29174 299.17409 286.98944
 274.71379 262.62313 250.64448 239.95783 230.09218 221.20853 213.40288 206.41722
 200.26357 195.21392 191.80827 189.86262 188.91196 188.98831 189.83566 191.15601
 192.89336 195.00071 197.27605 199.64740 202.10475 204.59710 206.69745 208.55180
 210.19014 211.34749 211.58884 211.82919 211.77854 211.49588 211.14123 210.78358
 210.41293 210.13528 209.95563 209.83197 209.77232 210.11567 210.51402 210.91537
 211.72071 212.91106 214.17341 215.96876 217.90911 219.96446 222.07180 224.16715
 226.23950 228.33585 230.44520 232.56355 234.70489 236.88924 239.15759 241.53994
 244.17329 246.43663 248.45098 250.22833 251.65768 252.79303 253.62738 253.95572
 254.00507 253.79142 253.16377 252.12412 250.74247 248.91581 246.83716 244.68251
 242.48586 240.30221 238.13455 235.98590 233.85825 231.73760 229.77595 227.94530
 226.24064 224.72499 223.36734 222.15169 221.04604 220.01839 219.13473 218.28808
 217.54243 216.73478 215.84513 215.22147 214.68382 214.65564 214.54745 214.07095
 213.00815 212.02429 212.08418 213.88359 217.02151 221.11717 226.23492 230.70850
 234.44203 238.54584 242.68706 246.73117 250.69359 254.60500 258.33795 261.78131
 264.96454 267.89099 270.53818 272.78964 274.44934 275.86224 277.48792 279.25613
 280.89468 282.78726 284.54419 286.08694 287.42203 288.60327 289.68094 290.65726
 291.53534 292.31726 293.00037 293.87088
 366.78100 356.34707 345.79114 334.66921 323.08428 311.29035 299.17242 286.98749
 274.71157 262.62064 250.64171 239.95478 230.08885 221.20492 213.39899 206.41306
 200.25913 195.20920 191.80327 189.85734 188.90641 188.98248 189.82955 191.14963
 192.88670 194.99377 197.26884 199.63991 202.09698 204.58905 206.68912 208.54319
 210.18126 211.33833 211.57940 211.81947 211.76854 211.48561 211.13069 210.77276
 210.40183 210.12390 209.94397 209.82004 209.76011 210.10318 210.50125 210.90232
 211.70739 212.89746 214.15953 215.95460 217.89467 219.94975 222.05682 224.15189
 226.22396 228.32003 230.42910 232.54717 234.68824 236.87231 239.14038 241.52245
 244.15552 246.41859 248.43266 250.20973 251.63881 252.77388 253.60795 253.93602
 253.98509 253.77116 253.14323 252.10330 250.72137 248.89444 246.81551 244.66058
 242.46365 240.27972 238.11179 235.96287 233.83494 231.71401 229.75208 227.92115
 226.21622 224.70029 223.34236 222.12643 221.02050 219.99257 219.10864 218.26171
 217.51578 216.70785 215.81793 215.19400 214.65607 214.68257 214.61255 214.01663
 213.12463 211.95238 211.84682 213.81862 217.04156 221.07910 226.26607 230.72983
 234.46071 238.56650 242.71701 246.77046 250.72514 254.62511 258.33005 261.74237
 264.90286 267.82132 270.46155 272.68753 274.32956 275.66464 277.26248 279.32053
 281.54172 283.62866 285.43457 287.02029 288.39258 289.60672 290.71445 291.71796
 292.62051 293.42422 294.12634 295.02112
 366.78100 356.34562 345.78825 334.66487 323.07850 311.28312 299.16375 286.97737
 274.70000 262.60762 250.62725 239.93887 230.07150 221.18612 213.37874 206.39137
 200.23599 195.18462 191.77724 189.82987 188.87749 188.95212 189.79774 191.11637
 192.85199 194.95761 197.23124 199.60086 202.05649 204.54711 206.64574 208.49836
 210.13499 211.29061 211.53024 211.76886 211.71649 211.43211 211.07573 210.71636
 210.34398 210.06461 209.88323 209.75786 209.69648 210.03811 210.43473 210.83436
 211.63798 212.82661 214.08723 215.88085 217.81948 219.87310 221.97873 224.07235
 226.14298 228.23760 230.34523 232.46185 234.60148 236.78410 239.05072 241.43135
 244.06297 246.32460 248.33722 250.11285 251.54047 252.67410 253.50672 253.83335
 253.88097 253.66560 253.03622 251.99484 250.61147 248.78309 246.70272 244.54634
 242.34797 240.16259 237.99322 235.84284 233.71347 231.59109 229.62772 227.79534
 226.08896 224.57159 223.21221 221.99484 220.88746 219.85809 218.97271 218.12434
 217.37696 216.56759 215.67621 215.05083 214.51146 214.64349 214.71797 213.92693
 213.18649 212.00075 211.78226 213.75774 216.99347 221.06789 226.22543 230.70981
 234.44620 238.56436 242.73207 246.80038 250.76305 254.66101 258.35504 261.74265
 264.88651 267.80118 270.45190 272.70615 274.34320 275.64905 277.08832 278.62457
 280.83835 282.97479 284.82352 286.44684 287.85168 289.09464 290.22861 291.25592
 292.17987 293.00266 293.72144 294.63742
 366.78100 356.34447 345.78594 334.66141 323.07388 311.27734 299.15681 286.96928
 274.69075 262.59722 250.61569 239.92616 230.05763 221.17110 213.36256 206.37403
 200.21750 195.16497 191.75644 189.80791 188.85438 188.92785 189.77232 191.08978
 192.82425 194.92872 197.20119 199.56966 202.02413 204.51360 206.61107 208.46254
 210.09800 211.25247 211.49094 211.72841 211.67488 211.38935 211.03182 210.67129
 210.29776 210.01722 209.83469 209.70816 209.64563 209.98610 210.38157 210.78004
 211.58251 212.76998 214.02944 215.82191 217.75938 219.81185 221.91632 224.00879
 226.07826 228.17173 230.27820 232.39366 234.53213 236.71360 238.97907 241.35854
 243.98901 246.24948 248.26095 250.03542 251.46188 252.59435 253.42582 253.75129
 253.79776 253.58123 252.95070 251.90817 250.52364 248.69410 246.61257 244.45504
 242.25551 240.06898 237.89845 235.74692 233.61639 231.49286 229.52832 227.69479
 225.98726 224.46873 223.10820 221.88967 220.78114 219.75061 218.86408 218.01454
 217.26601 216.45548 215.56295 214.93642 214.39589 214.59261 214.84286 213.88506
 213.09645 212.09218 211.92844 213.73409 216.92729 221.10965 226.09239 230.65907
 234.39246 238.51987 242.70175 246.78580 250.76303 254.64102 258.32025 261.70508
 264.85574 267.78635 270.46729 272.78348 274.53427 275.91370 277.30212 278.63544
 279.84106 281.16321 283.01553 284.64203 286.04959 287.29492 288.43112 289.46042
 290.38617 291.21054 291.93069 292.84848
 366.78100 356.34487 345.78674 334.66261 323.07549 311.27936 299.15923 286.97210
 274.69397 262.60084 250.61971 239.93059 230.06246 221.17633 213.36820 206.38007
 200.22394 195.17181 191.76369 189.81556 188.86243 188.93630 189.78117 191.09904
 192.83391 194.93879 197.21166 199.58053 202.03540 204.52527 206.62314 208.47501
 210.11089 211.26576 211.50463 211.74250 211.68937 211.40424 211.04711 210.68699
 210.31386 210.03373 209.85160 209.72547 209.66334 210.00421 210.40009 210.79896
 211.60183 212.78970 214.04957 215.84244 217.78031 219.83319 221.93806 224.03093
 226.10080 228.19467 230.30154 232.41741 234.55629 236.73816 239.00403 241.38390
 244.01477 246.27564 248.28751 250.06239 251.48926 252.62213 253.45400 253.77987
 253.82674 253.61061 252.98049 251.93836 250.55423 248.72510 246.64397 244.48684
 242.28771 240.10158 237.93146 235.78033 233.65020 231.52707 229.56294 227.72981
 226.02268 224.50456 223.14443 221.92630 220.81817 219.78804 218.90191 218.05278
 217.30466 216.49453 215.60240 214.97627 214.43614 214.60376 214.88434 213.98196
 212.96021 212.00203 211.88809 213.68411 216.92032 221.09216 226.04045 230.60313
 234.34067 238.46638 242.64597 246.73578 250.72432 254.60429 258.27121 261.64413
 264.78516 267.73447 270.44839 272.82034 274.69165 276.14410 277.53494 278.92850
 280.03790 280.73013 281.64276 283.06375 284.45535 285.68658 286.80988 287.82751
 288.74274 289.55777 290.26978 291.17712
 366.78100 356.34570 345.78840 334.66510 323.07880 311.28350 299.16420 286.97790
 274.70060 262.60830 250.62800 239.93969 230.07239 221.18709 213.37979 206.39249
 200.23719 195.18589 191.77859 189.83129 188.87899 188.95369 189.79939 191.11809
 192.85379 194.95949 197.23319 199.60289 202.05859 204.54929 206.64799 208.50068
 210.13738 211.29308 211.53278 211.77148 211.71918 211.43488 211.07858 210.71928
 210.34698 210.06768 209.88638 209.76108 209.69978 210.04148 210.43818 210.83788
 211.64158 212.83028 214.09098 215.88468 217.82337 219.87707 221.98277 224.07647
 226.14717 228.24187 230.34957 232.46627 234.60597 236.78867 239.05537 241.43607
 244.06777 246.32947 248.34217 250.11787 251.54557 252.67927 253.51197 253.83867
 253.88637 253.67106 253.04176 252.00046 250.61716 248.78886 246.70856 244.55226
 242.35396 240.16866 237.99936 235.84906 233.71976 231.59746 229.63416 227.80186
 226.09556 224.57826 223.21896 222.00166 220.89436 219.86505 218.97975 218.13145
 217.38415 216.57485 215.68355 215.05825 214.51895 214.63799 214.87317 214.10962
 212.86456 211.69814 211.63499 213.51958 216.83832 221.03836 226.13521 230.60883
 234.39107 238.48761 242.66660 246.76549 250.76009 254.62529 258.25888 261.59326
 264.69998 267.63150 270.34357 272.73694 274.65924 276.20236 277.62964 279.00525
 280.15790 280.85260 281.25577 281.98380 283.12747 284.22910 285.37665 286.41626
 287.35129 288.18390 288.91129 289.83823
 366.78100 356.34585 345.78871 334.66556 323.07941 311.28427 299.16512 286.97897
 274.70183 262.60968 250.62953 239.94138 230.07424 221.18909 213.38194 206.39480
 200.23965 195.18850 191.78136 189.83421 188.88206 188.95692 189.80277 191.12162
 192.85748 194.96333 197.23718 199.60704 202.06289 204.55374 206.65260 208.50545
 210.14230 211.29815 211.53801 211.77686 211.72471 211.44057 211.08442 210.72527
 210.35313 210.07398 209.89283 209.76769 209.70654 210.04839 210.44525 210.84510
 211.64895 212.83781 214.09866 215.89251 217.83136 219.88522 221.99107 224.08492
 226.15578 228.25063 230.35848 232.47534 234.61519 236.79804 239.06490 241.44575
 244.07760 246.33946 248.35231 250.12816 251.55602 252.68987 253.52272 253.84958
 253.89743 253.68228 253.05313 252.01199 250.62884 248.80069 246.72055 244.56440
 242.36625 240.18111 238.01196 235.86181 233.73267 231.61052 229.64737 227.81523
 226.10908 224.59193 223.23279 222.01564 220.90849 219.87934 218.99420 218.14605
 217.39890 216.58976 215.69861 215.07346 214.53432 214.64537 214.89198 214.18550
 212.98247 211.54578 211.40634 213.38838 216.77489 220.98346 226.23605 230.63963
 234.46033 238.54443 242.73064 246.82965 250.82414 254.67438 258.27817 261.57260
 264.63599 267.53574 270.23663 272.63751 274.60559 276.19400 277.62408 278.95389
 280.05048 280.74100 281.08026 281.53549 282.49988 283.57999 284.59750 285.48135
 286.30072 287.03036 287.66776 288.48004
 366.78100 356.34612 345.78924 334.66636 323.08048 311.28560 299.16672 286.98085
 274.70397 262.61209 250.63221 239.94433 230.07745 221.19257 213.38569 206.39881
 200.24393 195.19305 191.78617 189.83930 188.88742 188.96254 189.80866 191.12778
 192.86390 194.97002 197.24414 199.61426 202.07038 204.56150 206.66062 208.51375
 210.15087 211.30699 211.54711 211.78623 211.73435 211.45047 211.09459 210.73571
 210.36383 210.08495 209.90407 209.77919 209.71832 210.06044 210.45756 210.85768
 211.66180 212.85092 214.11204 215.90616 217.84528 219.89940 222.00552 224.09964
 226.17077 228.26589 230.37401 232.49113 234.63125 236.81437 239.08149 241.46261
 244.09473 246.35685 248.36997 250.14609 251.57422 252.70834 253.54146 253.86858
 253.91670 253.70182 253.07294 252.03206 250.64918 248.82130 246.74142 244.58554
 242.38766 240.20279 238.03391 235.88403 233.75515 231.63327 229.67039 227.83851
 226.13263 224.61575 223.25687 222.03999 220.93311 219.90424 219.01936 218.17148
 217.42460 216.61572 215.72484 215.09996 214.56108 214.66537 214.90627 214.22043
 213.06723 211.47914 211.25917 213.31987 216.72362 220.90645 226.25826 230.65549
 234.48155 238.56581 242.75540 246.85577 250.85680 254.70322 258.28903 261.55249
 264.58875 267.47263 270.17624 272.60895 274.62595 276.24869 277.66995 278.93439
 279.96341 280.56677 280.79532 281.21777 282.17398 283.23831 284.23047 285.08615
 285.89096 286.62970 287.27502 288.09744
 366.78100 356.34685 345.79069 334.66854 323.08339 311.28923 299.17108 286.98593
 274.70977 262.61862 250.63947 239.95232 230.08616 221.20201 213.39586 206.40970
 200.25555 195.20540 191.79924 189.85309 188.90194 188.97778 189.82463 191.14448
 192.88132 194.98817 197.26302 199.63386 202.09071 204.58256 206.68240 208.53625
 210.17410 211.33095 211.57179 211.81164 211.76049 211.47733 211.12218 210.76403
 210.39287 210.11472 209.93457 209.81041 209.75026 210.09311 210.49095 210.89180
 211.69665 212.88649 214.14834 215.94319 217.88303 219.93788 222.04473 224.13958
 226.21142 228.30727 230.41612 232.53396 234.67481 236.85866 239.12650 241.50835
 244.14120 246.40404 248.41789 250.19474 251.62358 252.75843 253.59228 253.92012
 253.96897 253.75482 253.12666 252.08651 250.70436 248.87721 246.79805 244.64290
 242.44575 240.26159 238.09344 235.94429 233.81613 231.69498 229.73283 227.90167
 226.19652 224.68037 223.32221 222.10606 220.99991 219.97175 219.08760 218.24045
 217.49429 216.68614 215.79599 215.17184 214.63368 214.70738 214.88150 214.28079
 213.11328 211.42245 211.14691 213.26753 216.68466 220.83008 226.27084 230.66167
 234.49242 238.57817 242.76791 246.86200 250.86578 254.71172 258.28717 261.52826
 264.54904 267.42535 270.13412 272.59619 274.65775 276.30670 277.71188 278.93027
 279.88242 280.43457 280.56384 280.88635 281.75803 282.81702 283.81918 284.73300
 285.54102 286.28848 286.94144 287.77356
 366.78100 356.34742 345.79184 334.67026 323.08568 311.29210 299.17451 286.98993
 274.71435 262.62377 250.64519 239.95861 230.09303 221.20945 213.40387 206.41829
 200.26470 195.21512 191.80954 189.86396 188.91338 188.98980 189.83722 191.15764
 192.89506 195.00248 197.27789 199.64931 202.10673 204.59915 206.69957 208.55399
 210.19241 211.34983 211.59125 211.83167 211.78108 211.49850 211.14392 210.78634
 210.41576 210.13818 209.95860 209.83502 209.77544 210.11886 210.51728 210.91869
 211.72411 212.91453 214.17695 215.97237 217.91279 219.96821 222.07563 224.17105
 226.24347 228.33988 230.44930 232.56772 234.70914 236.89356 239.16198 241.54440
 244.17782 246.44124 248.45566 250.23307 251.66249 252.79791 253.63233 253.96075
 254.01017 253.79659 253.16901 252.12943 250.74785 248.92127 246.84268 244.68810
 242.49152 240.30794 238.14036 235.99178 233.86420 231.74362 229.78204 227.95146
 226.24687 224.73129 223.37371 222.15813 221.05255 220.02497 219.14139 218.29481
 217.54923 216.74165 215.85206 215.22848 214.69090 214.73842 214.85069 214.32864
 213.16339 211.40654 211.04936 213.18250 216.63928 220.75319 226.29451 230.65953
 234.50655 238.59569 242.78249 246.86212 250.86594 254.71156 258.28027 261.50146
 264.50943 267.37741 270.08615 272.57230 274.67068 276.33469 277.72571 278.89554
 279.82120 280.35489 280.58691 280.89447 281.48373 282.19257 283.06253 283.98077
 284.86151 285.59070 286.25278 287.09653
 366.78100 356.34785 345.79270 334.67155 323.08740 311.29425 299.17710 286.99295
 274.71780 262.62765 250.64949 239.96334 230.09819 221.21504 213.40989 206.42474
 200.27159 195.22244 191.81729 189.87214 188.92199 188.99884 189.84669 191.16754
 192.90539 195.01324 197.28909 199.66094 202.11879 204.61163 206.71248 208.56733
 210.20618 211.36403 211.60588 211.84673 211.79658 211.51443 211.16028 210.80313
 210.43298 210.15583 209.97668 209.85353 209.79438 210.13823 210.53708 210.93893
 211.74477 212.93562 214.19847 215.99432 217.93517 219.99102 222.09887 224.19472
 226.26757 228.36442 230.47427 232.59312 234.73497 236.91982 239.18867 241.57152
 244.20537 246.46922 248.48407 250.26191 251.69176 252.82761 253.66246 253.99131
 254.04116 253.82801 253.20086 252.16171 250.78056 248.95441 246.87626 244.72211
 242.52596 240.34281 238.17566 236.02751 233.90036 231.78021 229.81906 227.98890
 226.28475 224.76960 223.41245 222.19730 221.09215 220.06500 219.18185 218.33570
 217.59055 216.78340 215.89425 215.27110 214.73395 214.76491 214.83804 214.34633
 213.23303 211.40665 210.98532 213.13943 216.60551 220.69226 226.29030 230.65753
 234.51070 238.60730 242.79385 246.86264 250.86836 254.71512 258.27701 261.48032
 264.47684 267.33405 270.04144 272.55194 274.67407 276.35031 277.71613 278.82867
 279.74124 280.25009 280.47183 280.75128 281.32986 282.07825 283.02377 283.91556
 284.75363 285.49283 286.13174 286.96399
 366.78100 356.34810 345.79320 334.67230 323.08840 311.29550 299.17860 286.99470
 274.71980 262.62990 250.65200 239.96611 230.10121 221.21831 213.41341 206.42851
 200.27561 195.22671 191.82181 189.87691 188.92701 189.00411 189.85221 191.17331
 192.91141 195.01951 197.29561 199.66771 202.12581 204.61891 206.72001 208.57512
 210.21422 211.37232 211.61442 211.85552 211.80562 211.52372 211.16982 210.81292
 210.44302 210.16612 209.98722 209.86432 209.80542 210.14952 210.54862 210.95072
 211.75682 212.94792 214.21102 216.00712 217.94823 220.00433 222.11243 224.20853
 226.28163 228.37873 230.48883 232.60793 234.75003 236.93513 239.20423 241.58733
 244.22143 246.48553 248.50063 250.27873 251.70883 252.84493 253.68003 254.00913
 254.05923 253.84634 253.21944 252.18054 250.79964 248.97374 246.89584 244.74194
 242.54604 240.36314 238.19624 236.04834 233.92144 231.80154 229.84064 228.01074
 226.30684 224.79194 223.43504 222.22014 221.11524 220.08835 219.20545 218.35955
 217.61465 216.80775 215.91885 215.29595 214.75905 214.78447 214.84453 214.33556
 213.28589 211.40248 210.89192 213.06758 216.57993 220.64151 226.26491 230.66222
 234.50412 238.61374 242.80305 246.87161 250.88000 254.72789 258.28381 261.47479
 264.46075 267.30579 270.00668 272.52374 274.65179 276.33270 277.67001 278.74591
 279.64758 280.16833 280.40851 280.67633 281.25336 281.99951 282.92188 283.80405
 284.62238 285.36819 286.02328 286.85663
 366.78100 356.34820 345.79340 334.67260 323.08880 311.29601 299.17921 286.99541
 274.72061 262.63081 250.65301 239.96721 230.10241 221.21962 213.41482 206.43002
 200.27722 195.22842 191.82362 189.87882 188.92902 189.00623 189.85443 191.17563
 192.91383 195.02203 197.29823 199.67043 202.12863 204.62183 206.72304 208.57824
 210.21744 211.37564 211.61784 211.85904 211.80924 211.52744 211.17365 210.81685
 210.44705 210.17025 209.99145 209.86865 209.80985 210.15405 210.55325 210.95546
 211.76166 212.95286 214.21606 216.01226 217.95346 220.00966 222.11786 224.21407
 226.28727 228.38447 230.49467 232.61387 234.75607 236.94127 239.21047 241.59368
 244.22788 246.49208 248.50728 250.28548 251.71568 252.85188 253.68708 254.01628
 254.06649 253.85369 253.22689 252.18809 250.80729 248.98149 246.90369 244.74989
 242.55410 240.37130 238.20450 236.05670 233.92990 231.81010 229.84930 228.01950
 226.31570 224.80091 223.44411 222.22931 221.12451 220.09771 219.21491 218.36911
 217.62431 216.81752 215.92872 215.30592 214.76912 214.79536 214.85738 214.33304
 213.31772 211.37918 210.80949 213.00948 216.56221 220.59760 226.23279 230.65515
 234.49069 238.61253 242.80869 246.88187 250.89316 254.74184 258.29541 261.48007
 264.45819 267.29010 269.97729 272.48630 274.60126 276.27466 277.58826 278.65005
 279.55640 280.08676 280.33105 280.61401 281.21182 281.98322 282.91061 283.79544
 284.61890 285.36774 286.02866 286.87421
 366.78100 356.34848 345.79396 334.67344 323.08992 311.29739 299.18087 286.99735
 274.72283 262.63331 250.65579 239.97027 230.10574 221.22322 213.41870 206.43418
 200.28166 195.23314 191.82862 189.88410 188.93457 189.01205 189.86053 191.18201
 192.92049 195.02897 197.30545 199.67793 202.13640 204.62988 206.73136 208.58684
 210.22632 211.38480 211.62728 211.86876 211.81923 211.53771 211.18419 210.82767
 210.45815 210.18163 210.00311 209.88059 209.82207 210.16654 210.56602 210.96850
 211.77498 212.96646 214.22994 216.02642 217.96789 220.02437 222.13285 224.22933
 226.30281 228.40029 230.51077 232.63025 234.77272 236.95820 239.22768 241.61116
 244.24564 246.51012 248.52560 250.30408 251.73456 252.87103 253.70651 254.03599
 254.08647 253.87395 253.24743 252.20891 250.82838 249.00286 246.92534 244.77182
 242.57630 240.39378 238.22726 236.07974 233.95322 231.83369 229.87317 228.04365
 226.34013 224.82561 223.46909 222.25457 221.15004 220.12352 219.24100 218.39548
 217.65096 216.84444 215.95592 215.33340 214.79688 214.81461 214.85648 214.34944
 213.35837 211.34714 210.72847 212.94452 216.53278 220.55595 226.18698 230.63359
 234.46585 238.60100 242.80566 246.88744 250.90184 254.75084 258.30511 261.49051
 264.46454 267.28366 269.95529 272.44275 274.53418 276.19174 277.48593 278.54895
 279.46558 280.01923 280.30310 280.63983 281.25092 282.06070 282.99637 283.88779
 284.72449 285.48346 286.14554 286.98892
 366.78100 356.34870 345.79439 334.67409 323.09079 311.29849 299.18218 286.99888
 274.72458 262.63527 250.65797 239.97267 230.10837 221.22606 213.42176 206.43746
 200.28515 195.23685 191.83255 189.88824 188.93894 189.01664 189.86534 191.18703
 192.92573 195.03443 197.31112 199.68382 202.14252 204.63622 206.73791 208.59361
 210.23331 211.39200 211.63470 211.87640 211.82710 211.54579 211.19249 210.83619
 210.46688 210.19058 210.01228 209.88998 209.83167 210.17637 210.57607 210.97876
 211.78546 212.97716 214.24086 216.03755 217.97925 220.03595 222.14464 224.24134
 226.31504 228.41273 230.52343 232.64313 234.78583 236.97152 239.24122 241.62492
 244.25961 246.52431 248.54001 250.31871 251.74940 252.88610 253.72180 254.05149
 254.10219 253.88989 253.26359 252.22528 250.84498 249.01968 246.94237 244.78907
 242.59377 240.41147 238.24516 236.09786 233.97156 231.85225 229.89195 228.06265
 226.35935 224.84504 223.48874 222.27444 221.17013 220.14383 219.26153 218.41622
 217.67192 216.86562 215.97732 215.35501 214.81871 214.83142 214.86145 214.34201
 213.42258 211.33536 210.64278 212.85757 216.48358 220.51883 226.13133 230.61104
 234.43684 238.58464 242.79724 246.89009 250.90727 254.75714 258.31442 261.50836
 264.47968 267.28647 269.93643 272.39020 274.44791 276.08035 277.36340 278.44290
 279.37729 279.98227 280.33344 280.71292 281.34399 282.21484 283.16263 284.06100
 284.91342 285.67413 286.33847 287.18506
 366.78100 356.34816 345.79333 334.67249 323.08866 311.29582 299.17898 286.99515
 274.72031 262.63048 250.65264 239.96681 230.10197 221.21913 213.41430 206.42946
 200.27663 195.22779 191.82295 189.87812 188.92828 189.00545 189.85361 191.17477
 192.91294 195.02110 197.29727 199.66943 202.12760 204.62076 206.72192 208.57709
 210.21625 211.37442 211.61658 211.85774 211.80791 211.52607 211.17224 210.81540
 210.44556 210.16873 209.98989 209.86706 209.80822 210.15239 210.55155 210.95371
 211.75988 212.95104 214.21421 216.01037 217.95153 220.00770 222.11586 224.21203
 226.28519 228.38235 230.49252 232.61168 234.75385 236.93901 239.20818 241.59134
 244.22550 246.48967 248.50483 250.28300 251.71316 252.84932 253.68449 254.01365
 254.06382 253.85098 253.22414 252.18531 250.80447 248.97864 246.90080 244.74696
 242.55113 240.36829 238.20146 236.05362 233.92679 231.80695 229.84611 228.01628
 226.31244 224.79761 223.44077 222.22593 221.12110 220.09426 219.21143 218.36559
 217.62075 216.81392 215.92508 215.30225 214.76541 214.81134 214.91986 214.27988
 213.48994 211.34947 210.55836 212.79796 216.41415 220.48692 226.07228 230.60208
 234.40807 238.56857 242.78650 246.89313 250.91214 254.76324 258.32526 261.53333
 264.50250 267.29471 269.92130 272.33063 274.34494 275.94513 277.22012 278.32608
 279.28500 279.98093 280.41479 280.84518 281.48907 282.35052 283.31732 284.22961
 285.09290 285.87231 286.55060 287.41501
 366.78100 356.34733 345.79165 334.66998 323.08530 311.29163 299.17395 286.98928
 274.71360 262.62293 250.64425 239.95758 230.09190 221.20823 213.40255 206.41688
 200.26320 195.21353 191.80785 189.86218 188.91150 188.98783 189.83515 191.15548
 192.89280 195.00013 197.27545 199.64678 202.10411 204.59643 206.69676 208.55108
 210.18941 211.34673 211.58806 211.82838 211.77771 211.49503 211.14036 210.78268
 210.41201 210.13433 209.95466 209.83098 209.77131 210.11463 210.51296 210.91428
 211.71961 212.90993 214.17226 215.96758 217.90791 219.96323 222.07056 224.16589
 226.23821 228.33454 230.44386 232.56219 234.70351 236.88784 239.15616 241.53849
 244.17181 246.43514 248.44946 250.22679 251.65611 252.79144 253.62576 253.95409
 254.00341 253.78974 253.16206 252.12239 250.74071 248.91404 246.83536 244.68069
 242.48401 240.30034 238.13267 235.98399 233.85632 231.73564 229.77397 227.94329
 226.23862 224.72294 223.36527 222.14959 221.04392 220.01624 219.13257 218.28589
 217.54022 216.73254 215.84287 215.21919 214.68152 214.77606 214.99945 214.21170
 213.53786 211.38327 210.55254 212.74193 216.35191 220.46849 226.00856 230.58751
 234.37683 238.54735 242.77031 246.89163 250.91525 254.76990 258.34042 261.56592
 264.53503 267.31049 269.90945 272.26663 274.23206 275.79840 277.06876 278.20435
 279.22247 280.02417 280.54095 281.02820 281.66068 282.49951 283.45773 284.37253
 285.26862 286.08997 286.80746 287.72183
 366.78100 356.34710 345.79119 334.66929 323.08438 311.29048 299.17257 286.98767
 274.71176 262.62086 250.64196 239.95505 230.08915 221.20524 213.39934 206.41343
 200.25953 195.20962 191.80372 189.85782 188.90691 188.98301 189.83010 191.15020
 192.88729 194.99439 197.26948 199.64058 202.09768 204.58977 206.68987 208.54396
 210.18206 211.33915 211.58025 211.82034 211.76944 211.48654 211.13163 210.77373
 210.40282 210.12492 209.94501 209.82111 209.76120 210.10430 210.50239 210.90349
 211.70859 212.89868 214.16078 215.95587 217.89597 219.95106 222.05816 224.15325
 226.22535 228.32145 230.43054 232.54864 234.68973 236.87383 239.14192 241.52402
 244.15711 246.42021 248.43431 250.21140 251.64050 252.77559 253.60969 253.93778
 253.98688 253.77297 253.14507 252.10517 250.72326 248.89636 246.81745 244.66255
 242.46564 240.28174 238.11383 235.96493 233.83703 231.71612 229.75422 227.92331
 226.21841 224.70250 223.34460 222.12869 221.02279 219.99489 219.11098 218.26408
 217.51817 216.71027 215.82036 215.19646 214.65855 214.77003 215.02654 214.19589
 213.52017 211.40070 210.58344 212.70242 216.26801 220.43408 225.94891 230.56407
 234.34430 238.51994 242.74765 246.88335 250.91489 254.77777 258.36090 261.60535
 264.57663 267.33438 269.90234 272.20880 274.12122 275.65033 276.90451 278.04660
 279.12436 279.97318 280.57495 281.11084 281.76462 282.79727 283.78986 284.72458
 285.61276 286.40372 287.09464 287.97519
 366.78100 356.34688 345.79075 334.66863 323.08351 311.28939 299.17126 286.98614
 274.71002 262.61889 250.63977 239.95265 230.08652 221.20240 213.39628 206.41016
 200.25603 195.20591 191.79979 189.85366 188.90254 188.97842 189.82529 191.14517
 192.88205 194.98893 197.26380 199.63468 202.09156 204.58343 206.68331 208.53719
 210.17507 211.33194 211.57282 211.81270 211.76157 211.47845 211.12333 210.76520
 210.39408 210.11596 209.93584 209.81171 209.75159 210.09447 210.49234 210.89322
 211.69810 212.88797 214.14985 215.94473 217.88461 219.93948 222.04636 224.14124
 226.21311 228.30899 230.41787 232.53575 234.67662 236.86050 239.12838 241.51025
 244.14313 246.40601 248.41988 250.19676 251.62564 252.76052 253.59439 253.92227
 253.97115 253.75702 253.12890 252.08878 250.70665 248.87953 246.80041 244.64529
 242.44816 240.26404 238.09592 235.94679 233.81867 231.69755 229.73543 227.90430
 226.19918 224.68306 223.32493 222.10881 221.00269 219.97456 219.09044 218.24332
 217.49720 216.68907 215.79895 215.17483 214.63670 214.76189 215.04396 214.19907
 213.51212 211.38287 210.54306 212.69681 216.26463 220.42221 225.88872 230.51732
 234.30225 238.48183 242.71463 246.86325 250.90749 254.78442 258.38763 261.65424
 264.63196 267.37326 269.90625 272.15988 274.01041 275.49255 276.72015 277.84982
 278.95911 279.85889 280.53281 281.14249 281.98694 283.05200 284.06424 285.02243
 285.90549 286.69186 287.37881 288.25424
 366.78100 356.34662 345.79024 334.66787 323.08249 311.28811 299.16973 286.98436
 274.70798 262.61660 250.63722 239.94985 230.08347 221.19909 213.39271 206.40634
 200.25196 195.20158 191.79520 189.84882 188.89745 188.97307 189.81969 191.13931
 192.87594 194.98256 197.25718 199.62780 202.08443 204.57605 206.67567 208.52929
 210.16692 211.32354 211.56416 211.80378 211.75241 211.46903 211.11365 210.75527
 210.38389 210.10552 209.92514 209.80076 209.74038 210.08301 210.48063 210.88125
 211.68587 212.87550 214.13712 215.93174 217.87136 219.92599 222.03261 224.12723
 226.19885 228.29447 230.40310 232.52072 234.66134 236.84496 239.11259 241.49421
 244.12683 246.38945 248.40308 250.17970 251.60832 252.74294 253.57657 253.90419
 253.95281 253.73843 253.11006 252.06968 250.68730 248.85992 246.78054 244.62517
 242.42779 240.24341 238.07503 235.92566 233.79728 231.67590 229.71352 227.88215
 226.17677 224.66039 223.30201 222.08564 220.97926 219.95088 219.06650 218.21912
 217.47275 216.66437 215.77399 215.14961 214.61124 214.74745 215.05653 214.22523
 213.49724 211.41980 210.52208 212.59457 216.23701 220.43237 225.83739 230.46017
 234.25810 238.44403 242.68513 246.84395 250.89883 254.79066 258.41940 261.71140
 264.69321 267.41248 269.90118 272.10217 273.89606 275.32584 276.51804 277.62708
 278.74567 279.70679 280.51154 281.28183 282.13547 283.18250 284.18744 285.13257
 285.99866 286.76996 287.44373 288.30237
 366.78100 356.34682 345.79064 334.66845 323.08327 311.28909 299.17091 286.98573
 274.70954 262.61836 250.63918 239.95200 230.08582 221.20163 213.39545 206.40927
 200.25509 195.20491 191.79872 189.85254 188.90136 188.97718 189.82400 191.14381
 192.88063 194.98745 197.26227 199.63309 202.08990 204.58172 206.68154 208.53536
 210.17318 211.32999 211.57081 211.81063 211.75945 211.47627 211.12108 210.76290
 210.39172 210.11354 209.93336 209.80917 209.74899 210.09181 210.48963 210.89045
 211.69526 212.88508 214.14690 215.94172 217.88154 219.93635 222.04317 224.13799
 226.20981 228.30563 230.41444 232.53226 234.67308 236.85690 239.12471 241.50653
 244.13935 246.40217 248.41599 250.19280 251.62162 252.75644 253.59026 253.91808
 253.96689 253.75271 253.12453 252.08435 250.70217 248.87498 246.79580 244.64062
 242.44344 240.25926 238.09107 235.94189 233.81371 231.69253 229.73035 227.89916
 226.19398 224.67780 223.31962 222.10344 220.99725 219.96907 219.08489 218.23771
 217.49153 216.68334 215.79316 215.16898 214.63080 214.75464 215.04047 214.25731
 213.53726 211.47923 210.48999 212.48584 216.17195 220.39723 225.77930 230.39223
 234.21692 238.41533 242.66956 246.84003 250.90358 254.80447 258.44925 261.75629
 264.74261 267.45102 269.90692 272.05472 273.77493 275.12329 276.26929 277.38565
 278.54056 279.62509 280.60532 281.51263 282.36469 283.35889 284.34033 285.21799
 286.03821 286.76862 287.40668 288.21982
 366.78100 356.34677 345.79054 334.66831 323.08308 311.28885 299.17062 286.98539
 274.70916 262.61793 250.63870 239.95147 230.08524 221.20101 213.39479 206.40856
 200.25433 195.20410 191.79787 189.85164 188.90041 188.97618 189.82295 191.14272
 192.87949 194.98626 197.26103 199.63180 202.08857 204.58034 206.68011 208.53388
 210.17165 211.32842 211.56919 211.80896 211.75773 211.47450 211.11927 210.76104
 210.38982 210.11159 209.93136 209.80713 209.74690 210.08967 210.48744 210.88821
 211.69298 212.88275 214.14452 215.93929 217.87906 219.93383 222.04060 224.13537
 226.20714 228.30291 230.41168 232.52945 234.67022 236.85399 239.12176 241.50353
 244.13630 246.39907 248.41284 250.18962 251.61839 252.75316 253.58693 253.91470
 253.96347 253.74924 253.12101 252.08078 250.69855 248.87132 246.79209 244.63686
 242.43963 240.25540 238.08717 235.93794 233.80971 231.68848 229.72625 227.89502
 226.18979 224.67356 223.31533 222.09910 220.99287 219.96464 219.08042 218.23319
 217.48696 216.67873 215.78850 215.16427 214.62604 214.75146 215.04262 214.25755
 213.54144 211.59196 210.53242 212.30394 216.05064 220.37990 225.72931 230.34442
 234.17725 238.38081 242.64140 246.81561 250.88145 254.79904 258.48572 261.83807
 264.82602 267.48642 269.86090 271.92715 273.58698 274.90616 276.07471 277.22852
 278.45477 279.66144 280.78799 281.79263 282.68399 283.75687 284.80698 285.34708
 286.13898 286.84418 287.46024 288.24530
 366.78100 356.34611 345.78923 334.66634 323.08046 311.28557 299.16669 286.98080
 274.70391 262.61203 250.63214 239.94426 230.07737 221.19249 213.38560 206.39871
 200.24383 195.19294 191.78606 189.83917 188.88728 188.96240 189.80851 191.12763
 192.86374 194.96986 197.24397 199.61408 202.07020 204.56131 206.66043 208.51354
 210.15066 211.30677 211.54688 211.78600 211.73411 211.45023 211.09434 210.73546
 210.36357 210.08468 209.90380 209.77891 209.71803 210.06014 210.45726 210.85737
 211.66148 212.85060 214.11171 215.90583 217.84494 219.89906 222.00517 224.09928
 226.17040 228.26551 230.37363 232.49074 234.63085 236.81397 239.08108 241.46220
 244.09431 246.35643 248.36954 250.14565 251.57377 252.70788 253.54100 253.86811
 253.91623 253.70134 253.07245 252.03157 250.64868 248.82080 246.74091 244.58503
 242.38714 240.20225 238.03337 235.88348 233.75460 231.63271 229.66983 227.83794
 226.13205 224.61517 223.25628 222.03940 220.93251 219.90363 219.01874 218.17085
 217.42397 216.61508 215.72420 215.09931 214.56042 214.69142 214.99010 214.25218
 213.49980 211.66669 210.65060 212.17256 215.93367 220.39452 225.69841 230.32402
 234.14539 238.34938 242.61583 246.79245 250.85368 254.78123 258.50735 261.90488
 264.89047 267.49252 269.77972 271.76108 273.34409 274.61899 275.78873 276.97665
 278.30014 279.61023 280.87518 282.02509 282.96826 284.05429 285.09570 285.66422
 286.27777 286.82416 287.30145 287.90973
 366.78100 356.34543 345.78786 334.66429 323.07773 311.28216 299.16259 286.97602
 274.69845 262.60588 250.62532 239.93675 230.06918 221.18361 213.37604 206.38847
 200.23291 195.18134 191.77377 189.82620 188.87363 188.94806 189.79349 191.11193
 192.84736 194.95279 197.22622 199.59565 202.05108 204.54152 206.63995 208.49238
 210.12881 211.28424 211.52367 211.76210 211.70954 211.42497 211.06840 210.70883
 210.33626 210.05669 209.87513 209.74956 209.68799 210.02942 210.42585 210.82528
 211.62872 212.81715 214.07758 215.87101 217.80944 219.86287 221.96830 224.06174
 226.13217 228.22660 230.33403 232.45046 234.58989 236.77233 239.03876 241.41919
 244.05062 246.31205 248.32448 250.09992 251.52735 252.66078 253.49321 253.81964
 253.86707 253.65150 253.02194 251.98037 250.59680 248.76823 246.68766 244.53109
 242.33253 240.14696 237.97739 235.82682 233.69725 231.57468 229.61112 227.77855
 226.07198 224.55441 223.19484 221.97727 220.86970 219.84014 218.95457 218.10600
 217.35843 216.54886 215.65729 215.03173 214.49216 214.61450 214.89432 214.25543
 213.49872 211.71794 210.73643 212.08128 215.85150 220.39430 225.67619 230.29884
 234.12062 238.33026 242.60715 246.78645 250.84013 254.77026 258.52228 261.94836
 264.92654 267.48065 269.69958 271.61472 273.13318 274.37027 275.55194 276.79257
 278.18561 279.58380 280.96756 282.20786 283.17450 284.32721 285.28287 285.84583
 286.48233 287.04913 287.54428 288.17529
 354.97500 345.04800 334.58700 324.11500 313.32600 302.53700 291.65000 280.76700
 269.93100 259.19300 248.62200 238.61700 229.08700 220.35500 212.54000 205.53500
 199.46400 194.49300 191.14300 189.19000 188.08900 188.01400 188.72400 189.90600
 191.46900 193.38200 195.40300 197.55600 199.80700 202.06000 204.28800 206.47900
 208.55200 210.37800 212.02500 213.65900 214.99800 216.11800 217.17200 218.25900
 219.49400 220.64500 221.67900 222.61400 223.54500 224.98200 226.57100 228.19000
 229.79700 231.81100 233.86500 235.97200 238.24200 240.55300 242.89900 245.25300
 247.48800 249.53500 251.36600 252.84800 254.09800 255.16700 256.02700 256.25300
 256.09500 255.54300 253.93500 252.56600 251.38400 250.24500 249.05200 247.70100
 246.01600 243.99600 241.78400 239.39300 236.81300 234.22300 231.65800 229.14400
 226.74000 224.47300 222.33500 220.32500 218.44000 216.67700 214.96200 213.47200
 212.20000 211.10800 210.26000 209.63900 209.24400 209.03100 209.05800 209.33300
 209.78400 210.62600 211.33100 212.39100 213.62500 214.84668 217.72949 219.47640
 220.32566 220.86828 220.88710 220.27371 219.43733 218.84250 219.04934 220.86203
 222.60583 225.72206 229.03064 232.61777 236.12270 239.51333 242.70767 245.68587
 248.41061 250.90679 253.19353 254.91714 256.48655 257.94920 259.39966 260.69384
 261.81714 262.77997 263.71679 264.54570 265.26305 265.89772 266.47676 267.00133
 267.47312 267.89325 268.26027 268.72800
