|-------------------------------------------------------------------------|
|   File Name : in_temp.dat
|   Subject   : temperature profiles used for initial guess atmosphere
|   File Type : input of gmtr
|   Data Type : atmospherical data
|   Author/s  : WRF-Chem
|   Date      : Fri Jul 26 15:39:24 2024
|-------------------------------------------------------------------------|

 WRF-Chem temperature
#
 values of T (K)    (8f10.5)
#
 354.97500 345.04800 334.58700 324.11500 313.32600 302.53700 291.65000 280.76700
 269.93100 259.19300 248.62200 238.61700 229.08700 220.35500 212.54000 205.53500
 199.46400 194.49300 191.14300 189.19000 188.08900 188.01400 188.72400 189.90600
 191.46900 193.38200 195.40300 197.55600 199.80700 202.06000 204.28800 206.47900
 208.55200 210.37800 212.02500 213.65900 214.99800 216.11800 217.17200 218.25900
 219.49400 220.64500 221.67900 222.61400 223.54500 224.98200 226.57100 228.19000
 229.79700 231.81100 233.86500 235.97200 238.24200 240.55300 242.89900 245.25300
 247.48800 249.53500 251.36600 252.84800 254.09800 255.16700 256.02700 256.25300
 256.09500 255.54300 253.93500 252.56600 251.38400 250.24500 249.05200 247.70100
 246.01600 243.99600 241.78400 239.39300 236.81300 234.22300 231.65800 229.14400
 226.74000 224.47300 222.33500 220.32500 218.44000 216.67700 214.96200 213.47200
 212.20000 211.10800 210.26000 209.63900 209.24400 209.03100 209.05800 209.33300
 209.78400 210.62600 211.33100 212.39100 213.62500 214.84668 217.72949 219.47640
 220.32566 220.86828 220.88710 220.27371 219.43733 218.84250 219.04934 220.86203
 222.60583 225.72206 229.03064 232.61777 236.12270 239.51333 242.70767 245.68587
 248.41061 250.90679 253.19353 254.91714 256.48655 257.94920 259.39966 260.69384
 261.81714 262.77997 263.71679 264.54570 265.26305 265.89772 266.47676 267.00133
 267.47312 267.89325 268.26027 268.72800
 366.78100 356.33500 345.76700 334.63300 323.03600 311.23000 299.10000 286.90300
 274.61500 262.51200 250.52100 239.82200 229.94400 221.04800 213.23000 206.23200
 200.06600 195.00400 191.58600 189.62800 188.66500 188.72900 189.56400 190.87200
 192.59700 194.69200 196.95500 199.31400 201.75900 204.23900 206.32700 208.16900
 209.79500 210.94000 211.16900 211.39700 211.33400 211.03900 210.67200 210.30200
 209.91900 209.62900 209.43700 209.30100 209.22900 209.56000 209.94600 210.33500
 211.12800 212.30600 213.55600 215.33900 217.26700 219.31000 221.40500 223.48800
 225.54800 227.63200 229.72900 231.83500 233.96400 236.13600 238.39200 240.76200
 243.38300 245.63400 247.63600 249.40100 250.81800 251.94100 252.76300 253.07900
 253.11600 252.89000 252.25000 251.19800 249.80400 247.96500 245.87400 243.70700
 241.49800 239.30200 237.12200 234.96100 232.82100 230.68800 228.71400 226.87100
 225.15400 223.62600 222.25600 221.02800 219.91000 218.87000 217.97400 217.11500
 216.35700 215.53700 214.63500 213.99900 213.44900 212.85855 212.01316 212.61654
 214.26826 216.08686 218.14273 220.53346 223.40855 226.78828 231.49734 235.90155
 239.42278 243.28576 247.23140 251.11907 254.80144 258.23331 261.38913 264.27520
 266.89312 269.26852 271.44504 273.08845 274.58484 275.98591 277.39845 278.65879
 279.75272 280.69038 281.56708 282.34086 283.01050 283.60295 284.14348 284.63317
 285.07358 285.46577 285.80838 286.24500
 381.81900 372.39900 361.20600 349.77600 337.62200 324.85300 311.81000 298.35300
 284.86000 271.32400 258.56100 246.30400 236.08700 226.79600 218.44800 211.29000
 205.52200 200.89400 197.38100 194.84800 193.01500 192.31500 192.25000 192.43100
 192.91200 193.53700 194.13600 194.71200 195.26200 195.83100 196.39300 196.97600
 197.60400 198.14900 198.58400 199.05700 199.69500 200.37800 201.05400 201.70800
 202.31300 202.85700 203.35500 203.86200 204.56900 205.29700 206.02600 206.98700
 208.19300 209.44100 210.96900 212.57600 214.46200 216.51300 218.63000 220.85300
 223.34100 225.96200 228.73900 231.69700 234.70600 237.70600 240.69200 243.65700
 246.73700 249.69900 252.52100 255.06300 257.29000 259.23300 260.63300 261.68000
 262.46100 262.79800 262.69100 262.22400 261.06900 259.52500 257.70700 255.50700
 253.00100 250.30200 247.39800 244.45200 241.65400 239.05400 236.73300 234.59000
 232.59500 230.72500 228.83400 226.82600 224.66600 222.38700 220.10400 217.71500
 215.45900 213.06600 210.54600 208.09300 205.35400 202.08130 196.05959 200.71215
 209.01611 216.90438 223.84126 229.78593 235.00632 240.20838 245.98943 250.68668
 254.32982 257.93487 261.55666 264.96801 268.15192 271.06452 273.76717 276.25691
 278.57680 280.74479 282.77456 284.60533 286.27232 287.81705 289.31715 290.65561
 291.81734 292.81312 293.70701 294.49387 295.17482 295.77730 296.32696 296.82492
 297.27278 297.67160 298.02000 298.46400
 399.33000 389.90700 379.81300 368.66800 357.52200 345.30100 333.07400 320.22700
 307.21600 293.84800 280.37600 267.29600 254.61000 242.98700 232.15100 221.97700
 212.67200 204.28600 197.66900 192.82100 189.48600 187.45200 186.81400 187.08900
 187.78100 189.05400 190.64800 192.54200 194.63000 196.75200 198.67100 200.15800
 201.53500 202.48700 202.97500 203.34000 203.53900 203.49700 203.38500 203.24700
 203.00500 202.78600 202.60300 202.43700 202.42600 202.88800 203.42000 203.95100
 204.89500 205.99200 207.30100 208.95800 210.73800 213.10000 215.56400 218.18000
 220.96600 223.91800 226.96100 230.09200 233.29300 236.55700 239.95500 243.53700
 246.84500 249.39000 251.54200 253.47400 255.19500 256.48400 257.43100 258.05900
 258.21200 258.04000 257.58200 256.64300 255.23900 253.50700 251.40800 249.05600
 246.57600 243.99400 241.38900 238.83000 236.34400 233.98600 231.96900 230.11800
 228.42300 226.89900 225.54800 224.29700 223.10500 221.96500 220.95800 220.11300
 219.49000 218.92000 218.32500 217.88100 217.42300 216.96366 216.35568 216.80261
 217.73415 218.28582 218.64258 219.10077 220.44626 222.53987 226.38451 230.35736
 233.59734 237.39164 241.29814 245.22796 248.98002 252.51130 255.78595 258.80109
 261.54781 264.05210 266.34239 268.04198 269.58951 271.01303 272.35754 273.55718
 274.59842 275.49092 276.28989 276.99307 277.60161 278.14001 278.63122 279.07623
 279.47646 279.83287 280.14422 280.54100
 399.73800 389.78500 379.66200 368.15100 356.64100 344.35000 331.79200 318.88800
 305.72600 292.49300 279.20900 266.73800 254.69600 244.21100 234.45700 225.43300
 217.56900 210.45100 204.30000 199.30600 195.45800 192.57600 191.02700 190.38600
 190.23900 190.53400 191.16600 191.92500 192.79500 193.76600 194.73200 195.31200
 195.80000 196.05200 196.11500 196.11500 196.03900 195.72300 195.34000 194.98900
 194.75100 194.79200 195.13300 195.59800 196.50600 198.13600 199.85800 201.56600
 204.17900 206.82300 209.89300 213.28400 216.82800 220.60500 224.38700 228.20900
 232.03200 235.82500 239.56000 243.25800 246.84500 250.20100 253.70900 257.46800
 261.53000 264.22100 266.60100 268.68100 270.32900 271.74100 272.83600 273.47400
 273.89800 274.00200 273.75700 273.28800 272.37100 271.10000 269.58900 267.77900
 265.81600 263.72100 261.39300 258.91600 256.29800 253.42300 250.33100 247.11400
 243.83700 240.52900 237.24900 233.99900 230.72800 227.51500 224.25400 220.95200
 217.62700 213.65600 210.12100 206.78900 204.01000 201.99491 199.07309 198.76551
 199.40006 200.48994 201.46112 202.31912 203.45100 204.96110 207.47502 210.85391
 213.70530 217.29629 220.99574 224.72316 228.28753 231.64854 234.68024 237.40893
 239.70644 241.60899 243.46854 245.67368 247.68154 249.52395 251.24767 252.78566
 254.12057 255.26479 256.23740 257.09036 257.82852 258.48160 259.07744 259.61723
 260.10271 260.53504 260.91270 261.39400
 399.73800 389.78500 379.66200 368.15100 356.64100 344.35000 331.79200 318.88800
 305.72600 292.49300 279.20900 266.73800 254.69600 244.21100 234.45700 225.43300
 217.56900 210.45100 204.30000 199.30600 195.45800 192.57600 191.02700 190.38600
 190.23900 190.53400 191.16600 191.92500 192.79500 193.76600 194.73200 195.31200
 195.80000 196.05200 196.11500 196.11500 196.03900 195.72300 195.34000 194.98900
 194.75100 194.79200 195.13300 195.59800 196.50600 198.13600 199.85800 201.56600
 204.17900 206.82300 209.89300 213.28400 216.82800 220.60500 224.38700 228.20900
 232.03200 235.82500 239.56000 243.25800 246.84500 250.20100 253.70900 257.46800
 261.53000 264.22100 266.60100 268.68100 270.32900 271.74100 272.83600 273.47400
 273.89800 274.00200 273.75700 273.28800 272.37100 271.10000 269.58900 267.77900
 265.81600 263.72100 261.39300 258.91600 256.29800 253.42300 250.33100 247.11400
 243.83700 240.52900 237.24900 233.99900 230.72800 227.51500 224.25400 220.95200
 217.62700 213.65600 210.12100 206.78900 204.01000 201.99491 199.07309 198.76551
 199.40006 200.48994 201.46112 202.31912 203.45100 204.96110 207.47502 210.85391
 213.70530 217.29629 220.99574 224.72316 228.28753 231.64854 234.68024 237.40893
 239.70644 241.60899 243.46854 245.67368 247.68154 249.52395 251.24767 252.78566
 254.12057 255.26479 256.23740 257.09036 257.82852 258.48160 259.07744 259.61723
 260.10271 260.53504 260.91270 261.39400
 399.33000 389.90700 379.81300 368.66800 357.52200 345.30100 333.07400 320.22700
 307.21600 293.84800 280.37600 267.29600 254.61000 242.98700 232.15100 221.97700
 212.67200 204.28600 197.66900 192.82100 189.48600 187.45200 186.81400 187.08900
 187.78100 189.05400 190.64800 192.54200 194.63000 196.75200 198.67100 200.15800
 201.53500 202.48700 202.97500 203.34000 203.53900 203.49700 203.38500 203.24700
 203.00500 202.78600 202.60300 202.43700 202.42600 202.88800 203.42000 203.95100
 204.89500 205.99200 207.30100 208.95800 210.73800 213.10000 215.56400 218.18000
 220.96600 223.91800 226.96100 230.09200 233.29300 236.55700 239.95500 243.53700
 246.84500 249.39000 251.54200 253.47400 255.19500 256.48400 257.43100 258.05900
 258.21200 258.04000 257.58200 256.64300 255.23900 253.50700 251.40800 249.05600
 246.57600 243.99400 241.38900 238.83000 236.34400 233.98600 231.96900 230.11800
 228.42300 226.89900 225.54800 224.29700 223.10500 221.96500 220.95800 220.11300
 219.49000 218.92000 218.32500 217.88100 217.42300 216.96366 216.35568 216.80261
 217.73415 218.28582 218.64258 219.10077 220.44626 222.53987 226.38451 230.35736
 233.59734 237.39164 241.29814 245.22796 248.98002 252.51130 255.78595 258.80109
 261.54781 264.05210 266.34239 268.04198 269.58951 271.01303 272.35754 273.55718
 274.59842 275.49092 276.28989 276.99307 277.60161 278.14001 278.63122 279.07623
 279.47646 279.83287 280.14422 280.54100
 381.81900 372.39900 361.20600 349.77600 337.62200 324.85300 311.81000 298.35300
 284.86000 271.32400 258.56100 246.30400 236.08700 226.79600 218.44800 211.29000
 205.52200 200.89400 197.38100 194.84800 193.01500 192.31500 192.25000 192.43100
 192.91200 193.53700 194.13600 194.71200 195.26200 195.83100 196.39300 196.97600
 197.60400 198.14900 198.58400 199.05700 199.69500 200.37800 201.05400 201.70800
 202.31300 202.85700 203.35500 203.86200 204.56900 205.29700 206.02600 206.98700
 208.19300 209.44100 210.96900 212.57600 214.46200 216.51300 218.63000 220.85300
 223.34100 225.96200 228.73900 231.69700 234.70600 237.70600 240.69200 243.65700
 246.73700 249.69900 252.52100 255.06300 257.29000 259.23300 260.63300 261.68000
 262.46100 262.79800 262.69100 262.22400 261.06900 259.52500 257.70700 255.50700
 253.00100 250.30200 247.39800 244.45200 241.65400 239.05400 236.73300 234.59000
 232.59500 230.72500 228.83400 226.82600 224.66600 222.38700 220.10400 217.71500
 215.45900 213.06600 210.54600 208.09300 205.35400 202.08130 196.05959 200.71215
 209.01611 216.90438 223.84126 229.78593 235.00632 240.20838 245.98943 250.68668
 254.32982 257.93487 261.55666 264.96801 268.15192 271.06452 273.76717 276.25691
 278.57680 280.74479 282.77456 284.60533 286.27232 287.81705 289.31715 290.65561
 291.81734 292.81312 293.70701 294.49387 295.17482 295.77730 296.32696 296.82492
 297.27278 297.67160 298.02000 298.46400
 366.78100 356.33305 345.76309 334.62714 323.02818 311.22023 299.08827 286.88932
 274.59936 262.49441 250.50145 239.80050 229.92054 221.02259 213.20263 206.20268
 200.03472 194.97077 191.55081 189.59086 188.62590 188.68795 189.52100 190.82704
 192.55009 194.64313 196.90418 199.26122 201.70427 204.18231 206.26836 208.10840
 209.73245 210.87549 211.10254 211.32858 211.26363 210.96667 210.59772 210.22576
 209.84081 209.54886 209.35490 209.21695 209.14299 209.47204 209.85608 210.24313
 211.03417 212.21022 213.45826 215.23931 217.16535 219.20640 221.29944 223.38049
 225.43853 227.52058 229.61562 231.71967 233.84671 236.01676 238.27081 240.63885
 243.25790 245.50694 247.50699 249.27003 250.68508 251.80612 252.62617 252.94021
 252.97526 252.74730 252.10535 251.05139 249.65544 247.81448 245.72153 243.55257
 241.34162 239.14367 236.96171 234.79876 232.65680 230.52185 228.54589 226.70094
 224.98198 223.45203 222.08007 220.85012 219.73016 218.68821 217.79025 216.92930
 216.16934 215.34739 214.44343 213.80548 213.25352 212.89821 212.07275 213.24821
 215.02740 216.81367 217.81708 218.08380 219.14526 222.82222 228.36243 233.10738
 236.86772 240.62500 244.33121 247.92944 251.34380 254.16325 256.66278 259.34366
 262.32162 264.90262 267.04230 269.00128 270.97018 272.94116 274.62411 276.18723
 277.74991 279.36642 280.89972 282.26468 283.44934 284.50116 285.46487 286.34390
 287.13611 287.85239 288.48035 289.31775
 366.78100 356.33270 345.76239 334.62609 323.02678 311.21848 299.08617 286.88687
 274.59657 262.49126 250.49796 239.79665 229.91635 221.01804 213.19774 206.19744
 200.02913 194.96483 191.54452 189.58422 188.61891 188.68061 189.51330 190.81900
 192.54170 194.63439 196.89509 199.25178 201.69448 204.17217 206.25787 208.09757
 209.72126 210.86396 211.09065 211.31635 211.25104 210.95374 210.58444 210.21213
 209.82683 209.53452 209.34022 209.20191 209.12761 209.45631 209.84000 210.22670
 211.01739 212.19309 213.44078 215.22148 217.14717 219.18787 221.28057 223.36126
 225.41896 227.50065 229.59535 231.69904 233.82574 235.99544 238.24913 240.61683
 243.23552 245.48422 247.48391 249.24661 250.66131 251.78200 252.60170 252.91539
 252.95009 252.72178 252.07948 251.02518 249.62887 247.78757 245.69426 243.52496
 241.31365 239.11535 236.93304 234.76974 232.62744 230.49213 228.51583 226.67052
 224.95122 223.42091 222.04861 220.81831 219.69800 218.65570 217.75739 216.89609
 216.13578 215.31348 214.40918 213.77087 213.21857 212.90164 212.16525 213.37636
 215.12077 216.89606 217.90166 218.21306 219.28381 222.84712 228.30502 233.00229
 236.74304 240.50026 244.21274 247.79965 251.15067 253.92265 256.46335 259.23639
 262.17767 264.70389 266.84778 268.84695 270.84235 272.81766 274.48932 276.04901
 277.61542 279.28375 280.82083 282.18478 283.36951 284.42126 285.38458 286.26224
 287.05627 287.76947 288.39847 289.23694
 366.78100 356.33238 345.76177 334.62515 323.02553 311.21691 299.08430 286.88468
 274.59406 262.48845 250.49483 239.79321 229.91259 221.01398 213.19336 206.19274
 200.02413 194.95951 191.53889 189.57827 188.61266 188.67404 189.50642 190.81181
 192.53419 194.62657 196.88695 199.24334 201.68572 204.16310 206.24849 208.08787
 209.71125 210.85363 211.08002 211.30540 211.23978 210.94217 210.57255 210.19993
 209.81431 209.52170 209.32708 209.18846 209.11385 209.44223 209.82561 210.21199
 211.00238 212.17776 213.42514 215.20553 217.13091 219.17129 221.26367 223.34406
 225.40144 227.48282 229.57721 231.68059 233.80697 235.97635 238.22974 240.59712
 243.21550 245.46389 247.46327 249.22565 250.64003 251.76042 252.57980 252.89318
 252.92757 252.69895 252.05633 251.00171 249.60510 247.76348 245.66986 243.50025
 241.28863 239.09001 236.90739 234.74378 232.60116 230.46554 228.48893 226.64331
 224.92369 223.39307 222.02046 220.78984 219.66922 218.62661 217.72799 216.86637
 216.10575 215.28314 214.37852 213.73990 213.18729 212.90900 212.26210 213.49905
 215.21169 216.95729 218.00606 218.34508 219.41898 222.88057 228.26303 232.90202
 236.61624 240.36928 244.08849 247.66368 250.95163 253.67957 256.26505 259.12747
 262.03052 264.50192 266.64676 268.68500 270.71091 272.69168 274.35394 275.90945
 277.49002 279.20264 280.74350 282.10840 283.29166 284.34406 285.30829 286.18414
 286.97870 287.69147 288.32083 289.16003
 366.78100 356.33230 345.76160 334.62491 323.02521 311.21651 299.08381 286.88412
 274.59342 262.48772 250.49402 239.79233 229.91163 221.01293 213.19223 206.19154
 200.02284 194.95814 191.53744 189.57675 188.61105 188.67235 189.50465 190.80996
 192.53226 194.62456 196.88486 199.24117 201.68347 204.16077 206.24607 208.08538
 209.70868 210.85098 211.07728 211.30259 211.23689 210.93919 210.56949 210.19680
 209.81110 209.51840 209.32370 209.18501 209.11031 209.43861 209.82191 210.20822
 210.99852 212.17382 213.42112 215.20142 217.12673 219.16703 221.25933 223.33963
 225.39694 227.47824 229.57254 231.67584 233.80215 235.97145 238.22475 240.59205
 243.21036 245.45866 247.45796 249.22026 250.63457 251.75487 252.57417 252.88747
 252.92178 252.69308 252.05038 250.99568 249.59899 247.75729 245.66359 243.49389
 241.28220 239.08350 236.90080 234.73710 232.59441 230.45871 228.48201 226.63631
 224.91662 223.38592 222.01322 220.78252 219.66183 218.61913 217.72043 216.85873
 216.09804 215.27534 214.37064 213.73194 213.17924 212.93011 212.35054 213.62724
 215.29453 217.00537 218.11142 218.48822 219.56229 222.92250 228.22804 232.80556
 236.48778 240.23824 243.96425 247.52089 250.74365 253.43234 256.06424 259.01154
 261.87939 264.29688 266.44052 268.51764 270.57553 272.56381 274.21851 275.76917
 277.38837 279.11700 280.66193 282.02734 283.21323 284.26544 285.22946 286.10583
 286.90121 287.61505 288.24500 289.08484
 366.78100 356.33230 345.76160 334.62490 323.02521 311.21651 299.08381 286.88411
 274.59341 262.48771 250.49401 239.79232 229.91162 221.01292 213.19222 206.19152
 200.02282 194.95812 191.53742 189.57673 188.61103 188.67233 189.50463 190.80993
 192.53223 194.62453 196.88484 199.24114 201.68344 204.16074 206.24604 208.08534
 209.70864 210.85095 211.07725 211.30255 211.23685 210.93915 210.56945 210.19675
 209.81106 209.51836 209.32366 209.18496 209.11026 209.43856 209.82186 210.20816
 210.99847 212.17377 213.42107 215.20137 217.12667 219.16697 221.25927 223.33958
 225.39688 227.47818 229.57248 231.67578 233.80208 235.97138 238.22469 240.59199
 243.21029 245.45859 247.45789 249.22019 250.63449 251.75480 252.57410 252.88740
 252.92170 252.69300 252.05030 250.99560 249.59891 247.75721 245.66351 243.49381
 241.28211 239.08341 236.90071 234.73701 232.59432 230.45862 228.48192 226.63622
 224.91652 223.38582 222.01312 220.78243 219.66173 218.61903 217.72033 216.85863
 216.09793 215.27523 214.37054 213.73184 213.17914 212.95697 212.43953 213.75493
 215.36629 217.04852 218.21332 218.64095 219.72137 222.96991 228.19456 232.71353
 236.36072 240.10968 243.83820 247.36859 250.52861 253.18510 255.86331 258.88785
 261.72186 264.08859 266.22873 268.34326 270.43710 272.43491 274.08643 275.63086
 277.29413 279.03082 280.57727 281.94336 283.13037 284.18314 285.14651 286.02487
 286.81995 287.53439 288.16241 289.00565
 366.78100 356.33229 345.76158 334.62487 323.02516 311.21645 299.08374 286.88403
 274.59332 262.48761 250.49391 239.79220 229.91149 221.01278 213.19207 206.19136
 200.02265 194.95794 191.53723 189.57652 188.61081 188.67210 189.50439 190.80968
 192.53197 194.62426 196.88455 199.24084 201.68314 204.16043 206.24572 208.08501
 209.70830 210.85059 211.07688 211.30217 211.23646 210.93875 210.56904 210.19633
 209.81062 209.51791 209.32320 209.18449 209.10978 209.43807 209.82137 210.20766
 210.99795 212.17324 213.42053 215.20082 217.12611 219.16640 221.25869 223.33898
 225.39627 227.47756 229.57185 231.67514 233.80143 235.97072 238.22401 240.59130
 243.20960 245.45789 247.45718 249.21947 250.63376 251.75405 252.57334 252.88663
 252.92092 252.69221 252.04950 250.99479 249.59808 247.75637 245.66266 243.49295
 241.28124 239.08253 236.89982 234.73612 232.59341 230.45770 228.48099 226.63528
 224.91557 223.38486 222.01215 220.78144 219.66073 218.61802 217.71931 216.85760
 216.09689 215.27418 214.36947 213.73076 213.17805 212.98489 212.53436 213.87782
 215.42809 217.08766 218.31445 218.80038 219.89636 223.02299 228.16399 232.62704
 236.24141 239.98642 243.70721 247.20528 250.30835 252.94011 255.66142 258.75299
 261.55630 263.87759 266.01193 268.16367 270.29480 272.30518 273.95905 275.50040
 277.20312 278.94302 280.49020 281.85587 283.04254 284.09579 285.05997 285.93781
 286.73407 287.44781 288.07843 288.91922
 366.78100 356.33226 345.76153 334.62479 323.02506 311.21632 299.08359 286.88385
 274.59312 262.48738 250.49365 239.79191 229.91118 221.01244 213.19171 206.19097
 200.02224 194.95750 191.53677 189.57603 188.61030 188.67156 189.50383 190.80909
 192.53136 194.62362 196.88389 199.24015 201.68242 204.15968 206.24495 208.08421
 209.70748 210.84974 211.07601 211.30127 211.23554 210.93780 210.56807 210.19533
 209.80960 209.51686 209.32213 209.18339 209.10866 209.43692 209.82019 210.20645
 210.99672 212.17198 213.41925 215.19951 217.12478 219.16504 221.25731 223.33757
 225.39484 227.47610 229.57036 231.67363 233.79989 235.96916 238.22242 240.58969
 243.20795 245.45622 247.45548 249.21775 250.63201 251.75228 252.57154 252.88481
 252.91907 252.69034 252.04760 250.99287 249.59613 247.75440 245.66066 243.49093
 241.27919 239.08046 236.89772 234.73399 232.59125 230.45552 228.47878 226.63305
 224.91331 223.38258 222.00984 220.77911 219.65837 218.61564 217.71690 216.85517
 216.09443 215.27170 214.36696 213.72823 213.17549 213.01340 212.63460 213.99446
 215.48033 217.12425 218.41879 218.95763 220.08125 223.08150 228.13739 232.54518
 236.13271 239.87094 243.57425 247.03218 250.08128 252.69688 255.45866 258.60574
 261.38074 263.66321 265.79480 267.98114 270.15027 272.17651 273.83740 275.38275
 277.11206 278.85092 280.39685 281.76315 282.94989 284.00269 284.96771 285.84567
 286.64166 287.35623 287.98709 288.82843
 366.78100 356.33222 345.76145 334.62467 323.02490 311.21612 299.08335 286.88357
 274.59280 262.48702 250.49325 239.79147 229.91070 221.01192 213.19114 206.19037
 200.02159 194.95682 191.53604 189.57527 188.60949 188.67072 189.50294 190.80817
 192.53039 194.62262 196.88284 199.23907 201.68129 204.15851 206.24374 208.08296
 209.70619 210.84841 211.07464 211.29986 211.23409 210.93631 210.56654 210.19376
 209.80799 209.51521 209.32043 209.18166 209.10688 209.43511 209.81833 210.20456
 210.99478 212.17001 213.41723 215.19746 217.12268 219.16291 221.25513 223.33535
 225.39258 227.47380 229.56803 231.67125 233.79748 235.96670 238.21993 240.58715
 243.20538 245.45360 247.45283 249.21505 250.62927 251.74950 252.56872 252.88195
 252.91617 252.68740 252.04462 250.98985 249.59307 247.75130 245.65752 243.48775
 241.27597 239.07720 236.89442 234.73064 232.58787 230.45209 228.47532 226.62954
 224.90977 223.37899 222.00622 220.77544 219.65467 218.61189 217.71312 216.85134
 216.09056 215.26779 214.36301 213.72424 213.17146 213.04227 212.73953 214.10414
 215.52333 217.16336 218.53052 219.10873 220.27162 223.14549 228.11446 232.46725
 236.03038 239.76376 243.44379 246.85364 249.84853 252.45392 255.25462 258.44629
 261.19647 263.44809 265.58151 267.80212 270.00702 272.04987 273.72409 275.27948
 277.01688 278.75345 280.29919 281.66531 282.85172 283.90506 284.87064 285.74908
 286.54538 287.26059 287.88989 288.73511
 366.78100 356.33216 345.76131 334.62447 323.02462 311.21578 299.08293 286.88309
 274.59225 262.48640 250.49256 239.79071 229.90987 221.01103 213.19018 206.18934
 200.02049 194.95565 191.53480 189.57396 188.60812 188.66927 189.50143 190.80658
 192.52874 194.62090 196.88105 199.23721 201.67936 204.15652 206.24167 208.08083
 209.70399 210.84614 211.07230 211.29745 211.23161 210.93377 210.56392 210.19108
 209.80523 209.51239 209.31754 209.17870 209.10386 209.43201 209.81517 210.20132
 210.99148 212.16663 213.41379 215.19395 217.11910 219.15926 221.25141 223.33157
 225.38873 227.46988 229.56404 231.66719 233.79335 235.96250 238.21566 240.58282
 243.20097 245.44913 247.44828 249.21044 250.62460 251.74475 252.56391 252.87706
 252.91122 252.68237 252.03953 250.98469 249.58784 247.74600 245.65215 243.48231
 241.27047 239.07162 236.88878 234.72493 232.58209 230.44624 228.46940 226.62356
 224.90371 223.37287 222.00002 220.76918 219.64833 218.60549 217.70665 216.84480
 216.08396 215.26111 214.35627 213.71743 213.16458 213.07047 212.84906 214.20709
 215.55695 217.20654 218.64890 219.25546 220.46320 223.21599 228.09122 232.39867
 235.93410 239.66437 243.31599 246.66893 249.60858 252.21063 255.04854 258.27496
 261.00470 263.23227 265.37305 267.62653 269.86719 271.92880 273.62234 275.19318
 276.91788 278.65280 280.19901 281.56485 282.75183 283.80661 284.77200 285.65009
 286.44724 287.16296 287.79492 288.63821
 366.78100 356.33209 345.76118 334.62428 323.02437 311.21546 299.08255 286.88265
 274.59174 262.48583 250.49192 239.79002 229.90911 221.01020 213.18929 206.18839
 200.01948 194.95457 191.53366 189.57276 188.60685 188.66794 189.50003 190.80513
 192.52722 194.61931 196.87940 199.23550 201.67759 204.15468 206.23977 208.07887
 209.70196 210.84405 211.07014 211.29524 211.22933 210.93142 210.56151 210.18861
 209.80270 209.50979 209.31488 209.17598 209.10107 209.42916 209.81225 210.19835
 210.98844 212.16353 213.41062 215.19072 217.11581 219.15590 221.24799 223.32809
 225.38518 227.46627 229.56036 231.66346 233.78955 235.95864 238.21173 240.57883
 243.19692 245.44501 247.44410 249.20620 250.62029 251.74038 252.55947 252.87257
 252.90666 252.67775 252.03484 250.97994 249.58303 247.74112 245.64721 243.47731
 241.26540 239.06649 236.88358 234.71968 232.57677 230.44086 228.46395 226.61805
 224.89814 223.36723 221.99432 220.76342 219.64251 218.59960 217.70069 216.83879
 216.07788 215.25497 214.35006 213.71116 213.15825 213.09962 212.96111 214.30623
 215.58446 217.24925 218.77646 219.40308 220.66092 223.28268 228.07091 232.33330
 235.83850 239.56769 243.19159 246.48199 249.36707 251.96820 254.84001 258.08981
 260.80017 263.01242 265.17047 267.46005 269.73590 271.81918 273.53632 275.12732
 276.81616 278.55035 280.09634 281.46170 282.64987 283.70407 284.67093 285.54959
 286.34619 287.06406 287.69794 288.54099
 366.78100 356.33217 345.76134 334.62450 323.02467 311.21584 299.08301 286.88318
 274.59235 262.48651 250.49268 239.79085 229.91002 221.01119 213.19035 206.18952
 200.02069 194.95586 191.53503 189.57420 188.60836 188.66953 189.50170 190.80687
 192.52904 194.62120 196.88137 199.23754 201.67971 204.15688 206.24205 208.08121
 209.70438 210.84655 211.07272 211.29789 211.23205 210.93422 210.56439 210.19156
 209.80573 209.51290 209.31806 209.17923 209.10440 209.43257 209.81574 210.20190
 210.99207 212.16724 213.41441 215.19458 217.11974 219.15991 221.25208 223.33225
 225.38942 227.47059 229.56475 231.66792 233.79409 235.96326 238.21643 240.58359
 243.20176 245.44993 247.44910 249.21127 250.62544 251.74560 252.56477 252.87794
 252.91211 252.68328 252.04044 250.98561 249.58878 247.74695 245.65312 243.48329
 241.27145 239.07262 236.88979 234.72596 232.58313 230.44729 228.47046 226.62463
 224.90480 223.37397 222.00114 220.77030 219.64947 218.60664 217.70781 216.84598
 216.08514 215.26231 214.35748 213.71865 213.16582 213.13596 213.06538 214.40970
 215.60962 217.29048 218.89929 219.55440 220.84819 223.36569 228.04507 232.27367
 235.75778 239.48491 243.07315 246.29004 249.11461 251.71619 254.62138 257.88736
 260.58310 262.79718 264.98480 267.30902 269.61652 271.72141 273.46310 275.06955
 276.71985 278.44879 279.99374 281.36032 282.54816 283.60236 284.56848 285.45071
 286.24817 286.96582 287.59668 288.44846
 366.78100 356.33237 345.76175 334.62512 323.02550 311.21687 299.08425 286.88462
 274.59400 262.48837 250.49474 239.79312 229.91249 221.01387 213.19324 206.19262
 200.02399 194.95937 191.53874 189.57811 188.61249 188.67386 189.50624 190.81161
 192.53399 194.62636 196.88674 199.24311 201.68549 204.16286 206.24823 208.08761
 209.71098 210.85336 211.07973 211.30511 211.23948 210.94186 210.57223 210.19960
 209.81398 209.52135 209.32673 209.18810 209.11348 209.44185 209.82523 210.21160
 211.00197 212.17735 213.42472 215.20510 217.13047 219.17085 221.26322 223.34360
 225.40097 227.48234 229.57672 231.68009 233.80647 235.97584 238.22922 240.59659
 243.21497 245.46334 247.46272 249.22509 250.63946 251.75984 252.57921 252.89259
 252.92696 252.69834 252.05571 251.00109 249.60446 247.76283 245.66921 243.49958
 241.28796 239.08933 236.90671 234.74308 232.60046 230.46483 228.48820 226.64258
 224.92295 223.39233 222.01970 220.78908 219.66845 218.62583 217.72720 216.86557
 216.10495 215.28232 214.37770 213.73907 213.18645 213.17880 213.16075 214.52107
 215.64081 217.30455 219.03015 219.70119 221.07777 223.43102 228.02875 232.22662
 235.68330 239.39928 242.94225 246.07927 248.84555 251.45503 254.39809 257.67834
 260.37115 262.60101 264.81860 267.17230 269.50671 271.63245 273.39920 275.01672
 276.63028 278.34924 279.89261 281.25958 282.44611 283.50311 284.46790 285.34961
 286.14902 286.86685 287.50070 288.34879
 366.78100 356.33236 345.76172 334.62508 323.02543 311.21679 299.08415 286.88451
 274.59387 262.48823 250.49459 239.79294 229.91230 221.01366 213.19302 206.19238
 200.02374 194.95910 191.53845 189.57781 188.61217 188.67353 189.50589 190.81125
 192.53361 194.62597 196.88632 199.24268 201.68504 204.16240 206.24776 208.08712
 209.71048 210.85283 211.07919 211.30455 211.23891 210.94127 210.57163 210.19899
 209.81334 209.52070 209.32606 209.18742 209.11278 209.44114 209.82450 210.21085
 211.00121 212.17657 213.42393 215.20429 217.12965 219.17001 221.26236 223.34272
 225.40008 227.48144 229.57580 231.67916 233.80552 235.97487 238.22823 240.59559
 243.21395 245.46231 247.46167 249.22403 250.63838 251.75874 252.57810 252.89146
 252.92582 252.69718 252.05454 250.99990 249.60325 247.76161 245.66797 243.49833
 241.28669 239.08805 236.90541 234.74176 232.59912 230.46348 228.48684 226.64120
 224.92156 223.39092 222.01827 220.78763 219.66699 218.62435 217.72571 216.86407
 216.10343 215.28078 214.37614 213.73750 213.18486 213.21004 213.26950 214.61240
 215.71748 217.29550 219.05415 219.92767 221.29045 223.61409 228.01431 232.14091
 235.58826 239.30147 242.80081 245.86063 248.57100 251.19283 254.17450 257.46826
 260.16632 262.41595 264.66418 267.04486 269.40372 271.54926 273.33936 274.96255
 276.54675 278.25449 279.79666 281.16299 282.35129 283.40561 284.37463 285.25378
 286.05560 286.77191 287.40726 288.25900
 366.78100 356.33224 345.76148 334.62472 323.02495 311.21619 299.08343 286.88367
 274.59291 262.48715 250.49339 239.79163 229.91086 221.01210 213.19134 206.19058
 200.02182 194.95706 191.53630 189.57553 188.60977 188.67101 189.50325 190.80849
 192.53073 194.62297 196.88321 199.23944 201.68168 204.15892 206.24416 208.08340
 209.70664 210.84888 211.07511 211.30035 211.23459 210.93683 210.56707 210.19431
 209.80855 209.51579 209.32102 209.18226 209.10750 209.43574 209.81898 210.20522
 210.99546 212.17069 213.41793 215.19817 217.12341 219.16365 221.25589 223.33613
 225.39337 227.47460 229.56884 231.67208 233.79832 235.96756 238.22080 240.58804
 243.20627 245.45451 247.45375 249.21599 250.63023 251.75047 252.56971 252.88295
 252.91718 252.68842 252.04566 250.99090 249.59414 247.75238 245.65862 243.48885
 241.27709 239.07833 236.89557 234.73181 232.58905 230.45329 228.47653 226.63076
 224.91100 223.38024 222.00748 220.77672 219.65596 218.61320 217.71443 216.85267
 216.09191 215.26915 214.36439 213.72563 213.17287 213.23634 213.38631 214.69229
 215.77681 217.32948 219.10898 220.14291 221.44600 223.76988 227.98808 232.04927
 235.49944 239.21391 242.66461 245.63937 248.29086 250.92847 253.95270 257.25995
 259.96802 262.24091 264.52148 266.93051 269.31152 271.47766 273.29440 274.92691
 276.47421 278.16125 279.70001 281.06595 282.25296 283.30951 284.27814 285.15958
 285.95831 286.67874 287.31549 288.16464
 366.78100 356.33220 345.76141 334.62461 323.02482 311.21602 299.08323 286.88343
 274.59264 262.48684 250.49305 239.79125 229.91046 221.01166 213.19087 206.19007
 200.02128 194.95648 191.53569 189.57489 188.60910 188.67030 189.50251 190.80771
 192.52992 194.62212 196.88233 199.23853 201.68074 204.15794 206.24315 208.08235
 209.70556 210.84776 211.07397 211.29917 211.23338 210.93558 210.56579 210.19299
 209.80720 209.51440 209.31961 209.18081 209.10602 209.43422 209.81743 210.20363
 210.99384 212.16904 213.41625 215.19645 217.12166 219.16186 221.25407 223.33427
 225.39148 227.47268 229.56689 231.67009 233.79630 235.96550 238.21871 240.58591
 243.20412 245.45232 247.45153 249.21373 250.62794 251.74814 252.56735 252.88055
 252.91476 252.68596 252.04317 250.98837 249.59158 247.74978 245.65599 243.48619
 241.27440 239.07560 236.89281 234.72901 232.58622 230.45042 228.47363 226.62783
 224.90804 223.37724 222.00445 220.77365 219.65286 218.61006 217.71126 216.84947
 216.08867 215.26588 214.36108 213.72229 213.16949 213.26575 213.49318 214.78174
 215.83337 217.37390 219.19403 220.34949 221.59277 223.90041 227.95438 231.97076
 235.42300 239.12846 242.51501 245.39627 247.99698 250.66158 253.73450 257.05505
 259.77795 262.08087 264.39691 266.82990 269.23029 271.41397 273.25504 274.89584
 276.40839 278.07913 279.61523 280.98102 282.16876 283.22461 284.19232 285.07440
 285.87555 286.59494 287.23233 288.08621
 366.78100 356.33213 345.76126 334.62439 323.02451 311.21564 299.08277 286.88290
 274.59203 262.48616 250.49228 239.79041 229.90954 221.01067 213.18980 206.18893
 200.02006 194.95518 191.53431 189.57344 188.60757 188.66870 189.50083 190.80596
 192.52808 194.62021 196.88034 199.23647 201.67860 204.15573 206.24085 208.07998
 209.70311 210.84524 211.07137 211.29650 211.23063 210.93275 210.56288 210.19001
 209.80414 209.51127 209.31640 209.17753 209.10265 209.43078 209.81391 210.20004
 210.99017 212.16530 213.41242 215.19255 217.11768 219.15781 221.24994 223.33007
 225.38720 227.46832 229.56245 231.66558 233.79171 235.96084 238.21397 240.58110
 243.19922 245.44735 247.44648 249.20861 250.62274 251.74287 252.56199 252.87512
 252.90925 252.68038 252.03751 250.98264 249.58577 247.74389 245.65002 243.48015
 241.26828 239.06941 236.88654 234.72267 232.57979 230.44392 228.46705 226.62118
 224.90131 223.37044 221.99756 220.76669 219.64582 218.60295 217.70408 216.84221
 216.08134 215.25846 214.35359 213.71472 213.16185 213.29149 213.59775 214.87987
 215.89117 217.43066 219.29007 220.54472 221.75627 224.00865 227.92436 231.90352
 235.34459 239.02281 242.33600 245.13217 247.69760 250.39722 253.52071 256.85211
 259.59619 261.93692 264.29050 266.74710 269.16275 271.36301 273.22714 274.88077
 276.37302 277.99802 279.52542 280.88983 282.07733 283.13394 284.10126 284.98416
 285.78448 286.50546 287.14221 287.99429
 366.78100 356.33188 345.76077 334.62365 323.02353 311.21441 299.08130 286.88118
 274.59006 262.48395 250.48983 239.78771 229.90659 221.00748 213.18636 206.18524
 200.01613 194.95101 191.52989 189.56877 188.60266 188.66354 189.49542 190.80031
 192.52219 194.61407 196.87395 199.22984 201.67172 204.14860 206.23348 208.07237
 209.69525 210.83713 211.06302 211.28790 211.22178 210.92366 210.55355 210.18043
 209.79431 209.50120 209.30608 209.16696 209.09184 209.41973 209.80261 210.18849
 210.97838 212.15326 213.40014 215.18002 217.10491 219.14479 221.23667 223.31656
 225.37344 227.45432 229.54820 231.65109 233.77697 235.94585 238.19874 240.56562
 243.18350 245.43138 247.43027 249.19215 250.60603 251.72592 252.54480 252.85768
 252.89156 252.66245 252.01933 250.96421 249.56710 247.72498 245.63086 243.46074
 241.24863 239.04951 236.86639 234.70228 232.55916 230.42304 228.44592 226.59981
 224.87969 223.34857 221.97545 220.74434 219.62322 218.58010 217.68099 216.81887
 216.05775 215.23463 214.32952 213.69040 213.13728 213.30714 213.70850 214.98073
 215.94814 217.50740 219.39719 220.72549 221.92883 224.10628 227.90665 231.83383
 235.25026 238.88794 242.12776 244.85408 247.39500 250.13248 253.30850 256.65271
 259.42300 261.80508 264.19669 266.67609 269.10422 271.31973 273.20526 274.87415
 276.37302 277.92160 279.44443 280.81232 282.00259 283.06165 284.03220 284.92166
 285.73404 286.46658 287.10806 287.96042
 366.78100 356.33146 345.75991 334.62237 323.02182 311.21228 299.07874 286.87819
 274.58665 262.48010 250.48556 239.78302 229.90147 221.00193 213.18038 206.17884
 200.00930 194.94375 191.52221 189.56066 188.59412 188.65458 189.48603 190.79049
 192.51195 194.60340 196.86286 199.21831 201.65977 204.13623 206.22068 208.05914
 209.68159 210.82305 211.04851 211.27296 211.20642 210.90787 210.53733 210.16379
 209.77724 209.48370 209.28815 209.14861 209.07307 209.40052 209.78298 210.16843
 210.95789 212.13235 213.37880 215.15826 217.08271 219.12217 221.21363 223.29308
 225.34954 227.42999 229.52345 231.62591 233.75136 235.91982 238.17227 240.53873
 243.15619 245.40364 247.40210 249.16356 250.57701 251.69647 252.51492 252.82738
 252.86084 252.63129 251.98775 250.93220 249.53466 247.69212 245.59757 243.42703
 241.21448 239.01494 236.83140 234.66685 232.52331 230.38676 228.40922 226.56268
 224.84213 223.31059 221.93704 220.70550 219.58396 218.54041 217.64087 216.77832
 216.01678 215.19324 214.28769 213.64815 213.09460 213.31157 213.82420 215.08150
 216.00981 217.59869 219.51622 220.89133 222.10371 224.20406 227.89944 231.75575
 235.14201 238.73015 241.89494 244.55904 247.08356 249.86552 253.09869 256.45935
 259.25858 261.68481 264.11823 266.62146 269.06140 271.28851 273.19199 274.86575
 276.34833 277.86169 279.38239 280.75137 281.94156 283.00046 283.97302 284.85941
 285.67288 286.40366 287.04681 287.89990
 366.78100 356.33085 345.75871 334.62056 323.01942 311.20927 299.07513 286.87398
 274.58184 262.47469 250.47955 239.77640 229.89425 220.99411 213.17196 206.16982
 199.99967 194.93353 191.51138 189.54924 188.58209 188.64195 189.47280 190.77665
 192.49751 194.58836 196.84722 199.20207 201.64293 204.11878 206.20264 208.04049
 209.66235 210.80320 211.02805 211.25191 211.18476 210.88562 210.51447 210.14033
 209.75318 209.45904 209.26289 209.12275 209.04660 209.37345 209.75531 210.14016
 210.92902 212.10287 213.34873 215.12758 217.05144 219.09029 221.18115 223.26000
 225.31585 227.39571 229.48856 231.59042 233.71527 235.88313 238.13498 240.50084
 243.11769 245.36455 247.36240 249.12325 250.53611 251.65496 252.47282 252.78467
 252.81753 252.58738 251.94324 250.88709 249.48895 247.64580 245.55065 243.37951
 241.16636 238.96622 236.78207 234.61693 232.47278 230.33564 228.35749 226.51035
 224.78920 223.25705 221.88291 220.65076 219.52862 218.48447 217.58433 216.72118
 215.95904 215.13489 214.22875 213.58860 213.03445 213.30466 213.94302 215.18280
 216.08205 217.69576 219.63866 221.04802 222.28159 224.30292 227.89760 231.67737
 235.02783 238.55505 241.63670 244.24254 246.76282 249.60147 252.89656 256.27756
 259.10663 261.57425 264.04553 266.57101 269.02164 271.25967 273.18201 274.87283
 276.35669 277.81888 279.33353 280.70285 281.89410 282.95383 283.92606 284.81647
 285.62936 286.36069 287.00406 287.85727
 366.78100 356.33014 345.75728 334.61842 323.01656 311.20570 299.07084 286.86899
 274.57613 262.46827 250.47241 239.76855 229.88569 220.98483 213.16197 206.15911
 199.98825 194.92139 191.49853 189.53567 188.56781 188.62696 189.45710 190.76024
 192.48038 194.57052 196.82866 199.18280 201.62294 204.09808 206.18122 208.01836
 209.63950 210.77964 211.00379 211.22693 211.15907 210.85921 210.48735 210.11249
 209.72463 209.42977 209.23291 209.09205 209.01519 209.34133 209.72247 210.10661
 210.89476 212.06790 213.31304 215.09118 217.01432 219.05246 221.14260 223.22074
 225.27588 227.35502 229.44716 231.54830 233.67244 235.83958 238.09073 240.45587
 243.07201 245.31815 247.31529 249.07543 250.48757 251.60571 252.42285 252.73399
 252.76613 252.53527 251.89041 250.83356 249.43470 247.59084 245.49498 243.32312
 241.10926 238.90840 236.72354 234.55768 232.41282 230.27496 228.29610 226.44824
 224.72638 223.19353 221.81867 220.58581 219.46295 218.41809 217.51723 216.65337
 215.89051 215.06565 214.15879 213.51793 212.96307 213.28987 214.06197 215.29056
 216.16830 217.79724 219.75290 221.19492 222.46243 224.40373 227.89877 231.60806
 234.90968 238.35620 241.34395 243.89661 246.43108 249.34044 252.70352 256.11136
 258.97253 261.48096 263.98447 266.52600 268.98038 271.22003 273.15125 274.85428
 276.35312 277.80313 279.31744 280.68704 281.87778 282.93845 283.91214 284.80222
 285.61847 286.35107 286.99472 287.84924
 366.78100 356.32928 345.75557 334.61585 323.01313 311.20142 299.06570 286.86299
 274.56927 262.46055 250.46384 239.75912 229.87540 220.97369 213.14997 206.14625
 199.97454 194.90682 191.48311 189.51939 188.55067 188.60896 189.43824 190.74052
 192.45981 194.54909 196.80637 199.15966 201.59894 204.07323 206.15551 207.99179
 209.61208 210.75136 210.97464 211.19693 211.12821 210.82750 210.45478 210.07906
 209.69035 209.39463 209.19691 209.05520 208.97748 209.30276 209.68305 210.06633
 210.85362 212.02590 213.27018 215.04747 216.96975 219.00703 221.09632 223.17360
 225.22788 227.30617 229.39745 231.49774 233.62102 235.78730 238.03759 240.40187
 243.01715 245.26244 247.25872 249.01800 250.42929 251.54657 252.36286 252.67314
 252.70442 252.47271 251.82699 250.76927 249.36956 247.52484 245.42812 243.25541
 241.04069 238.83898 236.65326 234.48654 232.34083 230.20211 228.22239 226.37368
 224.65096 223.11724 221.74153 220.50781 219.38410 218.33838 217.43666 216.57195
 215.80823 214.98251 214.07480 213.43308 212.87737 213.26570 214.18317 215.40654
 216.26241 217.90346 219.86070 221.33852 222.65245 224.52097 227.90970 231.56021
 234.79311 238.13051 241.00928 243.51779 246.08644 249.07812 252.51234 255.94940
 258.84698 261.39722 263.93692 266.49661 268.95056 271.18384 273.11554 274.81805
 276.27289 277.80063 279.32733 280.69702 281.88950 282.95053 283.92209 284.81403
 285.63110 286.36783 287.01215 287.86520
 366.78100 356.32810 345.75319 334.61229 323.00839 311.19549 299.05858 286.85468
 274.55978 262.44988 250.45197 239.74607 229.86117 220.95826 213.13336 206.12846
 199.95556 194.88665 191.46175 189.49685 188.52695 188.58404 189.41214 190.71324
 192.43133 194.51943 196.77553 199.12763 201.56572 204.03882 206.11992 207.95502
 209.57411 210.71221 210.93431 211.15540 211.08550 210.78360 210.40970 210.03279
 209.64289 209.34599 209.14709 209.00418 208.92528 209.24938 209.62847 210.01057
 210.79667 211.96777 213.21086 214.98696 216.90806 218.94416 221.03225 223.10835
 225.16145 227.23854 229.32864 231.42774 233.54984 235.71493 237.96403 240.32713
 242.94123 245.18532 247.18042 248.93852 250.34862 251.46471 252.27981 252.58891
 252.61900 252.38610 251.73920 250.68030 249.27939 247.43349 245.33559 243.16169
 240.94578 238.74288 236.55598 234.38807 232.24117 230.10127 228.12037 226.27046
 224.54656 223.01166 221.63476 220.39985 219.27495 218.22805 217.32514 216.45924
 215.69434 214.86744 213.95853 213.31563 212.75873 213.22038 214.31108 215.55017
 216.36974 217.99954 219.94482 221.45265 222.83258 224.66101 227.94086 231.53355
 234.68878 237.89772 240.66043 243.14243 245.76537 248.84077 252.34053 255.81860
 258.72513 261.32123 263.89154 266.46594 268.91736 271.14017 273.06686 274.77600
 276.27322 277.79330 279.31421 280.68381 281.87488 282.93475 283.90698 284.79929
 285.61685 286.35303 286.99866 287.84851
 366.78100 356.32856 345.75413 334.61369 323.01026 311.19782 299.06139 286.85795
 274.56352 262.45408 250.45665 239.75121 229.86677 220.96434 213.13990 206.13547
 199.96303 194.89460 191.47016 189.50573 188.53629 188.59385 189.42242 190.72398
 192.44255 194.53111 196.78768 199.14024 201.57881 204.05237 206.13394 207.96950
 209.58906 210.72763 210.95019 211.17176 211.10232 210.80089 210.42745 210.05102
 209.66158 209.36514 209.16671 209.02427 208.94584 209.27040 209.64997 210.03253
 210.81910 211.99066 213.23423 215.01079 216.93235 218.96892 221.05748 223.13405
 225.18761 227.26518 229.35574 231.45531 233.57787 235.74343 237.99300 240.35656
 242.97113 245.21569 247.21126 248.96982 250.38039 251.49695 252.31252 252.62208
 252.65264 252.42021 251.77377 250.71534 249.31490 247.46947 245.37203 243.19860
 240.98316 238.78072 236.59429 234.42685 232.28042 230.14098 228.16055 226.31111
 224.58768 223.05324 221.67681 220.44237 219.31793 218.27150 217.36906 216.50363
 215.73919 214.91276 214.00432 213.36189 212.80545 213.26300 214.34627 215.66487
 216.54797 218.13707 220.04059 221.53168 222.95102 224.73866 227.90166 231.48093
 234.54492 237.60095 240.22385 242.68135 245.37657 248.56990 252.17273 255.62242
 258.77808 261.38199 263.93365 266.50436 268.92285 271.10403 272.98950 274.64224
 276.10733 277.76721 279.30106 280.66553 281.85248 282.90588 283.87210 284.75656
 285.56561 286.29425 286.95871 287.80551
 366.78100 356.33022 345.75744 334.61866 323.01687 311.20609 299.07131 286.86953
 274.57675 262.46897 250.47319 239.76940 229.88662 220.98584 213.16306 206.16028
 199.98950 194.92272 191.49993 189.53715 188.56937 188.62859 189.45881 190.76203
 192.48225 194.57246 196.83068 199.18490 201.62512 204.10034 206.18356 208.02078
 209.64199 210.78221 211.00643 211.22965 211.16187 210.86209 210.49031 210.11552
 209.72774 209.43296 209.23618 209.09540 209.01862 209.34484 209.72605 210.11027
 210.89849 212.07171 213.31693 215.09515 217.01836 219.05658 221.14680 223.22502
 225.28024 227.35946 229.45168 231.55289 233.67711 235.84433 238.09555 240.46077
 243.07699 245.32321 247.32042 249.08064 250.49286 251.61108 252.42830 252.73952
 252.77174 252.54095 251.89617 250.83939 249.44061 247.59683 245.50105 243.32927
 241.11548 238.91470 236.72992 234.56414 232.41936 230.28158 228.30280 226.45501
 224.73323 223.20045 221.82567 220.59289 219.47011 218.42533 217.52454 216.66076
 215.89798 215.07320 214.16642 213.52564 212.97086 213.37724 214.36116 215.69795
 216.70676 218.25903 220.12508 221.62018 223.08867 224.83325 227.82970 231.45337
 234.38081 237.29340 239.79027 242.24553 245.03905 248.33211 251.98376 255.60245
 258.68536 261.41672 263.98599 266.52951 268.91061 271.04544 272.92700 274.53937
 276.11551 277.70029 279.20306 280.56866 281.75906 282.81845 283.79529 284.70786
 285.57123 286.34009 287.01175 287.86768
 366.78100 356.32890 345.75480 334.61470 323.01160 311.19950 299.06340 286.86030
 274.56620 262.45710 250.46001 239.75491 229.87081 220.96871 213.14461 206.14051
 199.96841 194.90031 191.47621 189.51211 188.54301 188.60091 189.42981 190.73171
 192.45061 194.53951 196.79641 199.14931 201.58821 204.06211 206.14402 207.97992
 209.59982 210.73872 210.96162 211.18352 211.11442 210.81332 210.44022 210.06412
 209.67502 209.37892 209.18082 209.03872 208.96062 209.28552 209.66542 210.04832
 210.83522 212.00712 213.25103 215.02793 216.94983 218.98673 221.07563 223.15253
 225.20643 227.28433 229.37523 231.47513 233.59803 235.76393 238.01383 240.37773
 242.99263 245.23753 247.23343 248.99233 250.40323 251.52013 252.33604 252.64594
 252.67684 252.44474 251.79864 250.74054 249.34044 247.49534 245.39824 243.22514
 241.01004 238.80794 236.62184 234.45474 232.30864 230.16954 228.18944 226.34034
 224.61724 223.08314 221.70705 220.47295 219.34885 218.30275 217.40065 216.53555
 215.77145 214.94535 214.03725 213.39515 212.83905 213.33644 214.52994 215.71953
 216.75050 218.35716 220.22174 221.74644 223.23938 225.03008 227.94566 231.45987
 234.23091 236.97203 239.37025 241.85036 244.72427 248.10216 251.90788 255.56145
 258.66302 261.37943 263.95770 266.50418 268.88748 271.01071 272.87875 274.53665
 276.10797 277.61539 279.14423 280.51602 281.71710 282.79907 283.81619 284.79257
 285.67075 286.45273 287.13586 288.00647
 366.78100 356.32622 345.74944 334.60666 323.00088 311.18610 299.04732 286.84154
 274.54476 262.43299 250.43321 239.72543 229.83865 220.93387 213.10709 206.10031
 199.92553 194.85475 191.42797 189.46119 188.48941 188.54463 189.37085 190.67007
 192.38629 194.47252 196.72674 199.07696 201.51318 203.98440 206.06362 207.89684
 209.51406 210.65028 210.87050 211.08972 211.01794 210.71416 210.33838 209.95960
 209.56782 209.26904 209.06827 208.92349 208.84271 209.16493 209.54215 209.92237
 210.70659 211.87581 213.11703 214.89125 216.81047 218.84469 220.93091 223.00513
 225.05635 227.13157 229.21979 231.31702 233.43724 235.60046 237.84768 240.20890
 242.82112 245.06334 247.05656 248.81278 250.22100 251.33522 252.14844 252.45566
 252.48388 252.24910 251.60032 250.53955 249.13677 247.28899 245.18921 243.01343
 240.79565 238.59087 236.40209 234.23231 232.08353 229.94175 227.95897 226.10719
 224.38141 222.84463 221.46585 220.22907 219.10230 218.05352 217.14874 216.28096
 215.51418 214.68540 213.77462 213.12984 212.57106 213.21655 214.73706 215.76765
 216.83974 218.46678 220.24954 221.82027 223.45409 225.26439 228.05453 231.50845
 234.12836 236.64548 238.89185 241.37830 244.35175 247.84402 251.78484 255.50946
 258.69312 261.39804 263.97052 266.50964 268.86716 270.93384 272.77960 274.45804
 276.01782 277.52451 279.05276 280.42181 281.62091 282.70099 283.71902 284.69217
 285.56738 286.34680 287.02765 287.89536
 366.78100 356.32680 345.75060 334.60840 323.00321 311.18901 299.05081 286.84561
 274.54941 262.43821 250.43902 239.73182 229.84562 220.94142 213.11522 206.10902
 199.93483 194.86463 191.43843 189.47223 188.50103 188.55683 189.38364 190.68344
 192.40024 194.48704 196.74184 199.09264 201.52945 204.00125 206.08105 207.91485
 209.53265 210.66945 210.89026 211.11006 211.03886 210.73566 210.36046 209.98226
 209.59107 209.29287 209.09267 208.94847 208.86827 209.19107 209.56888 209.94968
 210.73448 211.90428 213.14608 214.92088 216.84069 218.87549 220.96229 223.03709
 225.08889 227.16469 229.25350 231.35130 233.47210 235.63590 237.88370 240.24550
 242.85831 245.10111 247.09491 248.85171 250.26051 251.37531 252.18912 252.49692
 252.52572 252.29152 251.64332 250.58312 249.18093 247.33373 245.23453 243.05933
 240.84213 238.63793 236.44974 234.28054 232.13234 229.99114 228.00894 226.15774
 224.43255 222.89635 221.51815 220.28195 219.15575 218.10755 217.20336 216.33616
 215.56996 214.74176 213.83156 213.18736 212.62917 213.26718 214.78186 215.93977
 216.96593 218.52684 220.43889 222.13098 223.73019 225.52472 228.27498 231.48125
 233.91383 236.27649 238.47812 240.98575 244.03864 247.68649 251.65218 255.41515
 258.58374 261.44461 264.02460 266.53275 268.86258 270.91647 272.75974 274.38864
 275.95416 277.52414 279.08054 280.48972 281.77899 283.00494 284.12341 285.13666
 286.04797 286.85950 287.56842 288.47189
 366.78100 356.32798 345.75296 334.61194 323.00792 311.19491 299.05789 286.85387
 274.55885 262.44883 250.45081 239.74479 229.85977 220.95675 213.13173 206.12672
 199.95370 194.88468 191.45966 189.49464 188.52462 188.58160 189.40958 190.71056
 192.42854 194.51653 196.77251 199.12449 201.56247 204.03545 206.11643 207.95141
 209.57039 210.70837 210.93035 211.15134 211.08132 210.77930 210.40528 210.02826
 209.63824 209.34122 209.14220 208.99918 208.92016 209.24415 209.62313 210.00511
 210.79109 211.96207 213.20505 214.98103 216.90201 218.93799 221.02597 223.10196
 225.15494 227.23192 229.32190 231.42088 233.54286 235.70784 237.95682 240.31980
 242.93378 245.17777 247.17275 248.93073 250.34071 251.45669 252.27167 252.58065
 252.61063 252.37761 251.73059 250.67158 249.27056 247.42454 245.32652 243.15250
 240.93648 238.73346 236.54644 234.37842 232.23140 230.09139 228.11037 226.26035
 224.53633 223.00131 221.62429 220.38927 219.26425 218.21723 217.31421 216.44820
 215.68318 214.85616 213.94714 213.30412 212.74710 213.34157 214.80066 216.11441
 217.14848 218.78323 220.70586 222.33432 223.85643 225.59544 228.43620 231.36557
 233.74422 235.94771 238.04892 240.51889 243.68283 247.51953 251.54138 255.24631
 258.42865 261.42554 264.14401 266.68918 268.99789 271.04211 272.83643 274.44983
 276.09732 277.91049 279.60983 281.33832 282.83417 284.15762 285.36505 286.45892
 287.44275 288.31882 289.08417 290.05948
 366.78100 356.32773 345.75246 334.61120 323.00693 311.19366 299.05639 286.85212
 274.55686 262.44659 250.44832 239.74205 229.85679 220.95352 213.12825 206.12298
 199.94971 194.88045 191.45518 189.48991 188.51964 188.57637 189.40411 190.70484
 192.42257 194.51030 196.76604 199.11777 201.55550 204.02823 206.10896 207.94370
 209.56243 210.70016 210.92189 211.14262 211.07236 210.77009 210.39582 210.01855
 209.62829 209.33102 209.13175 208.98848 208.90921 209.23295 209.61168 209.99341
 210.77914 211.94987 213.19261 214.96834 216.88907 218.92480 221.01254 223.08827
 225.14100 227.21773 229.30746 231.40620 233.52793 235.69266 237.94139 240.30412
 242.91786 245.16159 247.15632 248.91405 250.32379 251.43952 252.25425 252.56298
 252.59271 252.35945 251.71218 250.65291 249.25164 247.40537 245.30711 243.13284
 240.91657 238.71330 236.52604 234.35777 232.21050 230.07023 228.08896 226.23870
 224.51443 222.97916 221.60189 220.36662 219.24136 218.19409 217.29082 216.42455
 215.65929 214.83202 213.92275 213.27948 212.72221 213.33168 214.84256 216.29173
 217.29179 218.93263 220.74023 222.30531 223.85527 225.73148 228.50351 231.37582
 233.66078 235.68671 237.60335 240.05605 243.36067 247.28842 251.35626 255.07370
 258.30130 261.36288 264.13504 266.75967 269.15692 271.23868 273.04700 274.60803
 276.33264 278.14777 279.79395 281.45093 282.93472 284.24750 285.44522 286.53024
 287.50613 288.37515 289.13431 290.10178
 366.78100 356.32570 345.74840 334.60510 322.99880 311.18351 299.04421 286.83791
 274.54061 262.42831 250.42801 239.71971 229.83241 220.92712 213.09982 206.09252
 199.91722 194.84592 191.41862 189.45132 188.47902 188.53373 189.35943 190.65813
 192.37383 194.45953 196.71323 199.06293 201.49863 203.96933 206.04804 207.88074
 209.49744 210.63314 210.85284 211.07154 210.99924 210.69494 210.31865 209.93935
 209.54705 209.24775 209.04645 208.90115 208.81985 209.14155 209.51825 209.89796
 210.68166 211.85036 213.09106 214.86476 216.78346 218.81716 220.90286 222.97657
 225.02727 227.10197 229.18967 231.28637 233.40607 235.56877 237.81547 240.17618
 242.78788 245.02958 247.02228 248.77798 250.18568 251.29938 252.11208 252.41878
 252.44649 252.21119 251.56189 250.50059 249.09729 247.24899 245.14869 242.97239
 240.75410 238.54880 236.35950 234.18920 232.03990 229.89760 227.91430 226.06200
 224.33570 222.79841 221.41911 220.18181 219.05451 218.00521 217.09991 216.23161
 215.46431 214.63502 213.72372 213.07842 212.51912 213.23395 214.95593 216.45143
 217.32852 218.92188 220.73108 222.31126 223.89520 225.82368 228.56917 231.34184
 233.51114 235.40773 237.20232 239.68811 243.11610 247.12219 251.19974 254.95479
 258.20587 261.26654 264.04544 266.68454 269.10507 271.22287 273.09280 274.78317
 276.37732 278.09241 279.66849 281.08160 282.35376 283.60721 284.75076 285.78677
 286.71854 287.54831 288.27313 289.19687
 366.78100 356.32539 345.74778 334.60417 322.99756 311.18195 299.04235 286.83574
 274.53813 262.42552 250.42491 239.71630 229.82869 220.92308 213.09547 206.08786
 199.91226 194.84065 191.41304 189.44543 188.47282 188.52721 189.35260 190.65099
 192.36638 194.45177 196.70517 199.05456 201.48995 203.96034 206.03873 207.87112
 209.48751 210.62290 210.84229 211.06068 210.98808 210.68347 210.30686 209.92725
 209.53464 209.23503 209.03342 208.88781 208.80620 209.12759 209.50399 209.88338
 210.66677 211.83516 213.07555 214.84894 216.76733 218.80072 220.88611 222.95950
 225.00989 227.08429 229.17168 231.26807 233.38746 235.54985 237.79624 240.15663
 242.76802 245.00941 247.00180 248.75720 250.16459 251.27798 252.09037 252.39676
 252.42415 252.18854 251.53893 250.47732 249.07371 247.22511 245.12450 242.94789
 240.72928 238.52367 236.33406 234.16345 232.01384 229.87123 227.88762 226.03502
 224.30841 222.77080 221.39119 220.15358 219.02597 217.97636 217.07075 216.20214
 215.43453 214.60493 213.69332 213.04771 212.48810 213.22748 215.00735 216.57651
 217.50185 219.01767 220.82616 222.47389 224.05887 225.92247 228.57057 231.28485
 233.29982 234.99744 236.70245 239.26735 242.83685 246.97542 251.11159 254.89757
 258.19907 261.26346 264.04044 266.69809 269.11401 271.21283 273.06174 274.75488
 276.34961 277.98795 279.55005 280.95081 282.20804 283.44086 284.58810 285.62747
 286.56223 287.39465 288.12186 289.04855
 366.78100 356.32531 345.74763 334.60394 322.99725 311.18157 299.04188 286.83519
 274.53751 262.42482 250.42413 239.71544 229.82776 220.92207 213.09438 206.08670
 199.91101 194.83932 191.41164 189.44395 188.47126 188.52558 189.35089 190.64920
 192.36452 194.44983 196.70314 199.05246 201.48777 203.95808 206.03639 207.86871
 209.48502 210.62033 210.83965 211.05796 210.98527 210.68059 210.30390 209.92421
 209.53153 209.23184 209.03015 208.88447 208.80278 209.12409 209.50041 209.87972
 210.66303 211.83134 213.07166 214.84497 216.76328 218.79660 220.88191 222.95522
 225.00554 227.07985 229.16716 231.26348 233.38279 235.54510 237.79142 240.15173
 242.76304 245.00436 246.99667 248.75198 250.15929 251.27261 252.08492 252.39123
 252.41855 252.18286 251.53317 250.47149 249.06780 247.21911 245.11843 242.94174
 240.72305 238.51737 236.32768 234.15699 232.00731 229.86462 227.88093 226.02825
 224.30156 222.76387 221.38418 220.14650 219.01881 217.96912 217.06344 216.19475
 215.42706 214.59738 213.68569 213.04000 212.48032 213.23161 215.04184 216.66267
 217.63753 219.18613 221.00446 222.63029 224.18741 226.00771 228.59402 231.25043
 233.08437 234.57300 236.19695 238.84888 242.57500 246.84277 251.00752 254.78842
 258.12711 261.21207 264.02853 266.73801 269.19711 271.32489 273.18762 274.85245
 276.41275 277.92105 279.46307 280.86020 282.12140 283.36438 284.52466 285.57578
 286.52112 287.36298 288.09839 289.03561
 366.78100 356.32205 345.74109 334.59414 322.98418 311.16523 299.02227 286.81232
 274.51136 262.39541 250.39145 239.67950 229.78855 220.87959 213.04864 206.03768
 199.85873 194.78377 191.35282 189.38186 188.40591 188.45696 189.27900 190.57405
 192.28609 194.36814 196.61818 198.96423 201.39627 203.86332 205.93836 207.76741
 209.38046 210.51250 210.72855 210.94359 210.86764 210.55968 210.17973 209.79677
 209.40082 209.09787 208.89291 208.74396 208.65900 208.97705 209.35009 209.72614
 210.50618 211.67123 212.90827 214.67832 216.59337 218.62341 220.70546 222.77550
 224.82255 226.89359 228.97764 231.07068 233.18673 235.34578 237.58882 239.94587
 242.55391 244.79196 246.78100 248.53305 249.93709 251.04714 251.85618 252.15923
 252.18328 251.94432 251.29137 250.22641 248.81946 246.96750 244.86355 242.68359
 240.46164 238.25268 236.05973 233.88578 231.73282 229.58687 227.59991 225.74396
 224.01400 222.47305 221.09009 219.84914 218.71819 217.66523 216.75628 215.88432
 215.11337 214.28041 213.36546 212.71650 212.15355 213.06050 215.21049 216.89613
 217.55223 219.08444 221.05234 222.69104 224.24323 226.08289 228.80316 231.28403
 233.10893 234.34549 235.76924 238.46410 242.34227 246.67584 250.81543 254.59116
 257.97174 261.06430 263.97882 266.71585 269.21716 271.41232 273.32217 275.02850
 276.59998 278.04785 279.39685 280.73737 281.93118 283.00995 284.02487 284.99768
 285.90988 286.72223 287.43185 288.33618
 366.78100 356.32123 345.73947 334.59170 322.98093 311.16117 299.01740 286.80663
 274.50487 262.38810 250.38333 239.67057 229.77880 220.86903 213.03727 206.02550
 199.84573 194.76997 191.33820 189.36643 188.38967 188.43990 189.26114 190.55537
 192.26660 194.34784 196.59707 198.94230 201.37354 203.83977 205.91400 207.74224
 209.35447 210.48570 210.70094 210.91517 210.83840 210.52964 210.14887 209.76510
 209.36834 209.06457 208.85880 208.70904 208.62327 208.94050 209.31274 209.68797
 210.46720 211.63144 212.86767 214.63690 216.55114 218.58037 220.66160 222.73084
 224.77707 226.84730 228.93054 231.02277 233.13801 235.29624 237.53847 239.89471
 242.50194 244.73917 246.72741 248.47864 249.88187 250.99111 251.79934 252.10157
 252.12481 251.88504 251.23127 250.16551 248.75774 246.90497 244.80021 242.61944
 240.39667 238.18691 235.99314 233.81837 231.66461 229.51784 227.53007 225.67331
 223.94254 222.40077 221.01701 219.77524 218.64347 217.58971 216.67994 215.80717
 215.03541 214.20164 213.28588 212.63611 212.07234 213.01398 215.23871 217.10767
 217.82832 219.28981 221.18243 222.75879 224.27274 226.15688 228.94780 231.19456
 232.85008 234.09494 235.56526 238.28981 242.27635 246.61205 250.74818 254.54939
 257.93948 261.00928 263.89877 266.62009 269.10248 271.27902 273.19727 274.94269
 276.58011 278.08298 279.45633 280.73428 281.91647 282.97388 283.95044 284.83795
 285.63101 286.33731 286.98138 287.82266
 366.78100 356.32064 345.73828 334.58992 322.97856 311.15820 299.01384 286.80248
 274.50012 262.38276 250.37740 239.66404 229.77168 220.86132 213.02896 206.01660
 199.83624 194.75987 191.32751 189.35515 188.37779 188.42743 189.24807 190.54171
 192.25235 194.33299 196.58163 198.92627 201.35691 203.82255 205.89619 207.72383
 209.33547 210.46611 210.68075 210.89439 210.81703 210.50767 210.12631 209.74195
 209.34459 209.04023 208.83387 208.68351 208.59715 208.91379 209.28543 209.66007
 210.43871 211.60235 212.83798 214.60662 216.52026 218.54890 220.62954 222.69818
 224.74382 226.81346 228.89610 230.98774 233.10238 235.26002 237.50166 239.85730
 242.46394 244.70058 246.68822 248.43886 249.84150 250.95014 251.75778 252.05942
 252.08206 251.84170 251.18734 250.12098 248.71262 246.85926 244.75390 242.57254
 240.34918 238.13882 235.94446 233.76910 231.61473 229.46737 227.47901 225.62165
 223.89029 222.34793 220.96357 219.72121 218.58885 217.53449 216.62413 215.75077
 214.97841 214.14405 213.22769 212.57733 212.01297 212.98822 215.29237 217.21700
 218.05898 219.45610 221.27083 222.80952 224.30048 226.15178 228.89906 231.06586
 232.54726 233.70503 235.22073 238.11209 242.20927 246.56960 250.74597 254.59821
 258.00674 261.05820 263.90610 266.58386 269.00787 271.12692 272.99551 274.73679
 276.42993 277.98911 279.39554 280.73694 281.92151 282.97803 283.95419 284.83731
 285.62177 286.31827 286.93359 287.76361
 366.78100 356.31880 345.73461 334.58441 322.97121 311.14901 299.00282 286.78962
 274.48542 262.36622 250.35903 239.64383 229.74963 220.83743 213.00324 205.98904
 199.80684 194.72864 191.29445 189.32025 188.34105 188.38885 189.20766 190.49946
 192.20826 194.28706 196.53387 198.87667 201.30547 203.76927 205.84108 207.66688
 209.27668 210.40548 210.61829 210.83009 210.75089 210.43969 210.05650 209.67030
 209.27110 208.96490 208.75671 208.60451 208.51631 208.83111 209.20092 209.57372
 210.35052 211.51232 212.74613 214.51293 216.42473 218.45153 220.53034 222.59714
 224.64094 226.70874 228.78955 230.87935 232.99215 235.14796 237.38776 239.74156
 242.34636 244.58117 246.56697 248.31577 249.71657 250.82338 251.62918 251.92898
 251.94978 251.70759 251.05139 249.98319 248.57299 246.71780 244.61060 242.42740
 240.20220 237.99001 235.79381 233.61661 231.46041 229.31122 227.32102 225.46182
 223.72862 222.18443 220.79823 219.55403 218.41983 217.36364 216.45144 215.57624
 214.80204 213.96585 213.04765 212.39545 211.82925 212.90042 215.43120 217.31660
 218.17865 219.57014 221.31778 222.86398 224.41170 226.23950 228.88359 231.02220
 232.32788 233.32289 234.88380 237.94925 242.12360 246.49637 250.70412 254.59970
 258.03622 261.09314 263.92584 266.58664 268.99802 271.10196 272.92703 274.63049
 276.33914 277.92316 279.36630 280.71964 281.90552 282.96530 283.94244 284.82523
 285.61304 286.31207 286.92786 287.76422
 366.78100 356.31759 345.73219 334.58078 322.96638 311.14297 298.99557 286.78116
 274.47576 262.35535 250.34695 239.63054 229.73514 220.82173 212.98633 205.97092
 199.78752 194.70811 191.27271 189.29730 188.31690 188.36349 189.18109 190.47168
 192.17928 194.25687 196.50247 198.84406 201.27165 203.73425 205.80484 207.62944
 209.23803 210.36563 210.57722 210.78782 210.70741 210.39501 210.01060 209.62320
 209.22279 208.91539 208.70598 208.55258 208.46317 208.77677 209.14536 209.51696
 210.29255 211.45315 212.68574 214.45134 216.36193 218.38752 220.46512 222.53071
 224.57331 226.63990 228.71950 230.80809 232.91969 235.07428 237.31288 239.66547
 242.26907 244.50266 246.48726 248.23485 249.63445 250.74004 251.54464 251.84323
 251.86283 251.61942 250.96202 249.89261 248.48121 246.62480 244.51640 242.33199
 240.10558 237.89218 235.69477 233.51637 231.35896 229.20856 227.21715 225.35675
 223.62234 222.07694 220.68953 219.44413 218.30872 217.25132 216.33791 215.46151
 214.68610 213.84870 212.92929 212.27589 211.70848 212.84476 215.52934 217.44357
 218.28961 219.70079 221.39095 222.90868 224.50099 226.29184 228.86682 230.96857
 232.09764 232.93378 234.57635 237.80074 242.01674 246.41179 250.63440 254.55486
 258.02036 261.10284 263.93658 266.59833 269.02109 271.14236 272.93564 274.58096
 276.26566 277.84540 279.30762 280.65945 281.84216 282.89209 283.84641 284.72864
 285.54825 286.25598 286.87598 287.72247
 366.78100 356.31752 345.73203 334.58055 322.96607 311.14258 298.99510 286.78062
 274.47514 262.35465 250.34617 239.62969 229.73420 220.82072 212.98524 205.96975
 199.78627 194.70679 191.27131 189.29582 188.31534 188.36186 189.17937 190.46989
 192.17741 194.25492 196.50044 198.84196 201.26948 203.73199 205.80251 207.62703
 209.23554 210.36306 210.57458 210.78509 210.70461 210.39213 210.00765 209.62016
 209.21968 208.91220 208.70271 208.54923 208.45975 208.77326 209.14178 209.51330
 210.28882 211.44933 212.68185 214.44737 216.35788 218.38340 220.46092 222.52643
 224.56895 226.63547 228.71499 230.80350 232.91502 235.06954 237.30805 239.66057
 242.26409 244.49760 246.48212 248.22964 249.62916 250.73467 251.53919 251.83771
 251.85722 251.61374 250.95626 249.88677 248.47529 246.61881 244.51033 242.32584
 240.09936 237.88588 235.68839 233.50991 231.35243 229.20194 227.21046 225.34998
 223.61549 222.07001 220.68253 219.43705 218.30156 217.24408 216.33060 215.45411
 214.67863 213.84115 212.92166 212.26818 211.70070 212.84862 215.56068 217.57419
 218.43462 219.83029 221.50200 222.98048 224.56041 226.30905 228.85030 230.85303
 231.81866 232.54794 234.31299 237.65358 241.90446 246.34401 250.58220 254.52342
 258.01691 261.12045 263.95056 266.60190 269.02237 271.15213 272.91309 274.50827
 276.17737 277.76385 279.27475 280.63391 281.81622 282.86551 283.82257 284.70233
 285.51956 286.23730 286.86032 287.70953
 366.78100 356.31769 345.73239 334.58108 322.96678 311.14347 298.99617 286.78186
 274.47655 262.35625 250.34794 239.63164 229.73633 220.82303 212.98772 205.97241
 199.78911 194.70980 191.27450 189.29919 188.31889 188.36558 189.18327 190.47397
 192.18166 194.25936 196.50505 198.84675 201.27444 203.73713 205.80783 207.63252
 209.24122 210.36891 210.58061 210.79130 210.71099 210.39869 210.01438 209.62708
 209.22677 208.91947 208.71016 208.55685 208.46755 208.78124 209.14994 209.52163
 210.29733 211.45802 212.69071 214.45641 216.36710 218.39280 220.47049 222.53619
 224.57888 226.64557 228.72527 230.81396 232.92566 235.08035 237.31905 239.67174
 242.27543 244.50913 246.49382 248.24152 249.64121 250.74691 251.55160 251.85029
 251.86999 251.62668 250.96938 249.90007 248.48877 246.63246 244.52416 242.33985
 240.11354 237.90024 235.70293 233.52463 231.36732 229.21702 227.22571 225.36540
 223.63110 222.08579 220.69849 219.45318 218.31788 217.26057 216.34726 215.47096
 214.69565 213.85835 212.93904 212.28574 211.71843 212.86716 215.58115 217.68643
 218.60501 219.94910 221.58401 223.03529 224.67409 226.40288 228.86433 230.65329
 231.47391 232.15927 233.99669 237.48819 241.83463 246.30905 250.56050 254.51569
 258.03040 261.14359 263.96106 266.58459 268.98764 271.11261 272.84604 274.42358
 276.09674 277.74219 279.27368 280.63843 281.82248 282.87366 283.83151 284.71390
 285.52899 286.25595 286.88025 287.73788
 366.78100 356.31775 345.73249 334.58124 322.96699 311.14373 298.99648 286.78223
 274.47697 262.35672 250.34846 239.63221 229.73696 220.82370 212.98845 205.97320
 199.78994 194.71069 191.27544 189.30018 188.31993 188.36668 189.18442 190.47517
 192.18292 194.26066 196.50641 198.84815 201.27590 203.73865 205.80939 207.63414
 209.24289 210.37063 210.58238 210.79313 210.71287 210.40062 210.01637 209.62911
 209.22886 208.92161 208.71235 208.55910 208.46985 208.78359 209.15234 209.52408
 210.29983 211.46058 212.69332 214.45907 216.36982 218.39556 220.47331 222.53906
 224.58180 226.64855 228.72830 230.81704 232.92879 235.08354 237.32228 239.67503
 242.27877 244.51252 246.49727 248.24501 249.64476 250.75051 251.55525 251.85400
 251.87375 251.63049 250.97324 249.90399 248.49273 246.63648 244.52823 242.34397
 240.11772 237.90446 235.70721 233.52896 231.37170 229.22145 227.23020 225.36994
 223.63569 222.09044 220.70318 219.45793 218.32268 217.26542 216.35217 215.47592
 214.70066 213.86341 212.94416 212.29090 211.72365 212.88145 215.61690 217.76598
 218.72884 220.17375 221.75455 223.12541 224.67789 226.39568 228.89673 230.59302
 231.07387 231.55858 233.72867 237.42160 241.81891 246.29570 250.54581 254.50330
 258.03180 261.15424 263.96390 266.55496 268.94189 271.07254 272.79471 274.36746
 276.02695 277.74969 279.28995 280.65280 281.83670 282.88885 283.84940 284.73236
 285.54706 286.28387 286.90884 287.77301
 366.78100 356.31779 345.73258 334.58137 322.96716 311.14395 298.99674 286.78253
 274.47732 262.35711 250.34890 239.63269 229.73748 220.82427 212.98906 205.97385
 199.79064 194.71143 191.27622 189.30101 188.32080 188.36759 189.18538 190.47617
 192.18396 194.26175 196.50754 198.84933 201.27711 203.73990 205.81069 207.63548
 209.24427 210.37206 210.58385 210.79464 210.71443 210.40222 210.01801 209.63080
 209.23059 208.92338 208.71417 208.56096 208.47175 208.78554 209.15433 209.52612
 210.30191 211.46270 212.69549 214.46128 216.37207 218.39786 220.47565 222.54144
 224.58423 226.65102 228.73081 230.81960 232.93139 235.08618 237.32497 239.67776
 242.28155 244.51534 246.50013 248.24792 249.64771 250.75350 251.55829 251.85708
 251.87687 251.63366 250.97645 249.90724 248.49603 246.63982 244.53161 242.34740
 240.12119 237.90798 235.71076 233.53255 231.37534 229.22513 227.23392 225.37371
 223.63950 222.09429 220.70708 219.46187 218.32666 217.26945 216.35624 215.48003
 214.70482 213.86761 212.94840 212.29519 211.72798 212.89459 215.65085 217.87943
 218.83855 220.31610 221.92612 223.29373 224.68846 226.33760 228.87733 230.52812
 230.72986 231.03084 233.51569 237.37645 241.79147 246.26663 250.51358 254.47479
 258.01859 261.15558 263.96542 266.53040 268.90997 271.05878 272.77438 274.33636
 276.00247 277.74167 279.29004 280.65485 281.84146 282.89587 283.85837 284.74310
 285.55579 286.29422 286.92642 287.79068
 366.78100 356.31770 345.73240 334.58110 322.96680 311.14350 298.99620 286.78190
 274.47659 262.35629 250.34799 239.63169 229.73639 220.82309 212.98779 205.97249
 199.78919 194.70989 191.27459 189.29929 188.31899 188.36569 189.18339 190.47408
 192.18178 194.25948 196.50518 198.84688 201.27458 203.73728 205.80798 207.63268
 209.24138 210.36908 210.58078 210.79148 210.71118 210.39888 210.01457 209.62727
 209.22697 208.91967 208.71037 208.55707 208.46777 208.78147 209.15017 209.52187
 210.29757 211.45827 212.69097 214.45667 216.36737 218.39306 220.47076 222.53646
 224.57916 226.64586 228.72556 230.81426 232.92596 235.08066 237.31936 239.67206
 242.27576 244.50946 246.49416 248.24186 249.64155 250.74725 251.55195 251.85065
 251.87035 251.62705 250.96975 249.90045 248.48915 246.63285 244.52455 242.34025
 240.11395 237.90065 235.70335 233.52504 231.36774 229.21744 227.22614 225.36584
 223.63154 222.08624 220.69894 219.45364 218.31834 217.26104 216.34774 215.47144
 214.69614 213.85884 212.93953 212.28623 211.71893 212.90094 215.69354 217.99252
 218.95645 220.41309 222.05833 223.48538 224.78795 226.31166 228.78799 230.35284
 230.41615 230.63771 233.32442 237.31274 241.74768 246.23061 250.47441 254.43765
 257.99640 261.15198 263.96936 266.51382 268.89221 271.06317 272.77359 274.32175
 275.98605 277.72888 279.28064 280.64703 281.83661 282.89154 283.85754 284.74197
 285.55536 286.29303 286.93329 287.80466
 366.78100 356.31754 345.73208 334.58063 322.96617 311.14271 298.99525 286.78079
 274.47533 262.35488 250.34642 239.62996 229.73450 220.82104 212.98559 205.97013
 199.78667 194.70721 191.27175 189.29630 188.31584 188.36238 189.17992 190.47046
 192.17800 194.25555 196.50109 198.84263 201.27017 203.73271 205.80326 207.62780
 209.23634 210.36388 210.57542 210.78597 210.70551 210.39305 210.00859 209.62113
 209.22067 208.91322 208.70376 208.55030 208.46084 208.77438 209.14293 209.51447
 210.29001 211.45055 212.68309 214.44863 216.35918 218.38472 220.46226 222.52780
 224.57034 226.63689 228.71643 230.80497 232.91651 235.07105 237.30960 239.66214
 242.26568 244.49922 246.48376 248.23130 249.63085 250.73639 251.54093 251.83947
 251.85901 251.61556 250.95810 249.88864 248.47718 246.62072 244.51227 242.32781
 240.10135 237.88789 235.69043 233.51197 231.35452 229.20406 227.21260 225.35214
 223.61768 222.07223 220.68477 219.43931 218.30385 217.24639 216.33293 215.45648
 214.68102 213.84356 212.92410 212.27064 211.70319 212.90581 215.74713 218.07860
 219.08815 220.51630 222.14723 223.64996 224.93648 226.33322 228.67221 230.09218
 230.10229 230.34320 233.14052 237.23300 241.70537 246.19766 250.43452 254.39642
 257.96866 261.14365 263.97217 266.49908 268.87869 271.06927 272.77435 274.30017
 275.97989 277.72818 279.28342 280.65329 281.84357 282.90158 283.87198 284.76047
 285.57730 286.31937 286.97366 287.87320
 366.78100 356.31753 345.73206 334.58060 322.96613 311.14266 298.99519 286.78072
 274.47526 262.35479 250.34632 239.62985 229.73438 220.82092 212.98545 205.96998
 199.78651 194.70704 191.27157 189.29611 188.31564 188.36217 189.17970 190.47023
 192.17777 194.25530 196.50083 198.84236 201.26989 203.73243 205.80296 207.62749
 209.23602 210.36355 210.57509 210.78562 210.70515 210.39268 210.00821 209.62075
 209.22028 208.91281 208.70334 208.54987 208.46041 208.77394 209.14247 209.51400
 210.28953 211.45007 212.68260 214.44813 216.35866 218.38419 220.46172 222.52726
 224.56979 226.63632 228.71585 230.80438 232.91592 235.07045 237.30898 239.66151
 242.26504 244.49858 246.48311 248.23064 249.63017 250.73570 251.54024 251.83877
 251.85830 251.61483 250.95736 249.88790 248.47643 246.61996 244.51149 242.32702
 240.10056 237.88709 235.68962 233.51115 231.35368 229.20322 227.21175 225.35128
 223.61681 222.07134 220.68387 219.43841 218.30294 217.24547 216.33200 215.45553
 214.68007 213.84260 212.92313 212.26966 211.70219 212.92039 215.79851 218.15036
 219.21321 220.64160 222.23134 223.77634 225.07719 226.38113 228.56390 229.80997
 229.78357 230.09244 232.96162 237.15146 241.67174 246.16655 250.39537 254.35680
 257.94131 261.13446 263.97372 266.48401 268.86270 271.06308 272.75690 274.28595
 275.97757 277.73059 279.28754 280.65802 281.85025 282.91113 283.88214 284.77295
 285.58838 286.33069 286.98672 287.89618
 366.78100 356.31772 345.73245 334.58117 322.96689 311.14361 298.99634 286.78206
 274.47678 262.35651 250.34823 239.63195 229.73667 220.82340 212.98812 205.97284
 199.78957 194.71029 191.27501 189.29973 188.31946 188.36618 189.18390 190.47463
 192.18235 194.26007 196.50579 198.84752 201.27524 203.73796 205.80868 207.63341
 209.24213 210.36985 210.58158 210.79230 210.71202 210.39974 210.01547 209.62819
 209.22791 208.92064 208.71136 208.55808 208.46880 208.78253 209.15125 209.52297
 210.29870 211.45942 212.69214 214.45786 216.36859 218.39431 220.47203 222.53776
 224.58048 226.64720 228.72692 230.81565 232.92737 235.08209 237.32082 239.67354
 242.27726 244.51098 246.49571 248.24343 249.64315 250.74888 251.55360 251.85232
 251.87204 251.62877 250.97149 249.90221 248.49094 246.63466 244.52638 242.34210
 240.11583 237.90255 235.70527 233.52699 231.36972 229.21944 227.22816 225.36789
 223.63361 222.08833 220.70105 219.45578 218.32050 217.26322 216.34995 215.47367
 214.69839 213.86111 212.94184 212.28856 211.72128 212.94733 215.84401 218.22067
 219.32155 220.77151 222.33684 223.88033 225.19069 226.43483 228.46843 229.54068
 229.46606 229.85817 232.79335 237.07495 241.64337 246.13171 250.35271 254.31468
 257.91190 261.12241 263.97253 266.46994 268.84940 271.06012 272.75110 274.25766
 275.97751 277.73453 279.29239 280.66394 281.85510 282.91635 283.88770 284.77753
 285.59280 286.33237 286.98611 287.89993
 366.78100 356.31799 345.73298 334.58197 322.96796 311.14494 298.99793 286.78392
 274.47891 262.35890 250.35089 239.63488 229.73987 220.82685 212.99184 205.97683
 199.79382 194.71481 191.27980 189.30479 188.32478 188.37176 189.18975 190.48074
 192.18873 194.26672 196.51271 198.85470 201.28269 203.74567 205.81666 207.64165
 209.25064 210.37863 210.59062 210.80161 210.72160 210.40959 210.02557 209.63856
 209.23855 208.93154 208.72253 208.56952 208.48051 208.79450 209.16348 209.53547
 210.31146 211.47245 212.70544 214.47143 216.38242 218.40841 220.48639 222.55238
 224.59537 226.66236 228.74235 230.83134 232.94333 235.09832 237.33730 239.69029
 242.29428 244.52827 246.51326 248.26125 249.66124 250.76723 251.57222 251.87120
 251.89119 251.64818 250.99117 249.92216 248.51115 246.65514 244.54713 242.36311
 240.13710 237.92409 235.72708 233.54907 231.39206 229.24205 227.25104 225.39102
 223.65701 222.11200 220.72499 219.47998 218.34497 217.28796 216.37495 215.49894
 214.72392 213.88691 212.96790 212.31489 211.74788 212.97960 215.88968 218.28610
 219.42105 220.89275 222.46077 223.97687 225.28117 226.47993 228.37906 229.28415
 229.15355 229.64140 232.64441 237.00790 241.61403 246.09442 250.30975 254.27074
 257.87814 261.10614 263.96750 266.45557 268.83490 271.04715 272.74194 274.29810
 275.96686 277.72021 279.28076 280.65347 281.84628 282.90851 283.88147 284.76996
 285.58359 286.32278 286.97324 287.89062
 366.78100 356.31828 345.73355 334.58283 322.96910 311.14638 298.99965 286.78593
 274.48120 262.36148 250.35375 239.63803 229.74330 220.83058 212.99585 205.98113
 199.79840 194.71968 191.28495 189.31023 188.33050 188.37778 189.19605 190.48733
 192.19560 194.27388 196.52015 198.86243 201.29070 203.75398 205.82525 207.65053
 209.25980 210.38808 210.60035 210.81163 210.73190 210.42018 210.03645 209.64973
 209.25000 208.94328 208.73455 208.58183 208.49310 208.80738 209.17665 209.54893
 210.32520 211.48648 212.71975 214.48603 216.39730 218.42358 220.50185 222.56813
 224.61140 226.67868 228.75895 230.84823 232.96050 235.11578 237.35505 239.70833
 242.31260 244.54688 246.53215 248.28043 249.68070 250.78698 251.59225 251.89153
 251.91180 251.66908 251.01235 249.94363 248.53290 246.67718 244.56945 242.38573
 240.16000 237.94728 235.75055 233.57283 231.41610 229.26638 227.27565 225.41593
 223.68220 222.13748 220.75075 219.50603 218.37130 217.31458 216.40185 215.52613
 214.75140 213.91468 212.99595 212.34323 211.77650 213.01381 215.93709 218.34589
 219.51691 221.01048 222.59332 224.07367 225.35973 226.51277 228.29399 229.03223
 228.84810 229.45050 232.51547 236.94272 241.57849 246.05653 250.26840 254.22562
 257.83942 261.08551 263.96191 266.44907 268.83054 271.04550 272.74121 274.30405
 275.96066 277.71536 279.27670 280.64902 281.84253 282.90393 283.87598 284.76505
 285.57919 286.31714 286.96866 287.89435
 366.78100 356.31859 345.73418 334.58377 322.97036 311.14795 299.00154 286.78813
 274.48372 262.36431 250.35690 239.64149 229.74709 220.83468 213.00027 205.98586
 199.80345 194.72504 191.29063 189.31622 188.33681 188.38440 189.20299 190.49458
 192.20317 194.28176 196.52835 198.87094 201.29953 203.76312 205.83471 207.66030
 209.26989 210.39848 210.61108 210.82267 210.74326 210.43185 210.04844 209.66203
 209.26262 208.95621 208.74780 208.59539 208.50698 208.82157 209.19116 209.56375
 210.34034 211.50193 212.73552 214.50211 216.41370 218.44029 220.51888 222.58547
 224.62906 226.69666 228.77725 230.86684 232.97943 235.13502 237.37461 239.72820
 242.33279 244.56738 246.55297 248.30156 249.70215 250.80874 251.61433 251.91392
 251.93451 251.69210 251.03569 249.96728 248.55687 246.70146 244.59405 242.41065
 240.18524 237.97283 235.77642 233.59901 231.44260 229.29319 227.30278 225.44337
 223.70996 222.16555 220.77914 219.53473 218.40032 217.34391 216.43150 215.55609
 214.78168 213.94527 213.02686 212.37445 211.80804 213.04988 215.98387 218.39890
 219.60811 221.12975 222.72577 224.17421 225.43004 226.53580 228.21280 228.77650
 228.55202 229.28848 232.40332 236.87564 241.53766 246.01884 250.23036 254.18227
 257.79843 261.06015 263.95413 266.44806 268.83185 271.04568 272.74316 274.29834
 275.96655 277.72061 279.28064 280.65417 281.84738 282.90894 283.88098 284.77161
 285.58524 286.32318 286.97833 287.90311
 366.78100 356.31896 345.73492 334.58489 322.97185 311.14981 299.00377 286.79073
 274.48669 262.36766 250.36062 239.64558 229.75154 220.83950 213.00546 205.99143
 199.80939 194.73135 191.29731 189.32327 188.34423 188.39220 189.21116 190.50312
 192.21208 194.29104 196.53800 198.88097 201.30993 203.77389 205.84585 207.67181
 209.28177 210.41074 210.62370 210.83566 210.75662 210.44558 210.06254 209.67651
 209.27747 208.97143 208.76339 208.61135 208.52331 208.83828 209.20824 209.58120
 210.35816 211.52012 212.75408 214.52105 216.43301 218.45997 220.53893 222.60589
 224.64985 226.71782 228.79878 230.88874 233.00170 235.15766 237.39762 239.75159
 242.35655 244.59151 246.57747 248.32643 249.72739 250.83436 251.64032 251.94028
 251.96124 251.71920 251.06317 249.99513 248.58509 246.73005 244.62301 242.43997
 240.21494 238.00290 235.80686 233.62982 231.47378 229.32474 227.33471 225.47567
 223.74263 222.19859 220.81255 219.56851 218.43448 217.37844 216.46640 215.59136
 214.81732 213.98128 213.06325 212.41121 211.84517 213.08902 216.02777 218.44716
 219.69427 221.25060 222.85286 224.27560 225.49422 226.55264 228.13368 228.52016
 228.27130 229.15036 232.30312 236.80763 241.49377 245.97992 250.19368 254.14146
 257.75711 261.03162 263.94412 266.45172 268.83554 271.04218 272.74030 274.15219
 276.04245 277.78693 279.32193 280.68423 281.87302 282.92929 283.90103 284.78903
 285.60294 286.34213 286.99667 287.92105
 366.78100 356.31946 345.73592 334.58638 322.97383 311.15229 299.00675 286.79421
 274.49067 262.37213 250.36558 239.65104 229.75750 220.84596 213.01242 205.99888
 199.81733 194.73979 191.30625 189.33271 188.35417 188.40263 189.22208 190.51454
 192.22400 194.30346 196.55092 198.89438 201.32383 203.78829 205.86075 207.68721
 209.29767 210.42713 210.64058 210.85304 210.77450 210.46396 210.08142 209.69588
 209.29733 208.99179 208.78425 208.63271 208.54517 208.86063 209.23108 209.60454
 210.38200 211.54446 212.77892 214.54638 216.45883 218.48629 220.56575 222.63321
 224.67767 226.74613 228.82759 230.91804 233.03150 235.18796 237.42842 239.78288
 242.38834 244.62379 246.61025 248.35971 249.76117 250.86863 251.67509 251.97554
 251.99700 251.75546 251.09992 250.03238 248.62284 246.76829 244.66175 242.47921
 240.25467 238.04313 235.84759 233.67104 231.51550 229.36696 227.37742 225.51888
 223.78634 222.24279 220.85725 219.61371 218.48017 217.42463 216.51309 215.63854
 214.86500 214.02946 213.11192 212.46038 211.89484 213.13521 216.06569 218.48935
 219.78523 221.37296 222.97398 224.37917 225.54587 226.56694 228.05287 228.25844
 228.00395 229.03349 232.21692 236.74199 241.44775 245.94029 250.15981 254.10423
 257.71738 261.00027 263.92990 266.45401 268.83542 271.02457 272.73264 274.25949
 275.99771 277.75812 279.31653 280.68698 281.88019 282.94034 283.91248 284.80222
 285.61661 286.35889 287.01218 287.94226
 366.78100 356.32023 345.73745 334.58868 322.97690 311.15613 299.01135 286.79958
 274.49680 262.37903 250.37325 239.65948 229.76670 220.85593 213.02315 206.01038
 199.82960 194.75283 191.32005 189.34728 188.36950 188.41873 189.23895 190.53218
 192.24240 194.32263 196.57085 198.91508 201.34530 203.81053 205.88375 207.71098
 209.32220 210.45243 210.66665 210.87988 210.80210 210.49233 210.11055 209.72578
 209.32800 209.02323 208.81645 208.66568 208.57891 208.89513 209.26636 209.64058
 210.41881 211.58203 212.81726 214.58548 216.49871 218.52693 220.60716 222.67538
 224.72061 226.78983 228.87206 230.96328 233.07751 235.23473 237.47596 239.83118
 242.43741 244.67363 246.66086 248.41108 249.81331 250.92153 251.72876 252.02998
 252.05221 251.81143 251.15666 250.08988 248.68111 246.82733 244.72156 242.53978
 240.31601 238.10523 235.91046 233.73468 231.57991 229.43214 227.44336 225.58559
 223.85381 222.31104 220.92626 219.68349 218.55071 217.49594 216.58516 215.71139
 214.93861 214.10384 213.18706 212.53629 211.97151 213.19557 216.08755 218.53030
 219.87663 221.49538 223.10019 224.48372 225.59422 226.57544 227.96254 228.00331
 227.75099 228.92833 232.14030 236.67845 241.40057 245.90088 250.12645 254.06891
 257.67862 260.96860 263.91364 266.45908 268.83603 271.00327 272.71332 274.19867
 276.08359 277.80124 279.34528 280.71439 281.90585 282.96628 283.93854 284.82834
 285.64297 286.38486 287.03891 287.97000
 366.78100 356.32101 345.73902 334.59104 322.98005 311.16006 299.01607 286.80509
 274.50310 262.38611 250.38112 239.66814 229.77615 220.86616 213.03417 206.02218
 199.84220 194.76621 191.33422 189.36223 188.38525 188.43526 189.25627 190.55028
 192.26130 194.34231 196.59132 198.93633 201.36734 203.83336 205.90737 207.73538
 209.34739 210.47841 210.69342 210.90743 210.83044 210.52146 210.14047 209.75648
 209.35949 209.05551 208.84952 208.69953 208.61354 208.93055 209.30257 209.67758
 210.45659 211.62060 212.85662 214.62563 216.53964 218.56865 220.64967 222.71868
 224.76469 226.83470 228.91771 231.00973 233.12474 235.28275 237.52476 239.88078
 242.48779 244.72480 246.71281 248.46383 249.86684 250.97585 251.78386 252.08587
 252.10889 251.86890 251.21491 250.14892 248.74094 246.88795 244.78296 242.60197
 240.37899 238.16900 235.97501 233.80002 231.64603 229.49905 227.51106 225.65407
 223.92308 222.38110 220.99711 219.75512 218.62313 217.56915 216.65916 215.78617
 215.01418 214.18019 213.26421 212.61422 212.05023 213.25839 216.11281 218.55530
 219.97784 221.61818 223.22760 224.59723 225.64360 226.59015 227.86983 227.74966
 227.50090 228.82596 232.07664 236.62032 241.35054 245.85707 250.09134 254.03600
 257.64490 260.94043 263.90256 266.47235 268.84351 270.98804 272.69012 274.11197
 276.07428 277.85117 279.39743 280.76102 281.94916 283.00665 283.97507 284.86426
 285.67795 286.41705 287.06946 288.00665
 366.78100 356.32161 345.74022 334.59282 322.98243 311.16304 299.01965 286.80926
 274.50787 262.39147 250.38708 239.67469 229.78330 220.87391 213.04252 206.03112
 199.85173 194.77634 191.34495 189.37356 188.39717 188.44777 189.26938 190.56399
 192.27560 194.35721 196.60682 198.95242 201.38403 203.85064 205.92525 207.75386
 209.36647 210.49807 210.71368 210.92829 210.85190 210.54351 210.16312 209.77972
 209.38333 209.07994 208.87455 208.72516 208.63977 208.95737 209.32998 209.70559
 210.48520 211.64981 212.88642 214.65602 216.57063 218.60024 220.68185 222.75146
 224.79807 226.86867 228.95228 231.04489 233.16050 235.31911 237.56172 239.91832
 242.52593 244.76354 246.75215 248.50376 249.90737 251.01697 251.82558 252.12819
 252.15180 251.91241 251.25902 250.19362 248.78623 246.93384 244.82945 242.64906
 240.42667 238.21727 236.02388 233.84949 231.69610 229.54971 227.56232 225.70592
 223.97553 222.43414 221.05075 219.80936 218.67797 217.62457 216.71518 215.84279
 215.07140 214.23801 213.32262 212.67322 212.10983 213.31084 216.14830 218.57271
 220.05844 221.74968 223.36517 224.69995 225.70303 226.62614 227.78114 227.48055
 227.23824 228.73784 232.02258 236.55893 241.29327 245.80824 250.05397 253.99977
 257.60562 260.90445 263.88229 266.47867 268.84067 270.95602 272.66174 274.19180
 276.08694 277.86984 279.42566 280.79395 281.98325 283.04135 284.01056 284.89798
 285.71024 286.44867 287.10092 288.03244
 366.78100 356.32246 345.74191 334.59537 322.98582 311.16728 299.02473 286.81519
 274.51464 262.39910 250.39555 239.68401 229.79346 220.88492 213.05437 206.04383
 199.86528 194.79074 191.36019 189.38965 188.41410 188.46556 189.28801 190.58347
 192.29592 194.37838 196.62883 198.97529 201.40775 203.87520 205.95066 207.78011
 209.39357 210.52602 210.74248 210.95793 210.88239 210.57484 210.19530 209.81275
 209.41721 209.11466 208.91012 208.76157 208.67703 208.99548 209.36894 209.74539
 210.52585 211.69130 212.92876 214.69921 216.61467 218.64513 220.72758 222.79804
 224.84549 226.91695 229.00140 231.09486 233.21131 235.37077 237.61422 239.97168
 242.58013 244.81859 246.80804 248.56050 249.96495 251.07541 251.88486 252.18832
 252.21277 251.97423 251.32168 250.25714 248.85059 246.99905 244.89550 242.71596
 240.49442 238.28587 236.09333 233.91978 231.76724 229.62169 227.63515 225.77960
 224.05006 222.50951 221.12697 219.88642 218.75588 217.70333 216.79479 215.92324
 215.15270 214.32015 213.40561 212.75706 212.19452 213.37456 216.16252 218.60721
 220.12547 221.87451 223.50212 224.82683 225.76587 226.64175 227.68965 227.30232
 227.02867 228.58348 231.95573 236.51167 241.24315 245.76805 250.02151 253.96390
 257.56155 260.85953 263.84988 266.47366 268.82687 270.91406 272.62445 274.26672
 276.09738 277.87793 279.44064 280.81451 282.00607 283.06573 284.03732 284.92529
 285.73569 286.47382 287.12451 288.05664
 366.78100 356.32344 345.74387 334.59831 322.98974 311.17218 299.03061 286.82205
 274.52248 262.40792 250.40535 239.69479 229.80522 220.89766 213.06809 206.05853
 199.88096 194.80740 191.37783 189.40827 188.43370 188.48614 189.30957 190.60601
 192.31944 194.40288 196.65431 199.00175 201.43518 203.90362 205.98005 207.81049
 209.42492 210.55836 210.77579 210.99223 210.91766 210.61110 210.23253 209.85097
 209.45640 209.15484 208.95127 208.80371 208.72014 209.03958 209.41402 209.79145
 210.57289 211.73932 212.97776 214.74919 216.66563 218.69706 220.78050 222.85193
 224.90037 226.97280 229.05824 231.15267 233.27011 235.43054 237.67498 240.03341
 242.64285 244.88228 246.87272 248.62615 250.03159 251.14302 251.95346 252.25789
 252.28333 252.04576 251.39420 250.33063 248.92507 247.07450 244.97194 242.79337
 240.57281 238.36524 236.17368 234.00111 231.84955 229.70498 227.71942 225.86485
 224.13629 222.59672 221.21516 219.97559 218.84603 217.79447 216.88690 216.01634
 215.24677 214.41521 213.50164 212.85408 212.29251 213.44504 216.16800 218.64545
 220.19943 221.96295 223.63620 224.96439 225.82399 226.63472 227.58795 227.15088
 226.85913 228.45741 231.90231 236.47092 241.19861 245.73016 249.98801 253.92659
 257.51801 260.81668 263.82095 266.47311 268.81754 270.87473 272.58017 274.28894
 276.09949 277.88110 279.44873 280.82581 282.02084 283.08365 284.05554 284.94388
 285.75729 286.48996 287.14078 288.07339
 366.78100 356.32430 345.74559 334.60089 322.99319 311.17649 299.03578 286.82808
 274.52938 262.41567 250.41397 239.70427 229.81556 220.90886 213.08016 206.07146
 199.89475 194.82205 191.39335 189.42464 188.45094 188.50424 189.32854 190.62583
 192.34013 194.42443 196.67672 199.02502 201.45932 203.92862 206.00591 207.83721
 209.45251 210.58680 210.80510 211.02240 210.94869 210.64299 210.26529 209.88459
 209.49088 209.19018 208.98748 208.84077 208.75807 209.07837 209.45367 209.83196
 210.61426 211.78156 213.02085 214.79315 216.71045 218.74275 220.82704 222.89934
 224.94864 227.02193 229.10823 231.20353 233.32182 235.48312 237.72842 240.08772
 242.69801 244.93831 246.92961 248.68390 250.09020 251.20250 252.01380 252.31909
 252.34539 252.10869 251.45798 250.39528 248.99058 247.14088 245.03917 242.86147
 240.64177 238.43506 236.24436 234.07266 231.92195 229.77825 227.79355 225.93985
 224.21214 222.67344 221.29274 220.05403 218.92533 217.87463 216.96793 216.09822
 215.32952 214.49882 213.58611 212.93941 212.37871 213.50980 216.18213 218.66847
 220.29816 222.03282 223.74905 225.10562 225.90253 226.64136 227.47954 226.98871
 226.69316 228.35181 231.86674 236.43680 241.15500 245.68822 249.95056 253.88719
 257.47308 260.77103 263.78845 266.47018 268.80698 270.83340 272.53778 274.28561
 276.10019 277.88391 279.45407 280.83298 282.02960 283.09213 284.06467 284.95285
 285.76367 286.49866 287.14813 288.08127
 366.78100 356.32514 345.74728 334.60342 322.99656 311.18070 299.04084 286.83398
 274.53612 262.42326 250.42240 239.71354 229.82568 220.91982 213.09196 206.08410
 199.90823 194.83637 191.40851 189.44065 188.46779 188.52193 189.34707 190.64521
 192.36035 194.44549 196.69863 199.04777 201.48291 203.95305 206.03119 207.86333
 209.47947 210.61461 210.83375 211.05189 210.97903 210.67417 210.29731 209.91745
 209.52459 209.22473 209.02287 208.87701 208.79515 209.11629 209.49242 209.87156
 210.65470 211.82284 213.06298 214.83612 216.75426 218.78740 220.87254 222.94568
 224.99582 227.06996 229.15710 231.25324 233.37238 235.53452 237.78066 240.14080
 242.75194 244.99308 246.98522 248.74036 250.14750 251.26064 252.07278 252.37892
 252.40606 252.17020 251.52034 250.45848 249.05461 247.20575 245.10489 242.92803
 240.70917 238.50331 236.31345 234.14259 231.99273 229.84987 227.86601 226.01315
 224.28629 222.74843 221.36857 220.13071 219.00285 217.95299 217.04713 216.17827
 215.41041 214.58055 213.66869 213.02283 212.46297 213.57256 216.19406 218.67894
 220.40363 222.12122 223.83028 225.22121 226.00557 226.67830 227.36066 226.81880
 226.53850 228.25929 231.84204 236.40764 241.11319 245.64801 249.91599 253.85353
 257.43442 260.73059 263.75702 266.46494 268.79214 270.78909 272.48776 274.26889
 276.09442 277.88309 279.45383 280.83334 282.03067 283.09341 284.06531 284.95447
 285.76495 286.50098 287.14941 288.08234
 366.78100 356.32601 345.74902 334.60603 323.00004 311.18504 299.04605 286.84006
 274.54307 262.43108 250.43109 239.72310 229.83611 220.93112 213.10413 206.09713
 199.92214 194.85115 191.42416 189.45717 188.48518 188.54019 189.36620 190.66521
 192.38122 194.46722 196.72123 199.07124 201.50725 203.97826 206.05727 207.89028
 209.50729 210.64330 210.86330 211.08231 211.01032 210.70633 210.33034 209.95135
 209.55936 209.26037 209.05938 208.91439 208.83339 209.15540 209.53241 209.91242
 210.69643 211.86544 213.10645 214.88046 216.79947 218.83348 220.91948 222.99349
 225.04450 227.11951 229.20752 231.30453 233.42454 235.58755 237.83456 240.19556
 242.80757 245.04958 247.04259 248.79860 250.20661 251.32062 252.13363 252.44064
 252.46865 252.23365 251.58466 250.52367 249.12068 247.27269 245.17270 242.99671
 240.77872 238.57373 236.38473 234.21474 232.06575 229.92376 227.94077 226.08878
 224.36279 222.82580 221.44681 220.20982 219.08282 218.03383 217.12884 216.26085
 215.49386 214.66487 213.75388 213.10889 212.54990 213.63605 216.20218 218.69267
 220.49094 222.22751 223.89720 225.29962 226.11855 226.74571 227.24628 226.66525
 226.40854 228.17104 231.81567 236.37755 241.06979 245.60654 249.87985 253.81741
 257.39059 260.68213 263.71692 266.45016 268.76981 270.73987 272.42911 274.24094
 276.09378 277.88144 279.45178 280.82959 282.02655 283.08868 284.06131 284.94766
 285.75928 286.49130 287.13852 288.07059
 366.78100 356.32675 345.75050 334.60825 323.00300 311.18875 299.05050 286.84525
 274.54900 262.43775 250.43850 239.73125 229.84500 220.94075 213.11450 206.10825
 199.93400 194.86375 191.43750 189.47125 188.50000 188.55575 189.38251 190.68226
 192.39901 194.48576 196.74051 199.09126 201.52801 203.99976 206.07951 207.91326
 209.53101 210.66776 210.88851 211.10826 211.03701 210.73376 210.35851 209.98026
 209.58901 209.29076 209.09051 208.94626 208.86601 209.18876 209.56651 209.94726
 210.73201 211.90176 213.14351 214.91826 216.83801 218.87276 220.95951 223.03426
 225.08601 227.16176 229.25051 231.34826 233.46901 235.63276 237.88051 240.24226
 242.85502 245.09777 247.09152 248.84827 250.25702 251.37177 252.18552 252.49327
 252.52202 252.28777 251.63952 250.57927 249.17702 247.32977 245.23052 243.05527
 240.83802 238.63377 236.44552 234.27627 232.12802 229.98677 228.00452 226.15327
 224.42802 222.89177 221.51352 220.27727 219.15102 218.10277 217.19852 216.33127
 215.56502 214.73677 213.82652 213.18227 212.62402 213.69237 216.21646 218.71620
 220.56017 222.32462 223.95476 225.34767 226.22598 226.83278 227.15977 226.54808
 226.30774 228.08827 231.78703 236.34767 241.02650 245.56314 249.83824 253.77151
 257.33496 260.61722 263.65619 266.40900 268.71994 270.66080 272.35974 274.27945
 276.06796 277.85507 279.43100 280.81168 282.01089 283.07321 284.04510 284.93280
 285.74011 286.47412 287.12137 288.04865
 366.78100 356.32736 345.75173 334.61009 323.00545 311.19182 299.05418 286.84954
 274.55391 262.44327 250.44463 239.73800 229.85236 220.94872 213.12309 206.11745
 199.94381 194.87418 191.44854 189.48290 188.51227 188.56863 189.39599 190.69636
 192.41372 194.50108 196.75645 199.10781 201.54517 204.01754 206.09790 207.93226
 209.55063 210.68799 210.90935 211.12972 211.05908 210.75644 210.38181 210.00417
 209.61353 209.31590 209.11626 208.97262 208.89299 209.21635 209.59471 209.97608
 210.76144 211.93180 213.17417 214.94953 216.86989 218.90526 220.99262 223.06798
 225.12035 227.19671 229.28607 231.38444 233.50580 235.67016 237.91853 240.28089
 242.89425 245.13762 247.13198 248.88934 250.29871 251.41407 252.22843 252.53680
 252.56616 252.33252 251.68489 250.62525 249.22361 247.37698 245.27834 243.10370
 240.88707 238.68343 236.49579 234.32716 232.17952 230.03888 228.05725 226.20661
 224.48197 222.94634 221.56870 220.33306 219.20743 218.15979 217.25615 216.38952
 215.62388 214.79624 213.88661 213.24297 212.68533 213.73901 216.22845 218.74287
 220.63809 222.41112 224.00163 225.37389 226.31224 226.91370 227.09879 226.45341
 226.21860 228.01308 231.76183 236.32478 240.99216 245.52794 249.80493 253.73531
 257.28992 260.56274 263.60117 266.36847 268.66995 270.58392 272.16525 274.11414
 276.05609 277.84323 279.40744 280.78479 281.98044 283.04285 284.01471 284.90289
 285.71057 286.44388 287.09283 288.01843
 366.78100 356.32810 345.75321 334.61231 323.00841 311.19552 299.05862 286.85472
 274.55982 262.44993 250.45203 239.74613 229.86124 220.95834 213.13344 206.12855
 199.95565 194.88675 191.46186 189.49696 188.52706 188.58416 189.41227 190.71337
 192.43147 194.51958 196.77568 199.12778 201.56589 204.03899 206.12009 207.95520
 209.57430 210.71240 210.93450 211.15561 211.08571 210.78381 210.40992 210.03302
 209.64312 209.34623 209.14733 209.00443 208.92554 209.24964 209.62874 210.01084
 210.79695 211.96805 213.21115 214.98726 216.90836 218.94446 221.03257 223.10867
 225.16177 227.23888 229.32898 231.42808 233.55018 235.71529 237.96439 240.32749
 242.94160 245.18570 247.18080 248.93891 250.34901 251.46511 252.28022 252.58932
 252.61942 252.38652 251.73963 250.68073 249.27983 247.43394 245.33604 243.16214
 240.94625 238.74335 236.55645 234.38856 232.24166 230.10176 228.12086 226.27097
 224.54707 223.01217 221.63528 220.40038 219.27548 218.22859 217.32569 216.45979
 215.69490 214.86800 213.95910 213.31620 212.75931 213.79242 216.23329 218.76349
 220.73152 222.49803 224.04779 225.39439 226.38135 226.98157 227.05405 226.35268
 226.10953 227.93277 231.73470 236.30362 240.96144 245.49376 249.77063 253.69936
 257.24734 260.51199 263.54987 266.33325 268.63431 270.53183 272.02673 274.07156
 276.07651 277.84421 279.39511 280.76392 281.95480 283.01318 283.98325 284.86908
 285.67657 286.41071 287.06024 287.98309
 366.78100 356.32893 345.75486 334.61478 323.01171 311.19964 299.06357 286.86050
 274.56642 262.45735 250.46028 239.75521 229.87114 220.96907 213.14499 206.14092
 199.96885 194.90078 191.47671 189.51263 188.54356 188.60149 189.43042 190.73235
 192.45127 194.54020 196.79713 199.15006 201.58899 204.06292 206.14484 207.98077
 209.60070 210.73963 210.96256 211.18448 211.11541 210.81434 210.44127 210.06520
 209.67612 209.38005 209.18198 209.03991 208.96184 209.28677 209.66669 210.04962
 210.83655 212.00848 213.25241 215.02933 216.95126 218.98819 221.07712 223.15405
 225.20797 227.28590 229.37683 231.47676 233.59969 235.76562 238.01554 240.37947
 242.99440 245.23933 247.23526 248.99418 250.40511 251.52204 252.33797 252.64790
 252.67882 252.44675 251.80068 250.74261 249.34254 247.49747 245.40039 243.22732
 241.01225 238.81018 236.62411 234.45703 232.31096 230.17189 228.19182 226.34275
 224.61967 223.08560 221.70953 220.47546 219.35139 218.30532 217.40324 216.53817
 215.77410 214.94803 214.03996 213.39788 212.84181 213.85066 216.23415 218.77541
 220.82785 222.58363 224.09328 225.41716 226.44258 227.04700 227.03108 226.25368
 225.99057 227.85506 231.70927 236.28561 240.93451 245.46022 249.73218 253.65588
 257.19440 260.44852 263.48596 266.28647 268.59418 270.48132 272.05124 273.97806
 276.01880 277.79956 279.35065 280.71884 281.90829 282.96655 283.93488 284.82208
 285.62930 286.36459 287.01398 287.93912
 366.78100 356.32976 345.75653 334.61729 323.01506 311.20382 299.06859 286.86635
 274.57312 262.46488 250.46865 239.76441 229.88118 220.97994 213.15671 206.15347
 199.98224 194.91500 191.49177 189.52853 188.56030 188.61906 189.44882 190.75159
 192.47135 194.56112 196.81888 199.17265 201.61241 204.08718 206.16994 208.00671
 209.62747 210.76724 210.99100 211.21377 211.14553 210.84530 210.47306 210.09783
 209.70959 209.41436 209.21712 209.07588 208.99865 209.32441 209.70518 210.08894
 210.87671 212.04947 213.29424 215.07200 216.99477 219.03253 221.12230 223.20006
 225.25483 227.33359 229.42536 231.52612 233.64989 235.81665 238.06742 240.43218
 243.04794 245.29371 247.29047 249.05024 250.46200 251.57977 252.39653 252.70730
 252.73906 252.50783 251.86259 250.80536 249.40612 247.56189 245.46565 243.29342
 241.07918 238.87795 236.69271 234.52648 232.38124 230.24300 228.26377 226.41553
 224.69330 223.16006 221.78483 220.55159 219.42836 218.38312 217.48189 216.61765
 215.85442 215.02918 214.12195 213.48071 212.92548 213.90878 216.23196 218.78954
 220.91461 222.66125 224.13068 225.43076 226.49500 227.11992 227.03954 226.18182
 225.88805 227.78844 231.68797 236.27162 240.90962 245.42348 249.68658 253.60075
 257.12640 260.36673 263.39960 266.21133 268.52142 270.40491 272.03510 273.94601
 275.95410 277.73175 279.28464 280.65305 281.84369 282.90146 283.87231 284.76004
 285.56915 286.30573 286.95667 287.87991
 366.78100 356.33051 345.75801 334.61952 323.01803 311.20754 299.07304 286.87155
 274.57906 262.47157 250.47607 239.77258 229.89009 220.98959 213.16710 206.16461
 199.99412 194.92762 191.50513 189.54264 188.57515 188.63465 189.46516 190.76867
 192.48917 194.57968 196.83819 199.19270 201.63320 204.10871 206.19222 208.02972
 209.65123 210.79174 211.01625 211.23975 211.17226 210.87277 210.50128 210.12678
 209.73929 209.44480 209.24830 209.10781 209.03132 209.35783 209.73933 210.12384
 210.91235 212.08586 213.33136 215.10987 217.03338 219.07188 221.16239 223.24090
 225.29641 227.37591 229.46842 231.56993 233.69444 235.86194 238.11345 240.47896
 243.09546 245.34197 247.33948 249.09999 250.51249 251.63100 252.44851 252.76001
 252.79252 252.56203 251.91754 250.86104 249.46255 247.61906 245.52357 243.35207
 241.13858 238.93809 236.75359 234.58810 232.44361 230.30612 228.32762 226.48013
 224.75864 223.22615 221.85165 220.61916 219.49667 218.45217 217.55168 216.68819
 215.92570 215.10120 214.19471 213.55422 212.99973 213.96123 216.23289 218.80431
 221.00240 222.72815 224.16058 225.43953 226.53522 227.19484 227.06497 226.11664
 225.78537 227.72481 231.66727 236.26047 240.88834 245.38794 249.64043 253.54657
 257.06073 260.28842 263.31564 266.14172 268.46249 270.34375 271.87628 273.93466
 275.87982 277.65552 279.21060 280.58118 281.77267 282.83237 283.80179 284.69006
 285.50031 286.23914 286.88800 287.81149
 366.78100 356.33116 345.75932 334.62147 323.02063 311.21079 299.07695 286.87611
 274.58427 262.47742 250.48258 239.77974 229.89790 220.99806 213.17621 206.17437
 200.00453 194.93869 191.51685 189.55501 188.58816 188.64832 189.47948 190.78364
 192.50480 194.59595 196.85511 199.21027 201.65143 204.12759 206.21175 208.04990
 209.67206 210.81322 211.03838 211.26254 211.19569 210.89685 210.52601 210.15217
 209.76533 209.47149 209.27564 209.13580 209.05996 209.38712 209.76928 210.15444
 210.94359 212.11775 213.36391 215.14307 217.06723 219.10638 221.19754 223.27670
 225.33286 227.41302 229.50618 231.60833 233.73349 235.90165 238.15381 240.51997
 243.13712 245.38428 247.38244 249.14360 250.55676 251.67592 252.49407 252.80623
 252.83939 252.60955 251.96571 250.90986 249.51202 247.66918 245.57434 243.40350
 241.19066 238.99081 236.80697 234.64213 232.49829 230.36145 228.38360 226.53676
 224.81592 223.28408 221.91024 220.67840 219.55655 218.51271 217.61287 216.75003
 215.98819 215.16434 214.25850 213.61866 213.06482 214.00737 216.23427 218.82451
 221.08466 222.79808 224.17339 225.43465 226.57388 227.27461 227.09831 226.06813
 225.70078 227.67000 231.64847 236.25320 240.87033 245.35210 249.59105 253.48691
 256.98734 260.19962 263.22162 266.06256 268.39490 270.27515 271.88364 273.90448
 275.80914 277.57755 279.13260 280.50256 281.69427 282.75436 283.72607 284.61209
 285.42465 286.16287 286.81479 287.73495
 366.78100 356.33197 345.76094 334.62391 323.02388 311.21485 299.08182 286.88180
 274.59077 262.48474 250.49071 239.78868 229.90765 221.00862 213.18759 206.18656
 200.01753 194.95250 191.53147 189.57044 188.60441 188.66539 189.49736 190.80233
 192.52430 194.61627 196.87624 199.23221 201.67418 204.15115 206.23612 208.07509
 209.69806 210.84003 211.06600 211.29098 211.22495 210.92692 210.55689 210.18386
 209.79783 209.50480 209.30977 209.17074 209.09571 209.42368 209.80665 210.19262
 210.98259 212.15757 213.40454 215.18451 217.10948 219.14945 221.24142 223.32139
 225.37836 227.45933 229.55330 231.65627 233.78224 235.95121 238.20418 240.57116
 243.18913 245.43710 247.43607 249.19804 250.61201 251.73198 252.55095 252.86392
 252.89789 252.66886 252.02583 250.97080 249.57378 247.73175 245.63772 243.46769
 241.25566 239.05663 236.87360 234.70957 232.56654 230.43051 228.45348 226.60745
 224.88742 223.35639 221.98337 220.75234 219.63131 218.58828 217.68925 216.82722
 216.06619 215.24316 214.33813 213.69910 213.14607 214.06021 216.21999 218.86406
 221.16797 222.83662 224.19066 225.42694 226.58676 227.35150 227.15114 226.03633
 225.62717 227.62241 231.63164 236.25024 240.85725 245.31938 249.54436 253.42877
 256.91406 260.10495 263.11618 265.96426 268.30072 270.18744 271.82501 273.86145
 275.71799 277.48358 279.04080 280.41223 281.60562 282.66660 283.63736 284.52713
 285.33627 286.07480 286.72464 287.64438
 366.78100 356.33261 345.76222 334.62583 323.02644 311.21805 299.08565 286.88626
 274.59587 262.49048 250.49709 239.79570 229.91531 221.01692 213.19653 206.19614
 200.02775 194.96336 191.54296 189.58257 188.61718 188.67879 189.51140 190.81701
 192.53962 194.63223 196.89284 199.24945 201.69206 204.16967 206.25527 208.09488
 209.71849 210.86110 211.08771 211.31332 211.24793 210.95054 210.58115 210.20876
 209.82337 209.53098 209.33658 209.19819 209.12380 209.45241 209.83602 210.22263
 211.01324 212.18885 213.43646 215.21707 217.14268 219.18329 221.27589 223.35650
 225.41411 227.49572 229.59033 231.69394 233.82055 235.99016 238.24377 240.61138
 243.22999 245.47859 247.47820 249.24081 250.65542 251.77603 252.59564 252.90925
 252.94386 252.71547 252.07308 251.01869 249.62230 247.78090 245.68751 243.51812
 241.30673 239.10834 236.92595 234.76256 232.62017 230.48478 228.50839 226.66300
 224.94361 223.41321 222.04082 220.81043 219.69004 218.64765 217.74926 216.88787
 216.12748 215.30509 214.40070 213.76231 213.20992 214.10443 216.21779 218.88350
 221.28674 222.88123 224.12949 225.40855 226.64377 227.43903 227.18971 226.00623
 225.56583 227.58253 231.61771 236.25204 240.84944 245.29004 249.49908 253.37129
 256.84134 260.01337 263.01520 265.87744 268.23029 270.12076 271.73050 273.83130
 275.63025 277.38416 278.94156 280.31387 281.50723 282.56848 283.54016 284.42810
 285.23874 285.97626 286.62717 287.54285
 366.78100 356.33306 345.76312 334.62718 323.02824 311.22030 299.08836 286.88942
 274.59948 262.49454 250.50160 239.80066 229.92072 221.02278 213.20284 206.20290
 200.03496 194.97102 191.55108 189.59114 188.62620 188.68826 189.52132 190.82738
 192.55044 194.64351 196.90457 199.26163 201.70469 204.18275 206.26881 208.10887
 209.73293 210.87599 211.10305 211.32911 211.26417 210.96723 210.59829 210.22635
 209.84141 209.54947 209.35553 209.21759 209.14365 209.47271 209.85677 210.24383
 211.03489 212.21095 213.45901 215.24007 217.16613 219.20719 221.30025 223.38131
 225.43937 227.52143 229.61649 231.72055 233.84761 236.01767 238.27173 240.63979
 243.25885 245.50791 247.50797 249.27103 250.68609 251.80715 252.62721 252.94127
 252.97633 252.74839 252.10645 251.05252 249.65658 247.81564 245.72270 243.55376
 241.34282 239.14488 236.96294 234.80000 232.65806 230.52312 228.54718 226.70224
 224.98330 223.45336 222.08142 220.85148 219.73154 218.68960 217.79166 216.93072
 216.17078 215.34884 214.44490 213.80696 213.25502 214.13860 216.22612 218.89413
 221.38991 222.95789 224.10011 225.38695 226.66499 227.47153 227.19897 226.00214
 225.54857 227.56151 231.60878 236.25919 240.84624 245.26155 249.45265 253.31284
 256.76807 259.92139 262.91467 265.79160 268.15964 270.05392 271.68478 273.77655
 275.54205 277.29056 278.84622 280.21805 281.41055 282.47205 283.44370 284.33292
 285.14282 285.88104 286.53302 287.44159
 366.78100 356.33362 345.76423 334.62885 323.03046 311.22308 299.09170 286.89331
 274.60393 262.49954 250.50716 239.80678 229.92739 221.03001 213.21062 206.21124
 200.04385 194.98047 191.56109 189.60170 188.63732 188.69993 189.53355 190.84017
 192.56378 194.65740 196.91901 199.27663 201.72025 204.19886 206.28548 208.12609
 209.75071 210.89433 211.12194 211.34856 211.28417 210.98779 210.61941 210.24802
 209.86364 209.57225 209.37887 209.24148 209.16810 209.49772 209.88233 210.26995
 211.06156 212.23818 213.48680 215.26841 217.19503 219.23664 221.33026 223.41188
 225.47049 227.55311 229.64872 231.75334 233.88096 236.05157 238.30619 240.67480
 243.29442 245.54404 247.54465 249.30827 250.72388 251.84550 252.66611 252.98073
 253.01635 252.78896 252.14758 251.09419 249.69881 247.85843 245.76604 243.59766
 241.38727 239.18989 237.00851 234.84612 232.70474 230.57035 228.59497 226.75059
 225.03220 223.50282 222.13143 220.90205 219.78267 218.74128 217.84390 216.98351
 216.22413 215.40274 214.49936 213.86198 213.31059 214.17686 216.22353 218.92302
 221.47217 223.02948 224.10509 225.36668 226.64447 227.46022 227.20137 226.03331
 225.57269 227.55362 231.60181 236.26834 240.84512 245.23499 249.40842 253.25925
 256.69940 259.83057 262.81119 265.69650 268.07614 269.99500 271.70593 273.70407
 275.45682 277.19980 278.75256 280.11990 281.31143 282.36984 283.34174 284.22897
 285.03906 285.77966 286.43082 287.33603
 366.78100 356.33424 345.76547 334.63071 323.03294 311.22618 299.09541 286.89765
 274.60889 262.50512 250.51336 239.81359 229.93483 221.03806 213.21930 206.22054
 200.05377 194.99101 191.57224 189.61348 188.64971 188.71295 189.54719 190.85442
 192.57866 194.67289 196.93513 199.29336 201.73760 204.21684 206.30407 208.14531
 209.77054 210.91478 211.14302 211.37025 211.30649 211.01072 210.64296 210.27219
 209.88843 209.59767 209.40490 209.26814 209.19537 209.52561 209.91084 210.29908
 211.09132 212.26855 213.51779 215.30002 217.22726 219.26949 221.36373 223.44597
 225.50520 227.58844 229.68467 231.78991 233.91814 236.08938 238.34462 240.71385
 243.33409 245.58432 247.58556 249.34979 250.76603 251.88827 252.70950 253.02474
 253.06097 252.83421 252.19344 251.14068 249.74592 247.90615 245.81439 243.64662
 241.43686 239.24009 237.05933 234.89757 232.75680 230.62304 228.64827 226.80451
 225.08674 223.55798 222.18722 220.95845 219.83969 218.79892 217.90216 217.04240
 216.28363 215.46287 214.56010 213.92334 213.37257 214.21767 216.21431 218.96100
 221.55205 223.08939 224.11362 225.33864 226.60555 227.43614 227.20729 226.08040
 225.61221 227.54897 231.59351 236.27722 240.84578 245.21233 249.37119 253.21492
 256.64133 259.74872 262.71329 265.60449 267.99966 269.95291 271.73184 273.58591
 275.38110 277.10382 278.64294 280.00803 281.19629 282.25430 283.22339 284.11005
 284.92151 285.66058 286.31244 287.21426
 366.78100 356.33479 345.76657 334.63236 323.03514 311.22893 299.09872 286.90150
 274.61329 262.51008 250.51886 239.81965 229.94143 221.04522 213.22701 206.22879
 200.06258 195.00036 191.58215 189.62394 188.66072 188.72451 189.55929 190.86708
 192.59187 194.68665 196.94944 199.30823 201.75301 204.23280 206.32058 208.16237
 209.78816 210.93294 211.16173 211.38951 211.32630 211.03109 210.66387 210.29366
 209.91044 209.62023 209.42802 209.29180 209.21959 209.55038 209.93616 210.32495
 211.11773 212.29552 213.54531 215.32809 217.25588 219.29866 221.39345 223.47624
 225.53602 227.61981 229.71660 231.82238 233.95117 236.12295 238.37874 240.74853
 243.36931 245.62010 247.62188 249.38667 250.80346 251.92624 252.74803 253.06381
 253.10060 252.87439 252.23417 251.18196 249.78775 247.94853 245.85732 243.69010
 241.48089 239.28468 237.10446 234.94325 232.80303 230.66982 228.69561 226.85239
 225.13518 223.60696 222.23675 221.00854 219.89032 218.85011 217.95390 217.09468
 216.33647 215.51625 214.61404 213.97783 213.42761 214.25464 216.20859 218.99475
 221.63698 223.14972 224.11827 225.30052 226.56030 227.40605 227.20705 226.12563
 225.65685 227.54967 231.58601 236.28754 240.85245 245.19960 249.34625 253.18553
 256.60056 259.68567 262.63309 265.53281 267.94620 269.91647 271.70926 273.38800
 275.29886 276.98761 278.51401 279.87900 281.06689 282.12482 283.09457 283.98181
 284.79187 285.53091 286.18350 287.07883
 366.78100 356.33530 345.76760 334.63390 323.03720 311.23149 299.10179 286.90509
 274.61739 262.51469 250.52399 239.82529 229.94759 221.05188 213.23418 206.23648
 200.07078 195.00908 191.59138 189.63368 188.67098 188.73528 189.57057 190.87887
 192.60417 194.69947 196.96277 199.32207 201.76737 204.24767 206.33596 208.17826
 209.80456 210.94986 211.17916 211.40746 211.34476 211.05006 210.68336 210.31365
 209.93095 209.64125 209.44955 209.31385 209.24215 209.57345 209.95975 210.34904
 211.14234 212.32064 213.57094 215.35424 217.28254 219.32584 221.42114 223.50444
 225.56473 227.64903 229.74633 231.85263 233.98193 236.15423 238.41053 240.78083
 243.40212 245.65342 247.65572 249.42102 250.83832 251.96162 252.78392 253.10022
 253.13751 252.91181 252.27211 251.22041 249.82671 247.98801 245.89731 243.73061
 241.52191 239.32620 237.14650 234.98580 232.84610 230.71340 228.73970 226.89700
 225.18030 223.65259 222.28289 221.05519 219.93749 218.89779 218.00209 217.14339
 216.38569 215.56599 214.66428 214.02858 213.47888 214.28979 216.20569 219.01979
 221.72420 223.21825 224.12587 225.25821 226.51045 227.36415 227.19243 226.16658
 225.70677 227.55490 231.57910 236.29901 240.86458 245.19513 249.33083 253.16585
 256.57159 259.63541 262.56494 265.47156 267.90054 269.87289 271.65472 273.32892
 275.20013 276.87100 278.39325 279.75668 280.94418 282.00092 282.96951 283.85559
 284.66467 285.40274 286.05450 286.94049
 366.78100 356.33577 345.76854 334.63531 323.03908 311.23385 299.10462 286.90839
 274.62116 262.51894 250.52871 239.83048 229.95325 221.05802 213.24079 206.24356
 200.07833 195.01710 191.59987 189.64264 188.68041 188.74518 189.58095 190.88972
 192.61549 194.71127 196.97504 199.33481 201.78058 204.26135 206.35012 208.19289
 209.81966 210.96543 211.19520 211.42397 211.36174 211.06751 210.70128 210.33205
 209.94982 209.66060 209.46937 209.33414 209.26291 209.59468 209.98145 210.37122
 211.16499 212.34376 213.59453 215.37830 217.30707 219.35084 221.44661 223.53038
 225.59115 227.67593 229.77370 231.88047 234.01024 236.18301 238.43978 240.81055
 243.43232 245.68409 247.68686 249.45263 250.87040 251.99417 252.81694 253.13371
 253.17148 252.94626 252.30703 251.25580 249.86257 248.02434 245.93411 243.76788
 241.55965 239.36442 237.18519 235.02496 232.88573 230.75350 228.78027 226.93804
 225.22181 223.69459 222.32536 221.09813 219.98090 218.94167 218.04644 217.18821
 216.43098 215.61175 214.71052 214.07529 213.52606 214.32286 216.20540 219.03798
 221.80472 223.29305 224.14417 225.22334 226.45953 227.30753 227.15366 226.19238
 225.75998 227.57126 231.57643 236.31261 240.88245 245.19919 249.32443 253.15720
 256.55542 259.59857 262.50543 265.41156 267.84692 269.81467 271.60263 273.35706
 275.09537 276.75342 278.27338 279.63486 280.82022 281.87537 282.84143 283.72604
 284.53143 285.26520 285.91742 286.79337
 366.78100 356.33631 345.76961 334.63692 323.04123 311.23654 299.10784 286.91215
 274.62546 262.52376 250.53407 239.83638 229.95969 221.06499 213.24830 206.25161
 200.08691 195.02622 191.60953 189.65284 188.69114 188.75645 189.59276 190.90206
 192.62837 194.72468 196.98899 199.34929 201.79560 204.27691 206.36621 208.20952
 209.83683 210.98313 211.21344 211.44275 211.38106 211.08736 210.72167 210.35298
 209.97128 209.68259 209.49190 209.35721 209.28651 209.61882 210.00613 210.39643
 211.19074 212.37005 213.62136 215.40566 217.33497 219.37928 221.47558 223.55989
 225.62120 227.70651 229.80481 231.91212 234.04243 236.21573 238.47304 240.84435
 243.46666 245.71896 247.72227 249.48858 250.90688 252.03119 252.85450 253.17181
 253.21011 252.98542 252.34673 251.29603 249.90334 248.06565 245.97596 243.81026
 241.60257 239.40788 237.22918 235.06949 232.93080 230.79911 228.82641 226.98472
 225.26903 223.74233 222.37364 221.14695 220.03025 218.99156 218.09687 217.23918
 216.48248 215.66379 214.76310 214.12840 213.57971 214.35956 216.20206 219.05487
 221.88423 223.37080 224.16736 225.18866 226.39632 227.23206 227.10378 226.21198
 225.80775 227.58572 231.57565 236.32968 240.90874 245.21545 249.33163 253.16417
 256.55710 259.57907 262.46008 265.35678 267.79236 269.75934 271.55005 273.30432
 275.01733 276.65695 278.17062 279.53067 280.71457 281.76978 282.73566 283.61981
 284.42813 285.16763 285.82181 286.69986
 366.78100 356.33707 345.77114 334.63922 323.04429 311.24036 299.11243 286.91750
 274.63158 262.53065 250.54172 239.84479 229.96886 221.07493 213.25901 206.26308
 200.09915 195.03922 191.62329 189.66737 188.70644 188.77251 189.60958 190.91965
 192.64673 194.74380 197.00887 199.36994 201.81701 204.29908 206.38916 208.23323
 209.86130 211.00837 211.23944 211.46952 211.40859 211.11566 210.75073 210.38280
 210.00188 209.71395 209.52402 209.39009 209.32016 209.65324 210.04131 210.43238
 211.22745 212.40752 213.65959 215.44467 217.37474 219.41981 221.51688 223.60195
 225.66403 227.75010 229.84917 231.95724 234.08831 236.26239 238.52046 240.89253
 243.51560 245.76867 247.77274 249.53982 250.95889 252.08396 252.90803 253.22610
 253.26518 253.04125 252.40332 251.35339 249.96146 248.12454 246.03561 243.87068
 241.66375 239.46982 237.29189 235.13297 232.99504 230.86411 228.89218 227.05125
 225.33633 223.81040 222.44247 221.21654 220.10061 219.06269 218.16876 217.31183
 216.55590 215.73797 214.83805 214.20412 213.65619 214.41168 216.19662 219.04720
 221.97612 223.47736 224.20107 225.15398 226.30923 227.11008 227.01407 226.22897
 225.88933 227.63635 231.58694 236.34395 240.93344 245.23453 249.34230 253.17210
 256.55856 259.56467 262.42368 265.31589 267.75381 269.71701 271.49661 273.22803
 274.94034 276.56918 278.07275 279.42770 280.60962 281.66034 282.62234 283.50311
 284.31583 285.06570 285.71136 286.56616
 366.78100 356.33834 345.77369 334.64303 323.04937 311.24671 299.12006 286.92640
 274.64174 262.54209 250.55443 239.85877 229.98411 221.09146 213.27680 206.28214
 200.11948 195.06083 191.64617 189.69151 188.73186 188.79920 189.63754 190.94888
 192.67723 194.77557 197.04191 199.40426 201.85260 204.33594 206.42728 208.27263
 209.90197 211.05031 211.28266 211.51400 211.45434 211.16268 210.79903 210.43237
 210.05271 209.76605 209.57740 209.44474 209.37608 209.71043 210.09977 210.49211
 211.28845 212.46980 213.72314 215.50948 217.44083 219.48717 221.58551 223.67185
 225.73520 227.82254 229.92288 232.03222 234.16457 236.33991 238.59925 240.97260
 243.59694 245.85128 247.85662 249.62497 251.04531 252.17165 252.99700 253.31634
 253.35668 253.13402 252.49737 251.44871 250.05805 248.22240 246.13474 243.97108
 241.76542 239.57277 237.39611 235.23845 233.10179 230.97214 229.00148 227.16182
 225.44817 223.92351 222.55685 221.33219 220.21754 219.18088 218.28822 217.43257
 216.67791 215.86125 214.96259 214.32994 213.78328 214.49414 216.17363 219.01424
 222.05370 223.59245 224.26488 225.13068 226.21870 226.96542 226.85789 226.18758
 225.90671 227.66685 231.61920 236.40137 241.01276 245.31522 249.41772 253.25807
 256.65195 259.61710 262.39630 265.26349 267.68341 269.59976 271.35474 273.11102
 274.83615 276.45154 277.94980 279.30411 280.48972 281.54065 282.49954 283.38858
 284.22958 284.97775 285.64084 286.49689
 366.78100 356.33845 345.77391 334.64336 323.04982 311.24727 299.12072 286.92718
 274.64263 262.54309 250.55554 239.85999 229.98545 221.09290 213.27836 206.28381
 200.12126 195.06272 191.64817 189.69363 188.73408 188.80153 189.63999 190.95144
 192.67990 194.77835 197.04480 199.40726 201.85571 204.33917 206.43062 208.27607
 209.90553 211.05398 211.28644 211.51789 211.45835 211.16680 210.80325 210.43671
 210.05716 209.77062 209.58207 209.44952 209.38098 209.71543 210.10489 210.49734
 211.29379 212.47525 213.72870 215.51516 217.44661 219.49306 221.59152 223.67797
 225.74143 227.82888 229.92933 232.03879 234.17124 236.34670 238.60615 240.97960
 243.60406 245.85851 247.86397 249.63242 251.05287 252.17933 253.00478 253.32424
 253.36469 253.14214 252.50560 251.45705 250.06651 248.23096 246.14341 243.97987
 241.77432 239.58178 237.40523 235.24768 233.11114 230.98159 229.01105 227.17150
 225.45795 223.93341 222.56686 221.34232 220.22777 219.19122 218.29868 217.44313
 216.68859 215.87204 214.97350 214.34095 213.79440 214.52158 216.28780 218.93674
 221.93683 223.47401 224.12399 225.08908 226.30093 227.05481 226.72772 226.31471
 225.57869 227.43794 231.50305 236.37611 241.06313 245.40421 249.51677 253.35054
 256.76828 259.76855 262.58289 265.30026 267.61325 269.51938 271.13806 273.04224
 274.69815 276.30743 277.58511 278.83859 279.98801 281.04691 282.03934 282.97751
 283.82129 284.57266 285.22906 286.06558
 366.78100 356.33768 345.77236 334.64104 323.04671 311.24339 299.11607 286.92175
 274.63643 262.53611 250.54779 239.85146 229.97614 221.08282 213.26750 206.27218
 200.10886 195.04954 191.63421 189.67889 188.71857 188.78525 189.62293 190.93361
 192.66129 194.75896 197.02464 199.38632 201.83400 204.31668 206.40736 208.25204
 209.88071 211.02839 211.26007 211.49075 211.43043 211.13811 210.77379 210.40646
 210.02614 209.73882 209.54950 209.41618 209.34686 209.68054 210.06921 210.46089
 211.25657 212.43725 213.68993 215.47561 217.40629 219.45196 221.54964 223.63532
 225.69800 227.78468 229.88436 231.99304 234.12471 236.29939 238.55807 240.93075
 243.55443 245.80811 247.81279 249.58046 251.00014 252.12582 252.95050 253.26918
 253.30886 253.08554 252.44821 251.39889 250.00757 248.17125 246.08293 243.91861
 241.71229 239.51896 237.34164 235.18332 233.04600 230.91568 228.94436 227.10404
 225.38971 223.86439 222.49707 221.27175 220.15643 219.11911 218.22579 217.36947
 216.61414 215.79682 214.89750 214.26418 213.71686 214.50291 216.44231 218.93713
 221.85593 223.36829 224.21416 225.31595 226.50882 227.18211 226.75230 226.30664
 225.61058 227.52603 231.54173 236.35059 241.03972 245.41945 249.55511 253.40256
 256.85873 259.88159 262.71747 265.39542 267.65659 269.47757 271.10962 272.99591
 274.58911 275.94449 277.27365 278.61633 279.87128 281.09164 282.20505 283.21371
 284.12088 284.92874 285.63446 286.53381
 366.78100 356.33671 345.77041 334.63812 323.04282 311.23853 299.11023 286.91494
 274.62864 262.52735 250.53805 239.84076 229.96446 221.07017 213.25387 206.25758
 200.09328 195.03299 191.61669 189.66040 188.69910 188.76481 189.60151 190.91122
 192.63793 194.73463 196.99934 199.36004 201.80675 204.28845 206.37816 208.22186
 209.84957 210.99627 211.22698 211.45668 211.39539 211.10209 210.73680 210.36850
 209.98721 209.69891 209.50862 209.37432 209.30403 209.63673 210.02444 210.41515
 211.20985 212.38956 213.64126 215.42597 217.35567 219.40038 221.49708 223.58179
 225.64349 227.72920 229.82790 231.93561 234.06631 236.24002 238.49772 240.86943
 243.49213 245.74484 247.74854 249.51525 250.93396 252.05866 252.88237 253.20007
 253.23878 253.01448 252.37619 251.32589 249.93360 248.09630 246.00701 243.84171
 241.63442 239.44012 237.26183 235.10253 232.96424 230.83294 228.86065 227.01935
 225.30406 223.77776 222.40947 221.18318 220.06688 219.02859 218.13429 217.27700
 216.52070 215.70241 214.80211 214.16782 213.61952 214.45087 216.48494 219.05345
 221.62143 223.30910 224.30101 225.33687 226.52815 227.27850 226.90544 226.20183
 225.39050 227.34280 231.45518 236.30772 241.03667 245.40602 249.54878 253.41620
 256.88361 259.93240 262.77277 265.54333 267.92416 269.80347 271.38440 272.97546
 274.69159 276.11520 277.33432 278.66150 279.88107 281.06024 282.21011 283.25180
 284.18869 285.02301 285.75183 286.68066
 366.78100 356.33746 345.77193 334.64039 323.04586 311.24232 299.11479 286.92025
 274.63472 262.53418 250.54565 239.84911 229.97358 221.08004 213.26451 206.26897
 200.10544 195.04590 191.63037 189.67483 188.71430 188.78076 189.61823 190.92869
 192.65616 194.75362 197.01909 199.38055 201.82802 204.31048 206.40095 208.24541
 209.87388 211.02134 211.25281 211.48327 211.42274 211.13020 210.76567 210.39813
 210.01760 209.73006 209.54053 209.40699 209.33746 209.67092 210.05939 210.45085
 211.24632 212.42678 213.67925 215.46471 217.39518 219.44064 221.53811 223.62357
 225.68604 227.77250 229.87197 231.98043 234.11190 236.28636 238.54483 240.91729
 243.54076 245.79422 247.79869 249.56615 250.98562 252.11108 252.93555 253.25401
 253.29348 253.06994 252.43241 251.38287 249.99134 248.15480 246.06627 243.90173
 241.69520 239.50166 237.32413 235.16559 233.02806 230.89752 228.92599 227.08545
 225.37092 223.84538 222.47785 221.25231 220.13678 219.09924 218.20571 217.34917
 216.59364 215.77610 214.87657 214.24303 213.69550 214.48703 216.38138 219.19998
 221.74939 223.35841 224.42656 225.33426 226.29292 226.92480 226.98999 226.06075
 225.60796 227.41379 231.44337 236.29027 241.03658 245.36560 249.50424 253.32303
 256.73166 259.75607 262.60907 265.32700 267.72852 269.69821 271.40405 273.04462
 274.67041 276.19196 277.51352 278.73486 279.90475 280.96960 281.93826 282.82443
 283.66519 284.41403 285.06821 285.90189
 366.78100 356.33782 345.77264 334.64147 323.04729 311.24411 299.11693 286.92275
 274.63757 262.53740 250.54922 239.85304 229.97786 221.08468 213.26950 206.27433
 200.11115 195.05197 191.63679 189.68161 188.72143 188.78826 189.62608 190.93690
 192.66472 194.76254 197.02836 199.39019 201.83801 204.32083 206.41165 208.25647
 209.88529 211.03312 211.26494 211.49576 211.43558 211.14340 210.77922 210.41205
 210.03187 209.74469 209.55551 209.42233 209.35316 209.68698 210.07580 210.46762
 211.26344 212.44426 213.69709 215.48291 217.41373 219.45955 221.55737 223.64319
 225.70602 227.79284 229.89266 232.00148 234.13330 236.30812 238.56695 240.93977
 243.56359 245.81741 247.82223 249.59005 251.00988 252.13570 252.96052 253.27934
 253.31916 253.09598 252.45881 251.40963 250.01845 248.18227 246.09409 243.92991
 241.72374 239.53056 237.35338 235.19520 233.05802 230.92785 228.95667 227.11649
 225.40231 223.87713 222.50995 221.28478 220.16960 219.13242 218.23924 217.38306
 216.62788 215.81071 214.91153 214.27835 213.73117 214.52448 216.39874 219.08093
 221.98381 223.62846 224.42761 225.14192 225.99463 226.76662 226.99895 226.17601
 225.77629 227.52228 231.50751 236.33401 241.02753 245.36053 249.54100 253.36281
 256.76096 259.72617 262.53024 265.24509 267.62018 269.51169 271.21091 272.87781
 274.53082 276.01865 277.32043 278.51965 279.69254 280.69507 281.56915 282.43658
 283.23361 283.98752 284.64835 285.49051
 366.78100 356.33768 345.77237 334.64105 323.04674 311.24342 299.11611 286.92179
 274.63648 262.53616 250.54784 239.85153 229.97621 221.08290 213.26758 206.27227
 200.10895 195.04963 191.63432 189.67900 188.71869 188.78537 189.62306 190.93374
 192.66143 194.75911 197.02479 199.38648 201.83416 204.31685 206.40753 208.25222
 209.88090 211.02858 211.26027 211.49095 211.43064 211.13832 210.77401 210.40669
 210.02638 209.73906 209.54974 209.41643 209.34711 209.68080 210.06948 210.46117
 211.25685 212.43753 213.69022 215.47590 217.40659 219.45227 221.54996 223.63564
 225.69833 227.78501 229.88469 231.99338 234.12506 236.29975 238.55843 240.93112
 243.55480 245.80848 247.81317 249.58085 251.00054 252.12622 252.95091 253.26959
 253.30928 253.08596 252.44864 251.39933 250.00801 248.17170 246.08338 243.91907
 241.71275 239.51943 237.34212 235.18380 233.04649 230.91617 228.94486 227.10454
 225.39023 223.86491 222.49759 221.27228 220.15696 219.11965 218.22633 217.37002
 216.61470 215.79738 214.89807 214.26475 213.71744 214.53336 216.49522 219.05424
 221.93317 223.42494 224.22879 225.13075 226.09360 226.94780 226.97314 226.37494
 225.64220 227.36171 231.38525 236.27324 241.01932 245.40211 249.54153 253.36652
 256.76495 259.75275 262.56241 265.25955 267.60999 269.51950 271.20651 272.80460
 274.38065 275.83041 277.15402 278.19516 279.23566 280.26288 281.23792 282.18405
 283.04541 283.81244 284.48251 285.33646
 366.78100 356.33863 345.77426 334.64389 323.05052 311.24815 299.12178 286.92841
 274.64404 262.54467 250.55730 239.86193 229.98756 221.09519 213.28082 206.28645
 200.12408 195.06571 191.65134 189.69697 188.73760 188.80523 189.64386 190.95549
 192.68412 194.78275 197.04938 199.41201 201.86064 204.34427 206.43590 208.28153
 209.91116 211.05979 211.29242 211.52405 211.46468 211.17331 210.80994 210.44357
 210.06420 209.77783 209.58946 209.45710 209.38873 209.72336 210.11299 210.50562
 211.30225 212.48388 213.73751 215.52414 217.45577 219.50240 221.60103 223.68766
 225.75129 227.83892 229.93955 232.04918 234.18181 236.35744 238.61707 240.99070
 243.61533 245.86996 247.87559 249.64422 251.06485 252.19148 253.01711 253.33674
 253.37737 253.15500 252.51863 251.47026 250.07989 248.24452 246.15715 243.99378
 241.78841 239.59604 237.41967 235.26230 233.12593 230.99656 229.02619 227.18682
 225.47345 223.94908 222.58271 221.35834 220.24397 219.20760 218.31523 217.45986
 216.70549 215.88912 214.99075 214.35838 213.81201 214.60130 216.58588 219.14343
 221.75696 223.40334 224.60115 225.47931 226.27177 226.82715 226.77084 226.19814
 225.85234 227.73570 231.56111 236.26613 240.99036 245.44341 249.60153 253.40778
 256.80267 259.76651 262.55078 265.19357 267.51392 269.42679 271.10779 272.68863
 274.20670 275.43542 276.77994 278.29410 279.72327 280.98770 282.14130 283.18637
 284.12631 284.96335 285.69455 286.62637
 366.78100 356.33966 345.77632 334.64698 323.05465 311.25331 299.12797 286.93563
 274.65229 262.55395 250.56762 239.87328 229.99994 221.10860 213.29526 206.30192
 200.14059 195.08325 191.66991 189.71657 188.75823 188.82689 189.66656 190.97922
 192.70888 194.80854 197.07620 199.43986 201.88953 204.37419 206.46685 208.31351
 209.94417 211.09383 211.32749 211.56016 211.50182 211.21148 210.84914 210.48380
 210.10546 209.82013 209.63279 209.50145 209.43411 209.76977 210.16043 210.55410
 211.35176 212.53442 213.78908 215.57674 217.50940 219.55707 221.65673 223.74439
 225.80905 227.89771 229.99937 232.11004 234.24370 236.42036 238.68102 241.05568
 243.68134 245.93700 247.94367 249.71333 251.13499 252.26265 253.08931 253.40997
 253.45164 253.23030 252.59496 251.54762 250.15828 248.32394 246.23761 244.07527
 241.87093 239.67959 237.50425 235.34791 233.21258 231.08424 229.11490 227.27656
 225.56422 224.04088 222.67555 221.45221 220.33887 219.30353 218.41219 217.55785
 216.80451 215.98918 215.09184 214.46050 213.91516 214.67982 216.66765 219.17859
 221.71259 223.60783 224.84229 225.58699 226.27144 226.53934 226.90178 225.65460
 225.58704 227.71858 231.65445 236.34937 241.07755 245.56500 249.74231 253.58926
 256.93088 259.87689 262.62833 265.19183 267.39865 269.22443 270.79422 272.74417
 274.17014 276.23624 278.12198 279.77783 281.21078 282.47861 283.63528 284.68317
 285.62561 286.46487 287.19803 288.13235
 366.78100 356.34020 345.77739 334.64859 323.05679 311.25599 299.13118 286.93938
 274.65658 262.55877 250.57297 239.87917 230.00636 221.11556 213.30276 206.30996
 200.14915 195.09235 191.67955 189.72674 188.76894 188.83814 189.67833 190.99153
 192.72173 194.82193 197.09012 199.45432 201.90452 204.38971 206.48291 208.33011
 209.96131 211.11150 211.34570 211.57890 211.52109 211.23129 210.86949 210.50468
 210.12688 209.84208 209.65528 209.52447 209.45767 209.79387 210.18506 210.57926
 211.37746 212.56066 213.81585 215.60405 217.53725 219.58544 221.68564 223.77384
 225.83903 227.92823 230.03043 232.14163 234.27582 236.45302 238.71422 241.08941
 243.71561 245.97181 247.97900 249.74920 251.17140 252.29960 253.12679 253.44799
 253.49019 253.26938 252.63458 251.58778 250.19898 248.36517 246.27937 244.11757
 241.91376 239.72296 237.54816 235.39235 233.25755 231.12975 229.16095 227.32314
 225.61134 224.08854 222.72373 221.50093 220.38813 219.35332 218.46252 217.60872
 216.85592 216.04111 215.14431 214.51351 213.96870 214.72334 216.68246 219.15555
 221.72952 223.68282 224.83412 225.48651 226.09607 226.60724 226.85350 225.54633
 225.41943 227.60118 231.65376 236.38167 241.13141 245.63840 249.84447 253.69664
 257.06613 260.02130 262.80136 265.45157 267.73926 269.57977 270.99106 272.60349
 274.60675 276.75543 278.73288 280.46921 281.97183 283.30127 284.51419 285.61304
 286.60129 287.48135 288.25015 289.22992
 366.78100 356.33931 345.77562 334.64593 323.05323 311.25154 299.12585 286.93316
 274.64947 262.55078 250.56409 239.86940 229.99570 221.10401 213.29032 206.29663
 200.13494 195.07725 191.66356 189.70986 188.75117 188.81948 189.65879 190.97110
 192.70041 194.79972 197.06703 199.43033 201.87964 204.36395 206.45626 208.30257
 209.93288 211.08219 211.31549 211.54780 211.48911 211.19842 210.83573 210.47004
 210.09135 209.80566 209.61796 209.48627 209.41858 209.75389 210.14420 210.53751
 211.33482 212.51713 213.77143 215.55874 217.49105 219.53836 221.63767 223.72498
 225.78929 227.87759 229.97890 232.08921 234.22252 236.39883 238.65914 241.03345
 243.65876 245.91406 247.92037 249.68968 251.11099 252.23830 253.06461 253.38492
 253.42622 253.20453 252.56884 251.52115 250.13146 248.29677 246.21008 244.04739
 241.84269 239.65100 237.47531 235.31862 233.18293 231.05424 229.08455 227.24585
 225.53316 224.00947 222.64378 221.42009 220.30640 219.27071 218.37902 217.52432
 216.77063 215.95494 215.05725 214.42556 213.87987 214.68420 216.70346 219.12489
 221.63383 223.72231 224.87340 225.37503 225.86136 226.51384 226.66222 225.79179
 225.80128 227.78932 231.69136 236.35037 241.06232 245.54422 249.70795 253.49651
 256.87820 259.91901 262.75354 265.39880 267.73889 269.72681 271.44547 272.97186
 274.69376 276.52109 278.20395 279.82718 281.23978 282.48956 283.62982 284.66278
 285.59186 286.41916 287.14191 288.06296
 366.78100 356.33900 345.77501 334.64501 323.05202 311.25002 299.12403 286.93103
 274.64703 262.54804 250.56104 239.86605 229.99205 221.10006 213.28606 206.29206
 200.13007 195.07207 191.65808 189.70408 188.74509 188.81309 189.65209 190.96410
 192.69310 194.79211 197.05911 199.42212 201.87112 204.35512 206.44713 208.29313
 209.92314 211.07214 211.30514 211.53715 211.47815 211.18716 210.82416 210.45817
 210.07917 209.79317 209.60518 209.47318 209.40519 209.74019 210.13020 210.52320
 211.32020 212.50221 213.75621 215.54322 217.47522 219.52223 221.62123 223.70823
 225.77224 227.86024 229.96125 232.07125 234.20426 236.38026 238.64026 241.01427
 243.63927 245.89428 247.90028 249.66929 251.09029 252.21729 253.04330 253.36330
 253.40431 253.18231 252.54632 251.49832 250.10832 248.27333 246.18633 244.02334
 241.81834 239.62635 237.45035 235.29335 233.15736 231.02836 229.05837 227.21937
 225.50638 223.98238 222.61638 221.39239 220.27839 219.24240 218.35040 217.49540
 216.74141 215.92541 215.02742 214.39542 213.84943 214.67693 216.73587 219.13632
 221.57730 223.64163 224.99243 225.55090 225.84059 226.36339 226.47563 225.59723
 225.81837 227.92387 231.77779 236.41547 241.13771 245.63016 249.77686 253.51852
 256.80334 259.73758 262.51572 265.14392 267.53201 269.41083 271.08630 272.73529
 274.50333 276.31433 277.93655 279.49683 280.89581 282.13358 283.26282 284.28586
 285.20596 286.02533 286.74109 287.65326
 366.78100 356.33926 345.77552 334.64578 323.05303 311.25129 299.12555 286.93281
 274.64907 262.55033 250.56358 239.86884 229.99510 221.10336 213.28962 206.29588
 200.13414 195.07639 191.66265 189.70891 188.75017 188.81843 189.65769 190.96994
 192.69920 194.79846 197.06572 199.42898 201.87824 204.36250 206.45475 208.30101
 209.93127 211.08053 211.31379 211.54605 211.48731 211.19656 210.83382 210.46808
 210.08934 209.80360 209.61586 209.48411 209.41637 209.75163 210.14189 210.53515
 211.33241 212.51467 213.76892 215.55618 217.48844 219.53570 221.63496 223.72222
 225.78647 227.87473 229.97599 232.08625 234.21951 236.39577 238.65603 241.03028
 243.65554 245.91080 247.91706 249.68632 251.10758 252.23483 253.06109 253.38135
 253.42261 253.20087 252.56513 251.51739 250.12764 248.29290 246.20616 244.04342
 241.83868 239.64694 237.47119 235.31445 233.17871 231.04997 229.08023 227.24149
 225.52875 224.00500 222.63926 221.41552 220.30178 219.26604 218.37430 217.51956
 216.76581 215.95007 215.05233 214.42059 213.87485 214.71594 216.84396 219.15340
 221.58115 223.72330 225.09041 225.69366 225.96606 226.33556 226.54364 225.28520
 225.55746 227.90173 231.87000 236.51259 241.23344 245.75883 249.95985 253.71437
 256.98779 259.88922 262.53925 264.99728 267.12967 268.93423 270.71741 272.66791
 274.86499 276.96173 278.77612 280.36929 281.74805 282.96790 284.08081 285.08905
 285.99582 286.80334 287.50876 288.40771
 366.78100 356.34044 345.77789 334.64933 323.05777 311.25721 299.13266 286.94110
 274.65854 262.56098 250.57543 239.88187 230.00931 221.11875 213.30620 206.31364
 200.15308 195.09652 191.68397 189.73141 188.77385 188.84329 189.68374 190.99718
 192.72762 194.82806 197.09651 199.46095 201.91139 204.39683 206.49028 208.33772
 209.96916 211.11960 211.35405 211.58749 211.52993 211.24037 210.87882 210.51426
 210.13670 209.85214 209.66559 209.53503 209.46847 209.80492 210.19636 210.59080
 211.38924 212.57269 213.82813 215.61657 217.55001 219.59846 221.69890 223.78734
 225.85278 227.94223 230.04467 232.15611 234.29055 236.46800 238.72944 241.10488
 243.73132 245.98777 247.99521 249.76565 251.18809 252.31654 253.14398 253.46542
 253.50786 253.28731 252.65275 251.60619 250.21763 248.38408 246.29852 244.13696
 241.93340 239.74285 237.56829 235.41273 233.27817 231.15062 229.18206 227.34450
 225.63294 224.11039 222.74583 221.52327 220.41072 219.37616 218.48560 217.63204
 216.87949 216.06493 215.16837 214.53781 213.99326 214.79292 216.87415 219.20845
 221.48610 223.48045 225.00856 225.77899 226.11542 226.39587 226.76248 225.18834
 225.29710 227.62283 231.71967 236.47972 241.28384 245.86630 250.12468 253.96805
 257.30853 260.24646 262.88992 265.30618 267.38113 268.92746 270.75717 273.65894
 276.31866 278.59845 280.57123 282.30347 283.80255 285.12888 286.33896 287.43521
 288.42114 289.29913 290.06613 291.04358
 366.78100 356.34100 345.77900 334.65100 323.06000 311.25999 299.13599 286.94499
 274.66299 262.56599 250.58099 239.88799 230.01599 221.12599 213.31398 206.32198
 200.16198 195.10598 191.69398 189.74198 188.78498 188.85498 189.69598 191.00997
 192.74097 194.84197 197.11097 199.47597 201.92697 204.41297 206.50697 208.35497
 209.98696 211.13796 211.37296 211.60696 211.54996 211.26096 210.89996 210.53596
 210.15896 209.87495 209.68895 209.55895 209.49295 209.82995 210.22195 210.61695
 211.41595 212.59995 213.85594 215.64494 217.57894 219.62794 221.72894 223.81794
 225.88394 227.97394 230.07694 232.18893 234.32393 236.50193 238.76393 241.13993
 243.76693 246.02393 248.03193 249.80293 251.22592 252.35492 253.18292 253.50492
 253.54792 253.32792 252.69392 251.64792 250.25992 248.42691 246.34191 244.18091
 241.97791 239.78791 237.61391 235.45891 233.32491 231.19791 229.22990 227.39290
 225.68190 224.15990 222.79590 221.57390 220.46190 219.42790 218.53790 217.68489
 216.93289 216.11889 215.22289 214.59289 214.04889 214.82748 216.84439 219.18707
 221.55830 223.66544 225.07164 225.50595 225.72125 226.43790 226.73679 225.75229
 225.59755 227.60626 231.64453 236.32622 241.01971 245.50862 249.70038 253.52739
 256.98892 260.15494 263.07651 265.71457 267.96155 269.81403 271.50272 273.71460
 276.17795 278.45389 280.42334 282.15265 283.64920 284.97330 286.18134 287.27573
 288.25998 289.13651 289.90219 290.87799
 366.78100 356.34102 345.77903 334.65105 323.06006 311.26008 299.13609 286.94511
 274.66313 262.56614 250.58116 239.88817 230.01619 221.12621 213.31422 206.32224
 200.16225 195.10627 191.69428 189.74230 188.78532 188.85533 189.69635 191.01036
 192.74138 194.84240 197.11141 199.47643 201.92744 204.41346 206.50747 208.35549
 209.98751 211.13852 211.37354 211.60755 211.55057 211.26159 210.90060 210.53662
 210.15963 209.87565 209.68966 209.55968 209.49370 209.83071 210.22273 210.61774
 211.41676 212.60078 213.85679 215.64581 217.57982 219.62884 221.72985 223.81887
 225.88489 227.97490 230.07792 232.18993 234.32495 236.50297 238.76498 241.14100
 243.76801 246.02503 248.03304 249.80406 251.22708 252.35609 253.18411 253.50612
 253.54914 253.32916 252.69517 251.64919 250.26120 248.42822 246.34323 244.18225
 241.97927 239.78928 237.61530 235.46031 233.32633 231.19935 229.23136 227.39438
 225.68339 224.16141 222.79742 221.57544 220.46346 219.42947 218.53949 217.68650
 216.93452 216.12054 215.22455 214.59457 214.05058 214.83595 216.82909 219.15651
 221.46642 223.69177 225.29993 225.70219 225.50941 225.89066 226.04881 225.75314
 225.94719 227.88196 231.73775 236.39374 241.10391 245.57898 249.71638 253.45068
 256.73727 259.68744 262.54001 265.22446 267.58350 269.62796 271.50827 273.41638
 275.45825 277.35486 279.15488 280.75546 282.14066 283.36618 284.48428 285.49719
 286.40820 287.21948 287.92816 288.83133
 366.78100 356.34049 345.77798 334.64948 323.05797 311.25746 299.13295 286.94145
 274.65894 262.56143 250.57592 239.88242 230.00991 221.11940 213.30689 206.31438
 200.15388 195.09737 191.68486 189.73235 188.77485 188.84434 189.68483 190.99832
 192.72882 194.82931 197.09780 199.46229 201.91278 204.39828 206.49177 208.33926
 209.97075 211.12125 211.35574 211.58923 211.53172 211.24222 210.88071 210.51620
 210.13869 209.85418 209.66768 209.53717 209.47066 209.80715 210.19865 210.59314
 211.39163 212.57512 213.83061 215.61911 217.55260 219.60109 221.70158 223.79008
 225.85557 227.94506 230.04755 232.15905 234.29354 236.47103 238.73252 241.10801
 243.73451 245.99100 247.99849 249.76898 251.19148 252.31997 253.14746 253.46895
 253.51145 253.29094 252.65643 251.60992 250.22141 248.38791 246.30240 244.14089
 241.93738 239.74688 237.57237 235.41686 233.28235 231.15485 229.18634 227.34883
 225.63732 224.11481 222.75031 221.52780 220.41529 219.38078 218.49028 217.63677
 216.88426 216.06975 215.17325 214.54274 213.99823 214.83371 216.93629 219.12633
 221.45158 223.72615 225.32887 225.77124 225.48434 225.88660 226.31313 225.52785
 225.76028 227.92798 231.83231 236.46930 241.19495 245.73592 249.94690 253.71840
 257.00766 259.89243 262.51675 264.95764 267.18164 269.19058 271.14789 273.51788
 275.89728 278.03973 279.89368 281.52158 282.93039 284.17682 285.31400 286.34421
 287.27078 288.09589 288.81668 289.73523
 366.78100 356.34058 345.77816 334.64974 323.05832 311.25790 299.13348 286.94206
 274.65964 262.56222 250.57680 239.88338 230.01096 221.12054 213.30812 206.31570
 200.15528 195.09886 191.68644 189.73402 188.77660 188.84618 189.68676 191.00034
 192.73092 194.83150 197.10008 199.46466 201.91524 204.40082 206.49440 208.34198
 209.97356 211.12414 211.35872 211.59230 211.53488 211.24546 210.88404 210.51962
 210.14220 209.85778 209.67136 209.54094 209.47452 209.81110 210.20268 210.59726
 211.39584 212.57942 213.83500 215.62358 217.55716 219.60574 221.70632 223.79490
 225.86048 227.95006 230.05264 232.16422 234.29880 236.47638 238.73796 241.11354
 243.74012 245.99670 248.00428 249.77486 251.19744 252.32602 253.15360 253.47518
 253.51776 253.29734 252.66292 251.61650 250.22808 248.39466 246.30924 244.14782
 241.94440 239.75398 237.57956 235.42414 233.28972 231.16230 229.19388 227.35646
 225.64504 224.12262 222.75820 221.53578 220.42336 219.38894 218.49852 217.64510
 216.89268 216.07826 215.18184 214.55142 214.00700 214.85165 216.99074 219.14705
 221.32062 223.53755 225.30711 225.78990 225.52412 225.83875 226.56155 225.45381
 225.65100 227.79266 231.70010 236.41101 241.19865 245.77130 250.02603 253.87653
 257.19794 260.10269 262.71732 265.13477 267.32214 269.15002 271.65115 274.57211
 277.20355 279.45911 281.41092 283.12473 284.60791 285.92014 287.11734 288.20193
 289.17740 290.04605 290.80487 291.77194
 366.78100 356.34102 345.77905 334.65107 323.06010 311.26012 299.13614 286.94517
 274.66319 262.56622 250.58124 239.88826 230.01629 221.12631 213.31434 206.32236
 200.16239 195.10641 191.69443 189.74246 188.78548 188.85551 189.69653 191.01055
 192.74158 194.84260 197.11163 199.47665 201.92767 204.41370 206.50772 208.35575
 209.98777 211.13879 211.37382 211.60784 211.55087 211.26189 210.90091 210.53694
 210.15996 209.87599 209.69001 209.56003 209.49406 209.83108 210.22311 210.61813
 211.41716 212.60118 213.85720 215.64623 217.58025 219.62928 221.73030 223.81932
 225.88535 227.97537 230.07840 232.19042 234.32544 236.50347 238.76549 241.14152
 243.76854 246.02556 248.03359 249.80461 251.22764 252.35666 253.18468 253.50671
 253.54973 253.32976 252.69578 251.64981 250.26183 248.42885 246.34388 244.18290
 241.97993 239.78995 237.61597 235.46100 233.32702 231.20005 229.23207 227.39509
 225.68412 224.16214 222.79817 221.57619 220.46421 219.43024 218.54026 217.68729
 216.93531 216.12133 215.22536 214.59538 214.05141 214.87021 216.95973 219.18513
 221.33421 223.52727 225.26846 225.82626 225.53682 225.72533 225.99583 225.94611
 226.12015 227.83189 231.69290 236.35287 241.06099 245.56944 249.77097 253.58743
 256.99890 260.06949 262.87967 265.43625 267.69583 269.72910 271.81940 274.23621
 276.63626 278.88208 280.82544 282.53186 284.00864 285.31519 286.50720 287.58713
 288.55838 289.42328 290.17883 291.14172
 366.78100 356.34100 345.77899 334.65099 323.05999 311.25998 299.13598 286.94498
 274.66297 262.56597 250.58097 239.88796 230.01596 221.12596 213.31395 206.32195
 200.16195 195.10594 191.69394 189.74194 188.78493 188.85493 189.69593 191.00992
 192.74092 194.84192 197.11091 199.47591 201.92690 204.41290 206.50690 208.35489
 209.98689 211.13789 211.37288 211.60688 211.54988 211.26087 210.89987 210.53587
 210.15886 209.87486 209.68886 209.55885 209.49285 209.82985 210.22184 210.61684
 211.41584 212.59983 213.85583 215.64483 217.57882 219.62782 221.72882 223.81781
 225.88381 227.97381 230.07680 232.18880 234.32380 236.50179 238.76379 241.13979
 243.76678 246.02378 248.03178 249.80277 251.22577 252.35477 253.18276 253.50476
 253.54776 253.32775 252.69375 251.64775 250.25974 248.42674 246.34174 244.18073
 241.97773 239.78772 237.61372 235.45872 233.32471 231.19771 229.22971 227.39270
 225.68170 224.15970 222.79569 221.57369 220.46169 219.42768 218.53768 217.68468
 216.93267 216.11867 215.22267 214.59266 214.04866 214.87784 216.96730 219.18184
 221.29509 223.48407 225.22549 225.79739 225.60085 225.60512 225.57443 225.86610
 226.29257 227.69476 231.64954 236.36450 241.09021 245.60138 249.79405 253.59258
 256.95120 259.97293 262.77200 265.32968 267.58673 269.63925 271.73242 274.03168
 276.17377 278.20663 280.04556 281.66028 283.05768 284.29404 285.42200 286.44388
 287.36292 288.18134 288.89630 289.80743
 366.78100 356.34170 345.78039 334.65309 323.06279 311.26348 299.14018 286.94988
 274.66857 262.57227 250.58797 239.89567 230.02436 221.13506 213.32376 206.33245
 200.17315 195.11785 191.70654 189.75524 188.79894 188.86963 189.71133 191.02603
 192.75772 194.85942 197.12912 199.49481 201.94651 204.43321 206.52790 208.37660
 210.00930 211.16100 211.39669 211.63139 211.57509 211.28678 210.92648 210.56318
 210.18687 209.90357 209.71827 209.58896 209.52366 209.86136 210.25405 210.64975
 211.44945 212.63414 213.89084 215.68054 217.61524 219.66493 221.76663 223.85633
 225.92302 228.01372 230.11742 232.23011 234.36581 236.54451 238.80720 241.18390
 243.81160 246.06929 248.07799 249.84969 251.27338 252.40308 253.23178 253.55447
 253.59817 253.37887 252.74557 251.70026 250.31296 248.48066 246.39635 244.23605
 242.03375 239.84444 237.67114 235.51684 233.38353 231.25723 229.28993 227.45362
 225.74332 224.22202 222.85871 221.63741 220.52611 219.49281 218.60350 217.75120
 216.99990 216.18659 215.29129 214.66199 214.11868 214.92657 216.97289 219.17445
 221.26985 223.46507 225.15675 225.64224 225.45544 225.50171 225.71281 225.85591
 226.38400 227.67545 231.65631 236.38449 241.14522 245.67967 249.88672 253.67653
 256.98126 259.95673 262.77579 265.39835 267.66107 269.61960 271.70377 274.03946
 276.18570 278.22049 280.06360 281.68198 283.08255 284.32169 285.45224 286.47641
 287.39755 288.21783 288.93442 289.84760
 366.78100 356.34126 345.77951 334.65177 323.06102 311.26128 299.13754 286.94679
 274.66505 262.56830 250.58356 239.89081 230.01907 221.12933 213.31758 206.32584
 200.16609 195.11035 191.69861 189.74686 188.79012 188.86037 189.70163 191.01588
 192.74714 194.84840 197.11765 199.48291 201.93416 204.42042 206.51468 208.36293
 209.99519 211.14644 211.38170 211.61595 211.55921 211.27047 210.90972 210.54598
 210.16923 209.88549 209.69975 209.57000 209.50426 209.84151 210.23377 210.62902
 211.42828 212.61254 213.86879 215.65805 217.59230 219.64156 221.74282 223.83207
 225.89833 227.98858 230.09184 232.20410 234.33935 236.51761 238.77986 241.15612
 243.78337 246.04063 248.04889 249.82014 251.24340 252.37265 253.20091 253.52317
 253.56642 253.34668 252.71293 251.66719 250.27944 248.44670 246.36196 244.20121
 241.99847 239.80872 237.63498 235.48024 233.34649 231.21975 229.25200 227.41526
 225.70451 224.18277 222.81903 221.59728 220.48554 219.45179 218.56205 217.70931
 216.95756 216.14382 215.24807 214.61833 214.07458 214.90953 216.97256 219.15205
 221.16937 223.37502 225.06183 225.52649 225.31250 225.31828 225.63107 225.92442
 226.52722 228.10728 231.76164 236.43076 241.17583 245.70964 249.90106 253.67204
 256.98392 259.95880 262.75436 265.38211 267.70511 269.74008 271.78064 273.96469
 276.04846 277.86948 279.48941 281.01770 282.34930 283.52740 284.60226 285.57602
 286.45178 287.23166 287.91296 288.78119
 366.78100 356.34029 345.77758 334.64887 323.05716 311.25645 299.13174 286.94002
 274.65731 262.55960 250.57389 239.88018 230.00747 221.11676 213.30405 206.31134
 200.15063 195.09392 191.68121 189.72849 188.77078 188.84007 189.68036 190.99365
 192.72394 194.82423 197.09252 199.45681 201.90710 204.39239 206.48568 208.33297
 209.96425 211.11454 211.34883 211.58212 211.52441 211.23470 210.87299 210.50828
 210.13057 209.84586 209.65915 209.52844 209.46173 209.79801 210.18930 210.58359
 211.38188 212.56517 213.82046 215.60875 217.54204 219.59033 221.69062 223.77891
 225.84420 227.93348 230.03577 232.14706 234.28135 236.45864 238.71993 241.09522
 243.72151 245.97780 247.98509 249.75538 251.17767 252.30596 253.13324 253.45453
 253.49682 253.27611 252.64140 251.59469 250.20598 248.37227 246.28656 244.12485
 241.92114 239.73043 237.55571 235.40000 233.26529 231.13758 229.16887 227.33116
 225.61945 224.09674 222.73203 221.50932 220.39661 219.36190 218.47119 217.61747
 216.86476 216.05005 215.15334 214.52263 213.97792 214.86113 216.98911 219.15756
 221.04169 223.08034 224.89764 225.54523 225.32155 225.14926 225.55830 225.61063
 226.60965 228.14394 231.75763 236.47894 241.18942 245.70891 249.90349 253.69054
 257.03299 260.02316 262.79343 265.41180 267.78918 269.89923 271.86774 273.83502
 275.75458 277.46771 279.00079 280.37149 281.59091 282.72501 283.77628 284.72864
 285.58517 286.34793 287.01425 287.86340
 366.78100 356.34036 345.77771 334.64907 323.05743 311.25679 299.13214 286.94050
 274.65786 262.56022 250.57457 239.88093 230.00829 221.11764 213.30500 206.31236
 200.15172 195.09507 191.68243 189.72979 188.77215 188.84150 189.68186 190.99522
 192.72557 194.82593 197.09429 199.45865 201.90900 204.39436 206.48772 208.33508
 209.96643 211.11679 211.35115 211.58450 211.52686 211.23722 210.87558 210.51093
 210.13329 209.84865 209.66200 209.53136 209.46472 209.80108 210.19243 210.58679
 211.38515 212.56851 213.82386 215.61222 217.54558 219.59393 221.69429 223.78265
 225.84801 227.93736 230.03972 232.15108 234.28544 236.46279 238.72415 241.09951
 243.72586 245.98222 247.98958 249.75994 251.18229 252.31065 253.13801 253.45937
 253.50172 253.28108 252.64644 251.59979 250.21115 248.37751 246.29187 244.13022
 241.92658 239.73594 237.56130 235.40565 233.27101 231.14337 229.17472 227.33708
 225.62544 224.10280 222.73815 221.51551 220.40287 219.36823 218.47758 217.62394
 216.87130 216.05665 215.16001 214.52937 213.98473 214.87141 217.00392 219.17418
 221.00552 222.99603 224.81317 225.43408 225.28586 225.07385 225.35553 225.70992
 226.59619 228.19012 231.81894 236.50374 241.23076 245.75139 249.95154 253.74174
 257.08316 260.07019 262.82776 265.43420 267.82886 269.96265 271.97174 273.92227
 275.78473 277.42868 278.88028 280.24277 281.45999 282.60025 283.67200 284.64291
 285.51617 286.29379 286.97311 287.83884
 366.78100 356.34071 345.77842 334.65013 323.05884 311.25855 299.13426 286.94297
 274.66068 262.56339 250.57810 239.88481 230.01252 221.12223 213.30994 206.31765
 200.15736 195.10107 191.68878 189.73649 188.77920 188.84891 189.68962 191.00333
 192.73404 194.83475 197.10346 199.46817 201.91888 204.40459 206.49830 208.34601
 209.97772 211.12843 211.36314 211.59685 211.53956 211.25027 210.88898 210.52469
 210.14740 209.86311 209.67682 209.54653 209.48024 209.81695 210.20866 210.60337
 211.40208 212.58579 213.84150 215.63021 217.56392 219.61263 221.71334 223.80205
 225.86776 227.95747 230.06018 232.17189 234.30660 236.48431 238.74602 241.12173
 243.74844 246.00515 248.01286 249.78357 251.20628 252.33499 253.16270 253.48441
 253.52712 253.30683 252.67254 251.62625 250.23796 248.40467 246.31938 244.15809
 241.95480 239.76451 237.59022 235.43493 233.30064 231.17335 229.20506 227.36777
 225.65648 224.13419 222.76990 221.54761 220.43532 219.40103 218.51074 217.65745
 216.90516 216.09087 215.19458 214.56429 214.02000 214.89523 217.00037 219.20903
 220.93321 222.94081 224.77180 225.29852 225.19096 224.92242 225.16624 225.82910
 226.66661 228.24783 231.90883 236.54860 241.28381 245.80975 250.01062 253.79526
 257.12067 260.09235 262.84128 265.44662 267.84525 269.99658 272.05219 274.03131
 275.87674 277.48615 278.91046 280.27521 281.48782 282.60678 283.67072 284.63458
 285.50150 286.27344 286.94781 287.80725
 366.78100 356.34150 345.78001 334.65251 323.06202 311.26252 299.13902 286.94853
 274.66703 262.57053 250.58604 239.89354 230.02205 221.13255 213.32105 206.32956
 200.17006 195.11456 191.70307 189.75157 188.79508 188.86558 189.70708 191.02159
 192.75309 194.85460 197.12410 199.48960 201.94111 204.42761 206.52211 208.37062
 210.00312 211.15463 211.39013 211.62463 211.56814 211.27964 210.91914 210.55565
 210.17915 209.89566 209.71016 209.58066 209.51517 209.85267 210.24518 210.64068
 211.44018 212.62469 213.88119 215.67069 217.60520 219.65470 221.75621 223.84571
 225.91221 228.00272 230.10622 232.21872 234.35423 236.53273 238.79524 241.17174
 243.79924 246.05675 248.06525 249.83675 251.26026 252.38976 253.21827 253.54077
 253.58427 253.36478 252.73128 251.68579 250.29829 248.46579 246.38130 244.22080
 242.01830 239.82881 237.65531 235.50082 233.36732 231.24082 229.27333 227.43683
 225.72633 224.20484 222.84134 221.61985 220.50835 219.47485 218.58536 217.73286
 216.98137 216.16787 215.27237 214.64288 214.09938 214.94016 216.94952 219.26106
 220.97241 222.85069 224.71118 225.23068 225.07930 224.75296 225.04675 225.76991
 226.64514 228.21802 231.99179 236.59737 241.34976 245.88449 250.08299 253.86404
 257.18094 260.14224 262.88928 265.46899 267.83966 270.00363 272.07913 274.09515
 275.92059 277.49292 278.87198 280.22397 281.41998 282.49268 283.49124 284.40668
 285.23077 285.96460 286.60568 287.42264
 366.78100 356.34215 345.78130 334.65445 323.06460 311.26575 299.14290 286.95305
 274.67220 262.57635 250.59250 239.90066 230.02981 221.14096 213.33011 206.33926
 200.18041 195.12556 191.71471 189.76386 188.80801 188.87916 189.72131 191.03646
 192.76861 194.87076 197.14091 199.50706 201.95921 204.44636 206.54151 208.39066
 210.02382 211.17597 211.41212 211.64727 211.59142 211.30357 210.94372 210.58087
 210.20502 209.92217 209.73732 209.60847 209.54362 209.88177 210.27492 210.67107
 211.47122 212.65637 213.91352 215.70367 217.63882 219.68898 221.79113 223.88128
 225.94843 228.03958 230.14373 232.25688 234.39303 236.57218 238.83533 241.21248
 243.84063 246.09878 248.10793 249.88008 251.30423 252.43438 253.26353 253.58668
 253.63083 253.41198 252.77913 251.73429 250.34744 248.51559 246.43174 244.27189
 242.07004 239.88119 237.70834 235.55449 233.42164 231.29579 229.32894 227.49309
 225.78324 224.26239 222.89954 221.67869 220.56784 219.53499 218.64614 217.79429
 217.04345 216.23060 215.33575 214.70690 214.16405 214.98163 216.92207 219.26401
 221.05229 222.88614 224.63120 225.12494 224.94469 224.62671 224.92415 225.72984
 226.63113 228.39264 232.11693 236.67088 241.43288 245.97504 250.16992 253.95467
 257.26163 260.20636 262.94791 265.51450 267.86224 270.01767 272.11429 274.14316
 275.99152 277.57605 278.90637 280.05658 281.09509 282.14377 283.14633 284.05426
 284.87830 285.61270 286.25424 287.07184
 366.78100 356.34206 345.78112 334.65418 323.06425 311.26531 299.14237 286.95243
 274.67149 262.57555 250.59162 239.89968 230.02874 221.13980 213.32886 206.33792
 200.17898 195.12405 191.71311 189.76217 188.80623 188.87729 189.71935 191.03441
 192.76648 194.86854 197.13860 199.50466 201.95672 204.44378 206.53885 208.38791
 210.02097 211.17303 211.40909 211.64415 211.58821 211.30028 210.94034 210.57740
 210.20146 209.91852 209.73358 209.60465 209.53971 209.87777 210.27083 210.66689
 211.46695 212.65201 213.90908 215.69914 217.63420 219.68426 221.78632 223.87638
 225.94344 228.03451 230.13857 232.25163 234.38769 236.56675 238.82981 241.20688
 243.83494 246.09300 248.10206 249.87412 251.29818 252.42824 253.25731 253.58037
 253.62443 253.40549 252.77255 251.72761 250.34068 248.50874 246.42480 244.26486
 242.06292 239.87398 237.70104 235.54711 233.41417 231.28823 229.32129 227.48535
 225.77541 224.25447 222.89154 221.67060 220.55966 219.52672 218.63778 217.78584
 217.03491 216.22197 215.32703 214.69809 214.15515 214.98601 216.94902 219.23651
 221.08676 222.92841 224.55212 224.99362 224.78868 224.49397 224.82907 225.72224
 226.59613 228.50830 232.23761 236.78438 241.52736 246.07176 250.25832 254.04422
 257.34082 260.26776 262.99704 265.55719 267.89307 270.03830 272.14389 274.18655
 276.02710 277.59967 278.91751 280.00632 280.99567 282.02499 283.00925 283.91098
 284.70544 285.43427 286.07092 286.88229
 366.78100 356.34177 345.78055 334.65332 323.06309 311.26387 299.14064 286.95041
 274.66919 262.57296 250.58873 239.89651 230.02528 221.13605 213.32483 206.33360
 200.17437 195.11915 191.70792 189.75669 188.80047 188.87124 189.71301 191.02779
 192.75956 194.86133 197.13111 199.49688 201.94865 204.43542 206.53020 208.37897
 210.01174 211.16352 211.39929 211.63406 211.57784 211.28961 210.92938 210.56616
 210.18993 209.90670 209.72148 209.59225 209.52702 209.86480 210.25757 210.65334
 211.45312 212.63789 213.89466 215.68444 217.61921 219.66898 221.77076 223.86053
 225.92730 228.01808 230.12185 232.23462 234.37040 236.54917 238.81194 241.18872
 243.81649 246.07426 248.08304 249.85481 251.27858 252.40836 253.23713 253.55990
 253.60368 253.38445 252.75122 251.70600 250.31877 248.48654 246.40232 244.24209
 242.03986 239.85064 237.67741 235.52318 233.38996 231.26373 229.29650 227.46027
 225.75005 224.22882 222.86559 221.64437 220.53314 219.49991 218.61069 217.75846
 217.00723 216.19401 215.29878 214.66955 214.12633 214.97952 216.99529 219.19998
 221.11417 222.93344 224.44989 224.88576 224.67754 224.36557 224.64732 225.72348
 226.64326 228.57587 232.32492 236.89919 241.63052 246.16620 250.34473 254.12810
 257.41446 260.33173 263.04861 265.59381 267.91763 270.06131 272.18442 274.23886
 276.06256 277.60672 278.90451 280.00146 280.89386 281.90195 282.87509 283.77139
 284.55869 285.29004 285.93469 286.75626
 366.78100 356.34175 345.78050 334.65325 323.06299 311.26374 299.14049 286.95024
 274.66899 262.57274 250.58848 239.89623 230.02498 221.13573 213.32448 206.33323
 200.17397 195.11872 191.70747 189.75622 188.79997 188.87072 189.71246 191.02721
 192.75896 194.86071 197.13046 199.49621 201.94796 204.43470 206.52945 208.37820
 210.01095 211.16270 211.39845 211.63319 211.57694 211.28869 210.92844 210.56519
 210.18894 209.90568 209.72043 209.59118 209.52593 209.86368 210.25643 210.65217
 211.45192 212.63667 213.89342 215.68317 217.61792 219.66767 221.76941 223.85916
 225.92591 228.01666 230.12041 232.23316 234.36890 236.54765 238.81040 241.18715
 243.81490 246.07265 248.08139 249.85314 251.27689 252.40664 253.23539 253.55814
 253.60189 253.38263 252.74938 251.70413 250.31688 248.48463 246.40038 244.24012
 242.03787 239.84862 237.67537 235.52112 233.38787 231.26161 229.29436 227.45811
 225.74786 224.22661 222.86336 221.64210 220.53085 219.49760 218.60835 217.75610
 217.00485 216.19160 215.29634 214.66709 214.12384 214.98566 217.02179 219.17926
 221.12666 222.91847 224.36490 224.77539 224.54053 224.23666 224.52502 225.60664
 226.56564 228.68471 232.45419 237.03061 241.75015 246.27399 250.43774 254.20380
 257.48462 260.39478 263.10443 265.62711 267.93222 270.08023 272.22684 274.28995
 276.08997 277.59680 278.87299 279.97318 280.85675 281.85294 282.83102 283.72531
 284.51486 285.23425 285.88126 286.70578
 366.78100 356.34209 345.78118 334.65426 323.06435 311.26544 299.14253 286.95262
 274.67170 262.57579 250.59188 239.89997 230.02905 221.14014 213.32923 206.33832
 200.17941 195.12449 191.71358 189.76267 188.80676 188.87785 189.71993 191.03502
 192.76711 194.86920 197.13929 199.50537 201.95746 204.44455 206.53964 208.38873
 210.02181 211.17390 211.40999 211.64508 211.58916 211.30125 210.94134 210.57843
 210.20252 209.91960 209.73469 209.60578 209.54087 209.87896 210.27204 210.66813
 211.46822 212.65331 213.91040 215.70048 217.63557 219.68566 221.78775 223.87784
 225.94492 228.03601 230.14010 232.25319 234.38927 236.56836 238.83145 241.20854
 243.83663 246.09471 248.10380 249.87589 251.29998 252.43007 253.25915 253.58224
 253.62633 253.40742 252.77451 251.72959 250.34268 248.51077 246.42686 244.26694
 242.06503 239.87612 237.70321 235.54930 233.41638 231.29047 229.32356 227.48765
 225.77774 224.25682 222.89391 221.67300 220.56209 219.52918 218.64026 217.78835
 217.03744 216.22453 215.32962 214.70070 214.15779 215.00981 217.02281 219.18916
 221.11456 222.89328 224.31375 224.69090 224.37511 224.03285 224.38992 225.55531
 226.53783 228.75343 232.60358 237.18408 241.87964 246.38348 250.53091 254.27573
 257.53961 260.44949 263.15756 265.66144 267.94974 270.10870 272.27753 274.34024
 276.10715 277.56113 278.78876 279.85031 280.86038 281.87891 282.85806 283.76263
 284.57535 285.28726 285.91666 286.71875
 366.78100 356.34288 345.78277 334.65665 323.06754 311.26942 299.14730 286.95819
 274.67807 262.58296 250.59984 239.90873 230.03861 221.15049 213.34038 206.35026
 200.19215 195.13803 191.72791 189.77780 188.82268 188.89457 189.73745 191.05333
 192.78622 194.88910 197.15999 199.52687 201.97976 204.46764 206.56352 208.41341
 210.04729 211.20018 211.43706 211.67294 211.61783 211.33071 210.97160 210.60948
 210.23436 209.95225 209.76813 209.64002 209.57590 209.91479 210.30867 210.70555
 211.50644 212.69232 213.95021 215.74109 217.67697 219.72786 221.83074 223.92163
 225.98951 228.08139 230.18628 232.30016 234.43705 236.61693 238.88082 241.25870
 243.88758 246.14647 248.15635 249.92924 251.35412 252.48500 253.31489 253.63877
 253.68366 253.46554 252.83342 251.78931 250.40319 248.57208 246.48896 244.32985
 242.12873 239.94061 237.76850 235.61538 233.48327 231.35815 229.39203 227.55692
 225.84780 224.32769 222.96557 221.74545 220.63534 219.60322 218.71511 217.86399
 217.11388 216.30176 215.40764 214.77953 214.23741 215.05893 216.99983 219.22253
 221.08717 222.82791 224.23291 224.62329 224.27652 223.85919 224.14639 225.41745
 226.61255 228.90500 232.73552 237.31526 242.00027 246.48827 250.61917 254.34396
 257.59433 260.50427 263.21634 265.70590 267.98166 270.15292 272.33926 274.39719
 276.12860 277.53522 278.72400 279.75696 280.80118 281.84454 282.82162 283.72226
 284.53754 285.25839 285.89734 286.71158
 366.78100 356.34364 345.78428 334.65892 323.07056 311.27320 299.15184 286.96348
 274.68413 262.58977 250.60741 239.91705 230.04769 221.16033 213.35097 206.36161
 200.20425 195.15089 191.74153 189.79217 188.83781 188.91045 189.75409 191.07073
 192.80438 194.90802 197.17966 199.54730 202.00094 204.48958 206.58622 208.43686
 210.07150 211.22514 211.46278 211.69942 211.64506 211.35870 211.00034 210.63899
 210.26463 209.98327 209.79991 209.67255 209.60919 209.94883 210.34347 210.74111
 211.54275 212.72939 213.98803 215.77967 217.71631 219.76795 221.87159 223.96324
 226.03188 228.12452 230.23016 232.34480 234.48244 236.66308 238.92772 241.30636
 243.93600 246.19564 248.20628 249.97992 251.40556 252.53720 253.36785 253.69249
 253.73813 253.52077 252.88941 251.84605 250.46069 248.63033 246.54797 244.38961
 242.18925 240.00189 237.83053 235.67817 233.54681 231.42245 229.45710 227.62274
 225.91438 224.39502 223.03366 221.81430 220.70494 219.67358 218.78622 217.93586
 217.18650 216.37514 215.48178 214.85442 214.31306 215.10803 216.98624 219.23708
 221.09366 222.78389 224.10565 224.48709 224.19765 223.75977 223.96207 225.19180
 226.60216 229.06766 232.89345 237.45894 242.12962 246.59900 250.71149 254.41725
 257.65488 260.56818 263.28619 265.76196 268.02319 270.19977 272.40027 274.44705
 276.12747 277.46213 278.60074 279.67654 280.77936 281.83255 282.81238 283.71207
 284.52441 285.24094 285.87704 286.68768
 366.78100 356.34374 345.78448 334.65923 323.07097 311.27371 299.15245 286.96419
 274.68494 262.59068 250.60842 239.91816 230.04891 221.16165 213.35239 206.36313
 200.20587 195.15262 191.74336 189.79410 188.83984 188.91258 189.75633 191.07307
 192.80681 194.91055 197.18230 199.55004 202.00378 204.49252 206.58926 208.44001
 210.07475 211.22849 211.46623 211.70297 211.64872 211.36246 211.00420 210.64294
 210.26868 209.98743 209.80417 209.67691 209.61365 209.95340 210.34814 210.74588
 211.54762 212.73436 213.99311 215.78485 217.72159 219.77333 221.87707 223.96882
 226.03756 228.13030 230.23604 232.35078 234.48853 236.66927 238.93401 241.31275
 243.94250 246.20224 248.21298 249.98672 251.41246 252.54421 253.37495 253.69969
 253.74543 253.52817 252.89692 251.85366 250.46840 248.63814 246.55589 244.39763
 242.19737 240.01011 237.83885 235.68660 233.55534 231.43108 229.46582 227.63156
 225.92331 224.40405 223.04279 221.82353 220.71427 219.68302 218.79576 217.94550
 217.19624 216.38499 215.49173 214.86447 214.32321 215.12378 217.01520 219.20461
 221.13228 222.79892 223.97853 224.30011 224.07083 223.65239 223.87793 224.98227
 226.49445 229.18723 233.08167 237.62643 242.26762 246.70964 250.79996 254.48276
 257.71295 260.63406 263.35211 265.81644 268.07529 270.26346 272.47275 274.50769
 276.14676 277.44330 278.55203 279.58994 280.67090 281.71283 282.66995 283.54242
 284.36041 285.09891 285.72577 286.52707
 366.78100 356.34373 345.78446 334.65918 323.07091 311.27364 299.15237 286.96409
 274.68482 262.59055 250.60828 239.91801 230.04873 221.16146 213.35219 206.36292
 200.20564 195.15237 191.74310 189.79383 188.83956 188.91228 189.75601 191.07274
 192.80647 194.91019 197.18192 199.54965 202.00338 204.49211 206.58883 208.43956
 210.07429 211.22802 211.46574 211.70247 211.64820 211.36193 211.00366 210.64238
 210.26811 209.98684 209.80357 209.67629 209.61302 209.95275 210.34748 210.74521
 211.54693 212.73366 213.99239 215.78412 217.72084 219.77257 221.87630 223.96803
 226.03676 228.12948 230.23521 232.34994 234.48767 236.66839 238.93312 241.31185
 243.94158 246.20131 248.21203 249.98576 251.41149 252.54322 253.37394 253.69867
 253.74440 253.52713 252.89586 251.85258 250.46731 248.63704 246.55477 244.39649
 242.19622 240.00895 237.83768 235.68541 233.55413 231.42986 229.46459 227.63032
 225.92204 224.40277 223.04150 221.82223 220.71296 219.68168 218.79441 217.94414
 217.19487 216.38359 215.49032 214.86305 214.32178 215.13295 217.04947 219.16618
 221.13914 222.79066 223.87782 224.13441 223.92323 223.50443 223.76791 224.83585
 226.38991 229.26372 233.26526 237.80411 242.41331 246.82689 250.89236 254.55190
 257.77219 260.69971 263.42236 265.87454 268.12524 270.31747 272.53275 274.55307
 276.14868 277.40817 278.48450 279.52844 280.62265 281.66119 282.61932 283.49646
 284.30313 285.04126 285.67322 286.47504
 366.78100 356.34399 345.78498 334.65997 323.07197 311.27496 299.15395 286.96594
 274.68693 262.59292 250.61092 239.92091 230.05190 221.16489 213.35588 206.36687
 200.20987 195.15686 191.74785 189.79884 188.84483 188.91782 189.76182 191.07881
 192.81280 194.91679 197.18878 199.55677 202.01076 204.49976 206.59675 208.44774
 210.08273 211.23672 211.47471 211.71171 211.65770 211.37169 211.01368 210.65267
 210.27866 209.99766 209.81465 209.68764 209.62463 209.96462 210.35961 210.75761
 211.55960 212.74659 214.00558 215.79757 217.73456 219.78655 221.89055 223.98254
 226.05153 228.14452 230.25051 232.36550 234.50350 236.68449 238.94948 241.32847
 243.95846 246.21845 248.22945 250.00344 251.42943 252.56142 253.39241 253.71740
 253.76340 253.54639 252.91538 251.87237 250.48736 248.65735 246.57534 244.41734
 242.21733 240.03032 237.85931 235.70730 233.57629 231.45229 229.48728 227.65327
 225.94526 224.42625 223.06524 221.84624 220.73723 219.70622 218.81921 217.96920
 217.22019 216.40918 215.51618 214.88917 214.34816 215.15466 217.06010 219.14822
 221.13316 222.75981 223.78528 223.98630 223.77003 223.34372 223.63080 224.69722
 226.31384 229.33995 233.43951 237.98128 242.56245 246.94972 250.99316 254.63289
 257.84531 260.77667 263.50317 265.94687 268.18399 270.37262 272.58780 274.59271
 276.14859 277.37445 278.42975 279.47540 280.59729 281.64267 282.60220 283.48019
 284.28479 285.01562 285.65585 286.46313
 366.78100 356.34440 345.78581 334.66121 323.07362 311.27702 299.15643 286.96883
 274.69023 262.59664 250.61504 239.92545 230.05685 221.17025 213.36166 206.37306
 200.21647 195.16387 191.75528 189.80668 188.85308 188.92649 189.77089 191.08830
 192.82270 194.92710 197.19951 199.56791 202.02232 204.51172 206.60913 208.46053
 210.09593 211.25034 211.48874 211.72615 211.67255 211.38696 211.02936 210.66876
 210.29517 210.01457 209.83198 209.70538 209.64278 209.98319 210.37859 210.77700
 211.57940 212.76681 214.02621 215.81861 217.75602 219.80842 221.91283 224.00523
 226.07463 228.16804 230.27444 232.38985 234.52825 236.70966 238.97506 241.35446
 243.98487 246.24527 248.25668 250.03108 251.45749 252.58989 253.42129 253.74670
 253.79310 253.57651 252.94591 251.90331 250.51872 248.68912 246.60753 244.44993
 242.25034 240.06374 237.89314 235.74155 233.61095 231.48736 229.52276 227.68917
 225.98157 224.46297 223.10238 221.88378 220.77519 219.74459 218.85799 218.00840
 217.25980 216.44921 215.55661 214.93002 214.38942 215.18269 217.05687 219.14467
 221.12616 222.72650 223.69707 223.83917 223.59518 223.16876 223.47525 224.56528
 226.26624 229.42546 233.60889 238.15625 242.71179 247.07401 251.09770 254.71982
 257.92526 260.86298 263.59473 266.02219 268.25235 270.42654 272.63617 274.62326
 276.14819 277.34927 278.39264 279.45157 280.58716 281.63498 282.59708 283.47653
 284.27792 285.00323 285.64102 286.44913
 366.78100 356.34479 345.78658 334.66237 323.07516 311.27895 299.15873 286.97152
 274.69331 262.60010 250.61889 239.92968 230.06147 221.17526 213.36705 206.37884
 200.22262 195.17041 191.76220 189.81399 188.86078 188.93457 189.77936 191.09715
 192.83194 194.93673 197.20951 199.57830 202.03309 204.52288 206.62067 208.47246
 210.10825 211.26304 211.50183 211.73962 211.68640 211.40119 211.04398 210.68377
 210.31056 210.03035 209.84814 209.72193 209.65972 210.00051 210.39630 210.79508
 211.59787 212.78566 214.04545 215.83824 217.77603 219.82882 221.93361 224.02640
 226.09619 228.18997 230.29676 232.41255 234.55134 236.73313 238.99892 241.37871
 244.00950 246.27029 248.28208 250.05686 251.48365 252.61644 253.44823 253.77402
 253.82081 253.60460 252.97439 251.93218 250.54797 248.71875 246.63754 244.48033
 242.28112 240.09491 237.92470 235.77349 233.64328 231.52007 229.55586 227.72264
 226.01543 224.49722 223.13701 221.91880 220.81059 219.78038 218.89417 218.04496
 217.29675 216.48654 215.59432 214.96811 214.42790 215.20908 217.05470 219.14259
 221.11343 222.69229 223.61008 223.69093 223.40610 222.98282 223.30539 224.43983
 226.23863 229.52017 233.77760 238.32956 242.86223 247.20322 251.21002 254.81432
 258.01242 260.95255 263.68826 266.10498 268.31625 270.49005 272.68408 274.65115
 276.15039 277.33212 278.37082 279.45059 280.59122 281.64069 282.60367 283.48352
 284.28271 285.00406 285.63782 286.45554
 366.78100 356.34517 345.78735 334.66352 323.07669 311.28086 299.16104 286.97421
 274.69638 262.60356 250.62273 239.93390 230.06607 221.18025 213.37242 206.38459
 200.22876 195.17694 191.76911 189.82128 188.86846 188.94263 189.78780 191.10597
 192.84115 194.94632 197.21949 199.58867 202.04384 204.53401 206.63218 208.48436
 210.12053 211.27570 211.51487 211.75305 211.70022 211.41539 211.05857 210.69874
 210.32591 210.04608 209.86426 209.73843 209.67660 210.01778 210.41395 210.81312
 211.61629 212.80447 214.06464 215.85781 217.79598 219.84916 221.95433 224.04750
 226.11768 228.21185 230.31902 232.43519 234.57437 236.75654 239.02271 241.40289
 244.03406 246.29523 248.30740 250.08258 251.50975 252.64292 253.47509 253.80127
 253.84844 253.63261 253.00279 251.96096 250.57713 248.74830 246.66748 244.51065
 242.31182 240.12600 237.95617 235.80534 233.67551 231.55269 229.58886 227.75603
 226.04920 224.53138 223.17155 221.95372 220.84590 219.81607 218.93024 218.08141
 217.33359 216.52376 215.63193 215.00611 214.46628 215.23680 217.05725 219.13713
 221.09842 222.65854 223.52391 223.53937 223.20978 222.78903 223.12265 224.31413
 226.21938 229.62288 233.94508 238.50024 243.01465 247.33926 251.33284 254.92026
 258.11038 261.05014 263.78433 266.19821 268.36621 270.56421 272.72656 274.67337
 276.15506 277.32626 278.36548 279.45914 280.60272 281.65305 282.61542 283.49481
 284.29373 285.01166 285.64252 286.45227
 366.78100 356.34562 345.78824 334.66486 323.07847 311.28309 299.16371 286.97733
 274.69995 262.60757 250.62719 239.93881 230.07142 221.18604 213.37866 206.39128
 200.23590 195.18452 191.77714 189.82975 188.87737 188.95199 189.79761 191.11623
 192.85185 194.95747 197.23108 199.60070 202.05632 204.54694 206.64556 208.49818
 210.13480 211.29042 211.53003 211.76865 211.71627 211.43189 211.07551 210.71613
 210.34375 210.06436 209.88298 209.75760 209.69622 210.03784 210.43446 210.83408
 211.63769 212.82631 214.08693 215.88055 217.81917 219.87279 221.97841 224.07203
 226.14264 228.23726 230.34488 232.46150 234.60112 236.78374 239.05036 241.43097
 244.06259 246.32421 248.33683 250.11245 251.54007 252.67369 253.50630 253.83292
 253.88054 253.66516 253.03578 251.99440 250.61102 248.78264 246.70225 244.54587
 242.34749 240.16211 237.99273 235.84235 233.71297 231.59058 229.62720 227.79482
 226.08844 224.57106 223.21168 221.99430 220.88692 219.85753 218.97215 218.12377
 217.37639 216.56701 215.67563 215.05025 214.51086 215.26724 217.05426 219.11931
 221.08665 222.63908 223.45209 223.39212 223.00426 222.57747 222.91780 224.17360
 226.19687 229.72905 234.11359 238.67308 243.17355 247.48668 251.46999 255.04256
 258.22644 261.16904 263.90305 266.27271 268.42157 270.63309 272.76202 274.68604
 276.15692 277.33194 278.38358 279.49182 280.63675 281.68652 282.65131 283.53116
 284.32990 285.05008 285.68137 286.49313
 366.78100 356.34605 345.78911 334.66616 323.08021 311.28526 299.16632 286.98037
 274.70342 262.61148 250.63153 239.94358 230.07663 221.19169 213.38474 206.39779
 200.24285 195.19190 191.78495 189.83801 188.88606 188.96111 189.80716 191.12622
 192.86227 194.96832 197.24238 199.61243 202.06848 204.55953 206.65859 208.51164
 210.14869 211.30475 211.54480 211.78385 211.73190 211.44796 211.09201 210.73306
 210.36112 210.08217 209.90122 209.77628 209.71533 210.05738 210.45443 210.85449
 211.65854 212.84759 214.10865 215.90270 217.84175 219.89580 222.00186 224.09591
 226.16696 228.26202 230.37007 232.48712 234.62717 236.81023 239.07728 241.45833
 244.09039 246.35244 248.36549 250.14154 251.56960 252.70365 253.53670 253.86376
 253.91181 253.69686 253.06792 252.02697 250.64402 248.81607 246.73613 244.58018
 242.38223 240.19729 238.02834 235.87839 233.74944 231.62750 229.66455 227.83260
 226.12666 224.60971 223.25076 222.03381 220.92687 219.89792 219.01297 218.16503
 217.41808 216.60913 215.71818 215.09324 214.55429 215.29619 217.04898 219.09796
 221.07375 222.62149 223.39026 223.24840 222.79674 222.35706 222.69780 224.02728
 226.17606 229.83488 234.27852 238.84119 243.33986 247.64731 251.62019 255.17621
 258.35443 261.30164 264.04263 266.18631 268.56494 270.72311 272.81186 274.70627
 276.14844 277.31534 278.39072 279.53125 280.68597 281.73569 282.70013 283.58096
 284.38019 285.10162 285.73181 286.53799
 366.78100 356.34649 345.78999 334.66748 323.08197 311.28747 299.16896 286.98345
 274.70694 262.61544 250.63593 239.94842 230.08192 221.19741 213.39090 206.40440
 200.24989 195.19938 191.79288 189.84637 188.89486 188.97036 189.81685 191.13634
 192.87283 194.97933 197.25382 199.62431 202.08081 204.57230 206.67179 208.52529
 210.16278 211.31927 211.55977 211.79926 211.74775 211.46425 211.10874 210.75023
 210.37872 210.10022 209.91971 209.79520 209.73470 210.07719 210.47468 210.87518
 211.67967 212.86916 214.13066 215.92515 217.86464 219.91914 222.02563 224.12012
 226.19161 228.28711 230.39560 232.51309 234.65359 236.83708 239.10457 241.48607
 244.11856 246.38105 248.39455 250.17104 251.59953 252.73403 253.56752 253.89501
 253.94350 253.72900 253.10049 252.05998 250.67748 248.84997 246.77046 244.61496
 242.41745 240.23294 238.06444 235.91493 233.78642 231.66492 229.70241 227.87090
 226.16539 224.64889 223.29038 222.07387 220.96737 219.93886 219.05435 218.20685
 217.46034 216.65183 215.76133 215.13682 214.59831 215.32564 217.04402 219.08308
 221.05505 222.59335 223.32445 223.11072 222.58658 222.12198 222.46236 223.86922
 226.15520 229.94182 234.44582 239.01480 243.51279 247.81982 251.78542 255.32767
 258.50327 261.45108 264.18860 266.17667 268.56247 270.81082 272.87634 274.76285
 276.20319 277.36514 278.43350 279.56290 280.71490 281.76364 282.72934 283.61011
 284.41141 285.13303 285.76584 286.57333
 366.78100 356.34681 345.79062 334.66842 323.08323 311.28904 299.17085 286.98566
 274.70946 262.61827 250.63908 239.95189 230.08569 221.20150 213.39531 206.40912
 200.25493 195.20473 191.79854 189.85235 188.90116 188.97697 189.82377 191.14358
 192.88039 194.98720 197.26201 199.63281 202.08962 204.58143 206.68124 208.53505
 210.17285 211.32966 211.57047 211.81028 211.75908 211.47589 211.12070 210.76251
 210.39132 210.11312 209.93293 209.80874 209.74855 210.09136 210.48916 210.88997
 211.69478 212.88459 214.14640 215.94120 217.88101 219.93582 222.04263 224.13744
 226.20924 228.30505 230.41386 232.53167 234.67247 236.85628 239.12409 241.50590
 244.13871 246.40151 248.41532 250.19213 251.62094 252.75575 253.58955 253.91736
 253.96617 253.75198 253.12379 252.08359 250.70140 248.87421 246.79502 244.63983
 242.44263 240.25844 238.09025 235.94106 233.81286 231.69167 229.72948 227.89829
 226.19310 224.67690 223.31871 222.10252 220.99633 219.96814 219.08394 218.23675
 217.49056 216.68237 215.79218 215.16798 214.62979 215.35033 217.05263 219.06488
 221.03749 222.56578 223.25047 222.96164 222.37625 221.87357 222.19893 223.71512
 226.15092 230.05673 234.61490 239.19618 243.69260 248.00235 251.96481 255.49319
 258.66302 261.60254 264.31921 266.23740 268.61612 270.83057 272.91599 274.79474
 276.25439 277.43790 278.50732 279.60748 280.75351 281.80444 282.76917 283.65283
 284.45578 285.18326 285.81851 286.63858
 366.78100 356.34693 345.79086 334.66878 323.08371 311.28964 299.17157 286.98650
 274.71042 262.61935 250.64028 239.95321 230.08714 221.20306 213.39699 206.41092
 200.25685 195.20678 191.80070 189.85463 188.90356 188.97949 189.82642 191.14634
 192.88327 194.99020 197.26513 199.63606 202.09298 204.58491 206.68484 208.53877
 210.17670 211.33362 211.57455 211.81448 211.76341 211.48034 211.12526 210.76719
 210.39612 210.11805 209.93798 209.81390 209.75383 210.09676 210.49469 210.89562
 211.70054 212.89047 214.15240 215.94733 217.88726 219.94218 222.04911 224.14404
 226.21597 228.31190 230.42082 232.53875 234.67968 236.86361 239.13154 241.51346
 244.14639 246.40932 248.42325 250.20018 251.62910 252.76403 253.59796 253.92589
 253.97482 253.76074 253.13267 252.09260 250.71053 248.88346 246.80438 244.64931
 242.45224 240.26817 238.10010 235.95102 233.82295 231.70188 229.73981 227.90874
 226.20366 224.68759 223.32952 222.11345 221.00738 219.97930 219.09523 218.24816
 217.50209 216.69402 215.80394 215.17987 214.64180 215.36214 217.06401 219.04427
 221.00789 222.55199 223.18820 222.80702 222.14519 221.61562 221.96040 223.55313
 226.12175 230.15862 234.78386 239.38647 243.88341 248.18567 252.13898 255.64812
 258.80597 261.73505 264.44138 266.36200 268.62210 270.85184 272.94839 274.80093
 276.27850 277.49796 278.58832 279.66443 280.80658 281.85837 282.82422 283.71140
 284.51782 285.25092 285.89124 286.71600
 366.78100 356.34717 345.79134 334.66951 323.08468 311.29085 299.17302 286.98819
 274.71236 262.62153 250.64270 239.95587 230.09004 221.20621 213.40038 206.41455
 200.26072 195.21088 191.80505 189.85922 188.90839 188.98456 189.83173 191.15190
 192.88907 194.99624 197.27141 199.64258 202.09975 204.59192 206.69209 208.54626
 210.18443 211.34160 211.58277 211.82294 211.77211 211.48928 211.13445 210.77662
 210.40579 210.12796 209.94813 209.82430 209.76447 210.10764 210.50581 210.90698
 211.71215 212.90232 214.16448 215.95965 217.89982 219.95499 222.06216 224.15733
 226.22950 228.32567 230.43484 232.55301 234.69418 236.87835 239.14652 241.52869
 244.16186 246.42503 248.43920 250.21637 251.64554 252.78071 253.61488 253.94305
 253.99222 253.77839 253.15056 252.11073 250.72890 248.90207 246.82324 244.66841
 242.47158 240.28775 238.11992 235.97108 233.84325 231.72242 229.76059 227.92976
 226.22493 224.70910 223.35127 222.13544 221.02961 220.00178 219.11795 218.27112
 217.52529 216.71746 215.82763 215.20380 214.66597 215.37737 217.05814 219.03535
 220.97229 222.52219 223.16675 222.68709 221.89696 221.31874 221.64476 223.42384
 226.17203 230.28502 234.95872 239.59395 244.08090 248.36632 252.30144 255.80223
 258.95789 261.87125 264.55151 266.52783 268.64880 270.81372 272.95874 274.79318
 276.28909 277.53882 278.64426 279.72052 280.86343 281.91632 282.88406 283.77148
 284.58252 285.31915 285.96707 286.80164
 366.78100 356.34745 345.79189 334.67034 323.08579 311.29224 299.17468 286.99013
 274.71458 262.62403 250.64547 239.95892 230.09337 221.20981 213.40426 206.41871
 200.26516 195.21560 191.81005 189.86450 188.91395 188.99039 189.83784 191.15829
 192.89573 195.00318 197.27863 199.65008 202.10752 204.59997 206.70042 208.55486
 210.19331 211.35076 211.59221 211.83265 211.78210 211.49955 211.14500 210.78744
 210.41689 210.13934 209.95978 209.83623 209.77668 210.12013 210.51857 210.92002
 211.72547 212.91592 214.17836 215.97381 217.91426 219.96970 222.07715 224.17260
 226.24505 228.34149 230.45094 232.56939 234.71084 236.89528 239.16373 241.54618
 244.17962 246.44307 248.45752 250.23497 251.66441 252.79986 253.63431 253.96276
 254.01220 253.79865 253.17110 252.13154 250.74999 248.92344 246.84489 244.69033
 242.49378 240.31023 238.14267 235.99412 233.86657 231.74602 229.78446 227.95391
 226.24936 224.73381 223.37625 222.16070 221.05515 220.02759 219.14404 218.29749
 217.55194 216.74438 215.85483 215.23128 214.69373 215.39276 217.04430 219.02556
 220.94980 222.46724 223.11472 222.63486 221.77473 220.90538 221.29530 223.38139
 226.24588 230.38866 235.10744 239.78494 244.27242 248.54120 252.46460 255.95502
 259.11624 262.01801 264.64719 266.66492 268.70163 270.82626 272.95917 274.77356
 276.27972 277.55096 278.67099 279.77029 280.91971 281.97061 282.93985 283.82700
 284.63864 285.37695 286.02722 286.87277
 366.78100 356.34758 345.79215 334.67073 323.08631 311.29288 299.17546 286.99104
 274.71561 262.62519 250.64677 239.96034 230.09492 221.21150 213.40607 206.42065
 200.26723 195.21780 191.81238 189.86696 188.91653 188.99311 189.84069 191.16126
 192.89884 195.00642 197.28199 199.65357 202.11115 204.60372 206.70430 208.55888
 210.19745 211.35503 211.59661 211.83718 211.78676 211.50434 211.14991 210.79249
 210.42207 210.14464 209.96522 209.84180 209.78237 210.12595 210.52453 210.92610
 211.73168 212.92226 214.18483 215.98041 217.92099 219.97656 222.08414 224.17972
 226.25229 228.34887 230.45845 232.57702 234.71860 236.90318 239.17175 241.55433
 244.18791 246.45148 248.46606 250.24364 251.67321 252.80879 253.64337 253.97194
 254.02152 253.80810 253.18067 252.14125 250.75983 248.93340 246.85498 244.70056
 242.50413 240.32071 238.15329 236.00486 233.87744 231.75702 229.79559 227.96517
 226.26075 224.74532 223.38790 222.17248 221.06705 220.03963 219.15621 218.30978
 217.56436 216.75694 215.86751 215.24409 214.70667 215.39954 217.03653 219.00621
 220.93787 222.42018 223.01845 222.53848 221.64342 220.57184 220.99863 223.27609
 226.27306 230.50732 235.25829 239.96803 244.46089 248.70305 252.62099 256.10760
 259.27182 262.17523 264.78543 266.76782 268.75241 270.84656 272.99048 274.76151
 276.24603 277.52533 278.66522 279.81299 280.96930 282.02197 282.98846 283.87759
 284.68793 285.42758 286.08063 286.93475
 366.78100 356.34762 345.79224 334.67086 323.08648 311.29310 299.17572 286.99134
 274.71596 262.62557 250.64719 239.96081 230.09543 221.21205 213.40667 206.42129
 200.26791 195.21853 191.81315 189.86777 188.91739 188.99401 189.84163 191.16225
 192.89987 195.00748 197.28310 199.65472 202.11234 204.60496 206.70558 208.56020
 210.19882 211.35644 211.59806 211.83868 211.78830 211.50592 211.15154 210.79416
 210.42378 210.14639 209.96701 209.84363 209.78425 210.12787 210.52649 210.92811
 211.73373 212.92435 214.18697 215.98259 217.92321 219.97883 222.08645 224.18207
 226.25468 228.35130 230.46092 232.57954 234.72116 236.90578 239.17440 241.55702
 244.19064 246.45426 248.46888 250.24650 251.67612 252.81174 253.64636 253.97498
 254.02460 253.81121 253.18383 252.14445 250.76307 248.93669 246.85831 244.70393
 242.50755 240.32417 238.15679 236.00841 233.88103 231.76065 229.79927 227.96889
 226.26450 224.74912 223.39174 222.17636 221.07098 220.04360 219.16022 218.31384
 217.56846 216.76108 215.87170 215.24832 214.71094 215.40225 217.03555 218.98755
 220.91350 222.38141 222.91661 222.40855 221.47163 220.29733 220.72623 223.13104
 226.28491 230.64220 235.42798 240.14250 244.64067 248.87311 252.76778 256.23453
 259.40402 262.32187 264.94058 266.90173 268.79062 270.87079 273.02820 274.78223
 276.24002 277.52051 278.66876 279.82657 280.98233 282.03391 282.99939 283.88727
 284.69763 285.43613 286.09091 286.95694
 366.78100 356.34765 345.79230 334.67095 323.08660 311.29325 299.17590 286.99155
 274.71621 262.62586 250.64751 239.96116 230.09581 221.21246 213.40711 206.42176
 200.26841 195.21906 191.81371 189.86836 188.91801 188.99466 189.84231 191.16297
 192.90062 195.00827 197.28392 199.65557 202.11322 204.60587 206.70652 208.56117
 210.19982 211.35747 211.59912 211.83977 211.78942 211.50707 211.15272 210.79538
 210.42503 210.14768 209.96833 209.84498 209.78563 210.12928 210.52793 210.92958
 211.73523 212.92588 214.18853 215.98418 217.92483 219.98048 222.08814 224.18379
 226.25644 228.35309 230.46274 232.58139 234.72304 236.90769 239.17634 241.55899
 244.19264 246.45629 248.47094 250.24859 251.67824 252.81390 253.64855 253.97720
 254.02685 253.81350 253.18615 252.14680 250.76545 248.93910 246.86075 244.70640
 242.51005 240.32670 238.15935 236.01100 233.88366 231.76331 229.80196 227.97161
 226.26726 224.75191 223.39456 222.17921 221.07386 220.04651 219.16316 218.31681
 217.57146 216.76411 215.87476 215.25141 214.71407 215.40297 217.03056 218.97377
 220.88289 222.34564 222.82472 222.26765 221.28015 220.03781 220.45581 222.98346
 226.29712 230.77101 235.60080 240.33069 244.82039 249.04152 252.91444 256.34213
 259.51697 262.44962 265.09125 267.08847 268.83698 270.98978 273.08463 274.81299
 276.28723 277.58475 278.71356 279.82147 280.96237 282.00998 282.97385 283.85834
 284.66867 285.40390 286.05713 286.93549
 366.78100 356.34764 345.79228 334.67091 323.08655 311.29319 299.17583 286.99147
 274.71610 262.62574 250.64738 239.96102 230.09566 221.21229 213.40693 206.42157
 200.26821 195.21885 191.81348 189.86812 188.91776 188.99440 189.84204 191.16267
 192.90031 195.00795 197.28359 199.65523 202.11286 204.60550 206.70614 208.56078
 210.19942 211.35705 211.59869 211.83933 211.78897 211.50661 211.15224 210.79488
 210.42452 210.14716 209.96780 209.84443 209.78507 210.12871 210.52735 210.92899
 211.73462 212.92526 214.18790 215.98354 217.92418 219.97981 222.08745 224.18309
 226.25573 228.35237 230.46200 232.58064 234.72228 236.90692 239.17556 241.55819
 244.19183 246.45547 248.47011 250.24775 251.67738 252.81302 253.64766 253.97630
 254.02594 253.81257 253.18521 252.14585 250.76449 248.93813 246.85976 244.70540
 242.50904 240.32568 238.15832 236.00995 233.88259 231.76223 229.80087 227.97051
 226.26614 224.75078 223.39342 222.17806 221.07270 220.04533 219.16197 218.31561
 217.57025 216.76289 215.87352 215.25016 214.71280 215.39622 217.01093 218.96783
 220.85957 222.31320 222.72672 222.10097 221.06779 219.81824 220.22614 222.85368
 226.32281 230.90146 235.76260 240.51169 244.98817 249.17886 253.03180 256.43314
 259.58838 262.52689 265.17273 267.24173 268.97342 271.12109 273.14310 274.86142
 276.37262 277.69061 278.80820 279.80765 280.86655 281.90143 282.86276 283.74454
 284.55237 285.29239 285.94580 286.83847
 366.78100 356.34740 345.79180 334.67020 323.08560 311.29200 299.17440 286.98980
 274.71420 262.62360 250.64500 239.95840 230.09280 221.20920 213.40360 206.41800
 200.26440 195.21480 191.80920 189.86360 188.91300 188.98940 189.83680 191.15720
 192.89460 195.00200 197.27739 199.64879 202.10619 204.59859 206.69899 208.55339
 210.19179 211.34919 211.59059 211.83099 211.78039 211.49779 211.14319 210.78559
 210.41499 210.13739 209.95779 209.83419 209.77459 210.11799 210.51639 210.91779
 211.72319 212.91359 214.17599 215.97139 217.91179 219.96719 222.07459 224.16999
 226.24239 228.33879 230.44819 232.56659 234.70799 236.89239 239.16079 241.54319
 244.17659 246.43999 248.45439 250.23179 251.66119 252.79659 253.63099 253.95939
 254.00879 253.79519 253.16759 252.12799 250.74638 248.91978 246.84118 244.68658
 242.48998 240.30638 238.13878 235.99018 233.86258 231.74198 229.78038 227.94978
 226.24518 224.72958 223.37198 222.15638 221.05078 220.02318 219.13958 218.29298
 217.54738 216.73978 215.85018 215.22658 214.68898 215.37961 217.01128 218.94992
 220.83496 222.27513 222.63097 221.91035 220.81531 219.60831 220.00868 222.73589
 226.36938 231.04613 235.93085 240.68074 245.16386 249.35306 253.18201 256.54382
 259.65863 262.56192 265.17725 267.32806 269.10303 271.23129 273.20999 274.93399
 276.47833 277.81769 278.95615 279.91666 280.80383 281.77747 282.73151 283.60956
 284.41684 285.15875 285.81653 286.71481
 354.97500 345.04800 334.58700 324.11500 313.32600 302.53700 291.65000 280.76700
 269.93100 259.19300 248.62200 238.61700 229.08700 220.35500 212.54000 205.53500
 199.46400 194.49300 191.14300 189.19000 188.08900 188.01400 188.72400 189.90600
 191.46900 193.38200 195.40300 197.55600 199.80700 202.06000 204.28800 206.47900
 208.55200 210.37800 212.02500 213.65900 214.99800 216.11800 217.17200 218.25900
 219.49400 220.64500 221.67900 222.61400 223.54500 224.98200 226.57100 228.19000
 229.79700 231.81100 233.86500 235.97200 238.24200 240.55300 242.89900 245.25300
 247.48800 249.53500 251.36600 252.84800 254.09800 255.16700 256.02700 256.25300
 256.09500 255.54300 253.93500 252.56600 251.38400 250.24500 249.05200 247.70100
 246.01600 243.99600 241.78400 239.39300 236.81300 234.22300 231.65800 229.14400
 226.74000 224.47300 222.33500 220.32500 218.44000 216.67700 214.96200 213.47200
 212.20000 211.10800 210.26000 209.63900 209.24400 209.03100 209.05800 209.33300
 209.78400 210.62600 211.33100 212.39100 213.62500 214.84668 217.72949 219.47640
 220.32566 220.86828 220.88710 220.27371 219.43733 218.84250 219.04934 220.86203
 222.60583 225.72206 229.03064 232.61777 236.12270 239.51333 242.70767 245.68587
 248.41061 250.90679 253.19353 254.91714 256.48655 257.94920 259.39966 260.69384
 261.81714 262.77997 263.71679 264.54570 265.26305 265.89772 266.47676 267.00133
 267.47312 267.89325 268.26027 268.72800
