|-------------------------------------------------------------------------|
|   File Name : in_temp.dat
|   Subject   : temperature profiles used for initial guess atmosphere
|   File Type : input of gmtr
|   Data Type : atmospherical data
|   Author/s  : WRF-Chem
|   Date      : Fri Jul 26 15:39:24 2024
|-------------------------------------------------------------------------|

 WRF-Chem temperature
#
 values of T (K)    (8f10.5)
#
 354.97500 345.04800 334.58700 324.11500 313.32600 302.53700 291.65000 280.76700
 269.93100 259.19300 248.62200 238.61700 229.08700 220.35500 212.54000 205.53500
 199.46400 194.49300 191.14300 189.19000 188.08900 188.01400 188.72400 189.90600
 191.46900 193.38200 195.40300 197.55600 199.80700 202.06000 204.28800 206.47900
 208.55200 210.37800 212.02500 213.65900 214.99800 216.11800 217.17200 218.25900
 219.49400 220.64500 221.67900 222.61400 223.54500 224.98200 226.57100 228.19000
 229.79700 231.81100 233.86500 235.97200 238.24200 240.55300 242.89900 245.25300
 247.48800 249.53500 251.36600 252.84800 254.09800 255.16700 256.02700 256.25300
 256.09500 255.54300 253.93500 252.56600 251.38400 250.24500 249.05200 247.70100
 246.01600 243.99600 241.78400 239.39300 236.81300 234.22300 231.65800 229.14400
 226.74000 224.47300 222.33500 220.32500 218.44000 216.67700 214.96200 213.47200
 212.20000 211.10800 210.26000 209.63900 209.24400 209.03100 209.05800 209.33300
 209.78400 210.62600 211.33100 212.39100 213.62500 214.84668 217.72949 219.47640
 220.32566 220.86828 220.88710 220.27371 219.43733 218.84250 219.04934 220.86203
 222.60583 225.72206 229.03064 232.61777 236.12270 239.51333 242.70767 245.68587
 248.41061 250.90679 253.19353 254.91714 256.48655 257.94920 259.39966 260.69384
 261.81714 262.77997 263.71679 264.54570 265.26305 265.89772 266.47676 267.00133
 267.47312 267.89325 268.26027 268.72800
 366.78100 356.33500 345.76700 334.63300 323.03600 311.23000 299.10000 286.90300
 274.61500 262.51200 250.52100 239.82200 229.94400 221.04800 213.23000 206.23200
 200.06600 195.00400 191.58600 189.62800 188.66500 188.72900 189.56400 190.87200
 192.59700 194.69200 196.95500 199.31400 201.75900 204.23900 206.32700 208.16900
 209.79500 210.94000 211.16900 211.39700 211.33400 211.03900 210.67200 210.30200
 209.91900 209.62900 209.43700 209.30100 209.22900 209.56000 209.94600 210.33500
 211.12800 212.30600 213.55600 215.33900 217.26700 219.31000 221.40500 223.48800
 225.54800 227.63200 229.72900 231.83500 233.96400 236.13600 238.39200 240.76200
 243.38300 245.63400 247.63600 249.40100 250.81800 251.94100 252.76300 253.07900
 253.11600 252.89000 252.25000 251.19800 249.80400 247.96500 245.87400 243.70700
 241.49800 239.30200 237.12200 234.96100 232.82100 230.68800 228.71400 226.87100
 225.15400 223.62600 222.25600 221.02800 219.91000 218.87000 217.97400 217.11500
 216.35700 215.53700 214.63500 213.99900 213.44900 212.85855 212.01316 212.61654
 214.26826 216.08686 218.14273 220.53346 223.40855 226.78828 231.49734 235.90155
 239.42278 243.28576 247.23140 251.11907 254.80144 258.23331 261.38913 264.27520
 266.89312 269.26852 271.44504 273.08845 274.58484 275.98591 277.39845 278.65879
 279.75272 280.69038 281.56708 282.34086 283.01050 283.60295 284.14348 284.63317
 285.07358 285.46577 285.80838 286.24500
 381.81900 372.39900 361.20600 349.77600 337.62200 324.85300 311.81000 298.35300
 284.86000 271.32400 258.56100 246.30400 236.08700 226.79600 218.44800 211.29000
 205.52200 200.89400 197.38100 194.84800 193.01500 192.31500 192.25000 192.43100
 192.91200 193.53700 194.13600 194.71200 195.26200 195.83100 196.39300 196.97600
 197.60400 198.14900 198.58400 199.05700 199.69500 200.37800 201.05400 201.70800
 202.31300 202.85700 203.35500 203.86200 204.56900 205.29700 206.02600 206.98700
 208.19300 209.44100 210.96900 212.57600 214.46200 216.51300 218.63000 220.85300
 223.34100 225.96200 228.73900 231.69700 234.70600 237.70600 240.69200 243.65700
 246.73700 249.69900 252.52100 255.06300 257.29000 259.23300 260.63300 261.68000
 262.46100 262.79800 262.69100 262.22400 261.06900 259.52500 257.70700 255.50700
 253.00100 250.30200 247.39800 244.45200 241.65400 239.05400 236.73300 234.59000
 232.59500 230.72500 228.83400 226.82600 224.66600 222.38700 220.10400 217.71500
 215.45900 213.06600 210.54600 208.09300 205.35400 202.08130 196.05959 200.71215
 209.01611 216.90438 223.84126 229.78593 235.00632 240.20838 245.98943 250.68668
 254.32982 257.93487 261.55666 264.96801 268.15192 271.06452 273.76717 276.25691
 278.57680 280.74479 282.77456 284.60533 286.27232 287.81705 289.31715 290.65561
 291.81734 292.81312 293.70701 294.49387 295.17482 295.77730 296.32696 296.82492
 297.27278 297.67160 298.02000 298.46400
 399.33000 389.90700 379.81300 368.66800 357.52200 345.30100 333.07400 320.22700
 307.21600 293.84800 280.37600 267.29600 254.61000 242.98700 232.15100 221.97700
 212.67200 204.28600 197.66900 192.82100 189.48600 187.45200 186.81400 187.08900
 187.78100 189.05400 190.64800 192.54200 194.63000 196.75200 198.67100 200.15800
 201.53500 202.48700 202.97500 203.34000 203.53900 203.49700 203.38500 203.24700
 203.00500 202.78600 202.60300 202.43700 202.42600 202.88800 203.42000 203.95100
 204.89500 205.99200 207.30100 208.95800 210.73800 213.10000 215.56400 218.18000
 220.96600 223.91800 226.96100 230.09200 233.29300 236.55700 239.95500 243.53700
 246.84500 249.39000 251.54200 253.47400 255.19500 256.48400 257.43100 258.05900
 258.21200 258.04000 257.58200 256.64300 255.23900 253.50700 251.40800 249.05600
 246.57600 243.99400 241.38900 238.83000 236.34400 233.98600 231.96900 230.11800
 228.42300 226.89900 225.54800 224.29700 223.10500 221.96500 220.95800 220.11300
 219.49000 218.92000 218.32500 217.88100 217.42300 216.96366 216.35568 216.80261
 217.73415 218.28582 218.64258 219.10077 220.44626 222.53987 226.38451 230.35736
 233.59734 237.39164 241.29814 245.22796 248.98002 252.51130 255.78595 258.80109
 261.54781 264.05210 266.34239 268.04198 269.58951 271.01303 272.35754 273.55718
 274.59842 275.49092 276.28989 276.99307 277.60161 278.14001 278.63122 279.07623
 279.47646 279.83287 280.14422 280.54100
 399.73800 389.78500 379.66200 368.15100 356.64100 344.35000 331.79200 318.88800
 305.72600 292.49300 279.20900 266.73800 254.69600 244.21100 234.45700 225.43300
 217.56900 210.45100 204.30000 199.30600 195.45800 192.57600 191.02700 190.38600
 190.23900 190.53400 191.16600 191.92500 192.79500 193.76600 194.73200 195.31200
 195.80000 196.05200 196.11500 196.11500 196.03900 195.72300 195.34000 194.98900
 194.75100 194.79200 195.13300 195.59800 196.50600 198.13600 199.85800 201.56600
 204.17900 206.82300 209.89300 213.28400 216.82800 220.60500 224.38700 228.20900
 232.03200 235.82500 239.56000 243.25800 246.84500 250.20100 253.70900 257.46800
 261.53000 264.22100 266.60100 268.68100 270.32900 271.74100 272.83600 273.47400
 273.89800 274.00200 273.75700 273.28800 272.37100 271.10000 269.58900 267.77900
 265.81600 263.72100 261.39300 258.91600 256.29800 253.42300 250.33100 247.11400
 243.83700 240.52900 237.24900 233.99900 230.72800 227.51500 224.25400 220.95200
 217.62700 213.65600 210.12100 206.78900 204.01000 201.99491 199.07309 198.76551
 199.40006 200.48994 201.46112 202.31912 203.45100 204.96110 207.47502 210.85391
 213.70530 217.29629 220.99574 224.72316 228.28753 231.64854 234.68024 237.40893
 239.70644 241.60899 243.46854 245.67368 247.68154 249.52395 251.24767 252.78566
 254.12057 255.26479 256.23740 257.09036 257.82852 258.48160 259.07744 259.61723
 260.10271 260.53504 260.91270 261.39400
 399.73800 389.78500 379.66200 368.15100 356.64100 344.35000 331.79200 318.88800
 305.72600 292.49300 279.20900 266.73800 254.69600 244.21100 234.45700 225.43300
 217.56900 210.45100 204.30000 199.30600 195.45800 192.57600 191.02700 190.38600
 190.23900 190.53400 191.16600 191.92500 192.79500 193.76600 194.73200 195.31200
 195.80000 196.05200 196.11500 196.11500 196.03900 195.72300 195.34000 194.98900
 194.75100 194.79200 195.13300 195.59800 196.50600 198.13600 199.85800 201.56600
 204.17900 206.82300 209.89300 213.28400 216.82800 220.60500 224.38700 228.20900
 232.03200 235.82500 239.56000 243.25800 246.84500 250.20100 253.70900 257.46800
 261.53000 264.22100 266.60100 268.68100 270.32900 271.74100 272.83600 273.47400
 273.89800 274.00200 273.75700 273.28800 272.37100 271.10000 269.58900 267.77900
 265.81600 263.72100 261.39300 258.91600 256.29800 253.42300 250.33100 247.11400
 243.83700 240.52900 237.24900 233.99900 230.72800 227.51500 224.25400 220.95200
 217.62700 213.65600 210.12100 206.78900 204.01000 201.99491 199.07309 198.76551
 199.40006 200.48994 201.46112 202.31912 203.45100 204.96110 207.47502 210.85391
 213.70530 217.29629 220.99574 224.72316 228.28753 231.64854 234.68024 237.40893
 239.70644 241.60899 243.46854 245.67368 247.68154 249.52395 251.24767 252.78566
 254.12057 255.26479 256.23740 257.09036 257.82852 258.48160 259.07744 259.61723
 260.10271 260.53504 260.91270 261.39400
 399.33000 389.90700 379.81300 368.66800 357.52200 345.30100 333.07400 320.22700
 307.21600 293.84800 280.37600 267.29600 254.61000 242.98700 232.15100 221.97700
 212.67200 204.28600 197.66900 192.82100 189.48600 187.45200 186.81400 187.08900
 187.78100 189.05400 190.64800 192.54200 194.63000 196.75200 198.67100 200.15800
 201.53500 202.48700 202.97500 203.34000 203.53900 203.49700 203.38500 203.24700
 203.00500 202.78600 202.60300 202.43700 202.42600 202.88800 203.42000 203.95100
 204.89500 205.99200 207.30100 208.95800 210.73800 213.10000 215.56400 218.18000
 220.96600 223.91800 226.96100 230.09200 233.29300 236.55700 239.95500 243.53700
 246.84500 249.39000 251.54200 253.47400 255.19500 256.48400 257.43100 258.05900
 258.21200 258.04000 257.58200 256.64300 255.23900 253.50700 251.40800 249.05600
 246.57600 243.99400 241.38900 238.83000 236.34400 233.98600 231.96900 230.11800
 228.42300 226.89900 225.54800 224.29700 223.10500 221.96500 220.95800 220.11300
 219.49000 218.92000 218.32500 217.88100 217.42300 216.96366 216.35568 216.80261
 217.73415 218.28582 218.64258 219.10077 220.44626 222.53987 226.38451 230.35736
 233.59734 237.39164 241.29814 245.22796 248.98002 252.51130 255.78595 258.80109
 261.54781 264.05210 266.34239 268.04198 269.58951 271.01303 272.35754 273.55718
 274.59842 275.49092 276.28989 276.99307 277.60161 278.14001 278.63122 279.07623
 279.47646 279.83287 280.14422 280.54100
 381.81900 372.39900 361.20600 349.77600 337.62200 324.85300 311.81000 298.35300
 284.86000 271.32400 258.56100 246.30400 236.08700 226.79600 218.44800 211.29000
 205.52200 200.89400 197.38100 194.84800 193.01500 192.31500 192.25000 192.43100
 192.91200 193.53700 194.13600 194.71200 195.26200 195.83100 196.39300 196.97600
 197.60400 198.14900 198.58400 199.05700 199.69500 200.37800 201.05400 201.70800
 202.31300 202.85700 203.35500 203.86200 204.56900 205.29700 206.02600 206.98700
 208.19300 209.44100 210.96900 212.57600 214.46200 216.51300 218.63000 220.85300
 223.34100 225.96200 228.73900 231.69700 234.70600 237.70600 240.69200 243.65700
 246.73700 249.69900 252.52100 255.06300 257.29000 259.23300 260.63300 261.68000
 262.46100 262.79800 262.69100 262.22400 261.06900 259.52500 257.70700 255.50700
 253.00100 250.30200 247.39800 244.45200 241.65400 239.05400 236.73300 234.59000
 232.59500 230.72500 228.83400 226.82600 224.66600 222.38700 220.10400 217.71500
 215.45900 213.06600 210.54600 208.09300 205.35400 202.08130 196.05959 200.71215
 209.01611 216.90438 223.84126 229.78593 235.00632 240.20838 245.98943 250.68668
 254.32982 257.93487 261.55666 264.96801 268.15192 271.06452 273.76717 276.25691
 278.57680 280.74479 282.77456 284.60533 286.27232 287.81705 289.31715 290.65561
 291.81734 292.81312 293.70701 294.49387 295.17482 295.77730 296.32696 296.82492
 297.27278 297.67160 298.02000 298.46400
 366.78100 356.34145 345.77991 334.65236 323.06181 311.26227 299.13872 286.94817
 274.66663 262.57008 250.58553 239.89299 230.02144 221.13189 213.32035 206.32880
 200.16926 195.11371 191.70216 189.75062 188.79407 188.86452 189.70598 191.02043
 192.75188 194.85334 197.12279 199.48824 201.93970 204.42615 206.52060 208.36906
 210.00151 211.15296 211.38842 211.62287 211.56632 211.27778 210.91723 210.55368
 210.17714 209.89359 209.70804 209.57850 209.51295 209.85041 210.24286 210.63831
 211.43777 212.62222 213.87867 215.66813 217.60258 219.65203 221.75349 223.84294
 225.90939 227.99985 230.10330 232.21575 234.35121 236.52966 238.79211 241.16857
 243.79602 246.05347 248.06193 249.83338 251.25683 252.38629 253.21474 253.53720
 253.58065 253.36110 252.72756 251.68201 250.29446 248.46192 246.37737 244.21682
 242.01428 239.82473 237.65118 235.49664 233.36309 231.23654 229.26900 227.43245
 225.72190 224.20036 222.83681 221.61526 220.50372 219.47017 218.58062 217.72808
 216.97653 216.16298 215.26744 214.63789 214.09435 213.09564 210.74454 209.98767
 210.43184 211.04521 212.50668 215.28735 219.33685 224.07259 229.77483 234.87148
 238.76825 242.75020 246.96513 251.15567 254.94847 258.72974 261.59952 263.41391
 266.02036 268.78873 271.27444 273.38123 275.36252 277.18185 278.69614 280.24796
 281.94708 283.53073 285.05847 286.41779 287.59674 288.64081 289.59430 290.46048
 291.24136 291.93997 292.55444 293.35773
 366.78100 356.34134 345.77968 334.65201 323.06135 311.26169 299.13803 286.94737
 274.66570 262.56904 250.58438 239.89172 230.02006 221.13040 213.31873 206.32707
 200.16741 195.11175 191.70009 189.74842 188.79176 188.86210 189.70344 191.01778
 192.74911 194.85045 197.11979 199.48513 201.93647 204.42280 206.51714 208.36548
 209.99782 211.14916 211.38450 211.61883 211.56217 211.27351 210.91285 210.54919
 210.17252 209.88886 209.70320 209.57354 209.50788 209.84521 210.23755 210.63289
 211.43223 212.61657 213.87290 215.66224 217.59658 219.64592 221.74726 223.83660
 225.90293 227.99327 230.09661 232.20895 234.34429 236.52262 238.78496 241.16130
 243.78864 246.04598 248.05431 249.82565 251.24899 252.37833 253.20667 253.52900
 253.57234 253.35268 252.71902 251.67336 250.28570 248.45303 246.36837 244.20771
 242.00505 239.81539 237.64172 235.48706 233.35340 231.22674 229.25908 227.42241
 225.71175 224.19009 222.82643 221.60477 220.49310 219.45944 218.56978 217.71712
 216.96546 216.15180 215.25613 214.62647 214.08281 213.11897 210.84917 210.09593
 210.44376 211.09958 212.55881 215.24239 219.23085 223.99713 229.69757 234.79205
 238.67990 242.65277 246.87630 251.08527 254.88799 258.67755 261.55939 263.38904
 266.01089 268.78552 271.25693 273.31485 275.30807 277.16821 278.65125 280.16571
 281.85803 283.44119 284.96185 286.32080 287.50064 288.54547 289.49878 290.36487
 291.14569 291.84561 292.45816 293.27069
 366.78100 356.34117 345.77934 334.65150 323.06067 311.26084 299.13701 286.94618
 274.66435 262.56751 250.58268 239.88985 230.01802 221.12819 213.31636 206.32452
 200.16469 195.10886 191.69703 189.74520 188.78837 188.85853 189.69970 191.01387
 192.74504 194.84621 197.11537 199.48054 201.93171 204.41788 206.51205 208.36022
 209.99238 211.14355 211.37872 211.61289 211.55606 211.26723 210.90639 210.54256
 210.16573 209.88190 209.69607 209.56624 209.50040 209.83757 210.22974 210.62491
 211.42408 212.60824 213.86441 215.65358 217.58775 219.63692 221.73809 223.82725
 225.89342 227.98359 230.08676 232.19893 234.33410 236.51226 238.77443 241.15060
 243.77777 246.03494 248.04311 249.81427 251.23744 252.36661 253.19478 253.51695
 253.56012 253.34028 252.70645 251.66062 250.27279 248.43996 246.35512 244.19429
 241.99146 239.80163 237.62780 235.47297 233.33913 231.21230 229.24447 227.40764
 225.69681 224.17498 222.81114 221.58931 220.47748 219.44365 218.55382 217.70099
 216.94915 216.13532 215.23949 214.60966 214.06583 213.13864 210.95444 210.20351
 210.46835 211.14348 212.60229 215.21724 219.11595 223.90941 229.62672 234.71904
 238.59790 242.56087 246.79111 251.01692 254.82988 258.62521 261.51602 263.36066
 265.99680 268.77707 271.23618 273.24814 275.25433 277.15561 278.61020 280.08804
 281.77307 283.35431 284.86636 286.22540 287.40414 288.44962 289.40439 290.27164
 291.05270 291.75235 292.36807 293.18021
 366.78100 356.34097 345.77893 334.65090 323.05986 311.25983 299.13579 286.94476
 274.66272 262.56569 250.58065 239.88762 230.01558 221.12555 213.31351 206.32148
 200.16144 195.10541 191.69337 189.74134 188.78430 188.85427 189.69523 191.00920
 192.74016 194.84113 197.11009 199.47506 201.92602 204.41199 206.50596 208.35392
 209.98589 211.13685 211.37182 211.60578 211.54875 211.25971 210.89868 210.53464
 210.15761 209.87357 209.68754 209.55750 209.49147 209.82843 210.22040 210.61536
 211.41433 212.59829 213.85426 215.64322 217.57719 219.62615 221.72712 223.81608
 225.88205 227.97201 230.07498 232.18695 234.32191 236.49988 238.76184 241.13781
 243.76477 246.02174 248.02970 249.80067 251.22363 252.35260 253.18056 253.50253
 253.54549 253.32546 252.69142 251.64539 250.25735 248.42432 246.33928 244.17825
 241.97521 239.78518 237.61114 235.45611 233.32207 231.19504 229.22700 227.38997
 225.67893 224.15690 222.79287 221.57083 220.45880 219.42476 218.53473 217.68169
 216.92966 216.11562 215.21959 214.58955 214.04552 213.15532 211.05763 210.31842
 210.49382 211.18227 212.63747 215.19568 219.00891 223.81837 229.56393 234.64755
 238.51584 242.46935 246.70570 250.94812 254.77356 258.57272 261.47040 263.32950
 265.97748 268.76270 271.21194 273.18280 275.19925 277.14212 278.57379 280.01648
 281.69128 283.27060 284.77310 286.13162 287.31204 288.35657 289.31161 290.17746
 290.96100 291.66211 292.27716 293.09286
 366.78100 356.34069 345.77837 334.65006 323.05875 311.25844 299.13412 286.94281
 274.66050 262.56319 250.57787 239.88456 230.01225 221.12193 213.30962 206.31731
 200.15700 195.10068 191.68837 189.73606 188.77875 188.84843 189.68912 191.00281
 192.73350 194.83418 197.10287 199.46756 201.91824 204.40393 206.49762 208.34531
 209.97699 211.12768 211.36237 211.59606 211.53874 211.24943 210.88812 210.52380
 210.14649 209.86218 209.67587 209.54555 209.47924 209.81593 210.20762 210.60230
 211.40099 212.58468 213.84037 215.62905 217.56274 219.61143 221.71211 223.80080
 225.86649 227.95618 230.05886 232.17055 234.30524 236.48293 238.74461 241.12030
 243.74699 246.00367 248.01136 249.78205 251.20474 252.33342 253.16111 253.48280
 253.52549 253.30517 252.67086 251.62455 250.23624 248.40292 246.31761 244.15630
 241.95298 239.76267 237.58836 235.43305 233.29873 231.17142 229.20311 227.36580
 225.65448 224.13217 222.76786 221.54554 220.43323 219.39892 218.50861 217.65529
 216.90298 216.08867 215.19236 214.56204 214.01773 213.16713 211.16219 210.43750
 210.52193 211.21947 212.66098 215.17238 218.91827 223.72495 229.50464 234.57471
 238.43208 242.37798 246.62106 250.88037 254.72008 258.52225 261.42343 263.29642
 265.95224 268.74127 271.18237 273.11700 275.14209 277.12445 278.53943 279.95181
 281.61472 283.19064 284.68277 286.04202 287.22314 288.26801 289.22263 290.08960
 290.87299 291.57559 292.19083 293.00821
 366.78100 356.34037 345.77774 334.64911 323.05748 311.25685 299.13223 286.94060
 274.65797 262.56034 250.57471 239.88108 230.00845 221.11782 213.30519 206.31256
 200.15193 195.09530 191.68268 189.73005 188.77242 188.84179 189.68216 190.99553
 192.72590 194.82627 197.09464 199.45901 201.90938 204.39475 206.48813 208.33550
 209.96687 211.11724 211.35161 211.58498 211.52735 211.23772 210.87609 210.51146
 210.13383 209.84920 209.66258 209.53195 209.46532 209.80169 210.19306 210.58743
 211.38580 212.56917 213.82454 215.61291 217.54628 219.59465 221.69503 223.78340
 225.84877 227.93814 230.04051 232.15188 234.28625 236.46362 238.72499 241.10036
 243.72673 245.98310 247.99048 249.76085 251.18322 252.31159 253.13896 253.46033
 253.50270 253.28207 252.64744 251.60081 250.21218 248.37855 246.29293 244.13130
 241.92767 239.73704 237.56241 235.40678 233.27215 231.14452 229.17589 227.33826
 225.62663 224.10400 222.73938 221.51675 220.40412 219.36949 218.47886 217.62523
 216.87260 216.05797 215.16134 214.53071 213.98608 213.17632 211.26712 210.55731
 210.55830 211.25272 212.67636 215.15060 218.83551 223.63052 229.44525 234.50081
 238.34932 242.28868 246.53783 250.81371 254.67041 258.47372 261.37665 263.26184
 265.92035 268.71091 271.14627 273.04910 275.08191 277.09866 278.50690 279.89429
 281.54297 283.11404 284.59818 285.95660 287.13702 288.18188 289.13763 290.00491
 290.78922 291.48944 292.10764 292.92691
 366.78100 356.34002 345.77704 334.64807 323.05609 311.25511 299.13013 286.93816
 274.65518 262.55720 250.57122 239.87725 230.00427 221.11329 213.30031 206.30733
 200.14636 195.08938 191.67640 189.72342 188.76545 188.83447 189.67449 190.98751
 192.71754 194.81756 197.08558 199.44960 201.89963 204.38465 206.47767 208.32469
 209.95571 211.10574 211.33976 211.57278 211.51480 211.22483 210.86285 210.49787
 210.11989 209.83492 209.64794 209.51696 209.44998 209.78600 210.17703 210.57105
 211.36907 212.55209 213.80712 215.59514 217.52816 219.57618 221.67621 223.76423
 225.82925 227.91827 230.02030 232.13132 234.26534 236.44236 238.70338 241.07841
 243.70443 245.96045 247.96747 249.73750 251.15952 252.28754 253.11456 253.43559
 253.47761 253.25663 252.62165 251.57467 250.18570 248.35172 246.26574 244.10376
 241.89979 239.70881 237.53383 235.37785 233.24288 231.11490 229.14592 227.30794
 225.59596 224.07299 222.70801 221.48503 220.37205 219.33708 218.44610 217.59212
 216.83914 216.02417 215.12719 214.49621 213.95123 213.18359 211.37318 210.67432
 210.60774 211.28436 212.68370 215.13257 218.75993 223.53568 229.38208 234.42580
 238.26675 242.20093 246.45468 250.74663 254.62375 258.42969 261.33368 263.22784
 265.88330 268.67181 271.10141 272.97787 275.01630 277.06198 278.47162 279.84213
 281.47653 283.04199 284.51654 285.87466 287.05527 288.10190 289.05569 289.92480
 290.70825 291.41211 292.02631 292.85141
 366.78100 356.33965 345.77630 334.64696 323.05461 311.25326 299.12791 286.93556
 274.65222 262.55387 250.56752 239.87317 229.99982 221.10848 213.29513 206.30178
 200.14043 195.08308 191.66974 189.71639 188.75804 188.82669 189.66634 190.97900
 192.70865 194.80830 197.07595 199.43960 201.88926 204.37391 206.46656 208.31321
 209.94386 211.09352 211.32717 211.55982 211.50147 211.21112 210.84878 210.48343
 210.10508 209.81973 209.63238 209.50104 209.43369 209.76934 210.15999 210.55364
 211.35130 212.53395 213.78860 215.57625 217.50890 219.55656 221.65621 223.74386
 225.80851 227.89716 229.99882 232.10947 234.24312 236.41977 238.68042 241.05508
 243.68073 245.93638 247.94303 249.71268 251.13434 252.26199 253.08864 253.40929
 253.45094 253.22960 252.59425 251.54690 250.15755 248.32320 246.23686 244.07451
 241.87016 239.67881 237.50346 235.34712 233.21177 231.08342 229.11407 227.27572
 225.56338 224.04003 222.67468 221.45133 220.33798 219.30264 218.41129 217.55694
 216.80359 215.98824 215.09090 214.45955 213.91420 213.18947 211.47980 210.78680
 210.67262 211.31052 212.68916 215.11960 218.67970 223.43950 229.31889 234.35020
 238.18501 242.11554 246.37265 250.68054 254.58208 258.38992 261.29321 263.19418
 265.83945 268.62320 271.04794 272.90216 274.94574 277.01581 278.43616 279.79910
 281.41800 282.97366 284.43683 285.79437 286.97601 288.02209 288.97751 289.84537
 290.63004 291.33258 291.94986 292.77322
 366.78100 356.33954 345.77608 334.64662 323.05416 311.25270 299.12724 286.93478
 274.65132 262.55287 250.56641 239.87195 229.99849 221.10703 213.29357 206.30011
 200.13865 195.08119 191.66773 189.71427 188.75581 188.82435 189.66389 190.97643
 192.70597 194.80552 197.07306 199.43660 201.88614 204.37068 206.46322 208.30976
 209.94030 211.08984 211.32338 211.55592 211.49746 211.20700 210.84454 210.47908
 210.10062 209.81516 209.62771 209.49625 209.42879 209.76433 210.15487 210.54841
 211.34595 212.52849 213.78303 215.57057 217.50311 219.55065 221.65019 223.73773
 225.80227 227.89081 229.99236 232.10290 234.23644 236.41298 238.67352 241.04806
 243.67360 245.92914 247.93568 249.70522 251.12676 252.25430 253.08084 253.40138
 253.44292 253.22146 252.58601 251.53855 250.14909 248.31463 246.22817 244.06571
 241.86125 239.66979 237.49433 235.33787 233.20241 231.07395 229.10449 227.26603
 225.55357 224.03011 222.66465 221.44120 220.32774 219.29228 218.40082 217.54636
 216.79290 215.97744 215.07998 214.44852 213.90306 213.20827 211.56895 210.91518
 210.74017 211.33694 212.68433 215.10078 218.61800 223.34630 229.25319 234.27237
 238.10199 242.03027 246.28937 250.61218 254.54257 258.35199 261.25043 263.15732
 265.78940 268.56650 270.98975 272.82727 274.87442 276.96460 278.40533 279.76706
 281.36679 282.90842 284.35919 285.71780 286.89938 287.94504 288.90045 289.76859
 290.55197 291.25653 291.87436 292.70386
 366.78100 356.33936 345.77572 334.64608 323.05345 311.25181 299.12617 286.93353
 274.64989 262.55125 250.56462 239.86998 229.99634 221.10470 213.29106 206.29742
 200.13579 195.07815 191.66451 189.71087 188.75223 188.82059 189.65996 190.97232
 192.70168 194.80104 197.06840 199.43176 201.88113 204.36549 206.45785 208.30421
 209.93457 211.08393 211.31730 211.54966 211.49102 211.20038 210.83774 210.47210
 210.09346 209.80783 209.62019 209.48855 209.42091 209.75627 210.14663 210.54000
 211.33736 212.51972 213.77408 215.56144 217.49380 219.54117 221.64053 223.72789
 225.79225 227.88061 229.98197 232.09234 234.22570 236.40206 238.66242 241.03678
 243.66214 245.91751 247.92387 249.69323 251.11459 252.24195 253.06831 253.38868
 253.43004 253.20840 252.57276 251.52512 250.13548 248.30085 246.21421 244.05157
 241.84693 239.65529 237.47965 235.32301 233.18738 231.05874 229.08910 227.25046
 225.53782 224.01418 222.64855 221.42491 220.31127 219.27563 218.38399 217.52935
 216.77572 215.96008 215.06244 214.43080 213.88516 213.22311 211.66078 211.03088
 210.83533 211.36198 212.68199 215.08952 218.53543 223.24730 229.18541 234.19083
 238.01541 241.94150 246.20331 250.54135 254.50601 258.31909 261.21475 263.12604
 265.73880 268.50610 270.92932 272.75287 274.79971 276.90488 278.37317 279.74255
 281.32108 282.84201 284.28464 285.64212 286.82181 287.86835 288.82556 289.69342
 290.47955 291.18048 291.80359 292.62646
 366.78100 356.33989 345.77677 334.64766 323.05554 311.25443 299.12932 286.93720
 274.65409 262.55597 250.56986 239.87575 230.00263 221.11152 213.29840 206.30529
 200.14418 195.08706 191.67395 189.72084 188.76272 188.83161 189.67149 190.98438
 192.71427 194.81415 197.08204 199.44592 201.89581 204.38070 206.47358 208.32047
 209.95135 211.10124 211.33513 211.56801 211.50990 211.21978 210.85767 210.49256
 210.11444 209.82933 209.64221 209.51110 209.44399 209.77987 210.17076 210.56465
 211.36253 212.54542 213.80030 215.58819 217.52108 219.56896 221.66885 223.75673
 225.82162 227.91051 230.01239 232.12328 234.25716 236.43405 238.69494 241.06982
 243.69571 245.95159 247.95848 249.72837 251.15025 252.27814 253.10502 253.42591
 253.46780 253.24668 252.61157 251.56446 250.17534 248.34123 246.25511 244.09300
 241.88889 239.69777 237.52266 235.36654 233.23143 231.10332 229.13420 227.29609
 225.58397 224.06086 222.69575 221.47263 220.35952 219.32440 218.43329 217.57918
 216.82606 216.01095 215.11383 214.48272 213.93761 213.27400 211.70795 211.15829
 210.96762 211.39804 212.65585 215.05513 218.45180 223.14877 229.11774 234.10356
 237.91957 241.84732 246.11479 250.47206 254.47800 258.29874 261.19513 263.10791
 265.68939 268.43936 270.86090 272.67218 274.71692 276.83304 278.33096 279.71652
 281.27847 282.77817 284.21054 285.56845 286.74728 287.79486 288.75052 289.62039
 290.40384 291.10867 291.72873 292.55563
 366.78100 356.34030 345.77761 334.64891 323.05721 311.25652 299.13182 286.94012
 274.65743 262.55973 250.57403 239.88034 230.00764 221.11694 213.30425 206.31155
 200.15085 195.09416 191.68146 189.72876 188.77106 188.84037 189.68067 190.99397
 192.72428 194.82458 197.09288 199.45719 201.90749 204.39279 206.48610 208.33340
 209.96470 211.11501 211.34931 211.58261 211.52492 211.23522 210.87352 210.50883
 210.13113 209.84643 209.65974 209.52904 209.46234 209.79865 210.18995 210.58425
 211.38256 212.56586 213.82116 215.60947 217.54277 219.59107 221.69138 223.77968
 225.84498 227.93428 230.03659 232.14789 234.28219 236.45950 238.72080 241.09610
 243.72241 245.97871 247.98601 249.75632 251.17862 252.30692 253.13423 253.45553
 253.49783 253.27714 252.64244 251.59574 250.20705 248.37335 246.28765 244.12596
 241.92226 239.73156 237.55687 235.40117 233.26647 231.13878 229.17008 227.33238
 225.62069 224.09799 222.73329 221.51060 220.39790 219.36320 218.47250 217.61881
 216.86611 216.05141 215.15472 214.52402 213.97932 213.31978 211.76309 211.27376
 211.08282 211.47110 212.68636 214.99158 218.32323 223.03186 229.03452 234.00896
 237.82936 241.76387 246.03737 250.41589 254.46429 258.29114 261.18442 263.09183
 265.63281 268.36261 270.78043 272.58240 274.62640 276.75119 278.28436 279.69339
 281.23947 282.71701 284.13834 285.49487 286.67520 287.72165 288.67764 289.54678
 290.33270 291.03687 291.65540 292.48630
 366.78100 356.34033 345.77766 334.64899 323.05732 311.25665 299.13198 286.94031
 274.65763 262.55996 250.57429 239.88062 230.00795 221.11728 213.30461 206.31194
 200.15127 195.09460 191.68193 189.72926 188.77159 188.84092 189.68125 190.99457
 192.72490 194.82523 197.09356 199.45789 201.90822 204.39355 206.48688 208.33421
 209.96554 211.11587 211.35020 211.58353 211.52586 211.23619 210.87451 210.50984
 210.13217 209.84750 209.66083 209.53016 209.46349 209.79982 210.19115 210.58548
 211.38381 212.56714 213.82247 215.61080 217.54413 219.59245 221.69278 223.78111
 225.84644 227.93577 230.03810 232.14943 234.28376 236.46109 238.72242 241.09775
 243.72408 245.98041 247.98774 249.75807 251.18039 252.30872 253.13605 253.45738
 253.49971 253.27904 252.64437 251.59770 250.20903 248.37536 246.28969 244.12802
 241.92435 239.73368 237.55901 235.40333 233.26866 231.14099 229.17232 227.33465
 225.62298 224.10031 222.73564 221.51297 220.40030 219.36563 218.47496 217.62129
 216.86862 216.05395 215.15727 214.52660 213.98193 213.34709 211.84830 211.34514
 211.28456 211.53647 212.59103 214.87724 218.20218 222.92336 228.99025 233.96155
 237.78198 241.71426 245.97832 250.36852 254.45517 258.28009 261.15530 263.05676
 265.56183 268.27423 270.69083 272.48926 274.53638 276.66821 278.24283 279.67957
 281.20758 282.66180 284.06802 285.42374 286.60437 287.65042 288.60733 289.47641
 290.26279 290.96729 291.58884 292.41708
 366.78100 356.34017 345.77734 334.64851 323.05668 311.25584 299.13101 286.93918
 274.65635 262.55852 250.57269 239.87886 230.00603 221.11520 213.30237 206.30953
 200.14870 195.09187 191.67904 189.72621 188.76838 188.83755 189.67772 190.99089
 192.72106 194.82122 197.08939 199.45356 201.90373 204.38890 206.48207 208.32924
 209.96041 211.11058 211.34474 211.57791 211.52008 211.23025 210.86842 210.50359
 210.12576 209.84093 209.65410 209.52327 209.45643 209.79260 210.18377 210.57794
 211.37611 212.55928 213.81445 215.60262 217.53579 219.58396 221.68412 223.77229
 225.83746 227.92663 230.02880 232.13997 234.27414 236.45131 238.71248 241.08764
 243.71381 245.96998 247.97715 249.74732 251.16949 252.29766 253.12483 253.44600
 253.48817 253.26733 252.63250 251.58567 250.19684 248.36301 246.27718 244.11535
 241.91152 239.72069 237.54586 235.39002 233.25519 231.12736 229.15853 227.32070
 225.60887 224.08604 222.72121 221.49838 220.38554 219.35071 218.45988 217.60605
 216.85322 216.03839 215.14156 214.51073 213.96590 213.36653 211.95108 211.39180
 211.40932 211.58224 212.56149 214.83438 218.11382 222.85658 228.96939 233.93007
 237.73738 241.65930 245.90947 250.30693 254.43272 258.25015 261.10168 263.00394
 265.48270 268.18198 270.60037 272.40192 274.45084 276.58752 278.20676 279.67346
 281.18069 282.61249 284.00067 285.35620 286.53586 287.58267 288.53937 289.40930
 290.19556 290.90137 291.52420 292.35043
 366.78100 356.34030 345.77760 334.64890 323.05720 311.25649 299.13179 286.94009
 274.65739 262.55969 250.57399 239.88029 230.00759 221.11689 213.30419 206.31148
 200.15078 195.09408 191.68138 189.72868 188.77098 188.84028 189.68058 190.99388
 192.72418 194.82447 197.09277 199.45707 201.90737 204.39267 206.48597 208.33327
 209.96457 211.11487 211.34917 211.58246 211.52476 211.23506 210.87336 210.50866
 210.13096 209.84626 209.65956 209.52886 209.46215 209.79845 210.18975 210.58405
 211.38235 212.56565 213.82095 215.60925 217.54255 219.59085 221.69114 223.77944
 225.84474 227.93404 230.03634 232.14764 234.28194 236.45924 238.72054 241.09584
 243.72213 245.97843 247.98573 249.75603 251.17833 252.30663 253.13393 253.45523
 253.49753 253.27682 252.64212 251.59542 250.20672 248.37302 246.28732 244.12562
 241.92192 239.73122 237.55652 235.40081 233.26611 231.13841 229.16971 227.33201
 225.62031 224.09761 222.73291 221.51021 220.39751 219.36280 218.47210 217.61840
 216.86570 216.05100 215.15430 214.52360 213.97890 213.40050 212.03427 211.46693
 211.47763 211.61729 212.57243 214.82921 218.05652 222.81258 228.94022 233.87958
 237.66824 241.58177 245.82642 250.23563 254.40582 258.21628 261.04645 262.95511
 265.40695 268.09219 270.51352 272.31894 274.36713 276.50519 278.16953 279.66666
 281.15598 282.56540 283.93613 285.29178 286.47104 287.51752 288.47485 289.34442
 290.13223 290.83728 291.45926 292.29309
 366.78100 356.34067 345.77834 334.65001 323.05869 311.25836 299.13403 286.94270
 274.66037 262.56304 250.57771 239.88438 230.01206 221.12173 213.30940 206.31707
 200.15674 195.10041 191.68808 189.73575 188.77843 188.84810 189.68877 191.00244
 192.73311 194.83378 197.10245 199.46712 201.91780 204.40347 206.49714 208.34481
 209.97648 211.12715 211.36182 211.59549 211.53817 211.24884 210.88751 210.52318
 210.14585 209.86152 209.67519 209.54487 209.47854 209.81521 210.20688 210.60155
 211.40022 212.58389 213.83956 215.62824 217.56191 219.61058 221.71125 223.79992
 225.86559 227.95526 230.05793 232.16961 234.30428 236.48195 238.74362 241.11929
 243.74596 246.00263 248.01030 249.78098 251.20365 252.33232 253.15999 253.48166
 253.52433 253.30400 252.66968 251.62335 250.23502 248.40169 246.31636 244.15503
 241.95170 239.76137 237.58705 235.43172 233.29739 231.17006 229.20173 227.36440
 225.65307 224.13074 222.76642 221.54409 220.43176 219.39743 218.50710 217.65377
 216.90144 216.08711 215.19079 214.56046 214.01613 213.44705 212.10265 211.55856
 211.52075 211.66551 212.58525 214.82996 218.03522 222.77640 228.89633 233.81009
 237.58405 241.49667 245.74190 250.16701 254.38301 258.18646 260.99609 262.90903
 265.33163 268.00055 270.42236 272.23373 274.28152 276.42062 278.12799 279.65781
 281.13046 282.52112 283.87430 285.22983 286.40930 287.45657 288.41452 289.28427
 290.07288 290.77707 291.39941 292.22845
 366.78100 356.34112 345.77923 334.65135 323.06047 311.26058 299.13670 286.94582
 274.66393 262.56705 250.58217 239.88929 230.01740 221.12752 213.31564 206.32375
 200.16387 195.10799 191.69610 189.74422 188.78734 188.85745 189.69857 191.01269
 192.74380 194.84492 197.11404 199.47915 201.93027 204.41639 206.51051 208.35862
 209.99074 211.14186 211.37697 211.61109 211.55421 211.26532 210.90444 210.54056
 210.16367 209.87979 209.69391 209.56402 209.49814 209.83526 210.22737 210.62249
 211.42161 212.60573 213.86184 215.65096 217.58508 219.63419 221.73531 223.82443
 225.89054 227.98066 230.08378 232.19589 234.33101 236.50913 238.77124 241.14736
 243.77448 246.03159 248.03971 249.81083 251.23395 252.36306 253.19118 253.51330
 253.55641 253.33653 252.70265 251.65676 250.26888 248.43600 246.35111 244.19023
 241.98735 239.79746 237.62358 235.46870 233.33481 231.20793 229.24005 227.40317
 225.69228 224.17040 222.80652 221.58463 220.47275 219.43887 218.54898 217.69610
 216.94422 216.13033 215.23445 214.60457 214.06068 213.49730 212.16621 211.65440
 211.54436 211.72340 212.60939 214.83246 218.03802 222.73930 228.84337 233.73160
 237.49936 241.41463 245.66156 250.10265 254.36253 258.15524 260.94012 262.85504
 265.25131 267.90585 270.32831 272.14697 274.19641 276.33655 278.08456 279.64709
 281.10406 282.47723 283.81769 285.17300 286.35202 287.39941 288.35510 289.22763
 290.01453 290.72031 291.34317 292.17471
 366.78100 356.34155 345.78010 334.65265 323.06219 311.26274 299.13929 286.94884
 274.66739 262.57094 250.58649 239.89403 230.02258 221.13313 213.32168 206.33023
 200.17078 195.11532 191.70387 189.75242 188.79597 188.86652 189.70807 191.02262
 192.75416 194.85571 197.12526 199.49081 201.94236 204.42891 206.52346 208.37200
 210.00455 211.15610 211.39165 211.62620 211.56975 211.28129 210.92084 210.55739
 210.18094 209.89749 209.71204 209.58259 209.51713 209.85468 210.24723 210.64278
 211.44233 212.62688 213.88343 215.67297 217.60752 219.65707 221.75862 223.84817
 225.91472 228.00527 230.10881 232.22136 234.35691 236.53546 238.79801 241.17456
 243.80210 246.05965 248.06820 249.83975 251.26330 252.39285 253.22140 253.54394
 253.58749 253.36804 252.73459 251.68914 250.30169 248.46924 246.38478 244.22433
 242.02188 239.83243 237.65898 235.50453 233.37108 231.24462 229.27717 227.44072
 225.73027 224.20882 222.84537 221.62391 220.51246 219.47901 218.58956 217.73711
 216.98566 216.17221 215.27675 214.64730 214.10385 213.54698 212.23131 211.74377
 211.56430 211.77794 212.65169 214.84241 218.04318 222.69946 228.78899 233.65495
 237.41808 241.33582 245.58316 250.03873 254.33954 258.11609 260.87234 262.79175
 265.16776 267.81100 270.23337 272.06409 274.11548 276.25629 278.04221 279.63403
 281.07822 282.43588 283.76489 285.11874 286.29880 287.34412 288.30301 289.17352
 289.96149 290.66815 291.28833 292.12341
 366.78100 356.34197 345.78095 334.65392 323.06390 311.26487 299.14184 286.95182
 274.67079 262.57477 250.59074 239.89871 230.02769 221.13866 213.32763 206.33661
 200.17758 195.12256 191.71153 189.76050 188.80448 188.87545 189.71743 191.03240
 192.76437 194.86635 197.13632 199.50230 201.95427 204.44124 206.53622 208.38519
 210.01817 211.17014 211.40611 211.64109 211.58506 211.29704 210.93701 210.57398
 210.19796 209.91493 209.72990 209.60088 209.53585 209.87383 210.26680 210.66277
 211.46275 212.64772 213.90470 215.69467 217.62964 219.67962 221.78159 223.87157
 225.93854 228.02951 230.13349 232.24646 234.38244 236.56141 238.82438 241.20136
 243.82933 246.08731 248.09628 249.86825 251.29223 252.42220 253.25117 253.57415
 253.61812 253.39910 252.76607 251.72104 250.33402 248.50199 246.41797 244.25794
 242.05591 239.86689 237.69386 235.53984 233.40681 231.28078 229.31376 227.47773
 225.76771 224.24668 222.88365 221.66263 220.55160 219.51858 218.62955 217.77752
 217.02650 216.21347 215.31844 214.68942 214.14639 213.59657 212.29756 211.82072
 211.59540 211.82401 212.70628 214.86537 218.04134 222.66055 228.73799 233.58435
 237.33865 241.25549 245.50331 249.97481 254.31227 258.06750 260.79276 262.72095
 265.08313 267.71829 270.13904 271.98419 274.03940 276.18005 277.99948 279.61642
 281.05045 282.39529 283.71533 285.06845 286.24866 287.29559 288.25412 289.12360
 289.91180 290.62000 291.23993 292.07504
 366.78100 356.34242 345.78183 334.65525 323.06567 311.26709 299.14450 286.95492
 274.67434 262.57876 250.59517 239.90359 230.03301 221.14443 213.33384 206.34326
 200.18468 195.13009 191.71951 189.76893 188.81335 188.88476 189.72718 191.04260
 192.77502 194.87743 197.14785 199.51427 201.96669 204.45410 206.54952 208.39894
 210.03236 211.18477 211.42119 211.65661 211.60102 211.31344 210.95386 210.59128
 210.21569 209.93311 209.74853 209.61995 209.55536 209.89378 210.28720 210.68362
 211.48403 212.66945 213.92687 215.71728 217.65270 219.70312 221.80554 223.89595
 225.96337 228.05479 230.15921 232.27262 234.40904 236.58846 238.85188 241.22929
 243.85771 246.11613 248.12555 249.89796 251.32238 252.45280 253.28221 253.60563
 253.65005 253.43147 252.79888 251.75430 250.36772 248.53614 246.45255 244.29297
 242.09139 239.90281 237.73022 235.57664 233.44406 231.31847 229.35189 227.51631
 225.80673 224.28614 222.92356 221.70298 220.59240 219.55981 218.67123 217.81965
 217.06907 216.25648 215.36190 214.73332 214.19073 213.64722 212.36313 211.88498
 211.63879 211.86815 212.76529 214.90195 218.03633 222.62225 228.68880 233.51842
 237.25926 241.17273 245.42281 249.91118 254.28011 258.00867 260.70285 262.64172
 264.99887 267.62701 270.04562 271.90640 273.96664 276.10913 277.95544 279.59433
 281.02069 282.35696 283.66949 285.02362 286.20416 287.25104 288.20709 289.07880
 289.86679 290.57523 291.19641 292.03183
 366.78100 356.34304 345.78307 334.65711 323.06815 311.27018 299.14822 286.95926
 274.67929 262.58433 250.60137 239.91040 230.04044 221.15248 213.34251 206.35255
 200.19459 195.14062 191.73066 189.78070 188.82573 188.89777 189.74081 191.05684
 192.78988 194.89292 197.16395 199.53099 201.98403 204.47206 206.56810 208.41814
 210.05217 211.20521 211.44225 211.67828 211.62332 211.33636 210.97739 210.61543
 210.24047 209.95850 209.77454 209.64658 209.58261 209.92165 210.31569 210.71273
 211.51376 212.69980 213.95784 215.74887 217.68491 219.73595 221.83898 223.93002
 225.99806 228.09009 230.19513 232.30917 234.44620 236.62624 238.89028 241.26831
 243.89735 246.15639 248.16642 249.93946 251.36450 252.49553 253.32557 253.64961
 253.69464 253.47668 252.84472 251.80075 250.41479 248.58383 246.50086 244.34190
 242.14094 239.95297 237.78101 235.62805 233.49608 231.37112 229.40516 227.57019
 225.86123 224.34127 222.97930 221.75934 220.64938 219.61741 218.72945 217.87849
 217.12852 216.31656 215.42260 214.79463 214.25267 213.70648 212.41605 211.94788
 211.69170 211.90823 212.82854 214.94778 218.03215 222.58739 228.64082 233.45293
 237.17871 241.08801 245.34335 249.85004 254.24484 257.94104 260.60062 262.55341
 264.91400 267.53741 269.95084 271.82944 273.89880 276.04218 277.91061 279.56699
 280.98978 282.31998 283.62909 284.98438 286.16391 287.20950 288.16776 289.03876
 289.82593 290.53513 291.15729 291.99387
 366.78100 356.34365 345.78431 334.65896 323.07061 311.27327 299.15192 286.96357
 274.68423 262.58988 250.60753 239.91719 230.04784 221.16049 213.35115 206.36180
 200.20445 195.15111 191.74176 189.79241 188.83807 188.91072 189.75437 191.07103
 192.80468 194.90833 197.17999 199.54764 202.00129 204.48995 206.58660 208.43725
 210.07191 211.22556 211.46321 211.69987 211.64552 211.35917 211.00083 210.63948
 210.26513 209.98379 209.80044 209.67309 209.60975 209.94940 210.34405 210.74171
 211.54336 212.73001 213.98867 215.78032 217.71697 219.76863 221.87228 223.96393
 226.03259 228.12524 230.23089 232.34555 234.48320 236.66385 238.92851 241.30716
 243.93681 246.19647 248.20712 249.98077 251.40643 252.53808 253.36873 253.69339
 253.73904 253.52169 252.89034 251.84700 250.46165 248.63130 246.54896 244.39061
 242.19026 240.00292 237.83157 235.67922 233.54788 231.42353 229.45818 227.62384
 225.91549 224.39614 223.03480 221.81545 220.70610 219.67476 218.78741 217.93706
 217.18772 216.37637 215.48302 214.85568 214.31433 213.76498 212.46709 212.00339
 211.75233 211.95198 212.88907 215.00270 218.04015 222.55048 228.59087 233.38182
 237.09431 241.00293 245.26704 249.79309 254.20810 257.86655 260.48749 262.45651
 264.82983 267.45016 269.85712 271.75339 273.83325 275.97943 277.86438 279.53522
 280.95856 282.28757 283.59473 284.94843 286.12985 287.17505 288.13107 289.00262
 289.79251 290.49622 291.12311 291.95523
 366.78100 356.34448 345.78595 334.66143 323.07391 311.27739 299.15686 286.96934
 274.69082 262.59729 250.61577 239.92625 230.05773 221.17120 213.36268 206.37416
 200.21763 195.16511 191.75659 189.80807 188.85454 188.92802 189.77250 191.08997
 192.82445 194.92893 197.20141 199.56988 202.02436 204.51384 206.61131 208.46279
 210.09827 211.25275 211.49122 211.72870 211.67518 211.38965 211.03213 210.67161
 210.29809 210.01756 209.83504 209.70852 209.64599 209.98647 210.38195 210.78043
 211.58290 212.77038 214.02986 215.82233 217.75981 219.81229 221.91677 224.00924
 226.07872 228.17220 230.27867 232.39415 234.53263 236.71411 238.97958 241.35906
 243.98954 246.25001 248.26149 250.03597 251.46245 252.59492 253.42640 253.75188
 253.79835 253.58183 252.95131 251.90878 250.52426 248.69474 246.61322 244.45569
 242.25617 240.06965 237.89912 235.74760 233.61708 231.49356 229.52903 227.69551
 225.98799 224.46946 223.10894 221.89042 220.78190 219.75137 218.86485 218.01533
 217.26680 216.45628 215.56376 214.93724 214.39671 213.83296 212.50102 212.06560
 211.81743 211.99854 212.96048 215.05513 218.04214 222.51245 228.54337 233.30679
 237.00639 240.91675 245.19261 249.73970 254.17010 257.78244 260.36340 262.35165
 264.74780 267.36688 269.76410 271.68149 273.77271 275.92249 277.81808 279.50012
 280.92758 282.26016 283.56467 284.92010 286.09897 287.14487 288.10184 288.97247
 289.76028 290.46741 291.09061 291.92554
 366.78100 356.34551 345.78803 334.66454 323.07806 311.28257 299.16309 286.97660
 274.69912 262.60663 250.62615 239.93766 230.07017 221.18469 213.37720 206.38972
 200.23423 195.18275 191.77526 189.82778 188.87529 188.94981 189.79532 191.11384
 192.84935 194.95486 197.22838 199.59789 202.05341 204.54392 206.64244 208.49495
 210.13147 211.28698 211.52650 211.76501 211.71252 211.42804 211.07155 210.71207
 210.33958 210.06010 209.87861 209.75313 209.69164 210.03316 210.42967 210.82919
 211.63270 212.82121 214.08173 215.87524 217.81376 219.86727 221.97279 224.06630
 226.13682 228.23133 230.33885 232.45536 234.59487 236.77739 239.04390 241.42442
 244.05593 246.31745 248.32996 250.10548 251.53299 252.66651 253.49902 253.82554
 253.87305 253.65756 253.02808 251.98659 250.60311 248.77462 246.69414 244.53765
 242.33917 240.15368 237.98420 235.83371 233.70422 231.58174 229.61825 227.78577
 226.07928 224.56180 223.20231 221.98483 220.87734 219.84786 218.96237 218.11388
 217.36640 216.55691 215.66543 215.03994 214.50046 213.91118 212.51892 212.12149
 211.91220 212.05045 213.00327 215.11018 218.07007 222.47342 228.48474 233.22237
 236.91371 240.82858 245.12146 249.69061 254.13129 257.69089 260.23123 262.24121
 264.66885 267.28790 269.67374 271.61203 273.71686 275.86969 277.77185 279.46207
 280.89688 282.23575 283.54022 284.89474 286.07437 287.12003 288.07748 288.94681
 289.73434 290.44122 291.06430 291.89990
 366.78100 356.34650 345.79000 334.66751 323.08201 311.28751 299.16901 286.98351
 274.70701 262.61552 250.63602 239.94852 230.08202 221.19752 213.39103 206.40453
 200.25003 195.19953 191.79303 189.84653 188.89504 188.97054 189.81704 191.13654
 192.87304 194.97955 197.25405 199.62455 202.08105 204.57255 206.67205 208.52556
 210.16306 211.31956 211.56006 211.79956 211.74807 211.46457 211.10907 210.75057
 210.37907 210.10057 209.92008 209.79558 209.73508 210.07758 210.47508 210.87559
 211.68009 212.86959 214.13109 215.92559 217.86509 219.91960 222.02610 224.12060
 226.19210 228.28760 230.39611 232.51361 234.65411 236.83761 239.10511 241.48661
 244.11912 246.38162 248.39512 250.17162 251.60012 252.73463 253.56813 253.89563
 253.94413 253.72963 253.10113 252.06064 250.67814 248.85064 246.77114 244.61564
 242.41815 240.23365 238.06515 235.91565 233.78715 231.66565 229.70316 227.87166
 226.16616 224.64966 223.29116 222.07467 220.96817 219.93967 219.05517 218.20767
 217.46117 216.65268 215.76218 215.13768 214.59918 213.98596 212.53714 212.17035
 212.00485 212.10413 213.07207 215.16554 218.06113 222.42719 228.44202 233.15244
 236.82658 240.74315 245.05417 249.64645 254.09172 257.59256 260.09079 262.12454
 264.59131 267.20959 269.58096 271.54150 273.66183 275.81729 277.72226 279.41699
 280.86432 282.21124 283.52182 284.87662 286.05435 287.10117 288.05676 288.92642
 289.71552 290.41904 291.04517 291.87567
 366.78100 356.34719 345.79138 334.66956 323.08475 311.29094 299.17313 286.98831
 274.71250 262.62169 250.64288 239.95606 230.09025 221.20644 213.40063 206.41481
 200.26100 195.21119 191.80538 189.85956 188.90875 188.98494 189.83213 191.15231
 192.88950 194.99669 197.27188 199.64306 202.10025 204.59244 206.69263 208.54681
 210.18500 211.34219 211.58338 211.82356 211.77275 211.48994 211.13513 210.77731
 210.40650 210.12869 209.94888 209.82506 209.76525 210.10844 210.50663 210.90781
 211.71300 212.90319 214.16538 215.96057 217.90075 219.95594 222.06313 224.15832
 226.23050 228.32669 230.43588 232.55407 234.69525 236.87944 239.14763 241.52982
 244.16300 246.42619 248.44038 250.21757 251.64675 252.78194 253.61613 253.94432
 253.99350 253.77969 253.15188 252.11207 250.73025 248.90344 246.82463 244.66982
 242.47300 240.28919 238.12138 235.97257 233.84475 231.72394 229.76213 227.93132
 226.22650 224.71069 223.35288 222.13707 221.03125 220.00344 219.11963 218.27282
 217.52700 216.71919 215.82938 215.20557 214.66776 214.04431 212.57135 212.20450
 212.10269 212.13844 213.11018 215.26129 218.12152 222.38776 228.38583 233.06866
 236.73276 240.65431 244.98758 249.60448 254.04926 257.48874 259.94397 262.00537
 264.51611 267.13339 269.48624 271.47034 273.60684 275.76465 277.66843 279.36639
 280.82724 282.18600 283.50684 284.86182 286.04050 287.08575 288.04150 288.91092
 289.69812 290.40530 291.02707 291.86594
 366.78100 356.34740 345.79181 334.67021 323.08561 311.29202 299.17442 286.98982
 274.71423 262.62363 250.64503 239.95844 230.09284 221.20924 213.40365 206.41805
 200.26445 195.21486 191.80926 189.86366 188.91307 188.98947 189.83687 191.15728
 192.89468 195.00208 197.27749 199.64889 202.10629 204.59870 206.69910 208.55350
 210.19191 211.34931 211.59071 211.83112 211.78052 211.49792 211.14333 210.78573
 210.41513 210.13754 209.95794 209.83434 209.77475 210.11815 210.51655 210.91796
 211.72336 212.91376 214.17617 215.97157 217.91197 219.96738 222.07478 224.17018
 226.24259 228.33899 230.44839 232.56680 234.70820 236.89260 239.16101 241.54341
 244.17681 246.44022 248.45462 250.23202 251.66143 252.79683 253.63123 253.95964
 254.00904 253.79544 253.16784 252.12825 250.74665 248.92005 246.84146 244.68686
 242.49026 240.30667 238.13907 235.99047 233.86288 231.74228 229.78068 227.95009
 226.24549 224.72989 223.37230 222.15670 221.05110 220.02351 219.13991 218.29331
 217.54772 216.74012 215.85052 215.22693 214.68933 214.07764 212.63246 212.20644
 212.19620 212.26025 213.12109 215.26619 218.17749 222.35762 228.33333 232.99974
 236.64861 240.57339 244.92854 249.56831 254.00742 257.38495 259.79568 261.88513
 264.44266 267.05649 269.38971 271.39801 273.55145 275.71176 277.61258 279.31317
 280.79193 282.16516 283.49557 284.84991 286.02969 287.07407 288.03021 288.89761
 289.68527 290.39081 291.01697 291.84796
 366.78100 356.34757 345.79214 334.67071 323.08628 311.29285 299.17542 286.99099
 274.71556 262.62513 250.64670 239.96027 230.09484 221.21141 213.40598 206.42055
 200.26712 195.21769 191.81226 189.86683 188.91640 188.99297 189.84054 191.16111
 192.89867 195.00624 197.28181 199.65338 202.11095 204.60352 206.70409 208.55866
 210.19723 211.35480 211.59637 211.83694 211.78651 211.50408 211.14965 210.79222
 210.42179 210.14436 209.96493 209.84150 209.78207 210.12564 210.52421 210.92578
 211.73135 212.92192 214.18449 215.98006 217.92063 219.97620 222.08377 224.17934
 226.25191 228.34848 230.45805 232.57662 234.71819 236.90276 239.17133 241.55390
 244.18747 246.45104 248.46561 250.24318 251.67275 252.80832 253.64288 253.97145
 254.02102 253.80759 253.18016 252.14073 250.75930 248.93287 246.85444 244.70001
 242.50358 240.32015 238.15272 236.00429 233.87686 231.75643 229.79500 227.96457
 226.26014 224.74471 223.38728 222.17185 221.06642 220.03899 219.15556 218.30913
 217.56370 216.75627 215.86684 215.24341 214.70598 214.10651 212.69019 212.21927
 212.28563 212.35835 213.14059 215.28894 218.22408 222.33546 228.28923 232.93700
 236.56516 240.49344 244.87088 249.53342 253.95966 257.27097 259.63696 261.76047
 264.36917 266.98071 269.29410 271.32797 273.50034 275.66263 277.55972 279.26331
 280.76102 282.14993 283.48752 284.84106 286.01999 287.06473 288.01953 288.88794
 289.67355 290.38083 291.00479 291.83716
 366.78100 356.34807 345.79315 334.67222 323.08829 311.29537 299.17844 286.99451
 274.71959 262.62966 250.65173 239.96581 230.10088 221.21795 213.41303 206.42810
 200.27517 195.22625 191.82132 189.87639 188.92647 189.00354 189.85161 191.17269
 192.91076 195.01883 197.29491 199.66698 202.12505 204.61813 206.71920 208.57427
 210.21335 211.37142 211.61349 211.85457 211.80464 211.52271 211.16879 210.81186
 210.44193 210.16501 209.98608 209.86315 209.80423 210.14830 210.54737 210.94945
 211.75552 212.94659 214.20967 216.00574 217.94681 220.00289 222.11096 224.20703
 226.28011 228.37718 230.48725 232.60633 234.74840 236.93347 239.20255 241.58562
 244.21969 246.48377 248.49884 250.27691 251.70699 252.84306 253.67813 254.00721
 254.05728 253.84435 253.21743 252.17850 250.79757 248.97165 246.89372 244.73979
 242.54387 240.36094 238.19401 236.04609 233.91916 231.79923 229.83831 228.00838
 226.30445 224.78953 223.43260 222.21767 221.11275 220.08582 219.20289 218.35697
 217.61204 216.80511 215.91619 215.29326 214.75633 214.14981 212.71683 212.27155
 212.36276 212.41876 213.18648 215.35068 218.26221 222.30548 228.24599 232.86650
 236.47290 240.40842 244.81271 249.49750 253.90491 257.14810 259.47339 261.63745
 264.29941 266.90927 269.20450 271.26456 273.45593 275.62149 277.51282 279.21780
 280.73419 282.13922 283.48129 284.83441 286.01260 287.05725 288.01099 288.88074
 289.66525 290.37103 290.99603 291.82800
 366.78100 356.34874 345.79449 334.67423 323.09097 311.29872 299.18246 286.99921
 274.72495 262.63569 250.65844 239.97318 230.10892 221.22667 213.42241 206.43815
 200.28590 195.23764 191.83339 189.88913 188.93987 189.01762 189.86636 191.18810
 192.92685 195.03559 197.31233 199.68508 202.14382 204.63757 206.73931 208.59505
 210.23480 211.39354 211.63628 211.87803 211.82877 211.54751 211.19426 210.83800
 210.46875 210.19249 210.01423 209.89198 209.83372 210.17846 210.57821 210.98095
 211.78769 212.97944 214.24318 216.03993 217.98167 220.03841 222.14716 224.24390
 226.31764 228.41539 230.52613 232.64587 234.78862 236.97436 239.24411 241.62785
 244.26259 246.52734 248.54308 250.32182 251.75257 252.88931 253.72505 254.05480
 254.10554 253.89329 253.26703 252.22877 250.84852 249.02326 246.94600 244.79275
 242.59749 240.41524 238.24898 236.10172 233.97547 231.85621 229.89595 228.06670
 226.36344 224.84918 223.49293 222.27867 221.17442 220.14816 219.26590 218.42065
 217.67639 216.87013 215.98188 215.35962 214.82336 214.19868 212.72282 212.35303
 212.42603 212.46681 213.24783 215.42783 218.29814 222.26569 228.19504 232.78700
 236.37714 240.32295 244.75641 249.46152 253.84589 257.02249 259.31085 261.51935
 264.23389 266.84103 269.11905 271.20544 273.41666 275.58389 277.46939 279.17599
 280.70975 282.12891 283.47641 284.83066 286.00922 287.05466 288.00757 288.87509
 289.66107 290.36868 290.99097 291.82373
 366.78100 356.34927 345.79554 334.67581 323.09308 311.30135 299.18562 287.00289
 274.72916 262.64043 250.66370 239.97897 230.11524 221.23351 213.42979 206.44606
 200.29433 195.24660 191.84287 189.89914 188.95041 189.02868 189.87795 191.20022
 192.93949 195.04876 197.32603 199.69930 202.15857 204.65284 206.75511 208.61138
 210.25165 211.41092 211.65419 211.89646 211.84773 211.56700 211.21427 210.85854
 210.48982 210.21409 210.03636 209.91463 209.85690 210.20217 210.60244 211.00571
 211.81298 213.00525 214.26952 216.06679 218.00906 220.06633 222.17560 224.27287
 226.34714 228.44541 230.55668 232.67695 234.82022 237.00649 239.27676 241.66103
 244.29630 246.56157 248.57784 250.35712 251.78839 252.92566 253.76193 254.09220
 254.14347 253.93174 253.30601 252.26828 250.88855 249.06382 246.98709 244.83436
 242.63963 240.45790 238.29217 236.14544 234.01971 231.90098 229.94125 228.11252
 226.40979 224.89606 223.54033 222.32660 221.22287 220.19714 219.31542 218.47069
 217.72696 216.92123 216.03350 215.41177 214.87604 214.23795 212.73039 212.44325
 212.48586 212.51749 213.31171 215.50186 218.32869 222.22539 228.13745 232.70511
 236.28481 240.24184 244.70425 249.42619 253.78337 256.89474 259.15015 261.40582
 264.16919 266.77325 269.03577 271.14853 273.37881 275.55045 277.42914 279.13538
 280.68719 282.12109 283.47421 284.82758 286.00626 287.04901 288.00348 288.87103
 289.65466 290.36130 290.98575 291.81610
 366.78100 356.34957 345.79614 334.67671 323.09427 311.30284 299.18741 287.00498
 274.73155 262.64312 250.66669 239.98226 230.11882 221.23739 213.43396 206.45053
 200.29910 195.25167 191.84824 189.90481 188.95637 189.03494 189.88451 191.20708
 192.94665 195.05622 197.33379 199.70735 202.16692 204.66149 206.76406 208.62063
 210.26120 211.42077 211.66434 211.90690 211.85847 211.57804 211.22561 210.87018
 210.50175 210.22632 210.04888 209.92745 209.87002 210.21559 210.61616 211.01973
 211.82730 213.01987 214.28443 216.08200 218.02457 220.08214 222.19171 224.28928
 226.36385 228.46242 230.57398 232.69455 234.83812 237.02469 239.29526 241.67983
 244.31540 246.58096 248.59753 250.37710 251.80867 252.94624 253.78281 254.11338
 254.16495 253.95351 253.32808 252.29065 250.91122 249.08679 247.01036 244.85793
 242.66349 240.48206 238.31663 236.17020 234.04477 231.92634 229.96691 228.13848
 226.43604 224.92261 223.56718 222.35375 221.25032 220.22489 219.34346 218.49903
 217.75559 216.95016 216.06273 215.44130 214.90587 214.26337 212.74539 212.52986
 212.55728 212.56532 213.37328 215.56769 218.35007 222.18878 228.07642 232.62256
 236.19531 240.16600 244.65636 249.39110 253.71619 256.76364 258.99054 261.29614
 264.10413 266.70419 268.95453 271.09552 273.34534 275.51996 277.39328 279.09991
 280.66772 282.11365 283.47272 284.82593 286.00565 287.04944 288.00299 288.87045
 289.65649 290.36307 290.98566 291.81766
 366.78100 356.34968 345.79636 334.67704 323.09472 311.30340 299.18808 287.00576
 274.73244 262.64412 250.66780 239.98348 230.12016 221.23884 213.43551 206.45219
 200.30087 195.25355 191.85023 189.90691 188.95859 189.03727 189.88695 191.20963
 192.94931 195.05899 197.33667 199.71035 202.17003 204.66471 206.76739 208.62407
 210.26475 211.42443 211.66811 211.91079 211.86247 211.58215 211.22983 210.87451
 210.50618 210.23086 210.05354 209.93222 209.87490 210.22058 210.62126 211.02494
 211.83262 213.02530 214.28998 216.08766 218.03034 220.08802 222.19770 224.29538
 226.37006 228.46874 230.58042 232.70110 234.84478 237.03146 239.30214 241.68682
 244.32250 246.58818 248.60485 250.38453 251.81621 252.95389 253.79057 254.12125
 254.17293 253.96161 253.33629 252.29897 250.91965 249.09533 247.01901 244.86669
 242.67237 240.49105 238.32573 236.17941 234.05409 231.93577 229.97645 228.14813
 226.44581 224.93249 223.57717 222.36385 221.26052 220.23520 219.35388 218.50956
 217.76624 216.96092 216.07360 215.45228 214.91696 214.27718 212.76561 212.61198
 212.64435 212.60846 213.43294 215.62468 218.36815 222.15341 228.01012 232.53656
 236.10796 240.09410 244.61214 249.35382 253.64224 256.62787 258.83252 261.19055
 264.03848 266.63528 268.87677 271.04608 273.31512 275.49460 277.36124 279.06686
 280.64740 282.10199 283.47461 284.83200 286.01038 287.05786 288.01227 288.88300
 289.67505 290.38739 291.01117 291.83679
 366.78100 356.34969 345.79639 334.67708 323.09477 311.30346 299.18816 287.00585
 274.73254 262.64424 250.66793 239.98362 230.12031 221.23901 213.43570 206.45239
 200.30109 195.25378 191.85047 189.90716 188.95886 189.03755 189.88724 191.20994
 192.94963 195.05932 197.33702 199.71071 202.17040 204.66509 206.76779 208.62448
 210.26517 211.42487 211.66856 211.91125 211.86294 211.58264 211.23033 210.87502
 210.50672 210.23141 210.05410 209.93279 209.87549 210.22118 210.62187 211.02557
 211.83326 213.02595 214.29064 216.08834 218.03103 220.08872 222.19842 224.29611
 226.37080 228.46949 230.58119 232.70188 234.84557 237.03227 239.30296 241.68765
 244.32335 246.58904 248.60573 250.38542 251.81712 252.95481 253.79150 254.12220
 254.17389 253.96258 253.33727 252.29997 250.92066 249.09635 247.02005 244.86774
 242.67343 240.49212 238.32682 236.18051 234.05520 231.93690 229.97759 228.14928
 226.44697 224.93367 223.57836 222.36505 221.26175 220.23644 219.35513 218.51082
 217.76752 216.96221 216.07490 215.45360 214.91829 214.28387 212.78502 212.69688
 212.74092 212.64911 213.49371 215.67143 218.38072 222.11676 227.94115 232.45027
 236.02397 240.02754 244.57042 249.31429 253.56004 256.48724 258.67700 261.09036
 263.97144 266.56570 268.80411 271.00369 273.29208 275.47702 277.33911 279.04282
 280.63177 282.09402 283.47501 284.83182 286.01141 287.05527 288.01205 288.87799
 289.66605 290.37268 290.99341 291.82748
 366.78100 356.34961 345.79623 334.67684 323.09446 311.30307 299.18769 287.00530
 274.73192 262.64353 250.66714 239.98276 230.11937 221.23799 213.43460 206.45122
 200.29983 195.25245 191.84906 189.90567 188.95729 189.03590 189.88552 191.20813
 192.94775 195.05736 197.33498 199.70859 202.16820 204.66282 206.76543 208.62205
 210.26266 211.42228 211.66589 211.90851 211.86012 211.57974 211.22735 210.87196
 210.50358 210.22819 210.05081 209.92942 209.87204 210.21765 210.61827 211.02188
 211.82949 213.02211 214.28672 216.08434 218.02695 220.08457 222.19418 224.29180
 226.36641 228.46502 230.57664 232.69725 234.84087 237.02748 239.29810 241.68271
 244.31833 246.58394 248.60055 250.38017 251.81178 252.94940 253.78601 254.11663
 254.16824 253.95686 253.33147 252.29408 250.91470 249.09031 247.01393 244.86154
 242.66716 240.48577 238.32039 236.17400 234.04861 231.93023 229.97084 228.14246
 226.44007 224.92669 223.57130 222.35792 221.25453 220.22914 219.34776 218.50337
 217.75999 216.95460 216.06722 215.44583 214.91045 214.28392 212.80370 212.78021
 212.84662 212.69963 213.55211 215.70876 218.38042 222.08038 227.87019 232.36221
 235.94125 239.96527 244.53120 249.27107 253.46858 256.33997 258.52341 260.99438
 263.90225 266.49484 268.73782 270.96872 273.27692 275.46994 277.32913 279.02902
 280.62262 282.08978 283.47562 284.83249 286.01160 287.05576 288.01041 288.87701
 289.66229 290.36588 290.99203 291.81833
 366.78100 356.34963 345.79625 334.67688 323.09451 311.30313 299.18776 287.00539
 274.73201 262.64364 250.66727 239.98290 230.11952 221.23815 213.43478 206.45140
 200.30003 195.25266 191.84928 189.90591 188.95754 189.03616 189.88579 191.20842
 192.94804 195.05767 197.33530 199.70892 202.16855 204.66318 206.76580 208.62243
 210.26306 211.42269 211.66631 211.90894 211.86057 211.58019 211.22782 210.87245
 210.50407 210.22870 210.05133 209.92995 209.87258 210.21821 210.61883 211.02246
 211.83009 213.02271 214.28734 216.08497 218.02759 220.08522 222.19485 224.29248
 226.36710 228.46573 230.57736 232.69798 234.84161 237.02824 239.29886 241.68349
 244.31912 246.58474 248.60137 250.38100 251.81262 252.95025 253.78688 254.11750
 254.16913 253.95776 253.33238 252.29501 250.91564 249.09127 247.01489 244.86252
 242.66815 240.48677 238.32140 236.17503 234.04965 231.93128 229.97191 228.14353
 226.44116 224.92779 223.57241 222.35904 221.25567 220.23029 219.34892 218.50455
 217.76117 216.95580 216.06843 215.44706 214.91168 214.28694 212.81094 212.87981
 212.94728 212.75209 213.62163 215.73763 218.36697 222.04091 227.80179 232.27684
 235.86240 239.90880 244.49536 249.22537 253.36777 256.18655 258.37244 260.90222
 263.82938 266.42126 268.67722 270.94000 273.26968 275.47385 277.32867 279.02338
 280.61676 282.08649 283.48114 284.83865 286.01862 287.06238 288.01813 288.88510
 289.67068 290.37656 290.99979 291.82889
 366.78100 356.34896 345.79492 334.67488 323.09184 311.29980 299.18376 287.00072
 274.72668 262.63765 250.66061 239.97557 230.11153 221.22949 213.42545 206.44141
 200.28937 195.24133 191.83729 189.89325 188.94421 189.02217 189.87113 191.19309
 192.93205 195.04102 197.31798 199.69094 202.14990 204.64386 206.74582 208.60178
 210.24174 211.40070 211.64366 211.88562 211.83658 211.55554 211.20250 210.84646
 210.47742 210.20139 210.02335 209.90131 209.84327 210.18823 210.58819 210.99115
 211.79811 212.99007 214.25403 216.05099 217.99295 220.04991 222.15887 224.25583
 226.32979 228.42776 230.53872 232.65868 234.80164 236.98760 239.25756 241.64152
 244.27648 246.54144 248.55740 250.33636 251.76732 252.90428 253.74024 254.07020
 254.12116 253.90913 253.28309 252.24505 250.86501 249.03997 246.96293 244.80989
 242.61485 240.43281 238.26677 236.11973 233.99369 231.87465 229.91461 228.08557
 226.38253 224.86850 223.51246 222.29842 221.19438 220.16834 219.28630 218.44126
 217.69722 216.89118 216.00314 215.38110 214.84506 214.25436 212.85881 212.95126
 213.05984 212.81775 213.66510 215.76225 218.35115 222.01341 227.73477 232.19073
 235.78487 239.85684 244.46230 249.17577 253.25824 256.02921 258.22601 260.81531
 263.75311 266.34543 268.62228 270.91708 273.26959 275.48792 277.33859 279.02518
 280.61429 282.08472 283.49112 284.84952 286.02979 287.07498 288.03049 288.89825
 289.68430 290.38974 291.01166 291.84225
 366.78100 356.34912 345.79524 334.67536 323.09249 311.30061 299.18473 287.00185
 274.72797 262.63909 250.66221 239.97733 230.11346 221.23158 213.42770 206.44382
 200.29194 195.24406 191.84018 189.89630 188.94743 189.02555 189.87467 191.19679
 192.93591 195.04503 197.32215 199.69528 202.15440 204.64852 206.75064 208.60676
 210.24688 211.40600 211.64912 211.89125 211.84237 211.56149 211.20861 210.85273
 210.48385 210.20797 210.03009 209.90822 209.85034 210.19546 210.59558 210.99870
 211.80582 212.99794 214.26206 216.05919 218.00131 220.05843 222.16755 224.26467
 226.33879 228.43691 230.54804 232.66816 234.81128 236.99740 239.26752 241.65164
 244.28676 246.55188 248.56801 250.34713 251.77825 252.91537 253.75149 254.08161
 254.13273 253.92085 253.29498 252.25710 250.87722 249.05234 246.97546 244.82258
 242.62770 240.44583 238.27995 236.13307 234.00719 231.88831 229.92843 228.09955
 226.39667 224.88280 223.52692 222.31304 221.20916 220.18328 219.30140 218.45652
 217.71264 216.90677 216.01889 215.39701 214.86113 214.26147 212.84471 213.09497
 213.15802 212.86934 213.73547 215.78011 218.31316 221.95499 227.65585 232.09506
 235.70558 239.80878 244.43208 249.12407 253.14342 255.87407 258.08972 260.73718
 263.67715 266.27173 268.57535 270.90109 273.27765 275.51126 277.35577 279.03323
 280.61765 282.08438 283.50394 284.86511 286.04611 287.09158 288.04791 288.91693
 289.70270 290.40756 291.02878 291.86353
 366.78100 356.34998 345.79696 334.67794 323.09592 311.30490 299.18988 287.00786
 274.73484 262.64682 250.67080 239.98678 230.12376 221.24274 213.43972 206.45670
 200.30568 195.25866 191.85564 189.91262 188.96460 189.04358 189.89356 191.21654
 192.95653 195.06651 197.34449 199.71847 202.17845 204.67343 206.77641 208.63339
 210.27437 211.43435 211.67833 211.92131 211.87329 211.59327 211.24125 210.88623
 210.51821 210.24319 210.06617 209.94515 209.88813 210.23411 210.63509 211.03907
 211.84705 213.04003 214.30501 216.10299 218.04597 220.10395 222.21393 224.31191
 226.38689 228.48587 230.59785 232.71883 234.86281 237.04979 239.32077 241.70575
 244.34173 246.60771 248.62469 250.40467 251.83665 252.97463 253.81162 254.14260
 254.19458 253.98356 253.35854 252.32152 250.94250 249.11848 247.04246 244.89044
 242.69642 240.51540 238.35038 236.20436 234.07934 231.96132 230.00230 228.17428
 226.47226 224.95924 223.60422 222.39120 221.28818 220.26316 219.38214 218.53812
 217.79510 216.99008 216.10306 215.48204 214.94702 214.30577 212.79074 213.20926
 213.42059 212.93872 213.68291 215.70932 218.23643 221.92265 227.57608 232.00121
 235.63396 239.76915 244.40623 249.07045 253.02461 255.71976 257.96176 260.66501
 263.60010 266.19916 268.53610 270.89291 273.29361 275.54245 277.38071 279.04495
 280.61929 282.08502 283.52362 284.88516 286.06708 287.11398 288.07025 288.93973
 289.72638 290.43188 291.05353 291.88342
 366.78100 356.34954 345.79607 334.67661 323.09414 311.30268 299.18721 287.00475
 274.73128 262.64282 250.66636 239.98189 230.11843 221.23696 213.43350 206.45003
 200.29857 195.25110 191.84764 189.90418 188.95571 189.03425 189.88378 191.20632
 192.94585 195.05539 197.33292 199.70646 202.16600 204.66053 206.76307 208.61960
 210.26014 211.41967 211.66321 211.90575 211.85728 211.57682 211.22435 210.86889
 210.50042 210.22496 210.04749 209.92603 209.86857 210.21410 210.61464 211.01817
 211.82571 213.01824 214.28278 216.08031 218.02285 220.08039 222.18992 224.28746
 226.36199 228.46053 230.57206 232.69260 234.83613 237.02267 239.29321 241.67774
 244.31328 246.57881 248.59535 250.37488 251.80642 252.94395 253.78049 254.11103
 254.16256 253.95110 253.32563 252.28817 250.90870 249.08424 247.00777 244.85531
 242.66085 240.47938 238.31392 236.16745 234.04199 231.92352 229.96406 228.13559
 226.43313 224.91967 223.56420 222.35074 221.24727 220.22181 219.34034 218.49588
 217.75242 216.94695 216.05949 215.43802 214.90256 214.28717 212.83327 213.21017
 213.62463 213.08957 213.66797 215.68658 218.21710 221.83693 227.49559 231.91418
 235.56731 239.73415 244.38126 249.01219 252.89622 255.55823 257.83426 260.59174
 263.51703 266.12268 268.49835 270.88586 273.31335 275.57693 277.40796 279.05518
 280.61743 282.06818 283.54968 284.91229 286.09424 287.14096 288.09799 288.96805
 289.75317 290.45956 291.08151 291.90945
 366.78100 356.34871 345.79443 334.67414 323.09085 311.29857 299.18228 286.99899
 274.72471 262.63542 250.65813 239.97285 230.10856 221.22627 213.42199 206.43770
 200.28541 195.23713 191.83284 189.88856 188.93927 189.01698 189.86570 191.18741
 192.92612 195.03484 197.31155 199.68426 202.14298 204.63669 206.73840 208.59412
 210.23383 211.39254 211.63526 211.87697 211.82768 211.54640 211.19311 210.83682
 210.46754 210.19125 210.01296 209.89068 209.83239 210.17710 210.57682 210.97953
 211.78624 212.97796 214.24167 216.03838 217.98010 220.03681 222.14553 224.24224
 226.31595 228.41367 230.52438 232.64409 234.78681 236.97252 239.24223 241.62595
 244.26066 246.52537 248.54109 250.31980 251.75051 252.88723 253.72294 254.05265
 254.10337 253.89108 253.26479 252.22651 250.84622 249.02093 246.94365 244.79036
 242.59507 240.41279 238.24650 236.09921 233.97293 231.85364 229.89335 228.06407
 226.36078 224.84650 223.49021 222.27592 221.17164 220.14535 219.26306 218.41778
 217.67349 216.86720 215.97892 215.35663 214.82034 214.24730 212.89342 213.23781
 213.72566 213.22845 213.70396 215.71132 218.23849 221.74852 227.41591 231.82961
 235.50410 239.70305 244.35667 248.94850 252.75911 255.39131 257.70685 260.51505
 263.42627 266.03891 268.45792 270.87607 273.32986 275.60730 277.42844 279.06027
 280.60751 282.04382 283.57697 284.94104 286.12332 287.17041 288.12701 288.99646
 289.78314 290.48654 291.10831 291.93640
 366.78100 356.34843 345.79386 334.67329 323.08972 311.29715 299.18059 286.99702
 274.72245 262.63288 250.65531 239.96974 230.10517 221.22260 213.41803 206.43346
 200.28089 195.23232 191.82776 189.88319 188.93362 189.01105 189.85948 191.18091
 192.91934 195.02777 197.30420 199.67663 202.13506 204.62849 206.72993 208.58536
 210.22479 211.38322 211.62565 211.86708 211.81751 211.53594 211.18237 210.82580
 210.45623 210.17966 210.00110 209.87853 209.81996 210.16439 210.56382 210.96625
 211.77268 212.96411 214.22754 216.02397 217.96540 220.02183 222.13027 224.22670
 226.30013 228.39756 230.50799 232.62742 234.76985 236.95528 239.22471 241.60814
 244.24257 246.50700 248.52244 250.30087 251.73130 252.86773 253.70316 254.03259
 254.08302 253.87045 253.24388 252.20531 250.82474 248.99917 246.92161 244.76804
 242.57247 240.38990 238.22333 236.07576 233.94919 231.82962 229.86905 228.03948
 226.33591 224.82134 223.46478 222.25021 221.14564 220.11907 219.23650 218.39093
 217.64636 216.83979 215.95122 215.32865 214.79208 214.23369 212.91441 213.31445
 213.79987 213.33070 213.76222 215.74384 218.26817 221.66913 227.33603 231.74861
 235.44649 239.67580 244.33163 248.88002 252.61626 255.22182 257.58139 260.43436
 263.32632 265.94775 268.41116 270.86096 273.34131 275.62891 277.43930 279.05817
 280.59189 282.04999 283.59183 284.95929 286.14163 287.19067 288.14877 289.01971
 289.80597 290.51022 291.13004 291.95966
 366.78100 356.34835 345.79369 334.67304 323.08939 311.29673 299.18008 286.99642
 274.72177 262.63212 250.65446 239.96881 230.10416 221.22150 213.41685 206.43219
 200.27954 195.23089 191.82623 189.88158 188.93193 189.00927 189.85762 191.17896
 192.91731 195.02566 197.30200 199.67435 202.13270 204.62604 206.72739 208.58274
 210.22208 211.38043 211.62277 211.86412 211.81447 211.53281 211.17916 210.82251
 210.45285 210.17620 209.99754 209.87489 209.81624 210.16058 210.55993 210.96228
 211.76862 212.95997 214.22332 216.01966 217.96101 220.01735 222.12570 224.22205
 226.29539 228.39274 230.50309 232.62243 234.76478 236.95012 239.21947 241.60282
 244.23716 246.50151 248.51686 250.29520 251.72555 252.86189 253.69724 254.02659
 254.07693 253.86428 253.23763 252.19897 250.81832 248.99267 246.91501 244.76136
 242.56570 240.38305 238.21640 236.06874 233.94209 231.82244 229.86178 228.03213
 226.32847 224.81382 223.45717 222.24251 221.13786 220.11121 219.22855 218.38290
 217.63825 216.83159 215.94294 215.32028 214.78363 214.23196 212.92859 213.38550
 213.88945 213.41217 213.82701 215.77495 218.29599 221.60402 227.25568 231.67360
 235.39499 239.65262 244.30585 248.80743 252.46883 255.05170 257.45743 260.34958
 263.21979 265.85184 268.36179 270.84164 273.34769 275.64285 277.44385 279.05060
 280.57715 282.05853 283.60208 284.97079 286.15540 287.20477 288.16205 289.03323
 289.81894 290.52390 291.14267 291.96674
 366.78100 356.34823 345.79346 334.67269 323.08891 311.29614 299.17937 286.99560
 274.72083 262.63106 250.65329 239.96751 230.10274 221.21997 213.41520 206.43043
 200.27766 195.22888 191.82411 189.87934 188.92957 189.00680 189.85503 191.17626
 192.91448 195.02271 197.29894 199.67117 202.12940 204.62263 206.72386 208.57908
 210.21831 211.37654 211.61877 211.86000 211.81023 211.52845 211.17468 210.81791
 210.44814 210.17137 209.99260 209.86983 209.81105 210.15528 210.55451 210.95674
 211.76297 212.95420 214.21743 216.01365 217.95488 220.01111 222.11934 224.21557
 226.28880 228.38602 230.49625 232.61548 234.75771 236.94294 239.21217 241.59540
 244.22962 246.49385 248.50908 250.28731 251.71754 252.85377 253.68900 254.01822
 254.06845 253.85568 253.22891 252.19014 250.80937 248.98359 246.90582 244.75205
 242.55628 240.37351 238.20674 236.05897 233.93219 231.81242 229.85165 228.02188
 226.31811 224.80334 223.44657 222.23179 221.12702 220.10025 219.21748 218.37171
 217.62694 216.82017 215.93139 215.30862 214.77185 214.23099 212.95314 213.43199
 213.98613 213.49165 213.89320 215.81363 218.31645 221.55328 227.17738 231.60460
 235.34850 239.63098 244.27734 248.72923 252.31743 254.88306 257.33704 260.26309
 263.10995 265.75461 268.31085 270.81955 273.34879 275.64804 277.43805 279.03583
 280.55948 282.06259 283.60837 284.97711 286.16144 287.21036 288.16846 289.03903
 289.82520 290.52756 291.14664 291.96674
 366.78100 356.34817 345.79335 334.67252 323.08869 311.29586 299.17904 286.99521
 274.72038 262.63055 250.65273 239.96690 230.10207 221.21924 213.41442 206.42959
 200.27676 195.22793 191.82311 189.87828 188.92845 189.00562 189.85380 191.17497
 192.91314 195.02131 197.29749 199.66966 202.12783 204.62100 206.72218 208.57735
 210.21652 211.37469 211.61687 211.85804 211.80821 211.52638 211.17256 210.81573
 210.44590 210.16907 209.99025 209.86742 209.80859 210.15276 210.55194 210.95411
 211.76028 212.95145 214.21463 216.01080 217.95197 220.00814 222.11632 224.21249
 226.28566 228.38283 230.49301 232.61218 234.75435 236.93952 239.20870 241.59187
 244.22604 246.49021 248.50539 250.28356 251.71373 252.84990 253.68508 254.01425
 254.06442 253.85159 253.22477 252.18594 250.80511 248.97928 246.90146 244.74763
 242.55180 240.36897 238.20215 236.05432 233.92749 231.80766 229.84684 228.01701
 226.31318 224.79835 223.44153 222.22670 221.12187 220.09504 219.21222 218.36639
 217.62156 216.81473 215.92591 215.30308 214.76625 214.23509 212.98015 213.46492
 214.07532 213.58101 213.96063 215.86302 218.32791 221.51486 227.10431 231.53998
 235.30598 239.61017 244.24554 248.64590 252.16452 254.71875 257.22192 260.17657
 263.00070 265.66016 268.26038 270.79492 273.34399 275.64221 277.42224 279.01395
 280.53909 282.06119 283.60541 284.97363 286.15875 287.20444 288.16360 289.03171
 289.81815 290.52036 291.13635 291.95508
 366.78100 356.34826 345.79352 334.67279 323.08905 311.29631 299.17957 286.99584
 274.72110 262.63136 250.65362 239.96788 230.10315 221.22041 213.41567 206.43093
 200.27820 195.22946 191.82472 189.87998 188.93024 189.00751 189.85577 191.17703
 192.91529 195.02356 197.29982 199.67208 202.13034 204.62360 206.72487 208.58013
 210.21939 211.37765 211.61992 211.86118 211.81144 211.52970 211.17596 210.81923
 210.44949 210.17275 209.99401 209.87128 209.81254 210.15680 210.55606 210.95832
 211.76459 212.95585 214.21911 216.01537 217.95664 220.01290 222.12116 224.21742
 226.29068 228.38795 230.49821 232.61747 234.75973 236.94500 239.21426 241.59752
 244.23178 246.49604 248.51131 250.28957 251.71983 252.85609 253.69136 254.02062
 254.07088 253.85814 253.23140 252.19267 250.81193 248.98619 246.90845 244.75472
 242.55898 240.37624 238.20950 236.06176 233.93503 231.81529 229.85455 228.02481
 226.32108 224.80634 223.44960 222.23486 221.13012 220.10339 219.22065 218.37491
 217.63017 216.82344 215.93470 215.31196 214.77522 214.24846 213.00392 213.49022
 214.15137 213.67998 214.03043 215.91946 218.33426 221.48466 227.03696 231.48004
 235.26765 239.58922 244.20934 248.55826 252.01315 254.56229 257.11520 260.08984
 262.89307 265.56793 268.20834 270.76556 273.32999 275.62183 277.39212 278.98083
 280.51096 282.05011 283.59439 284.96127 286.14313 287.18881 288.14487 289.01276
 289.79642 290.49655 291.11169 291.91925
 366.78100 356.34842 345.79384 334.67326 323.08968 311.29710 299.18052 286.99694
 274.72236 262.63277 250.65519 239.96961 230.10503 221.22245 213.41787 206.43329
 200.28071 195.23213 191.82755 189.88297 188.93339 189.01081 189.85923 191.18065
 192.91907 195.02748 197.30390 199.67632 202.13474 204.62816 206.72958 208.58500
 210.22442 211.38284 211.62526 211.86668 211.81710 211.53552 211.18194 210.82536
 210.45578 210.17920 210.00061 209.87803 209.81945 210.16387 210.56329 210.96571
 211.77213 212.96355 214.22697 216.02339 217.96481 220.02123 222.12965 224.22607
 226.29949 228.39691 230.50732 232.62674 234.76916 236.95458 239.22400 241.60742
 244.24184 246.50626 248.52168 250.30010 251.73052 252.86694 253.70236 254.03178
 254.08220 253.86962 253.24304 252.20445 250.82387 248.99829 246.92071 244.76713
 242.57155 240.38897 238.22239 236.07481 233.94823 231.82865 229.86807 228.03849
 226.33491 224.82033 223.46375 222.24916 221.14458 220.11800 219.23542 218.38984
 217.64526 216.83868 215.95010 215.32752 214.79094 214.26697 213.02902 213.50606
 214.21681 213.78201 214.10260 215.97841 218.34239 221.45825 226.97377 231.42725
 235.23383 239.56792 244.16888 248.46848 251.86621 254.41605 257.01532 260.00684
 262.79135 265.48236 268.15634 270.73175 273.30493 275.58246 277.34366 278.93655
 280.47668 282.02631 283.57004 284.93536 286.11349 287.15869 288.11237 288.97995
 289.76584 290.46967 291.08521 291.89856
 366.78100 356.34859 345.79417 334.67376 323.09035 311.29793 299.18152 286.99811
 274.72369 262.63428 250.65686 239.97145 230.10704 221.22462 213.42021 206.43580
 200.28338 195.23497 191.83056 189.88614 188.93673 189.01432 189.86290 191.18449
 192.92308 195.03166 197.30825 199.68083 202.13942 204.63301 206.73459 208.59018
 210.22977 211.38835 211.63094 211.87253 211.82311 211.54170 211.18829 210.83187
 210.46246 210.18605 210.00763 209.88522 209.82680 210.17139 210.57098 210.97356
 211.78015 212.97174 214.23532 216.03191 217.97350 220.03008 222.13867 224.23526
 226.30884 228.40643 230.51702 232.63660 234.77919 236.96478 239.23436 241.61795
 244.25253 246.51712 248.53271 250.31129 251.74188 252.87847 253.71405 254.04364
 254.09423 253.88181 253.25540 252.21699 250.83657 249.01116 246.93375 244.78033
 242.58492 240.40250 238.23609 236.08868 233.96226 231.84285 229.88244 228.05302
 226.34961 224.83520 223.47878 222.26437 221.15996 220.13354 219.25113 218.40572
 217.66130 216.85489 215.96647 215.34406 214.80765 214.28668 213.05583 213.51253
 214.27846 213.87973 214.17517 216.03822 218.34459 221.43391 226.91530 231.38144
 235.20213 239.54329 244.12102 248.37155 251.72160 254.28117 256.92511 259.92792
 262.69781 265.40549 268.10800 270.69482 273.26999 275.53253 277.28821 278.88092
 280.43243 281.99200 283.52914 284.89017 286.06750 287.10916 288.06287 288.93259
 289.72369 290.43393 291.05603 291.86490
 366.78100 356.34884 345.79467 334.67451 323.09134 311.29918 299.18301 286.99985
 274.72569 262.63652 250.65936 239.97419 230.11003 221.22787 213.42370 206.43954
 200.28737 195.23921 191.83504 189.89088 188.94172 189.01955 189.86839 191.19022
 192.92906 195.03790 197.31473 199.68757 202.14640 204.64024 206.74207 208.59791
 210.23775 211.39658 211.63942 211.88125 211.83209 211.55092 211.19776 210.84160
 210.47243 210.19627 210.01810 209.89594 209.83778 210.18261 210.58245 210.98528
 211.79212 212.98395 214.24779 216.04463 217.98646 220.04330 222.15213 224.24897
 226.32281 228.42064 230.53148 232.65131 234.79415 236.97998 239.24982 241.63366
 244.26849 246.53333 248.54916 250.32800 251.75883 252.89567 253.73151 254.06134
 254.11218 253.90001 253.27385 252.23569 250.85552 249.03036 246.95319 244.80003
 242.60486 240.42270 238.25654 236.10937 233.98321 231.86404 229.90388 228.07472
 226.37155 224.85739 223.50122 222.28706 221.18289 220.15673 219.27457 218.42940
 217.68524 216.87907 215.99091 215.36874 214.83258 214.31131 213.07979 213.50592
 214.33574 213.97585 214.25455 216.09908 218.34705 221.40710 226.85477 231.33710
 235.17078 239.51431 244.06702 248.27498 251.58531 254.15518 256.83865 259.85437
 262.61200 265.33896 268.06183 270.65411 273.22763 275.47003 277.21335 278.82242
 280.38278 281.94626 283.47940 284.83813 286.01190 287.05344 288.00470 288.87497
 289.66873 290.38150 290.99707 291.78293
 366.78100 356.34885 345.79469 334.67454 323.09138 311.29923 299.18307 286.99992
 274.72576 262.63661 250.65945 239.97430 230.11015 221.22799 213.42384 206.43968
 200.28753 195.23937 191.83522 189.89106 188.94191 189.01975 189.86860 191.19044
 192.92929 195.03814 197.31498 199.68783 202.14667 204.64052 206.74236 208.59821
 210.23805 211.39690 211.63974 211.88159 211.83244 211.55128 211.19813 210.84197
 210.47282 210.19666 210.01851 209.89635 209.83820 210.18304 210.58289 210.98573
 211.79258 212.98443 214.24827 216.04512 217.98696 220.04381 222.15265 224.24950
 226.32334 228.42119 230.53203 232.65188 234.79473 236.98057 239.25042 241.63426
 244.26911 246.53395 248.54980 250.32864 251.75949 252.89633 253.73218 254.06202
 254.11287 253.90072 253.27456 252.23641 250.85625 249.03110 246.95394 244.80079
 242.60563 240.42348 238.25732 236.11017 233.98402 231.86486 229.90471 228.07555
 226.37240 224.85824 223.50209 222.28793 221.18378 220.15762 219.27547 218.43031
 217.68616 216.88001 215.99185 215.36970 214.83354 214.32332 213.11786 213.49641
 214.38203 214.07703 214.36620 216.17538 218.35681 221.40475 226.80661 231.30060
 235.14349 239.48390 244.00319 248.16164 251.44188 254.04535 256.77100 259.78210
 262.53668 265.27417 268.01001 270.60944 273.16849 275.38541 277.14246 278.75543
 280.33096 281.90219 283.41354 284.76227 285.91681 286.95251 287.90054 288.76801
 289.56259 290.27155 290.87283 291.65298
 366.78100 356.34788 345.79276 334.67163 323.08751 311.29439 299.17727 286.99315
 274.71803 262.62790 250.64978 239.96366 230.09854 221.21542 213.41029 206.42517
 200.27205 195.22293 191.81781 189.87269 188.92256 188.99944 189.84732 191.16820
 192.90608 195.01395 197.28983 199.66171 202.11959 204.61247 206.71334 208.56822
 210.20710 211.36498 211.60686 211.84774 211.79761 211.51549 211.16137 210.80425
 210.43413 210.15700 209.97788 209.85476 209.79564 210.13952 210.53840 210.94027
 211.74615 212.93703 214.19991 215.99579 217.93666 219.99254 222.10042 224.19630
 226.26918 228.36606 230.47593 232.59481 234.73669 236.92157 239.19045 241.57332
 244.20720 246.47108 248.48596 250.26384 251.69372 252.82959 253.66447 253.99335
 254.04323 253.83011 253.20298 252.16386 250.78274 248.95662 246.87850 244.72437
 242.52825 240.34513 238.17801 236.02989 233.90277 231.78264 229.82152 227.99140
 226.28728 224.77216 223.41503 222.19991 221.09479 220.06767 219.18455 218.33843
 217.59330 216.78618 215.89706 215.27394 214.73682 214.28036 213.20195 213.53825
 214.40372 214.10608 214.42299 216.22301 218.37352 221.41574 226.76062 231.27263
 235.12683 239.46089 243.95007 248.07489 251.34587 253.97018 256.72769 259.73712
 262.48447 265.23700 267.97455 270.56503 273.10168 275.28711 277.03876 278.67935
 280.28317 281.85507 283.34787 284.68039 285.81955 286.83514 287.77673 288.64880
 289.45602 290.15884 290.76627 291.55597
 366.78100 356.34615 345.78929 334.66644 323.08059 311.28573 299.16688 286.98103
 274.70417 262.61232 250.63246 239.94461 230.07776 221.19290 213.38605 206.39920
 200.24434 195.19349 191.78664 189.83978 188.88793 188.96308 189.80922 191.12837
 192.86451 194.97066 197.24481 199.61495 202.07110 204.56225 206.66139 208.51454
 210.15169 211.30783 211.54798 211.78713 211.73527 211.45142 211.09556 210.73671
 210.36486 210.08600 209.90515 209.78030 209.71944 210.06159 210.45874 210.85888
 211.66303 212.85218 214.11332 215.90747 217.84662 219.90076 222.00691 224.10105
 226.17220 228.26735 230.37549 232.49264 234.63279 236.81593 239.08308 241.46423
 244.09637 246.35852 248.37167 250.14781 251.57596 252.71010 253.54325 253.87040
 253.91854 253.70369 253.07484 252.03398 250.65113 248.82328 246.74342 244.58757
 242.38972 240.20486 238.03601 235.88615 233.75730 231.63545 229.67259 227.84074
 226.13489 224.61803 223.25918 222.04233 220.93547 219.90662 219.02177 218.17391
 217.42706 216.61821 215.72735 215.10250 214.56364 214.19215 213.31447 213.65102
 214.41447 214.08194 214.40720 216.20029 218.31467 221.38367 226.71405 231.25148
 235.11247 239.44119 243.90329 248.00972 251.28392 253.97646 256.75354 259.76489
 262.51718 265.27026 267.99353 270.55402 273.05875 275.22079 276.96765 278.64154
 280.20035 281.72931 283.22134 284.52438 285.62628 286.63828 287.59045 288.45435
 289.22162 289.84961 290.39319 291.15408
 366.78100 356.34325 345.78350 334.65775 323.06900 311.27125 299.14950 286.96075
 274.68101 262.58626 250.60351 239.91276 230.04301 221.15526 213.34551 206.35576
 200.19801 195.14426 191.73451 189.78476 188.83001 188.90226 189.74551 191.06176
 192.79502 194.89827 197.16952 199.53677 201.99002 204.47827 206.57452 208.42477
 210.05902 211.21227 211.44952 211.68577 211.63102 211.34427 210.98552 210.62377
 210.24903 209.96728 209.78353 209.65578 209.59203 209.93128 210.32553 210.72278
 211.52403 212.71028 213.96853 215.75978 217.69603 219.74728 221.85053 223.94178
 226.01004 228.10229 230.20754 232.32179 234.45904 236.63929 238.90354 241.28179
 243.91104 246.17029 248.18054 249.95379 251.37904 252.51029 253.34054 253.66479
 253.71005 253.49230 252.86055 251.81680 250.43105 248.60030 246.51755 244.35880
 242.15805 239.97030 237.79855 235.64580 233.51405 231.38930 229.42355 227.58880
 225.88006 224.36031 222.99856 221.77881 220.66906 219.63731 218.74956 217.89881
 217.14906 216.33731 215.44356 214.81581 214.27406 214.03575 213.47272 213.78749
 214.39238 214.04335 214.38687 216.16068 218.26907 221.35828 226.64694 231.20549
 235.08556 239.41058 243.84499 247.93959 251.23395 253.99260 256.81601 259.81717
 262.56094 265.29599 268.01999 270.54630 273.02689 275.16971 276.90323 278.42249
 280.13916 281.76190 283.15979 284.43768 285.52020 286.54483 287.49362 288.34766
 289.08359 289.72092 290.32062 291.11478
 366.78100 356.34176 345.78052 334.65327 323.06303 311.26379 299.14055 286.95031
 274.66906 262.57282 250.58858 239.89634 230.02510 221.13585 213.32461 206.33337
 200.17413 195.11889 191.70764 189.75640 188.80016 188.87092 189.71268 191.02743
 192.75919 194.86095 197.13071 199.49647 201.94822 204.43498 206.52974 208.37850
 210.01126 211.16301 211.39877 211.63353 211.57729 211.28905 210.92880 210.56556
 210.18932 209.90608 209.72084 209.59159 209.52635 209.86411 210.25687 210.65263
 211.45238 212.63714 213.89390 215.68366 217.61842 219.66817 221.76993 223.85969
 225.92645 228.01721 230.12096 232.23372 234.36948 236.54824 238.81100 241.18776
 243.81551 246.07327 248.08203 249.85379 251.27755 252.40730 253.23606 253.55882
 253.60258 253.38334 252.75009 251.70485 250.31761 248.48537 246.40113 244.24088
 242.03864 239.84940 237.67616 235.52192 233.38867 231.26243 229.29519 227.45895
 225.74871 224.22746 222.86422 221.64298 220.53174 219.49850 218.60925 217.75701
 217.00577 216.19253 215.29729 214.66804 214.12480 213.94019 213.50400 214.00923
 214.51807 214.03093 214.31633 216.09962 218.17191 221.25198 226.54810 231.12135
 235.03227 239.34753 243.75250 247.82640 251.22000 254.13898 256.97726 259.94916
 262.69193 265.39645 268.03796 270.54153 272.96368 275.03586 276.63712 278.56296
 280.03842 281.41971 282.88895 284.08569 285.13397 286.10919 286.97415 287.69147
 288.30780 288.82236 289.11606 289.34152
 366.78100 356.34485 345.78670 334.66255 323.07540 311.27925 299.15910 286.97195
 274.69379 262.60064 250.61949 239.93034 230.06219 221.17604 213.36789 206.37974
 200.22359 195.17144 191.76329 189.81514 188.86199 188.93584 189.78068 191.09853
 192.83338 194.93823 197.21108 199.57993 202.03478 204.52463 206.62248 208.47433
 210.11018 211.26503 211.50388 211.74173 211.68857 211.40342 211.04627 210.68612
 210.31297 210.03282 209.85067 209.72452 209.66237 210.00322 210.39907 210.79792
 211.60077 212.78862 214.04846 215.84131 217.77916 219.83201 221.93686 224.02971
 226.09956 228.19341 230.30026 232.41611 234.55496 236.73681 239.00266 241.38251
 244.01335 246.27420 248.28605 250.06090 251.48775 252.62060 253.45245 253.77830
 253.82515 253.60900 252.97885 251.93670 250.55255 248.72340 246.64224 244.48509
 242.28594 240.09979 237.92964 235.77849 233.64834 231.52519 229.56104 227.72789
 226.02074 224.50259 223.14244 221.92429 220.81614 219.78598 218.89983 218.05068
 217.30253 216.49238 215.60023 214.97408 214.43393 214.09724 213.32921 214.09398
 214.91248 214.29741 214.36983 215.98221 218.01251 221.10939 226.32326 230.98276
 234.87354 239.16145 243.47346 247.44423 250.89482 254.10030 257.15976 260.07147
 262.81348 265.51929 268.08533 270.47083 272.70004 274.91223 276.98282 278.64807
 279.94958 281.04535 282.24210 283.38220 284.35403 285.19385 285.96436 286.58884
 286.73941 286.64163 286.55618 286.44733
 366.78100 356.34796 345.79292 334.67187 323.08783 311.29479 299.17775 286.99370
 274.71866 262.62862 250.65058 239.96453 230.09949 221.21645 213.41141 206.42636
 200.27332 195.22428 191.81924 189.87419 188.92415 189.00111 189.84907 191.17002
 192.90798 195.01594 197.29190 199.66385 202.12181 204.61477 206.71573 208.57068
 210.20964 211.36760 211.60956 211.85051 211.80047 211.51843 211.16439 210.80734
 210.43730 210.16026 209.98122 209.85817 209.79913 210.14309 210.54205 210.94400
 211.74996 212.94092 214.20388 215.99983 217.94079 219.99675 222.10471 224.20066
 226.27362 228.37058 230.48054 232.59949 234.74145 236.92641 239.19537 241.57832
 244.21228 246.47624 248.49120 250.26915 251.69911 252.83507 253.67003 253.99898
 254.04894 253.83590 253.20886 252.16981 250.78877 248.96273 246.88469 244.73064
 242.53460 240.35156 238.18452 236.03647 233.90943 231.78939 229.82835 227.99830
 226.29426 224.77922 223.42218 222.20713 221.10209 220.07505 219.19201 218.34596
 217.60092 216.79388 215.90484 215.28179 214.74475 214.27484 213.24840 213.98140
 215.09964 214.63046 214.64270 216.01933 217.96890 221.06982 226.15445 230.86479
 234.73828 238.99382 243.22830 247.11697 250.62323 253.91351 257.10086 260.08115
 262.87192 265.60684 268.12411 270.49991 272.55554 275.05203 277.03268 278.60608
 279.84900 280.93152 282.00845 283.04865 283.94073 284.69464 285.11505 285.39197
 285.64102 285.86279 286.05652 286.30344
 366.78100 356.34828 345.79357 334.67285 323.08913 311.29641 299.17970 286.99598
 274.72126 262.63155 250.65383 239.96811 230.10340 221.22068 213.41596 206.43124
 200.27853 195.22981 191.82509 189.88038 188.93066 189.00794 189.85623 191.17751
 192.91579 195.02407 197.30036 199.67264 202.13092 204.62421 206.72549 208.58077
 210.22006 211.37834 211.62062 211.86190 211.81219 211.53047 211.17675 210.82004
 210.45032 210.17360 209.99489 209.87217 209.81345 210.15773 210.55702 210.95930
 211.76558 212.95687 214.22015 216.01643 217.95771 220.01400 222.12228 224.21856
 226.29185 228.38913 230.49941 232.61870 234.76098 236.94626 239.21554 241.59883
 244.23311 246.49739 248.51268 250.29096 251.72124 252.85753 253.69281 254.02209
 254.07237 253.85966 253.23294 252.19422 250.81351 248.98779 246.91007 244.75636
 242.56064 240.37792 238.21120 236.06349 233.93677 231.81705 229.85634 228.02662
 226.32290 224.80819 223.45147 222.23675 221.13203 220.10532 219.22260 218.37688
 217.63217 216.82545 215.93673 215.31401 214.77730 214.30614 213.29494 213.92493
 215.14235 214.95012 215.02879 216.25558 218.06760 221.08916 226.07671 230.79373
 234.65858 238.88045 243.06848 246.92285 250.45987 253.77858 257.06235 260.05630
 262.87173 265.63852 268.18765 270.51254 272.67780 274.99170 276.90909 278.50653
 279.75876 280.90094 282.00125 282.99265 283.80725 284.45450 285.02335 285.53870
 286.00220 286.41492 286.77548 287.23499
 366.78100 356.35099 345.79898 334.68097 323.09995 311.30994 299.19593 287.01492
 274.74291 262.65590 250.68089 239.99787 230.13586 221.25585 213.45384 206.47183
 200.32182 195.27580 191.87379 189.93178 188.98477 189.06476 189.91575 191.23974
 192.98072 195.09171 197.37070 199.74569 202.20668 204.70267 206.80666 208.66464
 210.30663 211.46762 211.71261 211.95660 211.90959 211.63058 211.27956 210.92555
 210.55854 210.28453 210.10852 209.98851 209.93249 210.27948 210.68147 211.08646
 211.89545 213.08944 214.35543 216.15441 218.09840 220.15739 222.26838 224.36737
 226.44336 228.54335 230.65633 232.77832 234.92331 237.11130 239.38329 241.76928
 244.40626 246.67325 248.69124 250.47223 251.90522 253.04421 253.88220 254.21418
 254.26717 254.05716 253.43315 252.39714 251.01913 249.19612 247.12110 244.97009
 242.77708 240.59707 238.43306 236.28805 234.16404 232.04702 230.08901 228.26200
 226.56099 225.04898 223.69497 222.48295 221.38094 220.35693 219.47692 218.63391
 217.89190 217.08789 216.20187 215.58186 215.04785 214.46187 213.22266 213.87576
 215.21336 215.23209 215.37805 216.44337 218.10617 221.10283 226.01004 230.69334
 234.54324 238.71289 242.83723 246.67221 250.23750 253.65030 256.95117 259.99023
 262.87296 265.65067 268.21713 270.52368 272.57278 274.93961 276.82120 278.40292
 279.70255 280.92728 282.02472 282.94595 283.81732 284.60391 285.32156 285.97168
 286.55643 287.07712 287.53198 288.11166
 366.78100 356.35334 345.80367 334.68801 323.10934 311.32168 299.21002 287.03135
 274.76169 262.67702 250.70436 240.02370 230.16403 221.28637 213.48670 206.50704
 200.35937 195.31571 191.91605 189.97638 189.03172 189.11405 189.96739 191.29373
 193.03706 195.15040 197.43173 199.80907 202.27241 204.77074 206.87708 208.73741
 210.38175 211.54509 211.79242 212.03876 211.99409 211.71743 211.36877 211.01710
 210.65244 210.38077 210.20711 210.08944 210.03578 210.38512 210.78945 211.19679
 212.00812 213.20446 214.47280 216.27413 218.22047 220.28180 222.39514 224.49648
 226.57481 228.67715 230.79248 232.91682 235.06416 237.25449 239.52883 241.91716
 244.55650 246.82584 248.84617 250.62951 252.06484 253.20618 254.04651 254.38085
 254.43619 254.22852 253.60686 252.57319 251.19753 249.37687 247.30420 245.15554
 242.96487 240.78721 238.62555 236.48288 234.36122 232.24655 230.29089 228.46623
 226.76756 225.25790 223.90623 222.69657 221.59691 220.57524 219.69758 218.85691
 218.11725 217.31558 216.43192 215.81426 215.28259 214.60393 213.15694 213.75545
 215.21440 215.35172 215.61963 216.67302 218.26411 221.17194 226.02220 230.69266
 234.51782 238.63538 242.69893 246.51448 250.10014 253.55595 256.89468 259.92996
 262.88184 265.67496 268.24484 270.51483 272.68277 274.94177 276.80295 278.38403
 279.69284 280.94141 282.06979 283.01669 283.78760 284.45248 285.05908 285.60864
 286.10291 286.54303 286.92752 287.41751
 366.78100 356.34774 345.79249 334.67123 323.08698 311.29372 299.17647 286.99221
 274.71695 262.62670 250.64844 239.96219 230.09693 221.21367 213.40842 206.42316
 200.26991 195.22065 191.81540 189.87014 188.91988 188.99663 189.84437 191.16512
 192.90286 195.01060 197.28635 199.65809 202.11584 204.60858 206.70933 208.56407
 210.20281 211.36056 211.60230 211.84305 211.79279 211.51054 211.15628 210.79902
 210.42877 210.15151 209.97226 209.84900 209.78974 210.13349 210.53223 210.93398
 211.73972 212.93047 214.19321 215.98895 217.92970 219.98544 222.09319 224.18893
 226.26167 228.35842 230.46816 232.58691 234.72865 236.91340 239.18214 241.56488
 244.19863 246.46237 248.47712 250.25486 251.68461 252.82035 253.65509 253.98384
 254.03358 253.82033 253.19307 252.15381 250.77256 248.94630 246.86805 244.71379
 242.51754 240.33428 238.16702 236.01877 233.89151 231.77126 229.81000 227.97974
 226.27549 224.76023 223.40298 222.18772 221.08247 220.05521 219.17195 218.32570
 217.58044 216.77319 215.88393 215.26067 214.72342 214.32271 213.44612 213.75320
 214.91432 215.21300 215.67337 216.84663 218.48364 221.31003 226.10692 230.77213
 234.55357 238.61975 242.62579 246.42079 250.03026 253.49767 256.83548 260.03738
 263.00037 265.76550 268.28482 270.51422 272.77374 274.93857 276.76208 278.32791
 279.57333 280.85971 281.98495 282.83093 283.54315 284.16501 284.73236 285.24631
 285.70859 286.12021 286.47983 286.93811
 366.78100 356.34363 345.78426 334.65889 323.07052 311.27315 299.15178 286.96341
 274.68403 262.58966 250.60729 239.91692 230.04755 221.16018 213.35081 206.36144
 200.20407 195.15070 191.74133 189.79196 188.83759 188.91022 189.75385 191.07048
 192.80410 194.90773 197.17936 199.54699 202.00062 204.48925 206.58588 208.43651
 210.07114 211.22477 211.46240 211.69903 211.64466 211.35829 210.99992 210.63854
 210.26417 209.98280 209.79943 209.67206 209.60869 209.94832 210.34295 210.74058
 211.54221 212.72884 213.98747 215.77910 217.71573 219.76736 221.87099 223.96261
 226.03124 228.12387 230.22950 232.34413 234.48176 236.66239 238.92702 241.30565
 243.93528 246.19491 248.20554 249.97917 251.40480 252.53643 253.36705 253.69168
 253.73731 253.51994 252.88857 251.84520 250.45983 248.62946 246.54709 244.38872
 242.18835 240.00098 237.82961 235.67724 233.54587 231.42150 229.45612 227.62175
 225.91338 224.39401 223.03264 221.81327 220.70390 219.67253 218.78516 217.93479
 217.18542 216.37405 215.48068 214.85331 214.31194 214.10590 213.66483 213.93121
 214.87273 215.23604 215.72231 216.83873 218.44041 221.28107 226.06747 230.74953
 234.53128 238.54958 242.47781 246.17918 249.70064 253.16327 257.04526 260.04233
 263.05832 265.83459 268.33920 270.42627 272.90515 274.99838 276.81891 278.28595
 279.41138 280.38565 281.31259 282.20654 282.88373 283.44794 283.96271 284.42905
 284.84845 285.22195 285.54822 285.96405
 366.78100 356.34680 345.79060 334.66840 323.08320 311.28900 299.17080 286.98560
 274.70940 262.61821 250.63901 239.95181 230.08561 221.20141 213.39521 206.40901
 200.25481 195.20461 191.79841 189.85221 188.90101 188.97681 189.82361 191.14341
 192.88021 194.98701 197.26182 199.63262 202.08942 204.58122 206.68102 208.53482
 210.17262 211.32942 211.57022 211.81002 211.75882 211.47562 211.12042 210.76222
 210.39102 210.11282 209.93262 209.80843 209.74823 210.09103 210.48883 210.88963
 211.69443 212.88423 214.14603 215.94083 217.88063 219.93543 222.04223 224.13703
 226.20883 228.30463 230.41343 232.53123 234.67204 236.85584 239.12364 241.50544
 244.13824 246.40104 248.41484 250.19164 251.62044 252.75524 253.58904 253.91684
 253.96564 253.75144 253.12324 252.08304 250.70084 248.87365 246.79445 244.63925
 242.44205 240.25785 238.08965 235.94045 233.81225 231.69105 229.72885 227.89765
 226.19245 224.67625 223.31805 222.10185 220.99565 219.96745 219.08326 218.23606
 217.48986 216.68166 215.79146 215.16726 214.62906 214.29886 213.58849 213.86464
 215.06375 215.58908 216.06593 216.98010 218.35985 221.23018 226.04112 230.67737
 234.43915 238.40570 242.28264 245.96777 249.49081 253.17491 256.89902 260.12967
 263.02115 265.60400 268.00632 270.61423 272.97775 274.93521 276.63327 278.02939
 279.18954 280.16714 280.89789 281.53955 282.09485 282.58612 283.03436 283.44043
 283.80563 284.13086 284.41498 284.77704
 366.78100 356.34765 345.79231 334.67096 323.08662 311.29327 299.17592 286.99158
 274.71623 262.62588 250.64754 239.96119 230.09585 221.21250 213.40715 206.42181
 200.26846 195.21912 191.81377 189.86842 188.91808 188.99473 189.84238 191.16304
 192.90069 195.00835 197.28400 199.65565 202.11331 204.60596 206.70662 208.56127
 210.19992 211.35758 211.59923 211.83989 211.78954 211.50719 211.15285 210.79550
 210.42515 210.14781 209.96846 209.84512 209.78577 210.12942 210.52808 210.92973
 211.73539 212.92604 214.18869 215.98435 217.92500 219.98065 222.08831 224.18396
 226.25662 228.35327 230.46292 232.58158 234.72323 236.90789 239.17654 241.55919
 244.19285 246.45650 248.47115 250.24881 251.67846 252.81412 253.64877 253.97742
 254.02708 253.81373 253.18639 252.14704 250.76569 248.93935 246.86100 244.70665
 242.51031 240.32696 238.15962 236.01127 233.88392 231.76358 229.80223 227.97189
 226.26754 224.75219 223.39485 222.17950 221.07416 220.04681 219.16346 218.31712
 217.57177 216.76442 215.87508 215.25173 214.71439 214.37584 213.59781 213.63222
 214.91977 215.77840 216.37871 217.24200 218.50378 221.26456 226.10474 230.74095
 234.50711 238.46346 242.34659 246.05600 249.61592 253.40213 257.16257 260.18842
 262.93091 265.49200 268.09824 270.76007 273.06323 275.00446 276.70856 278.05121
 279.25009 280.55777 281.89664 283.07224 284.08963 284.98975 285.81097 286.55496
 287.22409 287.81995 288.34048 289.00385
 366.78100 356.34543 345.78785 334.66428 323.07770 311.28213 299.16255 286.97598
 274.69840 262.60583 250.62525 239.93668 230.06910 221.18353 213.37595 206.38838
 200.23281 195.18123 191.77366 189.82608 188.87351 188.94793 189.79336 191.11178
 192.84721 194.95263 197.22606 199.59548 202.05091 204.54133 206.63976 208.49218
 210.12861 211.28404 211.52346 211.76189 211.70931 211.42474 211.06816 210.70859
 210.33601 210.05644 209.87486 209.74929 209.68771 210.02914 210.42556 210.82499
 211.62842 212.81684 214.07727 215.87069 217.80912 219.86254 221.96797 224.06139
 226.13182 228.22624 230.33367 232.45009 234.58952 236.77194 239.03837 241.41879
 244.05022 246.31165 248.32407 250.09950 251.52692 252.66035 253.49277 253.81920
 253.86662 253.65105 253.02147 251.97990 250.59632 248.76775 246.68717 244.53060
 242.33203 240.14645 237.97688 235.82630 233.69673 231.57415 229.61058 227.77800
 226.07143 224.55385 223.19428 221.97670 220.86913 219.83955 218.95398 218.10540
 217.35783 216.54826 215.65668 215.03111 214.49153 214.24843 213.70175 213.73790
 214.71872 215.59076 216.30864 217.20473 218.63911 221.42455 226.08139 230.72330
 234.46793 238.40291 242.26888 245.97916 249.56122 253.32140 257.04062 260.17059
 263.01398 265.55237 268.09100 270.62769 272.91257 274.87137 276.54807 278.04504
 279.55325 280.66388 281.66870 282.59967 283.35410 284.02161 284.63058 285.18228
 285.67850 286.12036 286.50635 286.99826
 366.78100 356.34512 345.78723 334.66335 323.07647 311.28058 299.16070 286.97382
 274.69593 262.60305 250.62216 239.93328 230.06540 221.17951 213.37163 206.38375
 200.22786 195.17598 191.76810 189.82021 188.86733 188.94145 189.78656 191.10468
 192.83980 194.94491 197.21803 199.58714 202.04226 204.53238 206.63049 208.48261
 210.11873 211.27384 211.51296 211.75108 211.69819 211.41331 211.05643 210.69654
 210.32366 210.04378 209.86189 209.73601 209.67412 210.01524 210.41136 210.81047
 211.61359 212.80171 214.06182 215.85494 217.79306 219.84617 221.95129 224.04441
 226.11452 228.20864 230.31576 232.43187 234.57099 236.75311 239.01922 241.39934
 244.03045 246.29157 248.30369 250.07880 251.50592 252.63904 253.47115 253.79727
 253.84439 253.62850 252.99862 251.95674 250.57285 248.74397 246.66309 244.50620
 242.30732 240.12143 237.95155 235.80067 233.67078 231.54790 229.58402 227.75113
 226.04425 224.52637 223.16648 221.94860 220.84072 219.81083 218.92495 218.07607
 217.32818 216.51830 215.62641 215.00053 214.46065 214.22084 213.70378 213.92487
 214.92972 215.66872 216.28513 217.12228 218.51138 221.28838 225.94913 230.59105
 234.30434 238.17586 241.98227 245.65144 249.28143 253.28363 256.97644 259.99994
 262.75586 265.44052 268.18216 270.73264 272.95538 274.80804 276.46201 277.85992
 279.06131 280.24640 281.21277 282.05289 282.77005 283.40457 283.98346 284.50790
 284.97958 285.39963 285.76654 286.23416
 366.78100 356.34366 345.78432 334.65898 323.07064 311.27330 299.15196 286.96362
 274.68428 262.58994 250.60760 239.91726 230.04792 221.16058 213.35124 206.36190
 200.20457 195.15123 191.74189 189.79255 188.83821 188.91087 189.75453 191.07119
 192.80485 194.90851 197.18017 199.54783 202.00149 204.49015 206.58681 208.43747
 210.07213 211.22579 211.46345 211.70011 211.64577 211.35943 211.00109 210.63975
 210.26541 209.98407 209.80073 209.67339 209.61005 209.94971 210.34438 210.74204
 211.54370 212.73036 213.98902 215.78068 217.71734 219.76900 221.87266 223.96432
 226.03298 228.12564 230.23130 232.34596 234.48362 236.66428 238.92894 241.30760
 243.93726 246.19692 248.20758 249.98124 251.40690 252.53856 253.36922 253.69388
 253.73954 253.52220 252.89086 251.84752 250.46219 248.63185 246.54951 244.39117
 242.19083 240.00349 237.83215 235.67981 233.54847 231.42413 229.45879 227.62445
 225.91611 224.39677 223.03543 221.81609 220.70675 219.67541 218.78807 217.93773
 217.18839 216.37705 215.48371 214.85637 214.31503 214.16208 213.80765 213.84016
 214.91615 215.94865 216.54001 217.24193 218.57693 221.32950 225.95963 230.57693
 234.25703 238.07654 241.84615 245.49622 249.23203 253.32930 256.96182 259.96375
 262.74802 265.59732 268.42538 270.87814 272.95267 274.67673 276.34781 277.79678
 278.88379 279.98737 280.80515 281.78226 282.72076 283.55112 284.30869 284.99500
 285.61227 286.16193 286.64212 287.25406
 366.78100 356.34253 345.78207 334.65560 323.06613 311.26766 299.14520 286.95573
 274.67526 262.57979 250.59633 239.90486 230.03439 221.14593 213.33546 206.34499
 200.18652 195.13206 191.72159 189.77112 188.81565 188.88719 189.72972 191.04525
 192.77778 194.88032 197.15085 199.51738 201.96992 204.45745 206.55298 208.40251
 210.03605 211.18858 211.42511 211.66064 211.60518 211.31771 210.95824 210.59578
 210.22031 209.93784 209.75337 209.62491 209.56044 209.89897 210.29250 210.68904
 211.48957 212.67510 213.93264 215.72317 217.65870 219.70923 221.81177 223.90230
 225.96983 228.06136 230.16590 232.27943 234.41596 236.59550 238.85903 241.23656
 243.86509 246.12363 248.13316 249.90569 251.33022 252.46076 253.29029 253.61382
 253.65835 253.43989 252.80742 251.76295 250.37649 248.54502 246.46155 244.30208
 242.10062 239.91215 237.73968 235.58621 233.45375 231.32828 229.36181 227.52635
 225.81688 224.29641 222.93394 221.71348 220.60301 219.57054 218.68207 217.83061
 217.08014 216.26767 215.37321 214.74474 214.20227 214.13879 213.92944 213.76907
 214.86913 216.12912 216.86118 217.51160 218.67096 221.33186 225.94029 230.52629
 234.19273 237.96112 241.68578 245.34912 249.23582 253.32721 256.86923 259.83438
 262.70834 265.83838 268.65845 270.96683 272.94678 274.55533 276.16931 277.61441
 278.67154 279.57373 280.95621 282.21689 283.30786 284.27313 285.15378 285.95157
 286.66913 287.30811 287.86630 288.57764
 366.78100 356.34234 345.78168 334.65502 323.06535 311.26669 299.14403 286.95437
 274.67371 262.57805 250.59438 239.90272 230.03206 221.14340 213.33274 206.34208
 200.18342 195.12875 191.71809 189.76743 188.81177 188.88311 189.72545 191.04078
 192.77312 194.87546 197.14580 199.51214 201.96448 204.45182 206.54715 208.39649
 210.02983 211.18217 211.41851 211.65385 211.59818 211.31052 210.95086 210.58820
 210.21254 209.92988 209.74522 209.61655 209.55189 209.89023 210.28357 210.67991
 211.48025 212.66558 213.92292 215.71326 217.64860 219.69894 221.80128 223.89162
 225.95895 228.05029 230.15463 232.26797 234.40431 236.58365 238.84698 241.22432
 243.85266 246.11100 248.12034 249.89268 251.31702 252.44735 253.27669 253.60003
 253.64437 253.42571 252.79305 251.74838 250.36172 248.53006 246.44640 244.28674
 242.08508 239.89642 237.72375 235.57009 233.43743 231.31177 229.34511 227.50945
 225.79978 224.27912 222.91646 221.69580 220.58514 219.55248 218.66382 217.81215
 217.06149 216.24883 215.35417 214.72551 214.18285 214.17151 213.99323 213.72249
 214.80095 216.12627 217.02168 217.76831 218.82474 221.27951 226.00700 230.50107
 234.08528 237.82251 241.53023 245.22957 249.27443 253.36371 256.82797 259.84723
 262.86752 265.89499 268.57162 270.88037 272.79416 274.42584 276.02444 277.33615
 278.56192 280.35477 281.90619 283.26843 284.44736 285.49039 286.44199 287.30411
 288.07947 288.76993 289.37311 290.14178
 366.78100 356.34082 345.77864 334.65047 323.05929 311.25911 299.13493 286.94375
 274.66158 262.56440 250.57922 239.88604 230.01386 221.12369 213.31151 206.31933
 200.15915 195.10297 191.69080 189.73862 188.78144 188.85126 189.69208 191.00591
 192.73673 194.83755 197.10637 199.47120 201.92202 204.40784 206.50166 208.34948
 209.98131 211.13213 211.36695 211.60077 211.54359 211.25442 210.89324 210.52906
 210.15188 209.86770 209.68153 209.55135 209.48517 209.82199 210.21381 210.60864
 211.40746 212.59128 213.84710 215.63592 217.56975 219.61857 221.71939 223.80821
 225.87403 227.96386 230.06668 232.17850 234.31332 236.49114 238.75297 241.12879
 243.75561 246.01243 248.02025 249.79108 251.21390 252.34272 253.17054 253.49236
 253.53519 253.31501 252.68083 251.63465 250.24648 248.41330 246.32812 244.16694
 241.96376 239.77359 237.59941 235.44423 233.31005 231.18287 229.21470 227.37752
 225.66634 224.14416 222.77998 221.55781 220.44563 219.41145 218.52127 217.66809
 216.91592 216.10174 215.20556 214.57538 214.03120 214.09993 214.10913 213.78873
 214.54366 215.86215 216.97952 217.86754 218.95564 221.43135 226.09735 230.57977
 234.14563 237.85042 241.54181 245.27480 249.36256 253.44260 256.93393 260.02609
 263.03058 265.93344 268.53864 270.83057 272.78540 274.23117 275.81735 277.44064
 279.08163 280.92822 282.52612 283.92920 285.14346 286.21774 287.19788 288.08582
 288.88443 289.59558 290.21683 291.00854
 366.78100 356.33983 345.77666 334.64750 323.05533 311.25416 299.12899 286.93683
 274.65366 262.55549 250.56932 239.87516 230.00199 221.11082 213.29765 206.30449
 200.14332 195.08615 191.67298 189.71981 188.76165 188.83048 189.67031 190.98314
 192.71298 194.81281 197.08064 199.44447 201.89431 204.37914 206.47197 208.31880
 209.94964 211.09947 211.33330 211.56613 211.50796 211.21780 210.85563 210.49046
 210.11229 209.82713 209.63996 209.50879 209.44162 209.77746 210.16829 210.56212
 211.35995 212.54279 213.79762 215.58545 217.51828 219.56611 221.66595 223.75378
 225.81861 227.90744 230.00928 232.12011 234.25394 236.43077 238.69161 241.06644
 243.69227 245.94810 247.95494 249.72477 251.14660 252.27443 253.10127 253.42210
 253.46393 253.24276 252.60759 251.56043 250.17126 248.33709 246.25092 244.08876
 241.88459 239.69342 237.51825 235.36209 233.22692 231.09875 229.12958 227.29142
 225.57925 224.05608 222.69091 221.46774 220.35458 219.31941 218.42824 217.57407
 216.82091 216.00574 215.10857 214.47740 213.93224 214.01846 214.16383 214.06674
 214.57080 215.66373 216.72621 217.61656 218.89612 221.60651 226.04095 230.54181
 234.09267 237.75587 241.45015 245.25093 249.29411 253.32016 256.83615 259.97424
 262.97620 265.82242 268.42795 270.71869 272.68677 274.18552 275.69830 277.55856
 279.07153 280.48651 282.00424 283.35339 284.52097 285.55396 286.49643 287.35022
 288.11810 288.80194 289.39929 290.16058
 366.78100 356.34067 345.77834 334.65001 323.05868 311.25835 299.13402 286.94269
 274.66036 262.56303 250.57770 239.88437 230.01204 221.12171 213.30938 206.31705
 200.15672 195.10039 191.68806 189.73573 188.77840 188.84807 189.68874 191.00241
 192.73308 194.83375 197.10242 199.46709 201.91776 204.40343 206.49710 208.34477
 209.97644 211.12711 211.36178 211.59545 211.53812 211.24879 210.88746 210.52313
 210.14580 209.86147 209.67514 209.54481 209.47848 209.81515 210.20682 210.60149
 211.40016 212.58383 213.83950 215.62817 217.56184 219.61051 221.71118 223.79985
 225.86552 227.95519 230.05786 232.16953 234.30420 236.48187 238.74354 241.11921
 243.74588 246.00255 248.01022 249.78089 251.20356 252.33223 253.15990 253.48157
 253.52424 253.30391 252.66958 251.62325 250.23492 248.40159 246.31627 244.15494
 241.95161 239.76128 237.58695 235.43162 233.29729 231.16996 229.20163 227.36430
 225.65297 224.13064 222.76631 221.54398 220.43165 219.39732 218.50699 217.65366
 216.90133 216.08700 215.19067 214.56034 214.01601 214.05315 214.11607 214.16132
 214.82874 215.81992 216.77005 217.53127 218.76881 221.49185 225.93785 230.39680
 233.92561 237.52509 241.19791 245.05602 249.20932 253.22987 256.71014 259.84479
 262.83795 265.66129 268.28781 270.60132 272.57428 274.01700 275.66882 277.60037
 279.22983 280.53503 281.82101 282.99722 284.01511 284.91565 285.73730 286.48163
 287.15109 287.74725 288.26804 288.93170
 366.78100 356.34245 345.78190 334.65535 323.06580 311.26725 299.14470 286.95515
 274.67460 262.57904 250.59549 239.90394 230.03339 221.14484 213.33429 206.34374
 200.18519 195.13064 191.72009 189.76954 188.81399 188.88544 189.72789 191.04334
 192.77579 194.87823 197.14868 199.51513 201.96758 204.45503 206.55048 208.39993
 210.03338 211.18583 211.42228 211.65773 211.60218 211.31463 210.95508 210.59253
 210.21698 209.93443 209.74987 209.62132 209.55677 209.89522 210.28867 210.68512
 211.48557 212.67102 213.92847 215.71892 217.65437 219.70482 221.80727 223.89772
 225.96517 228.05662 230.16106 232.27451 234.41096 236.59041 238.85386 241.23131
 243.85976 246.11821 248.12766 249.90011 251.32456 252.45501 253.28446 253.60791
 253.65236 253.43381 252.80126 251.75670 250.37015 248.53860 246.45505 244.29550
 242.09395 239.90540 237.73285 235.57930 233.44675 231.32120 229.35465 227.51910
 225.80955 224.28900 222.92645 221.70589 220.59534 219.56279 218.67424 217.82269
 217.07214 216.25959 215.36504 214.73649 214.19394 214.16806 214.07063 214.08563
 214.92886 215.98291 216.97897 217.72537 218.83359 221.48158 225.94458 230.30275
 233.78091 237.36816 241.04985 244.97461 249.18260 253.18015 256.65756 259.81143
 262.81134 265.61536 268.21146 270.50415 272.44485 273.84540 275.62207 277.60242
 279.08170 280.46906 281.80945 282.98840 284.00867 284.91138 285.73492 286.48102
 287.15207 287.74960 288.27164 288.93686
 366.78100 356.34280 345.78260 334.65640 323.06721 311.26901 299.14681 286.95761
 274.67741 262.58221 250.59902 239.90782 230.03762 221.14942 213.33922 206.34902
 200.19083 195.13663 191.72643 189.77623 188.82103 188.89283 189.73563 191.05144
 192.78424 194.88704 197.15784 199.52464 201.97744 204.46525 206.56105 208.41085
 210.04465 211.19745 211.43425 211.67005 211.61486 211.32766 210.96846 210.60626
 210.23106 209.94886 209.76467 209.63647 209.57227 209.91107 210.30487 210.70167
 211.50248 212.68828 213.94608 215.73688 217.67268 219.72348 221.82628 223.91709
 225.98489 228.07669 230.18149 232.29529 234.43209 236.61190 238.87570 241.25350
 243.88230 246.14110 248.15090 249.92370 251.34851 252.47931 253.30911 253.63291
 253.67771 253.45951 252.82732 251.78312 250.39692 248.56572 246.48252 244.32332
 242.12213 239.93393 237.76173 235.60853 233.47633 231.35113 229.38493 227.54974
 225.84054 224.32034 222.95814 221.73794 220.62774 219.59555 218.70735 217.85615
 217.10595 216.29375 215.39955 214.77135 214.22916 214.21980 214.11377 214.05315
 214.85938 215.95352 217.06644 217.90787 218.92041 221.45737 226.03854 230.32156
 233.74037 237.31342 240.99428 244.97513 249.20444 253.16985 256.63461 259.80103
 262.80255 265.60065 268.18256 270.43793 272.30023 273.70151 275.36725 277.32498
 279.03421 280.88400 282.48978 283.89978 285.12000 286.19958 287.18457 288.07687
 288.87939 289.59406 290.21838 291.01398
 366.78100 356.34039 345.77779 334.64918 323.05757 311.25696 299.13236 286.94075
 274.65814 262.56053 250.57493 239.88132 230.00871 221.11810 213.30550 206.31289
 200.15228 195.09567 191.68307 189.73046 188.77285 188.84224 189.68264 190.99603
 192.72642 194.82681 197.09521 199.45960 201.90999 204.39538 206.48878 208.33617
 209.96756 211.11795 211.35235 211.58574 211.52813 211.23852 210.87692 210.51231
 210.13470 209.85009 209.66349 209.53288 209.46627 209.80266 210.19406 210.58845
 211.38684 212.57023 213.82563 215.61402 217.54741 219.59580 221.69620 223.78459
 225.84998 227.93937 230.04177 232.15316 234.28755 236.46494 238.72634 241.10173
 243.72812 245.98451 247.99191 249.76230 251.18469 252.31308 253.14048 253.46187
 253.50426 253.28365 252.64905 251.60244 250.21383 248.38022 246.29462 244.13301
 241.92940 239.73879 237.56419 235.40858 233.27397 231.14636 229.17776 227.34015
 225.62854 224.10593 222.74133 221.51872 220.40611 219.37150 218.48090 217.62729
 216.87468 216.06007 215.16347 214.53286 213.98825 214.13168 214.27629 214.05937
 214.69025 215.83205 217.08704 218.04883 219.14188 221.49356 226.09505 230.33101
 233.71080 237.27022 240.93677 244.92593 249.21693 253.17502 256.64651 259.83060
 262.83472 265.62021 268.14020 270.35724 272.13507 273.69128 275.32199 277.17905
 279.29230 281.13663 282.73257 284.13391 285.34668 286.41965 287.39859 288.28543
 289.08304 289.79333 290.41382 291.20456
 366.78100 356.33745 345.77190 334.64035 323.04579 311.24224 299.11469 286.92014
 274.63459 262.53404 250.54549 239.84893 229.97338 221.07983 213.26428 206.26873
 200.10518 195.04563 191.63008 189.67452 188.71397 188.78042 189.61787 190.92832
 192.65577 194.75322 197.01866 199.38011 201.82756 204.31001 206.40046 208.24491
 209.87336 211.02080 211.25225 211.48270 211.42215 211.12960 210.76505 210.39750
 210.01695 209.72939 209.53984 209.40629 209.33674 209.67019 210.05864 210.45009
 211.24553 212.42598 213.67843 215.46388 217.39433 219.43978 221.53723 223.62267
 225.68512 227.77157 229.87102 231.97947 234.11092 236.28537 238.54382 240.91626
 243.53971 245.79316 247.79761 249.56506 250.98451 252.10996 252.93440 253.25285
 253.29230 253.06875 252.43120 251.38165 249.99010 248.15354 246.06499 243.90044
 241.69389 239.50034 237.32279 235.16424 233.02668 230.89613 228.92458 227.08403
 225.36948 223.84393 222.47638 221.25083 220.13527 219.09772 218.20417 217.34762
 216.59207 215.77452 214.87497 214.24141 213.69386 213.98573 214.46358 214.13829
 214.57553 215.71948 216.99391 217.95229 219.03481 221.57166 226.15320 230.41193
 233.76276 237.26669 240.93909 244.97951 249.23294 253.16792 256.62726 259.83621
 262.88031 265.72144 268.28513 270.48480 272.25958 273.56546 275.18652 276.99847
 278.68423 280.55344 282.17093 283.59122 284.82034 285.90781 286.89993 287.79877
 288.60715 289.32703 289.95587 290.75729
 366.78100 356.33854 345.77407 334.64361 323.05014 311.24768 299.12121 286.92775
 274.64328 262.54382 250.55635 239.86089 229.98642 221.09396 213.27949 206.28503
 200.12256 195.06410 191.64963 189.69517 188.73570 188.80324 189.64177 190.95331
 192.68184 194.78038 197.04692 199.40945 201.85799 204.34152 206.43306 208.27859
 209.90813 211.05666 211.28920 211.52073 211.46127 211.16980 210.80634 210.43987
 210.06041 209.77394 209.58548 209.45301 209.38455 209.71908 210.10862 210.50115
 211.29769 212.47923 213.73276 215.51930 217.45083 219.49737 221.59590 223.68244
 225.74597 227.83351 229.93404 232.04358 234.17611 236.35165 238.61118 240.98472
 243.60925 245.86379 247.86932 249.63786 251.05839 252.18493 253.01046 253.33000
 253.37053 253.14807 252.51161 251.46314 250.07268 248.23721 246.14975 243.98628
 241.78082 239.58835 237.41189 235.25442 233.11796 230.98849 229.01803 227.17856
 225.46510 223.94063 222.57417 221.34970 220.23524 219.19877 218.30631 217.45084
 216.69638 215.87992 214.98145 214.34899 213.80252 214.01204 214.43707 214.36838
 214.70859 215.55380 216.76254 217.73474 219.08449 221.80141 226.10007 230.34888
 233.66295 237.16209 240.86368 244.91280 249.11578 253.03223 256.52194 259.73746
 262.74042 265.51791 268.04236 270.28229 272.25284 273.90317 275.43201 277.10623
 278.84650 280.12473 281.18906 282.55768 283.74210 284.79001 285.74606 286.61218
 287.39114 288.08484 288.69083 289.46307
 366.78100 356.34049 345.77798 334.64948 323.05797 311.25746 299.13295 286.94144
 274.65893 262.56143 250.57592 239.88241 230.00990 221.11939 213.30688 206.31438
 200.15387 195.09736 191.68485 189.73234 188.77483 188.84433 189.68482 190.99831
 192.72880 194.82929 197.09778 199.46228 201.91277 204.39826 206.49175 208.33924
 209.97073 211.12123 211.35572 211.58921 211.53170 211.24219 210.88068 210.51618
 210.13867 209.85416 209.66765 209.53714 209.47063 209.80713 210.19862 210.59311
 211.39160 212.57509 213.83058 215.61908 217.55257 219.60106 221.70155 223.79004
 225.85553 227.94503 230.04752 232.15901 234.29350 236.47099 238.73248 241.10798
 243.73447 245.99096 247.99845 249.76894 251.19143 252.31993 253.14742 253.46891
 253.51140 253.29089 252.65639 251.60988 250.22137 248.38786 246.30235 244.14084
 241.93734 239.74683 237.57232 235.41681 233.28230 231.15479 229.18629 227.34878
 225.63727 224.11476 222.75025 221.52774 220.41524 219.38073 218.49022 217.63671
 216.88420 216.06969 215.17319 214.54268 213.99817 214.12921 214.38148 214.39117
 214.90353 215.68605 216.86121 217.87099 219.09760 221.69185 226.03105 230.18898
 233.48055 236.92531 240.62617 244.74486 248.99112 252.90454 256.39532 259.61252
 262.62286 265.38791 267.89963 270.10590 271.98499 273.51718 275.14053 277.21255
 278.76126 279.88821 281.23373 282.50668 283.60834 284.58301 285.47226 286.27786
 287.00238 287.64761 288.21124 288.92953
 366.78100 356.33981 345.77663 334.64744 323.05526 311.25407 299.12889 286.93670
 274.65351 262.55533 250.56914 239.87496 230.00177 221.11059 213.29740 206.30422
 200.14303 195.08584 191.67266 189.71947 188.76129 188.83010 189.66992 190.98273
 192.71254 194.81236 197.08017 199.44399 201.89380 204.37862 206.47143 208.31824
 209.94906 211.09887 211.33269 211.56550 211.50732 211.21713 210.85495 210.48976
 210.11157 209.82639 209.63920 209.50802 209.44083 209.77665 210.16746 210.56127
 211.35909 212.54190 213.79672 215.58453 217.51735 219.56516 221.66497 223.75279
 225.81760 227.90642 230.00823 232.11905 234.25286 236.42968 238.69049 241.06530
 243.69112 245.94693 247.95375 249.72356 251.14538 252.27319 253.10000 253.42082
 253.46263 253.24145 252.60626 251.55908 250.16989 248.33571 246.24952 244.08733
 241.88315 239.69196 237.51678 235.36059 233.22541 231.09722 229.12803 227.28985
 225.57766 224.05448 222.68929 221.46611 220.35292 219.31773 218.42655 217.57236
 216.81918 216.00399 215.10681 214.47562 213.93044 214.14363 214.48531 214.29379
 214.68977 215.69952 217.00319 218.09715 219.27505 221.62949 226.14783 230.20531
 233.42345 236.87691 240.64148 244.80305 249.03185 252.94016 256.45071 259.69315
 262.70303 265.45636 267.87143 270.00079 271.78845 273.44727 275.02075 276.73428
 278.71289 280.67511 282.37308 283.86401 285.15430 286.29587 287.33737 288.28091
 289.12952 289.88522 290.54538 291.38666
 366.78100 356.34007 345.77715 334.64822 323.05630 311.25537 299.13044 286.93852
 274.65559 262.55767 250.57174 239.87781 230.00489 221.11396 213.30104 206.30811
 200.14718 195.09026 191.67733 189.72441 188.76648 188.83556 189.67563 190.98870
 192.71878 194.81885 197.08693 199.45100 201.90107 204.38615 206.47922 208.32630
 209.95737 211.10744 211.34152 211.57459 211.51667 211.22674 210.86481 210.49989
 210.12196 209.83704 209.65011 209.51918 209.45226 209.78833 210.17941 210.57348
 211.37155 212.55463 213.80970 215.59778 217.53085 219.57892 221.67900 223.76707
 225.83215 227.92122 230.02330 232.13437 234.26844 236.44552 238.70659 241.08167
 243.70774 245.96381 247.97089 249.74096 251.16304 252.29111 253.11818 253.43926
 253.48133 253.26041 252.62548 251.57855 250.18963 248.35570 246.26978 244.10785
 241.90392 239.71300 237.53807 235.38215 233.24722 231.11929 229.15037 227.31244
 225.60052 224.07759 222.71267 221.48974 220.37681 219.34189 218.45096 217.59704
 216.84411 216.02918 215.13226 214.50133 213.95641 214.17104 214.55981 214.36624
 214.48575 215.52072 216.86391 217.98973 219.28242 221.73561 226.28647 230.36012
 233.55891 236.97392 240.71349 244.89957 249.15329 253.04219 256.54025 259.76630
 262.78104 265.52435 267.91956 270.04611 271.87863 273.36282 274.97598 277.01419
 279.22958 281.18097 282.86960 284.35229 285.63547 286.77075 287.80652 288.74484
 289.58878 290.34027 290.99680 291.83344
 366.78100 356.34093 345.77885 334.65078 323.05970 311.25963 299.13555 286.94448
 274.66240 262.56533 250.58025 239.88718 230.01510 221.12503 213.31295 206.32088
 200.16081 195.10473 191.69266 189.74058 188.78351 188.85343 189.69436 191.00828
 192.73921 194.84013 197.10906 199.47398 201.92491 204.41083 206.50476 208.35269
 209.98461 211.13554 211.37046 211.60439 211.54731 211.25824 210.89716 210.53309
 210.15601 209.87194 209.68586 209.55579 209.48972 209.82664 210.21857 210.61349
 211.41242 212.59634 213.85227 215.64119 217.57512 219.62404 221.72497 223.81389
 225.87982 227.96974 230.07267 232.18460 234.31952 236.49745 238.75937 241.13530
 243.76222 246.01915 248.02707 249.79800 251.22092 252.34985 253.17777 253.49970
 253.54262 253.32255 252.68848 251.64240 250.25433 248.42125 246.33618 244.17510
 241.97203 239.78195 237.60788 235.45280 233.31873 231.19165 229.22358 227.38650
 225.67543 224.15336 222.78928 221.56721 220.45513 219.42106 218.53098 217.67791
 216.92583 216.11176 215.21568 214.58561 214.04153 214.20926 214.56190 214.54340
 214.60825 215.48740 216.66901 217.65536 219.01675 221.82558 226.24054 230.37619
 233.56212 236.96741 240.71057 244.87411 249.07576 252.95392 256.46799 259.71057
 262.71524 265.43832 267.85138 269.97418 271.84409 273.37357 274.88669 276.81683
 278.61334 280.43530 282.07278 283.51062 284.75491 285.85583 286.86023 287.77014
 288.58850 289.31726 289.95392 290.76523
 366.78100 356.33988 345.77677 334.64765 323.05553 311.25441 299.12930 286.93718
 274.65406 262.55594 250.56983 239.87571 230.00259 221.11147 213.29836 206.30524
 200.14412 195.08700 191.67389 189.72077 188.76265 188.83153 189.67142 190.98430
 192.71418 194.81406 197.08195 199.44583 201.89571 204.38059 206.47348 208.32036
 209.95124 211.10112 211.33501 211.56789 211.50977 211.21965 210.85754 210.49242
 210.11430 209.82918 209.64207 209.51095 209.44383 209.77972 210.17060 210.56448
 211.36236 212.54525 213.80013 215.58801 217.52089 219.56878 221.66866 223.75654
 225.82142 227.91031 230.01219 232.12307 234.25695 236.43384 238.69472 241.06960
 243.69548 245.95137 247.95825 249.72813 251.15001 252.27790 253.10478 253.42566
 253.46754 253.24643 252.61131 251.56419 250.17507 248.34096 246.25484 244.09272
 241.88860 239.69749 237.52237 235.36625 233.23113 231.10302 229.13390 227.29578
 225.58367 224.06055 222.69543 221.47231 220.35920 219.32408 218.43296 217.57884
 216.82573 216.01061 215.11349 214.48237 213.93726 214.16267 214.64224 214.62080
 214.68231 215.54288 216.64304 217.55075 218.98302 221.84531 226.12411 230.28186
 233.43469 236.79829 240.54015 244.75659 248.96140 252.83679 256.36566 259.61780
 262.61838 265.34518 267.77289 269.94116 271.86679 273.39362 274.80087 276.69977
 278.37030 279.41217 280.76010 282.17285 283.39545 284.47714 285.46402 286.35806
 287.16214 287.87820 288.50372 289.30090
 366.78100 356.33831 345.77362 334.64293 323.04924 311.24656 299.11987 286.92618
 274.64149 262.54180 250.55411 239.85842 229.98373 221.09104 213.27635 206.28167
 200.11898 195.06029 191.64560 189.69091 188.73122 188.79853 189.63684 190.94815
 192.67647 194.77478 197.04109 199.40340 201.85171 204.33502 206.42633 208.27164
 209.90095 211.04926 211.28158 211.51289 211.45320 211.16151 210.79782 210.43113
 210.05144 209.76475 209.57606 209.44338 209.37469 209.70900 210.09831 210.49062
 211.28693 212.46824 213.72155 215.50786 217.43917 219.48549 221.58380 223.67011
 225.73342 227.82073 229.92104 232.03035 234.16266 236.33797 238.59729 240.97060
 243.59491 245.84922 247.85453 249.62284 251.04315 252.16946 252.99477 253.31408
 253.35440 253.13171 252.49502 251.44633 250.05564 248.21995 246.13226 243.96857
 241.76288 239.57020 237.39351 235.23582 233.09913 230.96944 228.99875 227.15906
 225.44537 223.92068 222.55400 221.32931 220.21462 219.17793 218.28524 217.42955
 216.67486 215.85817 214.95948 214.32679 213.78011 214.09741 214.77267 214.68124
 214.59937 215.52840 216.67853 217.55708 218.97708 221.83081 226.07404 230.22878
 233.30452 236.63945 240.41824 244.71069 248.92058 252.79546 256.33087 259.58160
 262.56146 265.27359 267.72415 269.92383 271.84818 273.38452 274.72684 276.62418
 278.39481 279.41235 279.97012 281.32867 282.50443 283.54465 284.49368 285.35345
 286.12671 286.81531 287.41687 288.18344
 366.78100 356.33839 345.77377 334.64316 323.04955 311.24693 299.12032 286.92671
 274.64210 262.54248 250.55487 239.85926 229.98464 221.09203 213.27742 206.28280
 200.12019 195.06158 191.64696 189.69235 188.73274 188.80012 189.63851 190.94990
 192.67829 194.77667 197.04306 199.40545 201.85383 204.33722 206.42861 208.27399
 209.90338 211.05177 211.28415 211.51554 211.45593 211.16432 210.80070 210.43409
 210.05448 209.76786 209.57925 209.44664 209.37802 209.71241 210.10180 210.49418
 211.29057 212.47196 213.72534 215.51173 217.44312 219.48951 221.58789 223.67428
 225.73767 227.82505 229.92544 232.03483 234.16721 236.34260 238.60199 240.97537
 243.59976 245.85415 247.85953 249.62792 251.04831 252.17470 253.00008 253.31947
 253.35986 253.13724 252.50063 251.45202 250.06140 248.22579 246.13818 243.97456
 241.76895 239.57634 237.39973 235.24211 233.10550 230.97589 229.00527 227.16566
 225.45205 223.92743 222.56082 221.33621 220.22159 219.18498 218.29237 217.43675
 216.68214 215.86553 214.96692 214.33430 213.78769 214.12497 214.83469 214.71732
 214.59462 215.50545 216.69858 217.55493 218.94016 221.82755 226.10451 230.16672
 233.25096 236.56802 240.41721 244.72063 248.91907 252.77168 256.29269 259.53775
 262.51212 265.19821 267.64114 269.86960 271.85223 273.41125 274.85699 276.66071
 278.29562 279.16052 280.55322 282.00681 283.26477 284.37775 285.39319 286.31308
 287.14044 287.87720 288.52081 289.34103
 366.78100 356.33980 345.77660 334.64740 323.05520 311.25400 299.12880 286.93660
 274.65340 262.55520 250.56900 239.87480 230.00159 221.11039 213.29719 206.30399
 200.14279 195.08559 191.67239 189.71919 188.76099 188.82979 189.66959 190.98239
 192.71219 194.81199 197.07979 199.44359 201.89339 204.37819 206.47099 208.31779
 209.94859 211.09839 211.33218 211.56498 211.50678 211.21658 210.85438 210.48918
 210.11098 209.82578 209.63858 209.50738 209.44018 209.77598 210.16678 210.56058
 211.35838 212.54118 213.79598 215.58378 217.51658 219.56438 221.66418 223.75198
 225.81677 227.90557 230.00737 232.11817 234.25197 236.42877 238.68957 241.06437
 243.69017 245.94597 247.95277 249.72257 251.14437 252.27217 253.09897 253.41977
 253.46157 253.24037 252.60517 251.55797 250.16877 248.33457 246.24836 244.08616
 241.88196 239.69076 237.51556 235.35936 233.22416 231.09596 229.12676 227.28856
 225.57636 224.05316 222.68796 221.46476 220.35156 219.31636 218.42516 217.57096
 216.81776 216.00256 215.10536 214.47416 213.92896 214.23047 214.84000 214.70036
 214.65808 215.54504 216.71381 217.53284 218.83812 221.75908 226.16319 230.11389
 233.20271 236.57780 240.46513 244.75745 248.93138 252.75768 256.26147 259.50342
 262.46649 265.13449 267.58652 269.83350 271.83945 273.38641 275.00681 276.66968
 277.92505 279.77328 281.49078 282.99887 284.30399 285.45868 286.51218 287.46655
 288.32492 289.08929 289.75705 290.60800
 366.78100 356.34055 345.77811 334.64966 323.05822 311.25777 299.13332 286.94188
 274.65943 262.56198 250.57654 239.88309 230.01065 221.12020 213.30775 206.31531
 200.15486 195.09841 191.68597 189.73352 188.77608 188.84563 189.68618 190.99974
 192.73029 194.83084 197.09940 199.46395 201.91451 204.40006 206.49361 208.34117
 209.97272 211.12328 211.35783 211.59138 211.53394 211.24449 210.88304 210.51860
 210.14115 209.85671 209.67026 209.53981 209.47337 209.80992 210.20147 210.59603
 211.39458 212.57814 213.83369 215.62224 217.55580 219.60435 221.70490 223.79346
 225.85901 227.94857 230.05112 232.16267 234.29723 236.47478 238.73634 241.11189
 243.73844 245.99500 248.00255 249.77310 251.19566 252.32421 253.15177 253.47332
 253.51587 253.29543 252.66098 251.61453 250.22609 248.39264 246.30720 244.14575
 241.94230 239.75186 237.57741 235.42196 233.28752 231.16007 229.19163 227.35418
 225.64273 224.12029 222.75584 221.53340 220.42095 219.38650 218.49606 217.64261
 216.89016 216.07572 215.17927 214.54883 214.00438 214.30191 214.87621 214.66966
 214.63350 215.51982 216.64641 217.46214 218.82878 221.67807 226.23682 230.15347
 233.23428 236.63982 240.54578 244.83125 248.98619 252.79488 256.27893 259.51257
 262.47409 265.14404 267.58093 269.86884 271.87506 273.40027 275.03693 276.43658
 278.50256 280.53159 282.28738 283.82910 285.16333 286.34378 287.42075 288.39639
 289.27390 290.05533 290.73798 291.60791
 366.78100 356.34042 345.77784 334.64926 323.05768 311.25710 299.13252 286.94094
 274.65836 262.56078 250.57520 239.88161 230.00903 221.11845 213.30587 206.31329
 200.15271 195.09613 191.68355 189.73097 188.77339 188.84281 189.68323 190.99665
 192.72707 194.82749 197.09591 199.46033 201.91075 204.39617 206.48959 208.33700
 209.96842 211.11884 211.35326 211.58668 211.52910 211.23952 210.87794 210.51336
 210.13578 209.85120 209.66462 209.53404 209.46746 209.80388 210.19530 210.58972
 211.38814 212.57156 213.82698 215.61540 217.54881 219.59723 221.69765 223.78607
 225.85149 227.94091 230.04333 232.15475 234.28917 236.46659 238.72801 241.10343
 243.72985 245.98627 247.99369 249.76411 251.18653 252.31495 253.14237 253.46379
 253.50621 253.28562 252.65104 251.60446 250.21588 248.38230 246.29672 244.13514
 241.93156 239.74098 237.56640 235.41082 233.27624 231.14866 229.18008 227.34250
 225.63092 224.10834 222.74376 221.52118 220.40860 219.37401 218.48343 217.62985
 216.87727 216.06269 215.16611 214.53553 213.99095 214.32013 214.95251 214.69766
 214.55814 215.39772 216.47482 217.29480 218.75638 221.65910 226.27226 230.19693
 233.27931 236.68916 240.60597 244.90759 249.06227 252.85426 256.34744 259.58670
 262.55338 265.22958 267.66461 269.93625 272.02051 273.43503 275.07153 276.73096
 278.94077 280.98633 282.75641 284.31067 285.65576 286.84583 287.93158 288.91519
 289.79984 290.58762 291.27582 292.15283
 366.78100 356.34012 345.77724 334.64836 323.05649 311.25561 299.13073 286.93885
 274.65597 262.55809 250.57222 239.87834 230.00546 221.11458 213.30170 206.30882
 200.14794 195.09107 191.67819 189.72531 188.76743 188.83655 189.67667 190.98979
 192.71992 194.82004 197.08816 199.45228 201.90240 204.38752 206.48065 208.32777
 209.95889 211.10901 211.34313 211.57625 211.51837 211.22850 210.86662 210.50174
 210.12386 209.83898 209.65210 209.52122 209.45435 209.79047 210.18159 210.57571
 211.37383 212.55695 213.81208 215.60020 217.53332 219.58144 221.68156 223.76968
 225.83480 227.92393 230.02605 232.13717 234.27129 236.44841 238.70953 241.08466
 243.71078 245.96690 247.97402 249.74414 251.16626 252.29438 253.12151 253.44263
 253.48475 253.26387 252.62899 251.58211 250.19323 248.35936 246.27348 244.11160
 241.90772 239.71684 237.54196 235.38609 233.25121 231.12333 229.15445 227.31657
 225.60469 224.08181 222.71694 221.49406 220.38118 219.34630 218.45542 217.60154
 216.84867 216.03379 215.13691 214.50603 213.96115 214.31294 215.02165 214.78763
 214.50554 215.25917 216.29031 217.08774 218.62144 221.77411 226.28958 230.22705
 233.30928 236.73610 240.64874 244.92857 249.05089 252.82045 256.31189 259.54913
 262.50253 265.18063 267.64877 269.97189 272.02814 273.63467 275.35153 277.04675
 278.55930 280.38168 282.03275 283.48248 284.73712 285.84717 286.85989 287.77737
 288.60254 289.33734 289.97925 290.79730
 366.78100 356.34021 345.77742 334.64863 323.05684 311.25604 299.13125 286.93946
 274.65667 262.55888 250.57309 239.87930 230.00651 221.11571 213.30292 206.31013
 200.14934 195.09255 191.67976 189.72697 188.76918 188.83838 189.67859 190.99180
 192.72201 194.82222 197.09043 199.45464 201.90485 204.39005 206.48326 208.33047
 209.96168 211.11189 211.34610 211.57931 211.52152 211.23173 210.86993 210.50514
 210.12735 209.84256 209.65577 209.52498 209.45819 209.79440 210.18560 210.57981
 211.37802 212.56123 213.81644 215.60465 217.53786 219.58607 221.68627 223.77448
 225.83969 227.92890 230.03111 232.14232 234.27653 236.45374 238.71495 241.09015
 243.71636 245.97257 247.97978 249.74999 251.17220 252.30041 253.12762 253.44882
 253.49103 253.27024 252.63545 251.58866 250.19987 248.36608 246.28029 244.11849
 241.91470 239.72391 237.54912 235.39333 233.25854 231.13075 229.16196 227.32416
 225.61237 224.08958 222.72479 221.50200 220.38921 219.35442 218.46363 217.60984
 216.85704 216.04225 215.14546 214.51467 213.96988 214.31683 215.05923 214.91371
 214.49030 215.05611 216.09592 217.01598 218.69513 221.85152 226.27368 230.26047
 233.30925 236.73004 240.62943 244.91811 249.01266 252.74088 256.20624 259.41861
 262.35648 265.03683 267.51559 269.84521 271.91867 273.63840 275.36807 277.03873
 278.24857 279.19714 280.43738 281.87567 283.12680 284.23370 285.24362 286.15851
 286.98135 287.71411 288.35422 289.16998
 366.78100 356.34167 345.78033 334.65300 323.06266 311.26333 299.14000 286.94966
 274.66833 262.57199 250.58766 239.89533 230.02399 221.13466 213.32332 206.33199
 200.17266 195.11732 191.70599 189.75465 188.79832 188.86899 189.71065 191.02532
 192.75698 194.85865 197.12832 199.49398 201.94565 204.43231 206.52698 208.37565
 210.00831 211.15998 211.39564 211.63031 211.57398 211.28564 210.92531 210.56197
 210.18564 209.90231 209.71697 209.58764 209.52230 209.85997 210.25264 210.64830
 211.44797 212.63263 213.88930 215.67897 217.61363 219.66330 221.76496 223.85463
 225.92130 228.01196 230.11563 232.22829 234.36396 236.54263 238.80529 241.18196
 243.80962 246.06729 248.07596 249.84762 251.27129 252.40095 253.22962 253.55229
 253.59595 253.37662 252.74328 251.69795 250.31062 248.47828 246.39395 244.23361
 242.03128 239.84195 237.66861 235.51428 233.38094 231.25461 229.28728 227.45094
 225.74061 224.21927 222.85594 221.63461 220.52327 219.48994 218.60060 217.74827
 216.99694 216.18360 215.28827 214.65893 214.11560 214.41272 215.04590 214.92046
 214.58566 215.05145 216.01747 216.93355 218.62047 221.80025 226.26628 230.19778
 233.24706 236.67906 240.60641 244.89894 248.97246 252.70212 256.18118 259.39951
 262.32776 264.99393 267.46579 269.80249 271.85034 273.47531 275.29361 276.97290
 278.07947 278.88544 279.96585 281.44702 282.72980 283.86472 284.90018 285.83823
 286.68188 287.43317 288.08948 288.92587
 366.78100 356.34329 345.78357 334.65786 323.06914 311.27143 299.14971 286.96100
 274.68128 262.58657 250.60385 239.91314 230.04342 221.15571 213.34599 206.35628
 200.19856 195.14485 191.73513 189.78542 188.83070 188.90299 189.74627 191.06256
 192.79584 194.89913 197.17041 199.53770 201.99098 204.47927 206.57555 208.42584
 210.06012 211.21341 211.45069 211.68698 211.63226 211.34555 210.98683 210.62512
 210.25040 209.96869 209.78497 209.65726 209.59355 209.93283 210.32712 210.72440
 211.52569 212.71197 213.97026 215.76154 217.69783 219.74911 221.85240 223.94368
 226.01197 228.10425 230.20954 232.32382 234.46111 236.64139 238.90568 241.28396
 243.91325 246.17253 248.18282 249.95610 251.38139 252.51267 253.34296 253.66724
 253.71253 253.49481 252.86310 251.81938 250.43367 248.60295 246.52024 244.36152
 242.16081 239.97309 237.80138 235.64866 233.51695 231.39223 229.42652 227.59181
 225.88309 224.36338 223.00166 221.78195 220.67223 219.64052 218.75280 217.90209
 217.15237 216.34066 215.44694 214.81923 214.27751 214.53152 215.04547 214.82042
 214.55714 215.03728 216.02678 216.95114 218.61098 221.79019 226.31554 230.19472
 233.25299 236.69893 240.64629 244.93402 249.01254 252.75716 256.24902 259.46982
 262.39597 265.05179 267.50168 269.84076 271.96716 273.51175 275.26471 277.05157
 277.99719 278.61777 280.09964 281.58905 282.87799 284.01837 285.05881 286.00137
 286.84909 287.60400 288.26349 289.10391
 366.78100 356.34283 345.78266 334.65650 323.06733 311.26916 299.14699 286.95782
 274.67766 262.58249 250.59932 239.90815 230.03798 221.14982 213.33965 206.34948
 200.19131 195.13714 191.72697 189.77681 188.82164 188.89347 189.73630 191.05213
 192.78497 194.88780 197.15863 199.52546 201.97829 204.46613 206.56196 208.41179
 210.04562 211.19845 211.43529 211.67112 211.61595 211.32878 210.96961 210.60745
 210.23228 209.95011 209.76594 209.63777 209.57360 209.91244 210.30627 210.70310
 211.50393 212.68976 213.94760 215.73843 217.67426 219.72509 221.82792 223.91876
 225.98659 228.07842 230.18325 232.29708 234.43392 236.61375 238.87758 241.25541
 243.88424 246.14308 248.15291 249.92574 251.35057 252.48140 253.31124 253.63507
 253.67990 253.46173 252.82956 251.78539 250.39923 248.56806 246.48489 244.32572
 242.12455 239.93639 237.76422 235.61105 233.47888 231.35371 229.38755 227.55238
 225.84321 224.32304 222.96087 221.74071 220.63054 219.59837 218.71020 217.85903
 217.10887 216.29670 215.40253 214.77436 214.23219 214.52782 215.14691 214.83180
 214.34700 214.80202 215.88187 216.91681 218.63614 221.83272 226.35709 230.26491
 233.32442 236.79227 240.73421 245.01131 249.08235 252.80177 256.27026 259.47540
 262.38147 265.02097 267.47269 269.79749 271.89877 273.61252 275.38535 277.05338
 278.07498 278.86197 279.96948 281.35785 282.64029 283.77496 284.81015 285.74799
 286.59143 287.34256 287.99869 288.83490
 366.78100 356.34117 345.77934 334.65151 323.06068 311.26085 299.13702 286.94619
 274.66436 262.56753 250.58270 239.88987 230.01804 221.12822 213.31639 206.32456
 200.16473 195.10890 191.69707 189.74524 188.78841 188.85858 189.69975 191.01392
 192.74509 194.84626 197.11543 199.48060 201.93177 204.41794 206.51211 208.36028
 209.99245 211.14362 211.37879 211.61296 211.55613 211.26730 210.90648 210.54265
 210.16582 209.88199 209.69616 209.56633 209.50050 209.83767 210.22984 210.62501
 211.42418 212.60835 213.86452 215.65369 217.58786 219.63703 221.73820 223.82737
 225.89354 227.98371 230.08688 232.19905 234.33422 236.51239 238.77456 241.15074
 243.77791 246.03508 248.04325 249.81442 251.23759 252.36676 253.19493 253.51710
 253.56027 253.34044 252.70661 251.66078 250.27295 248.44012 246.35529 244.19446
 241.99163 239.80180 237.62797 235.47314 233.33931 231.21248 229.24465 227.40782
 225.69700 224.17517 222.81134 221.58951 220.47768 219.44385 218.55402 217.70119
 216.94936 216.13553 215.23970 214.60987 214.06604 214.44693 215.30130 215.02100
 214.14919 214.40610 215.50630 216.69946 218.50792 221.75220 226.37714 230.23976
 233.34650 236.83598 240.77570 244.99379 249.05685 252.78639 256.24878 259.44098
 262.33899 264.98010 267.42694 269.74796 271.87152 273.58429 275.22522 276.88492
 277.96310 279.01602 280.18509 281.01492 282.01208 283.03448 284.05457 284.97867
 285.80981 286.54993 287.19650 288.02048
 366.78100 356.34086 345.77873 334.65059 323.05946 311.25932 299.13518 286.94405
 274.66191 262.56478 250.57964 239.88650 230.01437 221.12423 213.31210 206.31996
 200.15982 195.10369 191.69155 189.73942 188.78228 188.85214 189.69301 191.00687
 192.73774 194.83860 197.10746 199.47233 201.92319 204.40906 206.50292 208.35078
 209.98265 211.13351 211.36838 211.60224 211.54510 211.25597 210.89483 210.53070
 210.15356 209.86942 209.68329 209.55315 209.48702 209.82388 210.21574 210.61061
 211.40947 212.59334 213.84920 215.63806 217.57193 219.62079 221.72166 223.81052
 225.87638 227.96625 230.06911 232.18098 234.31584 236.49370 238.75557 241.13143
 243.75830 246.01516 248.02302 249.79389 251.21675 252.34562 253.17348 253.49534
 253.53821 253.31807 252.68394 251.63780 250.24966 248.41653 246.33139 244.17026
 241.96712 239.77698 237.60285 235.44771 233.31358 231.18644 229.21830 227.38117
 225.67003 224.14790 222.78376 221.56162 220.44949 219.41535 218.52522 217.67208
 216.91994 216.10581 215.20967 214.57954 214.03540 214.44397 215.37248 215.15222
 214.13516 214.20515 215.26384 216.53723 218.42056 221.71379 226.40323 230.24701
 233.32248 236.80806 240.75949 244.99954 249.07236 252.80042 256.26294 259.45129
 262.34109 264.97256 267.41809 269.72226 271.79272 273.48026 275.15161 276.89090
 277.87268 278.81796 280.15512 281.16919 281.89499 282.75714 283.74277 284.65689
 285.47906 286.21121 286.85080 287.66586
 366.78100 356.34105 345.77910 334.65115 323.06020 311.26026 299.13631 286.94536
 274.66341 262.56646 250.58151 239.88856 230.01661 221.12667 213.31472 206.32277
 200.16282 195.10687 191.69492 189.74297 188.78602 188.85608 189.69713 191.01118
 192.74223 194.84328 197.11233 199.47738 201.92843 204.41449 206.50854 208.35659
 209.98864 211.13969 211.37474 211.60879 211.55184 211.26290 210.90195 210.53800
 210.16105 209.87710 209.69115 209.56120 209.49525 209.83231 210.22436 210.61941
 211.41846 212.60251 213.85856 215.64761 217.58166 219.63072 221.73177 223.82082
 225.88687 227.97692 230.07997 232.19202 234.32707 236.50512 238.76718 241.14323
 243.77028 246.02733 248.03538 249.80643 251.22948 252.35853 253.18659 253.50864
 253.55169 253.33174 252.69779 251.65184 250.26389 248.43094 246.34600 244.18505
 241.98210 239.79215 237.61820 235.46325 233.32930 231.20235 229.23441 227.39746
 225.68651 224.16456 222.80061 221.57866 220.46671 219.43276 218.54282 217.68987
 216.93792 216.12397 215.22802 214.59807 214.05412 214.47533 215.42087 215.18643
 214.08800 214.06386 215.17612 216.52281 218.47771 221.80080 226.46701 230.33672
 233.36772 236.86293 240.82390 245.06841 249.13969 252.87415 256.33624 259.51346
 262.38629 265.00668 267.44662 269.73700 271.77753 273.48019 275.20944 276.93155
 277.76614 278.68878 280.17368 281.15543 281.91068 282.94812 283.95370 284.86465
 285.68399 286.41360 287.05096 287.86325
 366.78100 356.34081 345.77862 334.65043 323.05924 311.25905 299.13486 286.94367
 274.66148 262.56429 250.57910 239.88591 230.01372 221.12353 213.31134 206.31915
 200.15896 195.10277 191.69058 189.73839 188.78120 188.85101 189.69182 191.00563
 192.73644 194.83725 197.10606 199.47087 201.92168 204.40749 206.50130 208.34910
 209.98091 211.13172 211.36653 211.60034 211.54315 211.25396 210.89277 210.52858
 210.15139 209.86720 209.68101 209.55082 209.48463 209.82144 210.21325 210.60806
 211.40687 212.59068 213.84649 215.63530 217.56911 219.61792 221.71873 223.80754
 225.87335 227.96316 230.06597 232.17778 234.31259 236.49040 238.75221 241.12802
 243.75483 246.01164 248.01945 249.79026 251.21307 252.34188 253.16969 253.49150
 253.53431 253.31412 252.67993 251.63374 250.24555 248.41236 246.32717 244.16598
 241.96279 239.77260 237.59841 235.44322 233.30903 231.18184 229.21365 227.37646
 225.66527 224.14308 222.77889 221.55670 220.44450 219.41031 218.52012 217.66693
 216.91474 216.10055 215.20436 214.57417 214.02998 214.47517 215.48407 215.36125
 213.97006 213.79050 214.95984 216.38570 218.43694 221.82622 226.55673 230.46080
 233.46136 236.94014 240.89429 245.14992 249.23123 252.94983 256.38205 259.53760
 262.40274 265.02185 267.44955 269.69244 271.73199 273.50079 275.24075 276.91821
 277.63159 278.70087 280.25531 281.28046 282.11075 283.15741 284.15656 285.06168
 285.87576 286.60068 287.23398 288.04102
 366.78100 356.34092 345.77884 334.65076 323.05968 311.25959 299.13551 286.94443
 274.66235 262.56527 250.58019 239.88711 230.01503 221.12495 213.31287 206.32078
 200.16070 195.10462 191.69254 189.74046 188.78338 188.85330 189.69422 191.00814
 192.73905 194.83997 197.10889 199.47381 201.92473 204.41065 206.50457 208.35249
 209.98441 211.13532 211.37024 211.60416 211.54708 211.25800 210.89692 210.53284
 210.15576 209.87168 209.68560 209.55551 209.48943 209.82635 210.21827 210.61319
 211.41211 212.59603 213.85195 215.64087 217.57478 219.62370 221.72462 223.81354
 225.87946 227.96938 230.07230 232.18422 234.31914 236.49706 238.75897 241.13489
 243.76181 246.01873 248.02665 249.79757 251.22049 252.34941 253.17733 253.49924
 253.54216 253.32208 252.68800 251.64192 250.25384 248.42076 246.33568 244.17460
 241.97151 239.78143 237.60735 235.45227 233.31819 231.19111 229.22303 227.38595
 225.67487 224.15279 222.78870 221.56662 220.45454 219.42046 218.53038 217.67730
 216.92522 216.11114 215.21506 214.58497 214.04089 214.48978 215.51988 215.54718
 214.10852 213.56502 214.57988 216.12090 218.28622 221.77631 226.57082 230.47125
 233.49831 236.99779 240.95917 245.21188 249.28003 252.98300 256.40152 259.53415
 262.38275 265.00186 267.43262 269.67236 271.74689 273.53897 275.20288 276.63144
 277.46680 278.89185 280.39081 281.29471 282.11179 283.12469 284.12354 285.02991
 285.84509 286.57104 287.20520 288.01337
 366.78100 356.34164 345.78027 334.65291 323.06255 311.26319 299.13982 286.94946
 274.66810 262.57173 250.58737 239.89501 230.02365 221.13428 213.32292 206.33156
 200.17219 195.11683 191.70547 189.75411 188.79774 188.86838 189.71002 191.02465
 192.75629 194.85793 197.12757 199.49320 201.94484 204.43148 206.52612 208.37475
 210.00739 211.15903 211.39466 211.62930 211.57294 211.28458 210.92421 210.56085
 210.18449 209.90112 209.71576 209.58640 209.52104 209.85867 210.25131 210.64695
 211.44658 212.63122 213.88786 215.67750 217.61213 219.66177 221.76341 223.85304
 225.91968 228.01032 230.11396 232.22659 234.36223 236.54087 238.80350 241.18014
 243.80778 246.06542 248.07405 249.84569 251.26933 252.39896 253.22760 253.55024
 253.59388 253.37451 252.74115 251.69579 250.30842 248.47606 246.39170 244.23134
 242.02897 239.83961 237.66625 235.51188 233.37852 231.25216 229.28480 227.44843
 225.73807 224.21671 222.85335 221.63198 220.52062 219.48726 218.59789 217.74553
 216.99417 216.18081 215.28544 214.65608 214.11272 214.54750 215.53510 215.54613
 214.31664 213.71989 214.48227 215.87469 218.18301 221.77216 226.63234 230.57733
 233.54553 237.01276 240.97496 245.24483 249.32242 252.99606 256.36212 259.47290
 262.32767 264.95895 267.37683 269.58609 271.70190 273.52701 275.23438 276.57578
 277.48065 278.61456 280.03436 281.06009 282.14209 283.20361 284.17740 285.05960
 285.85303 286.55957 287.17679 287.96338
 366.78100 356.34434 345.78569 334.66103 323.07338 311.27672 299.15607 286.96841
 274.68976 262.59610 250.61445 239.92479 230.05614 221.16948 213.36083 206.37217
 200.21552 195.16286 191.75421 189.80555 188.85190 188.92524 189.76959 191.08693
 192.82128 194.92562 197.19797 199.56631 202.02066 204.51000 206.60735 208.45869
 210.09404 211.24838 211.48673 211.72407 211.67042 211.38476 211.02711 210.66645
 210.29280 210.01214 209.82949 209.70283 209.64018 209.98052 210.37587 210.77421
 211.57656 212.76390 214.02325 215.81559 217.75294 219.80528 221.90963 224.00197
 226.07132 228.16466 230.27101 232.38635 234.52470 236.70604 238.97139 241.35073
 243.98108 246.24142 248.25277 250.02711 251.45346 252.58580 253.41715 253.74249
 253.78884 253.57218 252.94153 251.89887 250.51422 248.68456 246.60291 244.44525
 242.24560 240.05894 237.88829 235.73663 233.60598 231.48232 229.51767 227.68401
 225.97636 224.45770 223.09705 221.87839 220.76974 219.73908 218.85243 218.00277
 217.25412 216.44346 215.55081 214.92415 214.38350 214.72107 215.48926 215.51361
 214.41110 214.00296 214.52744 215.71002 218.10776 221.78075 226.77075 230.53267
 233.54320 237.03349 241.03088 245.28622 249.35742 253.07213 256.45398 259.53162
 262.34509 264.94995 267.34232 269.58875 271.65784 273.56104 275.13055 276.50107
 277.86588 279.00809 279.88614 280.65714 281.32437 281.91470 282.45331 282.94122
 283.38007 283.77084 284.11221 284.54727
 366.78100 356.34593 345.78886 334.66580 323.07973 311.28466 299.16559 286.97952
 274.70246 262.61039 250.63032 239.94225 230.07518 221.19012 213.38305 206.39598
 200.24091 195.18984 191.78278 189.83571 188.88364 188.95857 189.80451 191.12344
 192.85937 194.96530 197.23923 199.60917 202.06510 204.55603 206.65496 208.50789
 210.14483 211.30076 211.54069 211.77962 211.72755 211.44349 211.08742 210.72835
 210.35628 210.07721 209.89615 209.77108 209.71001 210.05194 210.44887 210.84881
 211.65274 212.84167 214.10260 215.89653 217.83547 219.88940 221.99533 224.08926
 226.16020 228.25513 230.36306 232.47999 234.61992 236.80286 239.06979 241.45072
 244.08265 246.34458 248.35752 250.13345 251.56138 252.69531 253.52824 253.85518
 253.90311 253.68804 253.05897 252.01790 250.63484 248.80677 246.72670 244.57063
 242.37256 240.18750 238.01843 235.86836 233.73929 231.61722 229.65416 227.82209
 226.11602 224.59895 223.23989 222.02282 220.91575 219.88668 219.00161 218.15355
 217.40648 216.59741 215.70634 215.08127 214.54221 214.83429 215.50485 215.51707
 214.47130 214.01955 214.21523 215.27623 217.82491 221.62820 226.73997 230.55070
 233.57695 237.11275 241.15981 245.47595 249.62285 253.41928 256.86526 259.96835
 262.78070 265.34933 267.69501 269.78418 271.67194 273.57547 275.17392 276.67297
 277.64807 278.46204 279.16635 279.78482 280.32004 280.79358 281.22562 281.61700
 281.96902 282.28247 282.55634 282.90530
 366.78100 356.34439 345.78578 334.66117 323.07357 311.27696 299.15635 286.96874
 274.69013 262.59652 250.61491 239.92531 230.05670 221.17009 213.36148 206.37287
 200.21626 195.16365 191.75504 189.80644 188.85283 188.92622 189.77061 191.08800
 192.82239 194.92678 197.19918 199.56757 202.02196 204.51135 206.60874 208.46013
 210.09552 211.24992 211.48831 211.72570 211.67209 211.38648 211.02887 210.66826
 210.29466 210.01405 209.83144 209.70483 209.64222 209.98261 210.37800 210.77639
 211.57879 212.76618 214.02557 215.81796 217.75535 219.80774 221.91213 224.00453
 226.07392 228.16731 230.27370 232.38909 234.52748 236.70887 238.97427 241.35366
 243.98405 246.24444 248.25583 250.03022 251.45661 252.58901 253.42040 253.74579
 253.79218 253.57557 252.94496 251.90235 250.51774 248.68814 246.60653 244.44892
 242.24931 240.06270 237.89209 235.74048 233.60988 231.48627 229.52166 227.68805
 225.98044 224.46183 223.10122 221.88262 220.77401 219.74340 218.85679 218.00718
 217.25857 216.44796 215.55536 214.92875 214.38814 214.77411 215.58301 215.52635
 214.78003 214.17374 214.05081 214.74799 217.42578 221.54034 226.51076 230.38718
 233.47375 237.08870 241.19684 245.54005 249.71693 253.54950 257.02838 260.18231
 263.05573 265.68158 268.02765 270.07178 271.93497 273.59021 275.22678 276.75790
 278.53586 280.53867 282.27179 283.79361 285.11060 286.27579 287.33887 288.30194
 289.16809 289.93942 290.61325 291.47195
 366.78100 356.34339 345.78377 334.65816 323.06955 311.27194 299.15032 286.96171
 274.68210 262.58748 250.60487 239.91426 230.04464 221.15703 213.34742 206.35781
 200.20019 195.14658 191.73697 189.78735 188.83274 188.90513 189.74851 191.06490
 192.79829 194.90168 197.17306 199.54045 201.99384 204.48222 206.57861 208.42900
 210.06339 211.21677 211.45416 211.69055 211.63593 211.34932 210.99071 210.62909
 210.25448 209.97287 209.78926 209.66164 209.59803 209.93742 210.33180 210.72919
 211.53058 212.71697 213.97535 215.76674 217.70313 219.75451 221.85790 223.94929
 226.01767 228.11006 230.21545 232.32984 234.46722 236.64761 238.91200 241.29038
 243.91977 246.17916 248.18954 249.96293 251.38832 252.51971 253.35009 253.67448
 253.71987 253.50225 252.87064 251.82703 250.44142 248.61080 246.52819 244.36958
 242.16896 239.98135 237.80974 235.65712 233.52551 231.40090 229.43529 227.60067
 225.89206 224.37245 223.01083 221.79122 220.68161 219.65000 218.76238 217.91177
 217.16216 216.35054 215.45693 214.82932 214.28770 214.72697 215.65068 215.52913
 214.87900 214.36682 214.25136 214.84425 217.36465 221.44415 226.19853 230.11537
 233.20322 236.88568 241.05847 245.42607 249.56937 253.33862 256.77234 259.93335
 262.85800 265.54120 267.93619 270.02539 271.94064 273.72153 275.40860 276.85089
 278.42404 280.14713 281.97198 283.58640 284.98352 286.21960 287.34735 288.36902
 289.28790 290.10614 290.82095 291.73190
 366.78100 356.34418 345.78535 334.66053 323.07270 311.27588 299.15505 286.96723
 274.68840 262.59458 250.61275 239.92293 230.05411 221.16728 213.35846 206.36963
 200.21281 195.15998 191.75116 189.80233 188.84851 188.92168 189.76586 191.08304
 192.81721 194.92139 197.19356 199.56174 202.01591 204.50509 206.60226 208.45344
 210.08861 211.24279 211.48097 211.71814 211.66432 211.37849 211.02067 210.65984
 210.28602 210.00519 209.82237 209.69555 209.63272 209.97290 210.36807 210.76625
 211.56842 212.75560 214.01477 215.80695 217.74412 219.79630 221.90048 223.99265
 226.06183 228.15500 230.26118 232.37635 234.51453 236.69570 238.96088 241.34005
 243.97023 246.23041 248.24158 250.01576 251.44193 252.57411 253.40528 253.73046
 253.77663 253.55981 252.92898 251.88616 250.50134 248.67151 246.58969 244.43186
 242.23204 240.04521 237.87439 235.72256 233.59174 231.46791 229.50309 227.66927
 225.96144 224.44262 223.08179 221.86297 220.75414 219.72332 218.83649 217.98667
 217.23784 216.42702 215.53420 214.90737 214.36655 214.76791 215.63387 215.55577
 214.82545 214.28772 214.28909 214.96274 217.42485 221.45064 226.15988 230.05748
 233.10875 236.82147 241.05260 245.48061 249.63681 253.37177 256.74976 259.85767
 262.75366 265.45663 267.89355 269.99554 271.96182 273.82086 275.60284 277.06558
 278.49207 280.07883 281.74210 283.33890 284.72076 285.94339 287.05884 288.06937
 288.97821 289.78754 290.49457 291.39557
 366.78100 356.34459 345.78618 334.66177 323.07436 311.27794 299.15753 286.97012
 274.69171 262.59830 250.61689 239.92748 230.05907 221.17265 213.36424 206.37583
 200.21942 195.16701 191.75860 189.81019 188.85678 188.93037 189.77495 191.09254
 192.82713 194.93172 197.20431 199.57290 202.02749 204.51708 206.61466 208.46625
 210.10184 211.25643 211.49502 211.73261 211.67920 211.39379 211.03638 210.67596
 210.30255 210.02214 209.83973 209.71332 209.65091 209.99150 210.38709 210.78567
 211.58826 212.77585 214.03544 215.82803 217.76562 219.81821 221.92280 224.01539
 226.08497 228.17856 230.28515 232.40074 234.53933 236.72092 238.98651 241.36610
 243.99668 246.25727 248.26886 250.04345 251.47004 252.60263 253.43422 253.75981
 253.80640 253.58998 252.95957 251.91716 250.53275 248.70334 246.62193 244.46452
 242.26511 240.07869 237.90828 235.75687 233.62646 231.50305 229.53864 227.70523
 225.99782 224.47941 223.11899 221.90058 220.79217 219.76176 218.87535 218.02594
 217.27753 216.46712 215.57471 214.94829 214.40788 214.78586 215.62418 215.61778
 214.85062 214.12704 214.07220 214.89151 217.41856 221.44925 226.19489 230.08575
 233.17154 236.89455 241.13687 245.59105 249.77141 253.48166 256.79419 259.84369
 262.69504 265.36459 267.78299 269.89621 271.90475 273.86960 275.63220 277.19547
 278.58038 280.01199 281.51270 282.96054 284.30414 285.49286 286.57736 287.55988
 288.44354 289.23044 289.91785 290.79391
 366.78100 356.34446 345.78592 334.66138 323.07384 311.27730 299.15675 286.96921
 274.69067 262.59713 250.61559 239.92605 230.05751 221.17097 213.36243 206.37389
 200.21735 195.16481 191.75626 189.80772 188.85418 188.92764 189.77210 191.08956
 192.82402 194.92848 197.20094 199.56940 202.02386 204.51331 206.61077 208.46223
 210.09769 211.25215 211.49061 211.72807 211.67453 211.38899 211.03145 210.67091
 210.29737 210.01682 209.83428 209.70774 209.64520 209.98566 210.38112 210.77958
 211.58204 212.76950 214.02896 215.82142 217.75887 219.81133 221.91579 224.00825
 226.07771 228.17117 230.27763 232.39309 234.53155 236.71301 238.97847 241.35793
 243.98838 246.24884 248.26030 250.03476 251.46122 252.59368 253.42514 253.75060
 253.79706 253.58052 252.94998 251.90743 250.52289 248.69335 246.61181 244.45427
 242.25473 240.06819 237.89765 235.74611 233.61557 231.49203 229.52748 227.69394
 225.98640 224.46786 223.10732 221.88878 220.78024 219.74970 218.86316 218.01362
 217.26508 216.45454 215.56199 214.93545 214.39491 214.77563 215.63469 215.71085
 214.91359 214.05954 213.87906 214.70430 217.30502 221.37718 226.15996 230.03909
 233.15982 236.90692 241.18529 245.66435 249.85574 253.57814 256.87857 259.90689
 262.72952 265.35242 267.69626 269.74658 271.77707 273.81244 275.59906 277.12387
 278.51364 279.90494 281.28583 282.64960 283.93808 285.09995 286.15997 287.12027
 287.98398 288.75308 289.42499 290.28125
 366.78100 356.34539 345.78777 334.66416 323.07754 311.28193 299.16232 286.97570
 274.69809 262.60547 250.62486 239.93625 230.06863 221.18302 213.37541 206.38779
 200.23218 195.18056 191.77295 189.82534 188.87272 188.94711 189.79249 191.11088
 192.84627 194.95165 197.22504 199.59442 202.04981 204.54020 206.63858 208.49097
 210.12736 211.28274 211.52213 211.76051 211.70790 211.42329 211.06667 210.70706
 210.33444 210.05483 209.87322 209.74760 209.68599 210.02737 210.42376 210.82315
 211.62653 212.81492 214.07530 215.86869 217.80708 219.86046 221.96585 224.05924
 226.12962 228.22401 230.33139 232.44778 234.58717 236.76955 239.03594 241.41632
 244.04771 246.30910 248.32148 250.09687 251.52425 252.65764 253.49003 253.81641
 253.86380 253.64819 253.01857 251.97696 250.59334 248.76473 246.68412 244.52750
 242.32889 240.14327 237.97366 235.82305 233.69343 231.57082 229.60720 227.77459
 226.06798 224.55036 223.19075 221.97313 220.86552 219.83591 218.95029 218.10168
 217.35407 216.54445 215.65284 215.02722 214.48761 214.82228 215.58919 215.77573
 215.02290 214.09210 213.77188 214.52774 217.17986 221.27556 226.05261 229.93744
 233.06761 236.87134 241.21387 245.74921 249.98373 253.74362 257.06900 260.12289
 262.95374 265.56378 267.86780 269.83713 271.77893 273.81476 275.61807 277.11087
 278.45667 279.78870 281.23932 282.63440 283.95639 285.12601 286.19312 287.15982
 288.02930 288.80356 289.47992 290.34189
 366.78100 356.34653 345.79006 334.66760 323.08213 311.28766 299.16919 286.98372
 274.70726 262.61579 250.63632 239.94885 230.08238 221.19792 213.39145 206.40498
 200.25051 195.20004 191.79358 189.84711 188.89564 188.97117 189.81770 191.13724
 192.87377 194.98030 197.25483 199.62536 202.08190 204.57343 206.67296 208.52649
 210.16403 211.32056 211.56109 211.80062 211.74915 211.46569 211.11022 210.75175
 210.38028 210.10181 209.92135 209.79688 209.73641 210.07894 210.47647 210.87701
 211.68154 212.87107 214.13260 215.92713 217.86667 219.92120 222.02773 224.12226
 226.19379 228.28933 230.39786 232.51539 234.65592 236.83945 239.10699 241.48852
 244.12105 246.38358 248.39711 250.17365 251.60218 252.73671 253.57024 253.89777
 253.94631 253.73184 253.10337 252.06290 250.68043 248.85297 246.77350 244.61803
 242.42056 240.23609 238.06763 235.91816 233.78969 231.66822 229.70575 227.87429
 226.16882 224.65235 223.29388 222.07742 220.97095 219.94248 219.05801 218.21054
 217.46408 216.65561 215.76514 215.14067 214.60220 214.88380 215.53520 215.78194
 215.26942 214.25380 213.67426 214.31831 217.00542 221.12599 225.88808 229.77849
 232.92909 236.80243 241.21916 245.81654 250.08020 253.85017 257.20834 260.29886
 263.15820 265.78528 268.08582 270.00714 271.90332 273.92493 275.74097 277.18701
 278.49786 279.88095 281.36450 282.80746 284.13657 285.31250 286.38535 287.35727
 288.23141 289.00983 289.68985 290.55646
 366.78100 356.34688 345.79076 334.66864 323.08351 311.28939 299.17127 286.98615
 274.71003 262.61891 250.63979 239.95266 230.08654 221.20242 213.39630 206.41018
 200.25606 195.20594 191.79981 189.85369 188.90257 188.97845 189.82533 191.14521
 192.88209 194.98896 197.26384 199.63472 202.09160 204.58348 206.68336 208.53724
 210.17511 211.33199 211.57287 211.81275 211.76163 211.47851 211.12339 210.76526
 210.39414 210.11602 209.93590 209.81178 209.75166 210.09454 210.49241 210.89329
 211.69817 212.88805 214.14993 215.94481 217.88469 219.93956 222.04644 224.14132
 226.21320 228.30908 230.41796 232.53584 234.67671 236.86059 239.12847 241.51035
 244.14323 246.40611 248.41999 250.19686 251.62574 252.76062 253.59450 253.92238
 253.97126 253.75713 253.12901 252.08889 250.70677 248.87965 246.80053 244.64541
 242.44828 240.26416 238.09604 235.94692 233.81880 231.69768 229.73556 227.90443
 226.19931 224.68319 223.32507 222.10895 221.00283 219.97471 219.09058 218.24346
 217.49734 216.68922 215.79910 215.17498 214.63686 214.90744 215.52065 215.72618
 215.56308 214.51450 213.64038 214.13448 216.82800 220.96445 225.70044 229.57715
 232.76712 236.72408 241.21216 245.83455 250.08780 253.83824 257.20001 260.32108
 263.22919 265.91827 268.27054 270.17523 272.00427 273.99857 275.77762 277.21939
 278.55994 280.02307 281.51102 282.95523 284.28757 285.46637 286.54181 287.51611
 288.39236 289.17270 289.85437 290.72305
 366.78100 356.34668 345.79036 334.66804 323.08272 311.28840 299.17008 286.98477
 274.70845 262.61713 250.63781 239.95049 230.08417 221.19985 213.39353 206.40721
 200.25289 195.20257 191.79625 189.84994 188.89862 188.97430 189.82098 191.14066
 192.87734 194.98402 197.25870 199.62938 202.08606 204.57774 206.67742 208.53111
 210.16879 211.32547 211.56615 211.80583 211.75451 211.47119 211.11587 210.75755
 210.38623 210.10791 209.92759 209.80327 209.74296 210.08564 210.48332 210.88400
 211.68868 212.87836 214.14004 215.93472 217.87440 219.92908 222.03576 224.13044
 226.20213 228.29781 230.40649 232.52417 234.66485 236.84853 239.11621 241.49789
 244.13057 246.39325 248.40693 250.18361 251.61229 252.74698 253.58066 253.90834
 253.95702 253.74270 253.11438 252.07406 250.69174 248.86442 246.78510 244.62978
 242.43246 240.24815 238.07983 235.93051 233.80219 231.68087 229.71855 227.88723
 226.18191 224.66559 223.30727 222.09095 220.98463 219.95632 219.07200 218.22468
 217.47836 216.67004 215.77972 215.15540 214.61708 214.91151 215.54161 215.58638
 215.72127 214.85255 213.78729 214.09152 216.68730 220.78487 225.46477 229.34215
 232.55942 236.60008 241.16068 245.81714 250.05391 253.81915 257.20328 260.35529
 263.29306 266.02692 268.46030 270.44345 272.27759 274.20944 275.96536 277.34390
 278.64737 280.16342 281.70264 283.26059 284.64471 285.86932 286.98660 287.99878
 288.90909 289.71976 290.42792 291.33041
 366.78100 356.34482 345.78664 334.66246 323.07528 311.27910 299.15892 286.97174
 274.69356 262.60038 250.61920 239.93002 230.06184 221.17566 213.36748 206.37930
 200.22312 195.17093 191.76275 189.81457 188.86139 188.93521 189.78003 191.09785
 192.83267 194.93749 197.21031 199.57913 202.03395 204.52377 206.62159 208.47341
 210.10923 211.26405 211.50287 211.74069 211.68751 211.40233 211.04515 210.68497
 210.31179 210.03161 209.84943 209.72325 209.66107 210.00189 210.39771 210.79653
 211.59935 212.78716 214.04698 215.83980 217.77762 219.83044 221.93526 224.02808
 226.09790 228.19172 230.29854 232.41436 234.55318 236.73500 239.00082 241.38064
 244.01146 246.27228 248.28410 250.05892 251.48574 252.61856 253.45038 253.77620
 253.82302 253.60684 252.97666 251.93448 250.55030 248.72112 246.63994 244.48276
 242.28358 240.09740 237.92721 235.77603 233.64585 231.52267 229.55849 227.72531
 226.01813 224.49995 223.13977 221.92159 220.81341 219.78323 218.89705 218.04787
 217.29969 216.48951 215.59733 214.97115 214.43097 214.82265 215.64565 215.38977
 215.58505 215.22636 214.12550 214.14871 216.58629 220.63245 225.25620 229.09521
 232.39209 236.53802 241.16740 245.80573 250.01692 253.74803 257.11572 260.28824
 263.28314 266.10275 268.62479 270.69220 272.54398 274.42859 276.09021 277.54321
 279.02170 280.57254 282.05130 283.43326 284.72690 285.87146 286.91571 287.86169
 288.71252 289.47018 290.13208 290.97556
 366.78100 356.34494 345.78688 334.66282 323.07575 311.27969 299.15963 286.97257
 274.69451 262.60145 250.62038 239.93132 230.06326 221.17720 213.36914 206.38108
 200.22501 195.17295 191.76489 189.81683 188.86377 188.93771 189.78264 191.10058
 192.83552 194.94046 197.21340 199.58234 202.03728 204.52721 206.62515 208.47709
 210.11303 211.26797 211.50691 211.74484 211.69178 211.40672 211.04966 210.68960
 210.31654 210.03647 209.85441 209.72835 209.66629 210.00723 210.40317 210.80211
 211.60504 212.79298 214.05292 215.84586 217.78380 219.83674 221.94167 224.03461
 226.10455 228.19849 230.30543 232.42137 234.56030 236.74224 239.00818 241.38812
 244.01906 246.28000 248.29193 250.06687 251.49381 252.62675 253.45869 253.78463
 253.83157 253.61550 252.98544 251.94338 250.55932 248.73026 246.64920 244.49213
 242.29307 240.10701 237.93695 235.78589 233.65583 231.53276 229.56870 227.73564
 226.02858 224.51052 223.15046 221.93239 220.82433 219.79427 218.90821 218.05915
 217.31109 216.50103 215.60896 214.98290 214.44284 214.80061 215.61946 215.53625
 215.30431 215.15921 214.26396 214.14273 216.46202 220.48892 225.25250 228.92435
 232.38365 236.51607 241.12756 245.66664 249.82092 253.52197 256.90451 260.09714
 263.14087 266.02451 268.64343 270.84998 272.73709 274.54752 276.21686 277.70328
 279.12076 280.49060 281.74936 282.88718 283.88107 284.75488 285.66486 286.51968
 287.28848 287.97311 288.57120 289.33340
 366.78100 356.34802 345.79305 334.67207 323.08810 311.29512 299.17815 286.99417
 274.71920 262.62922 250.65124 239.96527 230.10029 221.21732 213.41234 206.42737
 200.27439 195.22542 191.82044 189.87547 188.92549 189.00251 189.85054 191.17156
 192.90959 195.01761 197.29364 199.66566 202.12369 204.61671 206.71773 208.57276
 210.21178 211.36981 211.61183 211.85286 211.80288 211.52091 211.16693 210.80996
 210.43998 210.16300 209.98403 209.86105 209.80208 210.14610 210.54513 210.94715
 211.75318 212.94420 214.20722 216.00325 217.94427 220.00030 222.10832 224.20435
 226.27737 228.37440 230.48442 232.60345 234.74547 236.93049 239.19952 241.58254
 244.21657 246.48059 248.49562 250.27364 251.70367 252.83969 253.67471 254.00374
 254.05376 253.84079 253.21381 252.17484 250.79386 248.96789 246.88991 244.73594
 242.53996 240.35698 238.19001 236.04203 233.91506 231.79508 229.83411 228.00413
 226.30016 224.78518 223.42820 222.21323 221.10825 220.08128 219.19830 218.35233
 217.60735 216.80038 215.91140 215.28843 214.75145 214.93890 215.38272 215.75446
 215.58026 215.22577 214.20682 213.95361 216.32056 220.40564 225.22968 228.73322
 232.28868 236.48911 241.17865 245.69655 249.81433 253.46216 256.80219 259.97076
 263.01910 265.93546 268.61740 270.90137 272.85907 274.67749 276.31970 277.75858
 279.13937 280.48016 281.65317 282.62442 283.48224 284.27246 285.04007 285.84705
 286.62457 287.31699 287.92188 288.69272
 366.78100 356.34917 345.79535 334.67552 323.09270 311.30087 299.18504 287.00222
 274.72839 262.63957 250.66274 239.97792 230.11409 221.23226 213.42844 206.44461
 200.29279 195.24496 191.84113 189.89731 188.94848 189.02666 189.87583 191.19800
 192.93718 195.04635 197.32353 199.69670 202.15587 204.65005 206.75222 208.60840
 210.24857 211.40775 211.65092 211.89309 211.84427 211.56344 211.21062 210.85479
 210.48596 210.21014 210.03231 209.91049 209.85266 210.19783 210.59801 211.00118
 211.80836 213.00053 214.26470 216.06188 218.00405 220.06123 222.17040 224.26758
 226.34175 228.43992 230.55110 232.67127 234.81445 237.00062 239.27079 241.65497
 244.29014 246.55532 248.57149 250.35066 251.78184 252.91901 253.75519 254.08536
 254.13653 253.92471 253.29888 252.26106 250.88123 249.05641 246.97958 244.82675
 242.63193 240.45010 238.28428 236.13745 234.01162 231.89280 229.93297 228.10415
 226.40132 224.88749 223.53167 222.31784 221.21402 220.18819 219.30636 218.46154
 217.71771 216.91189 216.02406 215.40224 214.86641 215.00182 215.32446 215.64241
 215.70438 215.25519 214.12373 213.88712 216.27966 220.35069 225.11801 228.74338
 232.23993 236.52342 241.24609 245.80840 249.92822 253.56818 256.87476 259.99127
 262.98389 265.87964 268.57187 270.88150 272.88187 274.73419 276.37076 277.83420
 279.24481 280.55966 281.66354 282.54968 283.33240 284.16626 285.01639 285.79709
 286.49927 287.12454 287.67078 288.36688
 366.78100 356.34825 345.79350 334.67275 323.08900 311.29625 299.17950 286.99576
 274.72101 262.63126 250.65351 239.96776 230.10301 221.22026 213.41551 206.43076
 200.27801 195.22926 191.82451 189.87976 188.93002 189.00727 189.85552 191.17677
 192.91502 195.02327 197.29952 199.67177 202.13002 204.62327 206.72452 208.57977
 210.21903 211.37728 211.61953 211.86078 211.81103 211.52928 211.17553 210.81878
 210.44903 210.17228 209.99353 209.87078 209.81203 210.15629 210.55554 210.95779
 211.76404 212.95529 214.21854 216.01479 217.95604 220.01229 222.12054 224.21679
 226.29004 228.38729 230.49755 232.61680 234.75905 236.94430 239.21355 241.59680
 244.23105 246.49530 248.51055 250.28880 251.71905 252.85530 253.69055 254.01981
 254.07006 253.85731 253.23056 252.19181 250.81106 248.98531 246.90756 244.75381
 242.55806 240.37531 238.20856 236.06082 233.93407 231.81432 229.85357 228.02382
 226.32007 224.80532 223.44857 222.23382 221.12907 220.10232 219.21957 218.37382
 217.62908 216.82233 215.93358 215.31083 214.77408 214.95663 215.38347 215.56975
 215.62196 215.21466 214.12817 213.88606 216.28146 220.34592 225.07948 228.75914
 232.22583 236.54405 241.30328 245.92072 250.05850 253.68060 256.93216 259.97775
 262.90964 265.77927 268.46747 270.78351 272.81836 274.69977 276.33624 277.82614
 279.25473 280.53720 281.55823 282.37198 283.24057 284.17953 285.07111 285.86655
 286.58194 287.21902 287.77554 288.48477
 366.78100 356.34814 345.79328 334.67241 323.08855 311.29569 299.17883 286.99496
 274.72010 262.63024 250.65238 239.96651 230.10165 221.21879 213.41393 206.42907
 200.27620 195.22734 191.82248 189.87762 188.92775 189.00489 189.85303 191.17417
 192.91231 195.02044 197.29658 199.66872 202.12686 204.61999 206.72113 208.57627
 210.21541 211.37354 211.61568 211.85682 211.80696 211.52510 211.17123 210.81437
 210.44451 210.16765 209.98878 209.86592 209.80706 210.15120 210.55033 210.95247
 211.75861 212.94975 214.21289 216.00902 217.95016 220.00630 222.11444 224.21057
 226.28371 228.38085 230.49099 232.61013 234.75226 236.93740 239.20654 241.58968
 244.22381 246.48795 248.50309 250.28123 251.71136 252.84750 253.68264 254.01178
 254.06192 253.84905 253.22219 252.18333 250.80247 248.97660 246.89874 244.74488
 242.54902 240.36616 238.19929 236.05143 233.92457 231.80471 229.84384 228.01398
 226.31012 224.79526 223.43839 222.22353 221.11867 220.09181 219.20895 218.36308
 217.61822 216.81136 215.92250 215.29963 214.76277 214.94838 215.38303 215.60197
 215.56883 215.12756 214.17827 213.94785 216.29521 220.32977 225.01859 228.72981
 232.18814 236.53471 241.32582 245.98409 250.14438 253.76291 256.98502 259.98093
 262.85806 265.70218 268.39050 270.71106 272.76584 274.63843 276.25513 277.73337
 279.17096 280.40668 281.35107 282.19073 283.13525 284.06210 284.92020 285.69748
 286.39655 287.01907 287.56290 288.25595
 366.78100 356.34801 345.79301 334.67202 323.08803 311.29503 299.17804 286.99405
 274.71905 262.62906 250.65106 239.96507 230.10008 221.21708 213.41209 206.42710
 200.27410 195.22511 191.82012 189.87512 188.92513 189.00214 189.85014 191.17115
 192.90916 195.01716 197.29317 199.66518 202.12318 204.61619 206.71719 208.57220
 210.21121 211.36921 211.61122 211.85223 211.80223 211.52024 211.16625 210.80925
 210.43926 210.16227 209.98327 209.86028 209.80129 210.14529 210.54430 210.94631
 211.75231 212.94332 214.20632 216.00233 217.94334 219.99934 222.10735 224.20336
 226.27636 228.37337 230.48338 232.60238 234.74439 236.92940 239.19840 241.58141
 244.21542 246.47942 248.49443 250.27243 251.70244 252.83845 253.67345 254.00246
 254.05247 253.83947 253.21248 252.17349 250.79249 248.96650 246.88851 244.73451
 242.53852 240.35553 238.18853 236.04054 233.91355 231.79355 229.83256 228.00256
 226.29857 224.78358 223.42658 222.21159 221.10660 220.07960 219.19661 218.35062
 217.60562 216.79863 215.90964 215.28664 214.74965 214.94408 215.39290 215.55392
 215.62885 215.15149 214.25986 214.00946 216.29124 220.27863 224.89577 228.63701
 232.12593 236.51323 241.33304 246.01506 250.20114 253.84789 257.09332 260.08652
 262.92654 265.74451 268.42783 270.76852 272.84283 274.68713 276.26614 277.71613
 279.11829 280.28146 281.14154 282.00101 282.96078 283.93802 284.84015 285.65741
 286.39246 287.04700 287.61880 288.34750
 366.78100 356.34609 345.78917 334.66626 323.08034 311.28543 299.16651 286.98060
 274.70368 262.61177 250.63186 239.94394 230.07703 221.19211 213.38520 206.39828
 200.24337 195.19245 191.78554 189.83863 188.88671 188.96180 189.80788 191.12697
 192.86305 194.96914 197.24322 199.61331 202.06940 204.56048 206.65957 208.51265
 210.14974 211.30582 211.54591 211.78499 211.73308 211.44917 211.09325 210.73434
 210.36242 210.08351 209.90259 209.77768 209.71676 210.05885 210.45594 210.85602
 211.66011 212.84919 214.11028 215.90436 217.84345 219.89753 222.00362 224.09771
 226.16879 228.26388 230.37196 232.48905 234.62913 236.81222 239.07930 241.46039
 244.09248 246.35456 248.36765 250.14373 251.57182 252.70590 253.53899 253.86607
 253.91416 253.69925 253.07033 252.02942 250.64650 248.81859 246.73867 244.58276
 242.38484 240.19993 238.03102 235.88110 233.75219 231.63027 229.66736 227.83544
 226.12953 224.61261 223.25370 222.03679 220.92987 219.90096 219.01604 218.16813
 217.42121 216.61230 215.72139 215.09647 214.55756 214.84770 215.49864 215.43672
 215.61183 215.25577 214.34384 213.98302 216.21529 220.19774 224.76845 228.50211
 232.04369 236.47589 241.32387 246.01401 250.20158 253.86494 257.14545 260.16891
 263.00812 265.81732 268.53198 270.92416 273.03464 274.90146 276.46210 277.84479
 279.20950 280.36349 281.16489 281.91306 282.86353 283.85065 284.75998 285.58380
 286.32471 286.98450 287.56088 288.29541
 366.78100 356.34513 345.78726 334.66338 323.07651 311.28064 299.16077 286.97390
 274.69602 262.60315 250.62228 239.93341 230.06554 221.17966 213.37179 206.38392
 200.22805 195.17617 191.76830 189.82043 188.86756 188.94169 189.78681 191.10494
 192.84007 194.94520 197.21833 199.58745 202.04258 204.53271 206.63084 208.48297
 210.11909 211.27422 211.51335 211.75148 211.69861 211.41373 211.05686 210.69699
 210.32412 210.04424 209.86237 209.73650 209.67463 210.01576 210.41188 210.81101
 211.61414 212.80227 214.06240 215.85552 217.79365 219.84678 221.95191 224.04504
 226.11516 228.20929 230.31642 232.43255 234.57168 236.75380 239.01993 241.40006
 244.03119 246.29231 248.30444 250.07957 251.50670 252.63983 253.47195 253.79808
 253.84521 253.62934 252.99947 251.95759 250.57372 248.74485 246.66398 244.50711
 242.30823 240.12236 237.95249 235.80162 233.67175 231.54887 229.58500 227.75213
 226.04526 224.52738 223.16751 221.94964 220.84177 219.81190 218.92602 218.07715
 217.32928 216.51941 215.62754 215.00166 214.46179 214.78725 215.53442 215.45055
 215.53748 215.28098 214.39871 213.91898 216.11768 220.13223 224.71428 228.36752
 231.97408 236.43205 241.29456 245.96227 250.11797 253.76910 257.06131 260.10123
 262.96451 265.78140 268.52014 270.99420 273.18701 275.13104 276.72421 278.10083
 279.44348 280.64255 281.49692 282.10156 282.81253 283.69040 284.57974 285.37878
 286.09744 286.73740 287.29645 288.00891
 366.78100 356.34631 345.78962 334.66694 323.08125 311.28656 299.16787 286.98219
 274.70550 262.61381 250.63412 239.94643 230.07975 221.19506 213.38837 206.40168
 200.24699 195.19631 191.78962 189.84293 188.89124 188.96656 189.81287 191.13218
 192.86849 194.97480 197.24912 199.61943 202.07574 204.56705 206.66636 208.51968
 210.15699 211.31330 211.55361 211.79293 211.74124 211.45755 211.10186 210.74317
 210.37149 210.09280 209.91211 209.78742 209.72673 210.06905 210.46636 210.86667
 211.67098 212.86030 214.12161 215.91592 217.85523 219.90954 222.01586 224.11017
 226.18148 228.27679 230.38510 232.50242 234.64273 236.82604 239.09335 241.47467
 244.10698 246.36929 248.38260 250.15891 251.58723 252.72154 253.55485 253.88216
 253.93048 253.71579 253.08710 252.04641 250.66372 248.83604 246.75635 244.60066
 242.40297 240.21828 238.04960 235.89991 233.77122 231.64953 229.68685 227.85516
 226.14947 224.63278 223.27409 222.05741 220.95072 219.92203 219.03734 218.18965
 217.44297 216.63428 215.74359 215.11890 214.58022 214.83607 215.43663 215.54649
 215.58046 215.37836 214.48405 213.86981 216.05067 220.10730 224.69786 228.23528
 231.90314 236.39348 241.28610 245.93851 250.06654 253.69864 256.98410 260.01501
 262.86227 265.65396 268.39389 270.91608 273.17441 275.16980 276.81412 278.21170
 279.57928 280.80667 281.70026 282.30280 282.87430 283.61935 284.46396 285.23828
 285.85895 286.41165 286.89450 287.50983
 366.78100 356.34755 345.79210 334.67066 323.08621 311.29276 299.17531 286.99086
 274.71542 262.62497 250.64652 239.96007 230.09462 221.21118 213.40573 206.42028
 200.26683 195.21738 191.81193 189.86649 188.91604 188.99259 189.84014 191.16069
 192.89825 195.00580 197.28135 199.65290 202.11045 204.60301 206.70356 208.55811
 210.19666 211.35421 211.59577 211.83632 211.78587 211.50342 211.14897 210.79153
 210.42108 210.14363 209.96418 209.84073 209.78128 210.12484 210.52339 210.92494
 211.73049 212.92104 214.18360 215.97915 217.91970 219.97525 222.08280 224.17836
 226.25091 228.34746 230.45701 232.57556 234.71712 236.90167 239.17022 241.55277
 244.18632 246.44988 248.46443 250.24198 251.67153 252.80708 253.64164 253.97019
 254.01974 253.80629 253.17884 252.13939 250.75795 248.93150 246.85305 244.69860
 242.50215 240.31871 238.15126 236.00281 233.87536 231.75491 229.79347 227.96302
 226.25857 224.74312 223.38567 222.17023 221.06478 220.03733 219.15388 218.30743
 217.56199 216.75454 215.86509 215.24164 214.70419 214.89526 215.34642 215.60938
 215.58049 215.38936 214.52589 213.83234 216.01524 220.09601 224.66093 228.15797
 231.85745 236.37669 241.29588 245.94644 250.07173 253.71269 257.01251 260.04193
 262.85208 265.58459 268.28940 270.82706 273.13477 275.18091 276.85892 278.28720
 279.68701 280.92197 281.78424 282.34729 282.90115 283.58344 284.39661 285.14877
 285.73441 286.21890 286.64218 287.18158
 366.78100 356.34764 345.79229 334.67093 323.08657 311.29321 299.17586 286.99150
 274.71614 262.62578 250.64743 239.96107 230.09571 221.21236 213.40700 206.42164
 200.26828 195.21893 191.81357 189.86821 188.91785 188.99450 189.84214 191.16278
 192.90043 195.00807 197.28371 199.65535 202.11300 204.60564 206.70628 208.56092
 210.19957 211.35721 211.59885 211.83950 211.78914 211.50678 211.15242 210.79507
 210.42471 210.14735 209.96799 209.84464 209.78528 210.12892 210.52757 210.92921
 211.73485 212.92549 214.18814 215.98378 217.92442 219.98006 222.08771 224.18335
 226.25599 228.35264 230.46228 232.58092 234.72256 236.90721 239.17585 241.55849
 244.19213 246.45578 248.47042 250.24806 251.67771 252.81335 253.64799 253.97663
 254.02628 253.81292 253.18556 252.14620 250.76485 248.93849 246.86013 244.70577
 242.50942 240.32606 238.15870 236.01035 233.88299 231.76263 229.80127 227.97092
 226.26656 224.75120 223.39384 222.17849 221.07313 220.04577 219.16242 218.31606
 217.57070 216.76334 215.87399 215.25063 214.71327 214.90100 215.34413 215.61378
 215.56448 215.31996 214.51294 213.83148 215.99092 220.07368 224.58080 228.12550
 231.82701 236.37137 241.29765 245.94533 250.07777 253.74367 257.07285 260.11612
 262.90768 265.58853 268.23358 270.75888 273.11383 275.22058 276.93317 278.38245
 279.80756 281.01843 281.82538 282.34723 282.87027 283.54117 284.33273 285.06366
 285.61765 286.09714 286.51599 287.04977
 366.78100 356.34622 345.78943 334.66665 323.08087 311.28608 299.16730 286.98152
 274.70473 262.61295 250.63317 239.94538 230.07860 221.19382 213.38704 206.40025
 200.24547 195.19469 191.78790 189.84112 188.88934 188.96455 189.81077 191.12999
 192.86620 194.97242 197.24664 199.61685 202.07307 204.56429 206.66350 208.51672
 210.15394 211.31015 211.55037 211.78959 211.73780 211.45402 211.09824 210.73945
 210.36767 210.08889 209.90811 209.78332 209.72254 210.06476 210.46197 210.86219
 211.66641 212.85562 214.11684 215.91106 217.85027 219.90449 222.01071 224.10492
 226.17614 228.27136 230.37957 232.49679 234.63701 236.82022 239.08744 241.46866
 244.10087 246.36309 248.37631 250.15252 251.58074 252.71496 253.54818 253.87539
 253.92361 253.70883 253.08004 252.03926 250.65648 248.82869 246.74891 244.59313
 242.39534 240.21056 238.04178 235.89199 233.76321 231.64143 229.67864 227.84686
 226.14108 224.62429 223.26551 222.04873 220.94194 219.91316 219.02838 218.18059
 217.43381 216.62503 215.73425 215.10946 214.57068 214.83116 215.44232 215.54424
 215.52823 215.25420 214.53633 213.84068 215.97681 220.02608 224.50009 228.10359
 231.80618 236.36868 241.29176 245.92842 250.05942 253.74219 257.09680 260.15945
 262.95502 265.60950 268.20285 270.70831 273.10571 275.29205 277.07330 278.54996
 279.98587 281.17969 281.96259 282.42957 282.90030 283.52133 284.24796 284.93100
 285.43716 285.88794 286.28171 286.78354
 366.78100 356.34452 345.78605 334.66157 323.07410 311.27762 299.15715 286.96967
 274.69119 262.59772 250.61624 239.92677 230.05829 221.17182 213.36334 206.37486
 200.21839 195.16591 191.75744 189.80896 188.85549 188.92901 189.77353 191.09106
 192.82558 194.93011 197.20263 199.57116 202.02568 204.51520 206.61273 208.46425
 210.09978 211.25430 211.49283 211.73035 211.67687 211.39140 211.03392 210.67345
 210.29997 210.01950 209.83702 209.71054 209.64807 209.98859 210.38412 210.78264
 211.58517 212.77269 214.03221 215.82474 217.76226 219.81479 221.91931 224.01184
 226.08136 228.17488 230.28141 232.39693 234.53546 236.71698 238.98251 241.36203
 243.99255 246.25308 248.26460 250.03913 251.46565 252.59818 253.42970 253.75522
 253.80175 253.58527 252.95480 251.91232 250.52785 248.69837 246.61689 244.45942
 242.25994 240.07347 237.90299 235.75152 233.62104 231.49756 229.53309 227.69961
 225.99214 224.47366 223.11319 221.89471 220.78623 219.75576 218.86928 218.01981
 217.27133 216.46086 215.56838 214.94190 214.40143 214.74377 215.54898 215.49391
 215.50688 215.20581 214.56425 213.82774 215.96167 219.99338 224.46965 228.06592
 231.78455 236.36156 241.28331 245.89870 250.01514 253.70193 257.07114 260.14804
 262.95386 265.59659 268.15189 270.63803 273.07910 275.36539 277.25198 278.78461
 280.22833 281.44016 282.23154 282.65359 283.03607 283.55182 284.20786 284.86414
 285.36288 285.77716 286.13907 286.60025
 366.78100 356.34396 345.78493 334.65989 323.07186 311.27482 299.15378 286.96575
 274.68671 262.59267 250.61064 239.92060 230.05157 221.16453 213.35549 206.36646
 200.20942 195.15639 191.74735 189.79831 188.84428 188.91724 189.76120 191.07817
 192.81213 194.91610 197.18806 199.55602 202.00999 204.49895 206.59591 208.44688
 210.08184 211.23581 211.47377 211.71073 211.65670 211.37066 211.01263 210.65159
 210.27755 209.99652 209.81348 209.68644 209.62341 209.96337 210.35834 210.75630
 211.55826 212.74523 214.00419 215.79616 217.73312 219.78508 221.88905 223.98101
 226.04997 228.14294 230.24890 232.36387 234.50183 236.68279 238.94776 241.32672
 243.95668 246.21665 248.22761 250.00158 251.42754 252.55950 253.39047 253.71543
 253.76140 253.54436 252.91332 251.87029 250.48525 248.65521 246.57318 244.41514
 242.21511 240.02807 237.85703 235.70500 233.57396 231.44993 229.48489 227.65085
 225.94282 224.42378 223.06274 221.84371 220.73467 219.70364 218.81660 217.96656
 217.21753 216.40649 215.51346 214.88642 214.34538 214.71042 215.57289 215.52449
 215.50574 215.15573 214.51096 213.79210 215.92723 219.97380 224.47289 228.02328
 231.76395 236.35616 241.28282 245.88046 249.98190 253.66771 257.04059 260.11667
 262.91879 265.54532 268.06577 270.52997 273.00027 275.37711 277.37164 278.97037
 280.41412 281.63220 282.43839 282.85242 283.20111 283.64151 284.21582 284.85464
 285.48138 285.88611 286.23969 286.69025
 366.78100 356.34410 345.78520 334.66029 323.07239 311.27549 299.15459 286.96669
 274.68779 262.59388 250.61198 239.92208 230.05318 221.16628 213.35738 206.36847
 200.21157 195.15867 191.74977 189.80087 188.84697 188.92006 189.76416 191.08126
 192.81536 194.91946 197.19155 199.55965 202.01375 204.50285 206.59995 208.45105
 210.08614 211.24024 211.47834 211.71544 211.66154 211.37564 211.01773 210.65683
 210.28293 210.00203 209.81913 209.69223 209.62932 209.96942 210.36452 210.76262
 211.56472 212.75181 214.01091 215.80301 217.74011 219.79221 221.89631 223.98840
 226.05750 228.15060 230.25670 232.37180 234.50990 236.69099 238.95609 241.33519
 243.96529 246.22539 248.23648 250.01058 251.43668 252.56878 253.39988 253.72498
 253.77107 253.55417 252.92327 251.88037 250.49547 248.66557 246.58366 244.42576
 242.22586 240.03896 237.86806 235.71616 233.58525 231.46135 229.49645 227.66255
 225.95465 224.43574 223.07484 221.85594 220.74704 219.71614 218.82924 217.97933
 217.23043 216.41953 215.52663 214.89973 214.35883 214.71246 215.54797 215.60001
 215.48505 215.12985 214.41774 213.79572 215.95738 219.94434 224.45619 228.00157
 231.76047 236.36142 241.28996 245.87523 249.97429 253.67368 257.05914 260.13684
 262.92950 265.52283 267.98489 270.40082 272.89621 275.36188 277.43417 279.08469
 280.54605 281.74017 282.48621 282.87442 283.24197 283.68546 284.22931 284.88989
 285.51477 285.98831 286.27731 286.64560
 366.78100 356.34462 345.78624 334.66186 323.07448 311.27810 299.15772 286.97035
 274.69197 262.59859 250.61721 239.92783 230.05945 221.17307 213.36469 206.37631
 200.21993 195.16755 191.75917 189.81079 188.85741 188.93104 189.77566 191.09328
 192.82790 194.93252 197.20514 199.57376 202.02838 204.51800 206.61562 208.46724
 210.10286 211.25748 211.49610 211.73373 211.68035 211.39497 211.03759 210.67721
 210.30383 210.02345 209.84107 209.71469 209.65231 209.99293 210.38855 210.78717
 211.58979 212.77742 214.03704 215.82966 217.76728 219.81990 221.92452 224.01714
 226.08676 228.18038 230.28700 232.40262 234.54124 236.72286 238.98848 241.36811
 243.99873 246.25935 248.27097 250.04559 251.47221 252.60483 253.43645 253.76207
 253.80869 253.59231 252.96193 251.91955 250.53517 248.70580 246.62442 244.46704
 242.26766 240.08128 237.91090 235.75952 233.62914 231.50576 229.54138 227.70800
 226.00062 224.48224 223.12186 221.90349 220.79511 219.76473 218.87835 218.02897
 217.28059 216.47021 215.57783 214.95145 214.41107 214.73459 215.49895 215.71358
 215.44449 215.06413 214.33150 213.74178 215.91901 219.89842 224.41985 228.00479
 231.75789 236.36009 241.28630 245.87154 249.97661 253.69267 257.09290 260.17752
 262.97348 265.55804 267.97989 270.32532 272.79486 275.32880 277.48672 279.17535
 280.65509 281.83807 282.59457 282.99814 283.35220 283.74207 284.20654 284.80276
 285.41339 285.90259 286.18130 286.53647
 366.78100 356.34422 345.78544 334.66066 323.07288 311.27610 299.15533 286.96755
 274.68877 262.59499 250.61321 239.92343 230.05465 221.16787 213.35909 206.37031
 200.21354 195.16076 191.75198 189.80320 188.84942 188.92264 189.76686 191.08408
 192.81830 194.92252 197.19474 199.56297 202.01719 204.50641 206.60363 208.45485
 210.09007 211.24429 211.48251 211.71973 211.66595 211.38017 211.02240 210.66162
 210.28784 210.00706 209.82428 209.69750 209.63472 209.97494 210.37016 210.76838
 211.57060 212.75783 214.01705 215.80927 217.74649 219.79871 221.90293 223.99515
 226.06437 228.15759 230.26381 232.37904 234.51726 236.69848 238.96370 241.34292
 243.97314 246.23336 248.24458 250.01880 251.44502 252.57724 253.40847 253.73369
 253.77991 253.56313 252.93235 251.88957 250.50479 248.67501 246.59323 244.43545
 242.23567 240.04890 237.87812 235.72634 233.59556 231.47178 229.50700 227.67322
 225.96544 224.44666 223.08588 221.86711 220.75833 219.72755 218.84077 217.99099
 217.24221 216.43143 215.53865 214.91187 214.37109 214.71474 215.52663 215.72737
 215.51128 214.99437 214.15521 213.54283 215.88019 219.87183 224.36923 228.07306
 231.81183 236.39769 241.28403 245.87048 249.97992 253.70618 257.10870 260.18954
 262.97852 265.53885 267.92834 270.26266 272.75830 275.36514 277.60657 279.37466
 280.87546 281.99832 282.63257 282.91486 283.27408 283.74887 284.29132 284.95166
 285.61230 286.18066 286.57922 287.08713
 354.97500 345.04800 334.58700 324.11500 313.32600 302.53700 291.65000 280.76700
 269.93100 259.19300 248.62200 238.61700 229.08700 220.35500 212.54000 205.53500
 199.46400 194.49300 191.14300 189.19000 188.08900 188.01400 188.72400 189.90600
 191.46900 193.38200 195.40300 197.55600 199.80700 202.06000 204.28800 206.47900
 208.55200 210.37800 212.02500 213.65900 214.99800 216.11800 217.17200 218.25900
 219.49400 220.64500 221.67900 222.61400 223.54500 224.98200 226.57100 228.19000
 229.79700 231.81100 233.86500 235.97200 238.24200 240.55300 242.89900 245.25300
 247.48800 249.53500 251.36600 252.84800 254.09800 255.16700 256.02700 256.25300
 256.09500 255.54300 253.93500 252.56600 251.38400 250.24500 249.05200 247.70100
 246.01600 243.99600 241.78400 239.39300 236.81300 234.22300 231.65800 229.14400
 226.74000 224.47300 222.33500 220.32500 218.44000 216.67700 214.96200 213.47200
 212.20000 211.10800 210.26000 209.63900 209.24400 209.03100 209.05800 209.33300
 209.78400 210.62600 211.33100 212.39100 213.62500 214.84668 217.72949 219.47640
 220.32566 220.86828 220.88710 220.27371 219.43733 218.84250 219.04934 220.86203
 222.60583 225.72206 229.03064 232.61777 236.12270 239.51333 242.70767 245.68587
 248.41061 250.90679 253.19353 254.91714 256.48655 257.94920 259.39966 260.69384
 261.81714 262.77997 263.71679 264.54570 265.26305 265.89772 266.47676 267.00133
 267.47312 267.89325 268.26027 268.72800
