|-------------------------------------------------------------------------|
|   File Name : in_temp.dat
|   Subject   : temperature profiles used for initial guess atmosphere
|   File Type : input of gmtr
|   Data Type : atmospherical data
|   Author/s  : WRF-Chem
|   Date      : Fri Jul 26 15:39:24 2024
|-------------------------------------------------------------------------|

 WRF-Chem temperature
#
 values of T (K)    (8f10.5)
#
 354.97500 345.04800 334.58700 324.11500 313.32600 302.53700 291.65000 280.76700
 269.93100 259.19300 248.62200 238.61700 229.08700 220.35500 212.54000 205.53500
 199.46400 194.49300 191.14300 189.19000 188.08900 188.01400 188.72400 189.90600
 191.46900 193.38200 195.40300 197.55600 199.80700 202.06000 204.28800 206.47900
 208.55200 210.37800 212.02500 213.65900 214.99800 216.11800 217.17200 218.25900
 219.49400 220.64500 221.67900 222.61400 223.54500 224.98200 226.57100 228.19000
 229.79700 231.81100 233.86500 235.97200 238.24200 240.55300 242.89900 245.25300
 247.48800 249.53500 251.36600 252.84800 254.09800 255.16700 256.02700 256.25300
 256.09500 255.54300 253.93500 252.56600 251.38400 250.24500 249.05200 247.70100
 246.01600 243.99600 241.78400 239.39300 236.81300 234.22300 231.65800 229.14400
 226.74000 224.47300 222.33500 220.32500 218.44000 216.67700 214.96200 213.47200
 212.20000 211.10800 210.26000 209.63900 209.24400 209.03100 209.05800 209.33300
 209.78400 210.62600 211.33100 212.39100 213.62500 214.84668 217.72949 219.47640
 220.32566 220.86828 220.88710 220.27371 219.43733 218.84250 219.04934 220.86203
 222.60583 225.72206 229.03064 232.61777 236.12270 239.51333 242.70767 245.68587
 248.41061 250.90679 253.19353 254.91714 256.48655 257.94920 259.39966 260.69384
 261.81714 262.77997 263.71679 264.54570 265.26305 265.89772 266.47676 267.00133
 267.47312 267.89325 268.26027 268.72800
 366.78100 356.33500 345.76700 334.63300 323.03600 311.23000 299.10000 286.90300
 274.61500 262.51200 250.52100 239.82200 229.94400 221.04800 213.23000 206.23200
 200.06600 195.00400 191.58600 189.62800 188.66500 188.72900 189.56400 190.87200
 192.59700 194.69200 196.95500 199.31400 201.75900 204.23900 206.32700 208.16900
 209.79500 210.94000 211.16900 211.39700 211.33400 211.03900 210.67200 210.30200
 209.91900 209.62900 209.43700 209.30100 209.22900 209.56000 209.94600 210.33500
 211.12800 212.30600 213.55600 215.33900 217.26700 219.31000 221.40500 223.48800
 225.54800 227.63200 229.72900 231.83500 233.96400 236.13600 238.39200 240.76200
 243.38300 245.63400 247.63600 249.40100 250.81800 251.94100 252.76300 253.07900
 253.11600 252.89000 252.25000 251.19800 249.80400 247.96500 245.87400 243.70700
 241.49800 239.30200 237.12200 234.96100 232.82100 230.68800 228.71400 226.87100
 225.15400 223.62600 222.25600 221.02800 219.91000 218.87000 217.97400 217.11500
 216.35700 215.53700 214.63500 213.99900 213.44900 212.85855 212.01316 212.61654
 214.26826 216.08686 218.14273 220.53346 223.40855 226.78828 231.49734 235.90155
 239.42278 243.28576 247.23140 251.11907 254.80144 258.23331 261.38913 264.27520
 266.89312 269.26852 271.44504 273.08845 274.58484 275.98591 277.39845 278.65879
 279.75272 280.69038 281.56708 282.34086 283.01050 283.60295 284.14348 284.63317
 285.07358 285.46577 285.80838 286.24500
 381.81900 372.39900 361.20600 349.77600 337.62200 324.85300 311.81000 298.35300
 284.86000 271.32400 258.56100 246.30400 236.08700 226.79600 218.44800 211.29000
 205.52200 200.89400 197.38100 194.84800 193.01500 192.31500 192.25000 192.43100
 192.91200 193.53700 194.13600 194.71200 195.26200 195.83100 196.39300 196.97600
 197.60400 198.14900 198.58400 199.05700 199.69500 200.37800 201.05400 201.70800
 202.31300 202.85700 203.35500 203.86200 204.56900 205.29700 206.02600 206.98700
 208.19300 209.44100 210.96900 212.57600 214.46200 216.51300 218.63000 220.85300
 223.34100 225.96200 228.73900 231.69700 234.70600 237.70600 240.69200 243.65700
 246.73700 249.69900 252.52100 255.06300 257.29000 259.23300 260.63300 261.68000
 262.46100 262.79800 262.69100 262.22400 261.06900 259.52500 257.70700 255.50700
 253.00100 250.30200 247.39800 244.45200 241.65400 239.05400 236.73300 234.59000
 232.59500 230.72500 228.83400 226.82600 224.66600 222.38700 220.10400 217.71500
 215.45900 213.06600 210.54600 208.09300 205.35400 202.08130 196.05959 200.71215
 209.01611 216.90438 223.84126 229.78593 235.00632 240.20838 245.98943 250.68668
 254.32982 257.93487 261.55666 264.96801 268.15192 271.06452 273.76717 276.25691
 278.57680 280.74479 282.77456 284.60533 286.27232 287.81705 289.31715 290.65561
 291.81734 292.81312 293.70701 294.49387 295.17482 295.77730 296.32696 296.82492
 297.27278 297.67160 298.02000 298.46400
 399.33000 389.90700 379.81300 368.66800 357.52200 345.30100 333.07400 320.22700
 307.21600 293.84800 280.37600 267.29600 254.61000 242.98700 232.15100 221.97700
 212.67200 204.28600 197.66900 192.82100 189.48600 187.45200 186.81400 187.08900
 187.78100 189.05400 190.64800 192.54200 194.63000 196.75200 198.67100 200.15800
 201.53500 202.48700 202.97500 203.34000 203.53900 203.49700 203.38500 203.24700
 203.00500 202.78600 202.60300 202.43700 202.42600 202.88800 203.42000 203.95100
 204.89500 205.99200 207.30100 208.95800 210.73800 213.10000 215.56400 218.18000
 220.96600 223.91800 226.96100 230.09200 233.29300 236.55700 239.95500 243.53700
 246.84500 249.39000 251.54200 253.47400 255.19500 256.48400 257.43100 258.05900
 258.21200 258.04000 257.58200 256.64300 255.23900 253.50700 251.40800 249.05600
 246.57600 243.99400 241.38900 238.83000 236.34400 233.98600 231.96900 230.11800
 228.42300 226.89900 225.54800 224.29700 223.10500 221.96500 220.95800 220.11300
 219.49000 218.92000 218.32500 217.88100 217.42300 216.96366 216.35568 216.80261
 217.73415 218.28582 218.64258 219.10077 220.44626 222.53987 226.38451 230.35736
 233.59734 237.39164 241.29814 245.22796 248.98002 252.51130 255.78595 258.80109
 261.54781 264.05210 266.34239 268.04198 269.58951 271.01303 272.35754 273.55718
 274.59842 275.49092 276.28989 276.99307 277.60161 278.14001 278.63122 279.07623
 279.47646 279.83287 280.14422 280.54100
 399.73800 389.78500 379.66200 368.15100 356.64100 344.35000 331.79200 318.88800
 305.72600 292.49300 279.20900 266.73800 254.69600 244.21100 234.45700 225.43300
 217.56900 210.45100 204.30000 199.30600 195.45800 192.57600 191.02700 190.38600
 190.23900 190.53400 191.16600 191.92500 192.79500 193.76600 194.73200 195.31200
 195.80000 196.05200 196.11500 196.11500 196.03900 195.72300 195.34000 194.98900
 194.75100 194.79200 195.13300 195.59800 196.50600 198.13600 199.85800 201.56600
 204.17900 206.82300 209.89300 213.28400 216.82800 220.60500 224.38700 228.20900
 232.03200 235.82500 239.56000 243.25800 246.84500 250.20100 253.70900 257.46800
 261.53000 264.22100 266.60100 268.68100 270.32900 271.74100 272.83600 273.47400
 273.89800 274.00200 273.75700 273.28800 272.37100 271.10000 269.58900 267.77900
 265.81600 263.72100 261.39300 258.91600 256.29800 253.42300 250.33100 247.11400
 243.83700 240.52900 237.24900 233.99900 230.72800 227.51500 224.25400 220.95200
 217.62700 213.65600 210.12100 206.78900 204.01000 201.99491 199.07309 198.76551
 199.40006 200.48994 201.46112 202.31912 203.45100 204.96110 207.47502 210.85391
 213.70530 217.29629 220.99574 224.72316 228.28753 231.64854 234.68024 237.40893
 239.70644 241.60899 243.46854 245.67368 247.68154 249.52395 251.24767 252.78566
 254.12057 255.26479 256.23740 257.09036 257.82852 258.48160 259.07744 259.61723
 260.10271 260.53504 260.91270 261.39400
 399.73800 389.78500 379.66200 368.15100 356.64100 344.35000 331.79200 318.88800
 305.72600 292.49300 279.20900 266.73800 254.69600 244.21100 234.45700 225.43300
 217.56900 210.45100 204.30000 199.30600 195.45800 192.57600 191.02700 190.38600
 190.23900 190.53400 191.16600 191.92500 192.79500 193.76600 194.73200 195.31200
 195.80000 196.05200 196.11500 196.11500 196.03900 195.72300 195.34000 194.98900
 194.75100 194.79200 195.13300 195.59800 196.50600 198.13600 199.85800 201.56600
 204.17900 206.82300 209.89300 213.28400 216.82800 220.60500 224.38700 228.20900
 232.03200 235.82500 239.56000 243.25800 246.84500 250.20100 253.70900 257.46800
 261.53000 264.22100 266.60100 268.68100 270.32900 271.74100 272.83600 273.47400
 273.89800 274.00200 273.75700 273.28800 272.37100 271.10000 269.58900 267.77900
 265.81600 263.72100 261.39300 258.91600 256.29800 253.42300 250.33100 247.11400
 243.83700 240.52900 237.24900 233.99900 230.72800 227.51500 224.25400 220.95200
 217.62700 213.65600 210.12100 206.78900 204.01000 201.99491 199.07309 198.76551
 199.40006 200.48994 201.46112 202.31912 203.45100 204.96110 207.47502 210.85391
 213.70530 217.29629 220.99574 224.72316 228.28753 231.64854 234.68024 237.40893
 239.70644 241.60899 243.46854 245.67368 247.68154 249.52395 251.24767 252.78566
 254.12057 255.26479 256.23740 257.09036 257.82852 258.48160 259.07744 259.61723
 260.10271 260.53504 260.91270 261.39400
 399.33000 389.90700 379.81300 368.66800 357.52200 345.30100 333.07400 320.22700
 307.21600 293.84800 280.37600 267.29600 254.61000 242.98700 232.15100 221.97700
 212.67200 204.28600 197.66900 192.82100 189.48600 187.45200 186.81400 187.08900
 187.78100 189.05400 190.64800 192.54200 194.63000 196.75200 198.67100 200.15800
 201.53500 202.48700 202.97500 203.34000 203.53900 203.49700 203.38500 203.24700
 203.00500 202.78600 202.60300 202.43700 202.42600 202.88800 203.42000 203.95100
 204.89500 205.99200 207.30100 208.95800 210.73800 213.10000 215.56400 218.18000
 220.96600 223.91800 226.96100 230.09200 233.29300 236.55700 239.95500 243.53700
 246.84500 249.39000 251.54200 253.47400 255.19500 256.48400 257.43100 258.05900
 258.21200 258.04000 257.58200 256.64300 255.23900 253.50700 251.40800 249.05600
 246.57600 243.99400 241.38900 238.83000 236.34400 233.98600 231.96900 230.11800
 228.42300 226.89900 225.54800 224.29700 223.10500 221.96500 220.95800 220.11300
 219.49000 218.92000 218.32500 217.88100 217.42300 216.96366 216.35568 216.80261
 217.73415 218.28582 218.64258 219.10077 220.44626 222.53987 226.38451 230.35736
 233.59734 237.39164 241.29814 245.22796 248.98002 252.51130 255.78595 258.80109
 261.54781 264.05210 266.34239 268.04198 269.58951 271.01303 272.35754 273.55718
 274.59842 275.49092 276.28989 276.99307 277.60161 278.14001 278.63122 279.07623
 279.47646 279.83287 280.14422 280.54100
 381.81900 372.39900 361.20600 349.77600 337.62200 324.85300 311.81000 298.35300
 284.86000 271.32400 258.56100 246.30400 236.08700 226.79600 218.44800 211.29000
 205.52200 200.89400 197.38100 194.84800 193.01500 192.31500 192.25000 192.43100
 192.91200 193.53700 194.13600 194.71200 195.26200 195.83100 196.39300 196.97600
 197.60400 198.14900 198.58400 199.05700 199.69500 200.37800 201.05400 201.70800
 202.31300 202.85700 203.35500 203.86200 204.56900 205.29700 206.02600 206.98700
 208.19300 209.44100 210.96900 212.57600 214.46200 216.51300 218.63000 220.85300
 223.34100 225.96200 228.73900 231.69700 234.70600 237.70600 240.69200 243.65700
 246.73700 249.69900 252.52100 255.06300 257.29000 259.23300 260.63300 261.68000
 262.46100 262.79800 262.69100 262.22400 261.06900 259.52500 257.70700 255.50700
 253.00100 250.30200 247.39800 244.45200 241.65400 239.05400 236.73300 234.59000
 232.59500 230.72500 228.83400 226.82600 224.66600 222.38700 220.10400 217.71500
 215.45900 213.06600 210.54600 208.09300 205.35400 202.08130 196.05959 200.71215
 209.01611 216.90438 223.84126 229.78593 235.00632 240.20838 245.98943 250.68668
 254.32982 257.93487 261.55666 264.96801 268.15192 271.06452 273.76717 276.25691
 278.57680 280.74479 282.77456 284.60533 286.27232 287.81705 289.31715 290.65561
 291.81734 292.81312 293.70701 294.49387 295.17482 295.77730 296.32696 296.82492
 297.27278 297.67160 298.02000 298.46400
 366.78100 356.33827 345.77355 334.64282 323.04909 311.24636 299.11964 286.92591
 274.64118 262.54145 250.55373 239.85800 229.98327 221.09055 213.27582 206.28109
 200.11836 195.05964 191.64491 189.69018 188.73046 188.79773 189.63600 190.94727
 192.67555 194.77382 197.04009 199.40236 201.85064 204.33391 206.42518 208.27046
 209.89973 211.04800 211.28027 211.51155 211.45182 211.16009 210.79636 210.42964
 210.04991 209.76318 209.57446 209.44173 209.37300 209.70727 210.09655 210.48882
 211.28509 212.46637 213.71964 215.50591 217.43718 219.48346 221.58173 223.66800
 225.73127 227.81855 229.91882 232.02809 234.16037 236.33564 238.59491 240.96818
 243.59246 245.84673 247.85200 249.62027 251.04055 252.16682 252.99209 253.31137
 253.35164 253.12891 252.49218 251.44346 250.05273 248.21700 246.12927 243.96555
 241.75982 239.56709 237.39037 235.23264 233.09591 230.96618 228.99546 227.15573
 225.44200 223.91728 222.55055 221.32582 220.21109 219.17437 218.28164 217.42591
 216.67118 215.85446 214.95573 214.32300 213.77628 213.18269 211.79234 212.69090
 214.50865 216.35530 217.45045 217.77861 218.73972 222.86734 228.45766 233.25131
 237.02545 240.79568 244.54355 248.20320 251.68890 254.64845 257.22409 259.79263
 262.45425 264.97955 267.33774 269.42868 271.44760 273.40170 275.03696 276.62314
 278.27100 279.94217 281.47592 282.83868 284.02213 285.07175 286.03433 286.90900
 287.69995 288.41003 289.03763 289.87164
 366.78100 356.33822 345.77343 334.64265 323.04887 311.24608 299.11930 286.92552
 274.64073 262.54095 250.55316 239.85738 229.98260 221.08981 213.27503 206.28025
 200.11746 195.05868 191.64390 189.68911 188.72933 188.79655 189.63476 190.94598
 192.67419 194.77241 197.03863 199.40084 201.84906 204.33228 206.42349 208.26871
 209.89793 211.04614 211.27836 211.50958 211.44979 211.15801 210.79423 210.42744
 210.04766 209.76087 209.57209 209.43931 209.37052 209.70474 210.09396 210.48617
 211.28239 212.46361 213.71682 215.50304 217.43426 219.48047 221.57869 223.66490
 225.72812 227.81534 229.91555 232.02477 234.15699 236.33220 238.59142 240.96464
 243.58885 245.84307 247.84829 249.61650 251.03672 252.16294 252.98815 253.30737
 253.34758 253.12480 252.48802 251.43923 250.04845 248.21267 246.12488 243.96110
 241.75532 239.56253 237.38575 235.22797 233.09118 230.96140 228.99061 227.15083
 225.43705 223.91226 222.54548 221.32070 220.20591 219.16913 218.27635 217.42056
 216.66578 215.84900 214.95021 214.31743 213.77065 213.19247 211.83727 212.81560
 214.64403 216.46642 217.50603 217.89830 218.84317 222.88222 228.40199 233.15997
 236.91928 240.68948 244.44179 248.07980 251.48572 254.40532 257.03696 259.69159
 262.29950 264.77148 267.15582 269.29352 271.32983 273.27286 274.90610 276.50128
 278.15768 279.83722 281.37326 282.73639 283.92041 284.97192 285.93314 286.80658
 287.59949 288.31006 288.93765 289.77325
 366.78100 356.33809 345.77318 334.64227 323.04836 311.24545 299.11855 286.92464
 274.63973 262.53982 250.55191 239.85600 229.98109 221.08818 213.27327 206.27836
 200.11545 195.05654 191.64164 189.68673 188.72682 188.79391 189.63200 190.94309
 192.67118 194.76927 197.03536 199.39745 201.84554 204.32864 206.41973 208.26482
 209.89391 211.04200 211.27409 211.50518 211.44527 211.15336 210.78945 210.42254
 210.04263 209.75573 209.56682 209.43391 209.36500 209.69909 210.08818 210.48027
 211.27636 212.45745 213.71054 215.49663 217.42773 219.47382 221.57191 223.65800
 225.72109 227.80818 229.90827 232.01736 234.14945 236.32454 238.58363 240.95672
 243.58082 245.83491 247.84000 249.60809 251.02818 252.15427 252.97936 253.29845
 253.33854 253.11563 252.47872 251.42982 250.03891 248.20300 246.11509 243.95118
 241.74527 239.55236 237.37545 235.21754 233.08063 230.95072 228.97981 227.13991
 225.42600 223.90109 222.53418 221.30927 220.19436 219.15745 218.26454 217.40863
 216.65372 215.83681 214.93791 214.30500 213.75809 213.20050 211.89445 212.93362
 214.77113 216.55333 217.59450 218.01709 218.97382 222.88231 228.35153 233.07501
 236.81503 240.57971 244.33385 247.95282 251.28262 254.16522 256.85449 259.59253
 262.14328 264.55594 266.96060 269.14322 271.19876 273.13370 274.76138 276.36740
 278.04352 279.73459 281.27283 282.63681 283.82278 284.87341 285.83530 286.71100
 287.50269 288.21500 288.84430 289.68130
 366.78100 356.33791 345.77281 334.64172 323.04762 311.24453 299.11743 286.92334
 274.63824 262.53815 250.55005 239.85396 229.97886 221.08577 213.27067 206.27558
 200.11249 195.05339 191.63830 189.68320 188.72311 188.79001 189.62792 190.93882
 192.66673 194.76463 197.03054 199.39244 201.84035 204.32325 206.41416 208.25907
 209.88797 211.03588 211.26778 211.49869 211.43859 211.14650 210.78240 210.41531
 210.03521 209.74812 209.55902 209.42593 209.35683 209.69074 210.07964 210.47155
 211.26746 212.44836 213.70127 215.48717 217.41808 219.46398 221.56189 223.64779
 225.71070 227.79760 229.89751 232.00641 234.13832 236.31322 238.57213 240.94504
 243.56894 245.82285 247.82775 249.59566 251.01556 252.14147 252.96637 253.28528
 253.32518 253.10209 252.46499 251.41590 250.02480 248.18871 246.10062 243.93652
 241.73043 239.53733 237.36024 235.20214 233.06505 230.93495 228.96386 227.12376
 225.40967 223.88457 222.51748 221.29238 220.17729 219.14020 218.24710 217.39101
 216.63591 215.81882 214.91972 214.28663 213.73953 213.20798 211.96646 213.04242
 214.87010 216.62306 217.69237 218.13150 219.10800 222.87405 228.30893 232.99672
 236.71162 240.47205 244.22839 247.82919 251.08450 253.93059 256.67566 259.49619
 261.99319 264.34399 266.75949 268.98428 271.06155 272.99207 274.61688 276.22702
 277.91916 279.63275 281.17606 282.54178 283.72672 284.78088 285.74268 286.61807
 287.41364 288.12607 288.76135 289.59787
 366.78100 356.33771 345.77241 334.64112 323.04682 311.24353 299.11624 286.92194
 274.63665 262.53635 250.54806 239.85176 229.97647 221.08318 213.26788 206.27259
 200.10929 195.05000 191.63471 189.67941 188.71912 188.78582 189.62353 190.93424
 192.66194 194.75965 197.02535 199.38706 201.83476 204.31747 206.40818 208.25288
 209.88159 211.02929 211.26100 211.49171 211.43141 211.13912 210.77482 210.40753
 210.02724 209.73994 209.55065 209.41735 209.34806 209.68177 210.07047 210.46218
 211.25788 212.43859 213.69129 215.47700 217.40771 219.45341 221.55112 223.63682
 225.69953 227.78624 229.88594 231.99465 234.12635 236.30106 238.55977 240.93247
 243.55618 245.80988 247.81459 249.58229 251.00200 252.12771 252.95241 253.27112
 253.31082 253.08753 252.45024 251.40094 250.00965 248.17335 246.08506 243.92077
 241.71447 239.52118 237.34388 235.18559 233.04829 230.91800 228.94671 227.10641
 225.39212 223.86682 222.49953 221.27424 220.15894 219.12165 218.22835 217.37206
 216.61677 215.79947 214.90018 214.26688 213.71959 213.21588 212.03943 213.14435
 214.94281 216.67993 217.78749 218.24173 219.24791 222.87708 228.27867 232.91888
 236.60666 240.36226 244.12170 247.70140 250.88336 253.69855 256.50327 259.40237
 261.85379 264.15051 266.56934 268.83670 270.93738 272.86771 274.49738 276.11688
 277.82181 279.53409 281.07812 282.44519 283.63153 284.68506 285.64926 286.52557
 287.32047 288.03528 288.67313 289.50980
 366.78100 356.33750 345.77200 334.64049 323.04599 311.24249 299.11499 286.92049
 274.63498 262.53448 250.54598 239.84948 229.97397 221.08047 213.26497 206.26947
 200.10597 195.04646 191.63096 189.67546 188.71496 188.78146 189.61895 190.92945
 192.65695 194.75445 197.01995 199.38144 201.82894 204.31144 206.40194 208.24644
 209.87493 211.02243 211.25393 211.48443 211.42392 211.13142 210.76692 210.39942
 210.01892 209.73141 209.54191 209.40841 209.33891 209.67241 210.06090 210.45240
 211.24790 212.42840 213.68090 215.46639 217.39689 219.44239 221.53989 223.62539
 225.68788 227.77438 229.87388 231.98238 234.11387 236.28837 238.54687 240.91937
 243.54287 245.79636 247.80086 249.56836 250.98786 252.11336 252.93785 253.25635
 253.29585 253.07235 252.43485 251.38534 249.99384 248.15734 246.06884 243.90434
 241.69783 239.50433 237.32683 235.16833 233.03082 230.90032 228.92882 227.08832
 225.37382 223.84831 222.48081 221.25531 220.13981 219.10231 218.20880 217.35230
 216.59680 215.77930 214.87980 214.24629 213.69879 213.22437 212.11508 213.24852
 215.00552 216.73589 217.89027 218.36214 219.40222 222.89061 228.25758 232.84604
 236.50568 240.25781 244.01668 247.57123 250.68411 253.47050 256.32993 259.30368
 261.72202 263.96091 266.38733 268.68784 270.81476 272.75150 274.38818 276.01904
 277.73340 279.43393 280.97916 282.34509 283.53223 284.58578 285.55035 286.42670
 287.22202 287.93594 288.57272 289.41449
 366.78100 356.33710 345.77121 334.63931 323.04441 311.24051 299.11262 286.91772
 274.63182 262.53092 250.54203 239.84513 229.96923 221.07533 213.25944 206.26354
 200.09964 195.03974 191.62385 189.66795 188.70705 188.77315 189.61026 190.92036
 192.64746 194.74456 197.00967 199.37077 201.81787 204.29997 206.39008 208.23418
 209.86228 211.00938 211.24049 211.47059 211.40969 211.11679 210.75190 210.38400
 210.00310 209.71520 209.52531 209.39141 209.32151 209.65462 210.04272 210.43382
 211.22892 212.40903 213.66113 215.44623 217.37633 219.42144 221.51854 223.60364
 225.66574 227.75185 229.85095 231.95905 234.09015 236.26426 238.52236 240.89446
 243.51756 245.77067 247.77477 249.54187 250.96097 252.08608 252.91018 253.22828
 253.26738 253.04349 252.40559 251.35569 249.96379 248.12690 246.03800 243.87310
 241.66620 239.47231 237.29441 235.13551 232.99762 230.86672 228.89482 227.05392
 225.33903 223.81313 222.44523 221.21933 220.10344 219.06554 218.17164 217.31474
 216.55885 215.74095 214.84105 214.20715 213.65926 213.22244 212.19606 213.36548
 215.07684 216.79367 217.98322 218.47919 219.57622 222.91476 228.24033 232.77899
 236.40977 240.15880 243.91008 247.42830 250.47531 253.24062 256.15155 259.18100
 261.56454 263.76031 266.18710 268.51727 270.67090 272.61307 274.26962 275.91635
 277.63766 279.33826 280.88055 282.24557 283.43213 284.48730 285.44928 286.32681
 287.12088 287.83466 288.46817 289.30884
 366.78100 356.33656 345.77012 334.63768 323.04224 311.23780 299.10936 286.91392
 274.62747 262.52603 250.53659 239.83915 229.96271 221.06827 213.25183 206.25539
 200.09095 195.03051 191.61407 189.65763 188.69619 188.76175 189.59831 190.90786
 192.63442 194.73098 196.99554 199.35610 201.80266 204.28422 206.37378 208.21734
 209.84490 210.99146 211.22202 211.45158 211.39014 211.09670 210.73126 210.36281
 209.98137 209.69293 209.50249 209.36805 209.29761 209.63017 210.01773 210.40829
 211.20285 212.38241 213.63397 215.41853 217.34809 219.39265 221.48920 223.57376
 225.63532 227.72088 229.81944 231.92700 234.05756 236.23112 238.48868 240.86024
 243.48280 245.73536 247.73892 249.50548 250.92404 252.04859 252.87215 253.18971
 253.22827 253.00383 252.36539 251.31495 249.92251 248.08507 245.99563 243.83019
 241.62275 239.42831 237.24987 235.09043 232.95199 230.82054 228.84810 227.00666
 225.29122 223.76478 222.39634 221.16990 220.05346 219.01502 218.12058 217.26314
 216.50670 215.68826 214.78782 214.15338 213.60493 213.21274 212.28671 213.48663
 215.14369 216.84920 218.07431 218.58287 219.75044 222.92694 228.22058 232.71312
 236.31709 240.06438 243.80367 247.28120 250.26302 253.00542 255.95992 259.03787
 261.40390 263.56723 265.98581 268.34119 270.52374 272.47958 274.15497 275.81522
 277.53909 279.23663 280.77649 282.14206 283.32721 284.38068 285.34512 286.22040
 287.01413 287.72736 288.35754 289.20142
 366.78100 356.33598 345.76897 334.63595 323.03993 311.23492 299.10590 286.90988
 274.62287 262.52085 250.53083 239.83282 229.95580 221.06079 213.24377 206.24675
 200.08174 195.02072 191.60370 189.64669 188.68467 188.74965 189.58564 190.89462
 192.62060 194.71659 196.98057 199.34055 201.78654 204.26752 206.35650 208.19949
 209.82647 210.97245 211.20244 211.43142 211.36941 211.07539 210.70937 210.34036
 209.95834 209.66932 209.47831 209.34329 209.27227 209.60426 209.99124 210.38122
 211.17521 212.35419 213.60517 215.38916 217.31814 219.36212 221.45811 223.54209
 225.60307 227.68806 229.78604 231.89303 234.02301 236.19599 238.45298 240.82396
 243.44594 245.69793 247.70091 249.46689 250.88488 252.00886 252.83184 253.14883
 253.18681 252.96179 252.32278 251.27176 249.87874 248.04073 245.95071 243.78469
 241.57668 239.38166 237.20265 235.04263 232.90361 230.77160 228.79858 226.95656
 225.24055 223.71353 222.34451 221.11750 220.00048 218.96146 218.06645 217.20843
 216.45141 215.63240 214.73138 214.09636 213.54735 213.20244 212.38757 213.60878
 215.19194 216.89479 218.16969 218.68428 219.92126 222.93272 228.19490 232.65128
 236.23413 239.98071 243.70490 247.13954 250.05717 252.77367 255.76057 258.88446
 261.24448 263.38275 265.79132 268.16797 270.38034 272.35742 274.04709 275.71109
 277.43030 279.14941 280.69250 282.05847 283.24677 284.30133 285.26877 286.15152
 286.95584 287.67804 288.31207 289.15585
 366.78100 356.33537 345.76774 334.63411 323.03747 311.23184 299.10221 286.90558
 274.61795 262.51532 250.52468 239.82605 229.94842 221.05279 213.23516 206.23753
 200.07189 195.01026 191.59263 189.63500 188.67237 188.73674 189.57210 190.88047
 192.60584 194.70121 196.96458 199.32395 201.76932 204.24968 206.33805 208.18042
 209.80679 210.95216 211.18153 211.40989 211.34726 211.05263 210.68600 210.31637
 209.93374 209.64410 209.45247 209.31684 209.24521 209.57658 209.96295 210.35231
 211.14568 212.32405 213.57442 215.35779 217.28616 219.32953 221.42489 223.50826
 225.56863 227.65300 229.75037 231.85674 233.98610 236.15847 238.41484 240.78521
 243.40658 245.65795 247.66031 249.42568 250.84305 251.96642 252.78879 253.10516
 253.14252 252.91689 252.27726 251.22563 249.83200 247.99337 245.90274 243.73610
 241.52747 239.33184 237.15221 234.99158 232.85195 230.71931 228.74568 226.90305
 225.18642 223.65879 222.28916 221.06152 219.94389 218.90426 218.00863 217.15000
 216.39237 215.57273 214.67110 214.03547 213.48584 213.19086 212.49391 213.73439
 215.23486 216.93053 218.26642 218.77713 220.11795 222.92645 228.17351 232.59601
 236.15414 239.90204 243.60931 246.99837 249.85562 252.54967 255.56020 258.71606
 261.07489 263.20068 265.60385 268.00238 270.24753 272.25272 273.96109 275.62720
 277.33084 279.04919 280.59155 281.95859 283.14642 284.20276 285.17038 286.05441
 286.86212 287.58374 288.21927 289.06680
 366.78100 356.33481 345.76662 334.63243 323.03524 311.22905 299.09886 286.90167
 274.61347 262.51028 250.51909 239.81990 229.94171 221.04552 213.22733 206.22914
 200.06295 195.00076 191.58257 189.62438 188.66119 188.72500 189.55980 190.86761
 192.59242 194.68723 196.95004 199.30885 201.75366 204.23347 206.32128 208.16309
 209.78890 210.93371 211.16252 211.39033 211.32714 211.03194 210.66475 210.29456
 209.91137 209.62118 209.42899 209.29280 209.22061 209.55142 209.93723 210.32604
 211.11885 212.29666 213.54647 215.32928 217.25708 219.29989 221.39470 223.47751
 225.53732 227.62113 229.71794 231.82375 233.95256 236.12437 238.38018 240.74999
 243.37080 245.62161 247.62341 249.38822 250.80503 251.92784 252.74965 253.06546
 253.10227 252.87608 252.23589 251.18370 249.78951 247.95032 245.85913 243.69194
 241.48275 239.28655 237.10636 234.94517 232.80498 230.67179 228.69760 226.85441
 225.13722 223.60903 222.23884 221.01065 219.89246 218.85227 217.95608 217.09689
 216.33869 215.51850 214.61631 213.98012 213.42993 213.18279 212.59888 213.86458
 215.27257 216.96794 218.35898 218.88194 220.29225 222.94992 228.13908 232.52986
 236.07224 239.83102 243.52255 246.85973 249.65236 252.32280 255.35101 258.52850
 260.89658 263.02768 265.42789 267.84460 270.12128 272.15549 273.88113 275.54248
 277.23190 278.95712 280.50104 281.86700 283.05618 284.11319 285.08099 285.96545
 286.77417 287.49908 288.13635 288.98083
 366.78100 356.33471 345.76642 334.63213 323.03484 311.22855 299.09827 286.90098
 274.61269 262.50940 250.51811 239.81882 229.94053 221.04424 213.22595 206.22766
 200.06137 194.99909 191.58080 189.62251 188.65922 188.72293 189.55764 190.86535
 192.59006 194.68477 196.94748 199.30619 201.75091 204.23062 206.31833 208.16004
 209.78575 210.93046 211.15917 211.38688 211.32359 211.02830 210.66101 210.29072
 209.90744 209.61715 209.42486 209.28857 209.21628 209.54699 209.93270 210.32141
 211.11412 212.29183 213.54154 215.32426 217.25197 219.29468 221.38939 223.47210
 225.53181 227.61552 229.71223 231.81794 233.94665 236.11836 238.37408 240.74379
 243.36450 245.61521 247.61692 249.38163 250.79834 251.92105 252.74276 253.05847
 253.09518 252.86890 252.22861 251.17632 249.78203 247.94274 245.85145 243.68416
 241.47487 239.27858 237.09829 234.93700 232.79672 230.66343 228.68914 226.84585
 225.12856 223.60027 222.22998 221.00169 219.88340 218.84311 217.94682 217.08754
 216.32925 215.50896 214.60667 213.97038 213.42009 213.19824 212.67409 214.02518
 215.31767 216.96513 218.46445 218.96848 220.53494 222.91582 228.11931 232.49364
 236.00226 239.76361 243.43092 246.70494 249.43239 252.08650 255.13347 258.32901
 260.72339 262.87405 265.27060 267.70023 270.00497 272.06921 273.80884 275.45981
 277.13913 278.86823 280.41385 281.78159 282.96906 284.02618 284.99521 285.88168
 286.69022 287.41663 288.05438 288.90262
 366.78100 356.33397 345.76494 334.62991 323.03189 311.22486 299.09383 286.89580
 274.60677 262.50274 250.51071 239.81069 229.93166 221.03463 213.21560 206.21657
 200.04954 194.98651 191.56749 189.60846 188.64443 188.70740 189.54137 190.84834
 192.57231 194.66629 196.92826 199.28623 201.73020 204.20917 206.29614 208.13712
 209.76209 210.90606 211.13403 211.36100 211.29697 211.00094 210.63292 210.26189
 209.87786 209.58683 209.39380 209.25677 209.18374 209.51372 209.89869 210.28666
 211.07863 212.25560 213.50457 215.28654 217.21352 219.25549 221.34946 223.43143
 225.49040 227.57337 229.66934 231.77432 233.90229 236.07326 238.32823 240.69720
 243.31717 245.56714 247.56812 249.33209 250.74806 251.87003 252.69100 253.00597
 253.04194 252.81492 252.17389 251.12086 249.72583 247.88580 245.79377 243.62575
 241.41572 239.21869 237.03766 234.87563 232.73460 230.60057 228.62555 226.78152
 225.06349 223.53446 222.16343 220.93440 219.81537 218.77435 217.87732 217.01729
 216.25826 215.43723 214.53420 213.89717 213.34615 213.18303 212.79765 214.12363
 215.44319 216.96001 218.41501 219.12680 220.70404 223.07521 228.09668 232.41487
 235.90436 239.66789 243.31145 246.52791 249.20311 251.85194 254.91660 258.12851
 260.56271 262.73828 265.12930 267.56665 269.89853 271.99591 273.75192 275.39227
 277.05258 278.77988 280.32568 281.69229 282.88150 283.93851 284.90826 285.79520
 286.60757 287.33487 287.97211 288.81873
 366.78100 356.33292 345.76284 334.62676 323.02768 311.21960 299.08753 286.88845
 274.59837 262.49329 250.50021 239.79913 229.91905 221.02097 213.20089 206.20081
 200.03273 194.96866 191.54858 189.58850 188.62342 188.68534 189.51826 190.82418
 192.54710 194.64002 196.90094 199.25786 201.70078 204.17871 206.26463 208.10455
 209.72847 210.87139 211.09831 211.32423 211.25915 210.96207 210.59299 210.22091
 209.83584 209.54376 209.34968 209.21160 209.13752 209.46644 209.85036 210.23728
 211.02820 212.20412 213.45204 215.23297 217.15889 219.19981 221.29273 223.37365
 225.43157 227.51349 229.60841 231.71233 233.83925 236.00917 238.26310 240.63102
 243.24994 245.49886 247.49878 249.26170 250.67662 251.79754 252.61746 252.93138
 252.96630 252.73822 252.09615 251.04207 249.64599 247.80491 245.71183 243.54275
 241.33167 239.13359 236.95151 234.78843 232.64635 230.51128 228.53520 226.69012
 224.97104 223.44096 222.06888 220.83880 219.71872 218.67664 217.77856 216.91748
 216.15741 215.33533 214.43125 213.79317 213.24109 213.15189 212.94115 214.23973
 215.50861 216.96825 218.42830 219.29716 220.79892 223.26839 228.05544 232.30670
 235.79288 239.56517 243.18834 246.35178 248.97995 251.62386 254.70221 257.92456
 260.40753 262.61505 265.00089 267.44415 269.80136 271.93280 273.70691 275.34198
 276.97232 278.69504 280.24173 281.60876 282.79758 283.85449 284.82535 285.71292
 286.52548 287.25659 287.89377 288.74121
 366.78100 356.33211 345.76123 334.62434 323.02446 311.21557 299.08268 286.88280
 274.59191 262.48603 250.49214 239.79025 229.90937 221.01048 213.18960 206.18871
 200.01982 194.95494 191.53405 189.57317 188.60728 188.66839 189.50051 190.80562
 192.52774 194.61985 196.87996 199.23608 201.67819 204.15531 206.24042 208.07953
 209.70265 210.84476 211.07088 211.29599 211.23010 210.93222 210.56233 210.18945
 209.80356 209.51067 209.31579 209.17690 209.10202 209.43013 209.81324 210.19936
 210.98947 212.16459 213.41170 215.19181 217.11693 219.15704 221.24916 223.32927
 225.38638 227.46750 229.56161 231.66473 233.79084 235.95995 238.21307 240.58018
 243.19830 245.44641 247.44552 249.20764 250.62175 251.74187 252.56098 252.87409
 252.90821 252.67932 252.03644 250.98155 249.58466 247.74278 245.64889 243.47901
 241.26712 239.06823 236.88535 234.72146 232.57858 230.44269 228.46580 226.61992
 224.90003 223.36915 221.99626 220.76537 219.64449 218.60160 217.70272 216.84083
 216.07994 215.25706 214.35217 213.71329 213.16040 213.13211 213.06529 214.38927
 215.55273 216.98096 218.48271 219.45436 220.89597 223.43698 228.00674 232.19295
 235.68373 239.46709 243.06400 246.16676 248.74646 251.38861 254.48283 257.71326
 260.25153 262.49985 264.88629 267.33450 269.71362 271.88016 273.67694 275.30734
 276.90692 278.61636 280.16116 281.52841 282.71710 283.77435 284.74573 285.63278
 286.44699 287.17734 287.81689 288.66437
 366.78100 356.33137 345.75974 334.62211 323.02148 311.21185 299.07822 286.87759
 274.58596 262.47933 250.48470 239.78207 229.90044 221.00081 213.17918 206.17755
 200.00792 194.94229 191.52066 189.55903 188.59240 188.65277 189.48414 190.78851
 192.50988 194.60125 196.86062 199.21599 201.65736 204.13373 206.21810 208.05647
 209.67884 210.82021 211.04558 211.26995 211.20332 210.90469 210.53406 210.16043
 209.77380 209.48017 209.28454 209.14491 209.06928 209.39665 209.77902 210.16439
 210.95376 212.12813 213.37450 215.15387 217.07824 219.11761 221.20898 223.28835
 225.34472 227.42509 229.51846 231.62083 233.74620 235.91457 238.16694 240.53331
 243.15068 245.39805 247.39642 249.15779 250.57116 251.69053 252.50890 252.82127
 252.85464 252.62501 251.98138 250.92575 249.52812 247.68549 245.59086 243.42023
 241.20760 239.00797 236.82434 234.65971 232.51608 230.37945 228.40182 226.55519
 224.83456 223.30293 221.92930 220.69767 219.57604 218.53241 217.63278 216.77015
 216.00852 215.18489 214.27926 213.63963 213.08600 213.11517 213.18410 214.54039
 215.61441 216.99445 218.53709 219.60883 221.02943 223.57857 227.96138 232.08588
 235.58072 239.36612 242.92171 245.95651 248.49539 251.14627 254.26003 257.49677
 260.09399 262.39493 264.78375 267.23520 269.63293 271.83160 273.65475 275.29028
 276.85785 278.54797 280.09143 281.45795 282.64682 283.70401 284.67401 285.56482
 286.37964 287.11301 287.75009 288.59741
 366.78100 356.33073 345.75846 334.62019 323.01892 311.20865 299.07438 286.87311
 274.58084 262.47357 250.47830 239.77503 229.89276 220.99249 213.17022 206.16795
 199.99768 194.93141 191.50914 189.54687 188.57960 188.63933 189.47006 190.77379
 192.49452 194.58525 196.84398 199.19871 201.63944 204.11517 206.19890 208.03663
 209.65836 210.79909 211.02382 211.24755 211.18028 210.88101 210.50974 210.13547
 209.74820 209.45393 209.25765 209.11738 209.04111 209.36784 209.74957 210.13430
 210.92303 212.09676 213.34249 215.12122 217.04495 219.08368 221.17441 223.25314
 225.30887 227.38860 229.48133 231.58306 233.70779 235.87552 238.12725 240.49298
 243.10971 245.35644 247.35417 249.11490 250.52763 251.64636 252.46409 252.77582
 252.80855 252.57828 251.93401 250.87774 249.47947 247.63620 245.54093 243.36966
 241.15639 238.95612 236.77185 234.60658 232.46231 230.32504 228.34677 226.49950
 224.77823 223.24596 221.87169 220.63942 219.51715 218.47288 217.57261 216.70934
 215.94707 215.12280 214.21653 213.57626 213.02199 213.10344 213.29587 214.68631
 215.69550 217.01649 218.59560 219.76682 221.18430 223.69963 227.91869 231.99120
 235.47961 239.24937 242.74796 245.71407 248.22574 250.89690 254.03539 257.27856
 259.93869 262.28741 264.69373 267.14783 269.55862 271.78677 273.63705 275.28619
 276.85205 278.47839 280.01520 281.38263 282.57068 283.62848 284.60043 285.48926
 286.30618 287.03723 287.67719 288.52444
 366.78100 356.33040 345.75780 334.61921 323.01761 311.20701 299.07241 286.87081
 274.57822 262.47062 250.47502 239.77142 229.88882 220.98823 213.16563 206.16303
 199.99243 194.92583 191.50324 189.54064 188.57304 188.63244 189.46284 190.76625
 192.48665 194.57705 196.83545 199.18985 201.63026 204.10566 206.18906 208.02646
 209.64786 210.78826 211.01267 211.23607 211.16847 210.86887 210.49727 210.12268
 209.73508 209.44048 209.24388 209.10328 209.02669 209.35309 209.73449 210.11889
 210.90729 212.08070 213.32610 215.10450 217.02790 219.06630 221.15671 223.23511
 225.29051 227.36991 229.46231 231.56372 233.68812 235.85552 238.10692 240.47232
 243.08873 245.33513 247.33253 249.09293 250.50533 251.62374 252.44114 252.75254
 252.78494 252.55434 251.90975 250.85315 249.45455 247.61095 245.51535 243.34376
 241.13016 238.92956 236.74496 234.57936 232.43477 230.29717 228.31857 226.47097
 224.74937 223.21678 221.84218 220.60958 219.48698 218.44238 217.54178 216.67819
 215.91559 215.09099 214.18439 213.54379 212.98920 213.10828 213.38960 214.82591
 215.79659 217.06267 218.67963 219.93605 221.35410 223.81113 227.88116 231.90588
 235.37636 239.11339 242.54549 245.44711 247.94092 250.63914 253.80510 257.05695
 259.77841 262.18155 264.61044 267.06955 269.49173 271.74341 273.62088 275.28320
 276.85632 278.42673 279.95605 281.32428 282.51251 283.56888 284.53787 285.42651
 286.23724 286.96790 287.58887 288.42221
 366.78100 356.33089 345.75878 334.62067 323.01955 311.20944 299.07533 286.87422
 274.58211 262.47500 250.47989 239.77677 229.89466 220.99455 213.17244 206.17033
 200.00022 194.93411 191.51199 189.54988 188.58277 188.64266 189.47355 190.77744
 192.49833 194.58921 196.84810 199.20299 201.64388 204.11977 206.20366 208.04155
 209.66343 210.80432 211.02921 211.25310 211.18599 210.88688 210.51577 210.14165
 209.75454 209.46043 209.26432 209.12421 209.04810 209.37499 209.75687 210.14176
 210.93065 212.10454 213.35043 215.12932 217.05321 219.09209 221.18298 223.26187
 225.31776 227.39765 229.49054 231.59243 233.71731 235.88520 238.13709 240.50298
 243.11987 245.36676 247.36465 249.12553 250.53842 251.65731 252.47520 252.78709
 252.81998 252.58987 251.94575 250.88964 249.49153 247.64842 245.55331 243.38220
 241.16909 238.96897 236.78486 234.61975 232.47564 230.33853 228.36042 226.51331
 224.79219 223.26008 221.88597 220.65386 219.53175 218.48764 217.58753 216.72441
 215.96230 215.13819 214.23208 213.59197 213.03786 213.15826 213.44275 214.95813
 215.93742 217.13788 218.78140 220.10597 221.53047 223.91623 227.85309 231.82327
 235.26709 238.96178 242.32404 245.16505 247.64604 250.37605 253.57672 256.84402
 259.62329 262.09866 264.53714 267.00079 269.42914 271.69479 273.59229 275.26962
 276.87247 278.39603 279.92307 281.29175 282.48154 283.53687 284.50824 285.39597
 286.21216 286.93854 287.56293 288.39484
 366.78100 356.33132 345.75963 334.62195 323.02126 311.21158 299.07789 286.87721
 274.58552 262.47884 250.48415 239.78147 229.89978 221.00010 213.17842 206.17673
 200.00705 194.94136 191.51968 189.55799 188.59131 188.65162 189.48294 190.78725
 192.50857 194.59988 196.85920 199.21451 201.65583 204.13215 206.21646 208.05478
 209.67709 210.81841 211.04372 211.26804 211.20135 210.90267 210.53198 210.15830
 209.77161 209.47793 209.28225 209.14256 209.06688 209.39419 209.77651 210.16182
 210.95114 212.12545 213.37177 215.15108 217.07540 219.11471 221.20603 223.28534
 225.34166 227.42198 229.51529 231.61761 233.74292 235.91124 238.16355 240.52987
 243.14718 245.39450 247.39281 249.15413 250.56744 251.68676 252.50508 252.81739
 252.85071 252.62102 251.97734 250.92165 249.52397 247.68128 245.58660 243.41591
 241.20323 239.00354 236.81986 234.65517 232.51149 230.37481 228.39712 226.55044
 224.82975 223.29807 221.92438 220.69270 219.57101 218.52733 217.62764 216.76496
 216.00327 215.17959 214.27391 213.63422 213.08054 213.21089 213.51888 215.04626
 216.07806 217.21773 218.87711 220.25037 221.68411 223.99712 227.81233 231.73183
 235.14763 238.78752 242.06952 244.85371 247.33290 250.11246 253.36086 256.66141
 259.51877 262.05313 264.51566 266.97281 269.39102 271.65668 273.55145 275.20795
 276.80142 278.34796 279.89539 281.26254 282.44907 283.50311 284.46954 285.35645
 286.16644 286.88751 287.52026 288.35107
 366.78100 356.33072 345.75844 334.62016 323.01888 311.20860 299.07432 286.87304
 274.58075 262.47347 250.47819 239.77491 229.89263 220.99235 213.17007 206.16779
 199.99751 194.93123 191.50895 189.54667 188.57939 188.63911 189.46983 190.77355
 192.49426 194.58498 196.84370 199.19842 201.63914 204.11486 206.19858 208.03630
 209.65802 210.79874 211.02346 211.24718 211.17990 210.88062 210.50934 210.13505
 209.74777 209.45349 209.25721 209.11693 209.04065 209.36737 209.74909 210.13381
 210.92253 212.09625 213.34197 215.12069 217.04441 219.08313 221.17384 223.25256
 225.30828 227.38800 229.48072 231.58244 233.70716 235.87488 238.12660 240.49232
 243.10904 245.35576 247.35348 249.11420 250.52692 251.64564 252.46335 252.77507
 252.80779 252.57751 251.93323 250.87695 249.47867 247.63539 245.54011 243.36883
 241.15555 238.95527 236.77099 234.60571 232.46143 230.32414 228.34586 226.49858
 224.77730 223.24502 221.87074 220.63846 219.51618 218.47190 217.57162 216.70834
 215.94606 215.12178 214.21550 213.57522 213.02094 213.21507 213.68542 215.08459
 216.14317 217.23462 218.94969 220.40273 221.85988 224.07201 227.75504 231.66121
 235.03532 238.62564 241.81633 244.53610 247.00838 249.83305 253.14435 256.49463
 259.40799 262.00919 264.50027 266.96661 269.37146 271.61368 273.54510 275.24728
 276.83197 278.36603 279.86426 281.22943 282.41605 283.47086 284.43842 285.33524
 286.15927 286.91815 287.59390 288.45508
 366.78100 356.32989 345.75677 334.61766 323.01554 311.20443 299.06932 286.86720
 274.57409 262.46597 250.46986 239.76575 229.88263 220.98152 213.15840 206.15529
 199.98417 194.91706 191.49395 189.53083 188.56272 188.62160 189.45149 190.75438
 192.47426 194.56415 196.82203 199.17592 201.61581 204.09069 206.17358 208.01046
 209.63135 210.77124 210.99512 211.21801 211.14989 210.84978 210.47766 210.10255
 209.71444 209.41932 209.22221 209.08109 209.00398 209.32987 209.71075 210.09464
 210.88252 212.05541 213.30030 215.07818 217.00107 219.03895 221.12884 223.20673
 225.26161 227.34050 229.43238 231.53327 233.65715 235.82404 238.07493 240.43981
 243.05570 245.30158 247.29847 249.05836 250.47024 251.58813 252.40501 252.71590
 252.74779 252.51667 251.87156 250.81444 249.41533 247.57122 245.47510 243.30299
 241.08887 238.88776 236.70265 234.53653 232.39142 230.25330 228.27419 226.42607
 224.70396 223.17085 221.79573 220.56262 219.43950 218.39439 217.49328 216.62916
 215.86605 215.04093 214.13382 213.49271 212.93759 213.20914 213.88412 215.16031
 216.07225 217.15491 218.98822 220.60040 222.15761 224.27315 227.78104 231.67442
 234.94264 238.44681 241.54617 244.21481 246.74472 249.64055 252.96338 256.28055
 259.23944 261.91330 264.48749 266.97507 269.36612 271.57809 273.52582 275.24860
 276.85651 278.39914 279.94034 281.31116 282.50638 283.58243 284.58478 285.53305
 286.42358 287.21661 287.90939 288.79227
 366.78100 356.32934 345.75568 334.61601 323.01335 311.20169 299.06603 286.86337
 274.56970 262.46104 250.46438 239.75972 229.87606 220.97439 213.15073 206.14707
 199.97541 194.90775 191.48408 189.52042 188.55176 188.61010 189.43944 190.74177
 192.46111 194.55045 196.80779 199.16113 201.60046 204.07480 206.15714 207.99348
 209.61382 210.75315 210.97649 211.19883 211.13017 210.82950 210.45684 210.08118
 209.69252 209.39686 209.19919 209.05753 208.97987 209.30521 209.68555 210.06888
 210.85622 212.02856 213.27290 215.05024 216.97257 219.00991 221.09925 223.17659
 225.23093 227.30926 229.40060 231.50094 233.62428 235.79062 238.04095 240.40529
 243.02063 245.26597 247.26231 249.02164 250.43298 251.55032 252.36666 252.67700
 252.70833 252.47667 251.83101 250.77335 249.37369 247.52902 245.43236 243.25970
 241.04504 238.84338 236.65771 234.49105 232.34539 230.20673 228.22707 226.37840
 224.65574 223.12208 221.74642 220.51276 219.38909 218.34343 217.44177 216.57711
 215.81345 214.98778 214.08012 213.43846 212.88280 213.21297 214.04620 215.29323
 216.04340 217.11464 219.02794 220.77159 222.41011 224.49103 227.88281 231.69887
 234.86153 238.22270 241.21536 243.85065 246.45392 249.42683 252.77843 256.11078
 259.08490 261.86496 264.48911 266.97266 269.36005 271.56088 273.50220 275.21954
 276.82562 278.46646 280.02621 281.40845 282.62897 283.74976 284.86176 285.86914
 286.77515 287.58197 288.28680 289.18503
 366.78100 356.32955 345.75611 334.61666 323.01421 311.20277 299.06732 286.86487
 274.57142 262.46298 250.46653 239.76208 229.87864 220.97719 213.15374 206.15030
 199.97885 194.91140 191.48796 189.52451 188.55606 188.61462 189.44417 190.74672
 192.46627 194.55583 196.81338 199.16693 201.60649 204.08104 206.16359 208.00015
 209.62070 210.76025 210.98381 211.20636 211.13791 210.83747 210.46502 210.08957
 209.70112 209.40568 209.20823 209.06678 208.98934 209.31489 209.69544 210.07900
 210.86655 212.03910 213.28366 215.06121 216.98376 219.02132 221.11087 223.18842
 225.24297 227.32153 229.41308 231.51363 233.63719 235.80374 238.05429 240.41885
 243.03440 245.27995 247.27651 249.03606 250.44761 251.56517 252.38172 252.69227
 252.72382 252.49238 251.84693 250.78948 249.39004 247.54559 245.44914 243.27670
 241.06225 238.86080 236.67536 234.50891 232.36346 230.22502 228.24557 226.39712
 224.67467 223.14123 221.76578 220.53233 219.40889 218.36344 217.46199 216.59755
 215.83410 215.00865 214.10121 213.45976 212.90431 213.24756 214.13753 215.46284
 216.19237 217.22076 219.11761 220.92818 222.58484 224.62727 227.97215 231.68851
 234.76978 237.98022 240.85417 243.45662 246.12335 249.19167 252.60158 255.97615
 259.03665 261.88629 264.52383 267.01663 269.36707 271.52893 273.43625 275.15759
 276.77402 278.55008 280.11914 281.52615 282.81100 284.03564 285.15295 286.16516
 287.07553 287.88620 288.59439 289.49692
 366.78100 356.32985 345.75671 334.61756 323.01541 311.20427 299.06912 286.86697
 274.57382 262.46568 250.46953 239.76538 229.88224 220.98109 213.15794 206.15480
 199.98365 194.91650 191.49336 189.53021 188.56206 188.62092 189.45077 190.75362
 192.47347 194.56333 196.82118 199.17503 201.61489 204.08974 206.17259 208.00945
 209.63030 210.77015 210.99401 211.21686 211.14871 210.84857 210.47642 210.10127
 209.71312 209.41798 209.22083 209.07968 209.00254 209.32839 209.70924 210.09310
 210.88095 212.05380 213.29866 215.07651 216.99936 219.03721 221.12707 223.20492
 225.25977 227.33863 229.43048 231.53133 233.65519 235.82204 238.07289 240.43775
 243.05360 245.29945 247.29631 249.05616 250.46801 251.58586 252.40272 252.71357
 252.74542 252.51428 251.86913 250.81198 249.41284 247.56869 245.47254 243.30040
 241.08625 238.88510 236.69995 234.53381 232.38866 230.25051 228.27137 226.42322
 224.70107 223.16793 221.79278 220.55963 219.43649 218.39134 217.49019 216.62605
 215.86290 215.03775 214.13060 213.48946 212.93431 213.28291 214.21019 215.61464
 216.30779 217.33011 219.24762 221.09222 222.75203 224.75758 228.04659 231.67171
 234.67213 237.72942 240.46179 243.01015 245.74184 248.92635 252.43320 255.85414
 259.01047 261.89230 264.58859 267.09659 269.41754 271.53409 273.42151 275.14648
 276.86340 278.65353 280.24228 281.68213 283.06064 284.29718 285.42535 286.44742
 287.36664 288.18521 288.90027 289.81158
 366.78100 356.32919 345.75538 334.61558 323.01277 311.20096 299.06515 286.86234
 274.56853 262.45973 250.46292 239.75811 229.87430 220.97249 213.14869 206.14488
 199.97307 194.90526 191.48145 189.51764 188.54884 188.60703 189.43622 190.73841
 192.45760 194.54679 196.80399 199.15718 201.59637 204.07056 206.15275 207.98895
 209.60914 210.74833 210.97152 211.19371 211.12490 210.82410 210.45129 210.07548
 209.68667 209.39086 209.19306 209.05125 208.97344 209.29863 209.67882 210.06201
 210.84921 212.02140 213.26559 215.04278 216.96497 219.00217 221.09136 223.16855
 225.22274 227.30093 229.39212 231.49232 233.61551 235.78170 238.03189 240.39608
 243.01127 245.25647 247.25266 249.01185 250.42304 251.54023 252.35643 252.66662
 252.69781 252.46600 251.82019 250.76238 249.36258 247.51777 245.42096 243.24815
 241.03334 238.83154 236.64573 234.47892 232.33311 230.19430 228.21449 226.36569
 224.64288 223.10907 221.73326 220.49945 219.37564 218.32984 217.42803 216.56322
 215.79941 214.97360 214.06580 213.42399 212.86818 213.26839 214.30573 215.71335
 216.44550 217.50102 219.30008 221.09702 222.85437 224.88953 228.10385 231.68016
 234.58952 237.49065 240.06332 242.55461 245.35699 248.65305 252.27458 255.74724
 258.98383 261.89957 264.61102 267.15088 269.48788 271.59955 273.48666 275.21289
 276.97604 278.76691 280.34579 281.77011 283.14410 284.38971 285.52612 286.55563
 287.48154 288.30609 289.02640 289.94434
 366.78100 356.32762 345.75224 334.61086 323.00648 311.19309 299.05571 286.85133
 274.55595 262.44557 250.44719 239.74081 229.85543 220.95204 213.12666 206.12128
 199.94790 194.87852 191.45314 189.48776 188.51738 188.57399 189.40161 190.70223
 192.41985 194.50747 196.76309 199.11471 201.55233 204.02494 206.10556 207.94018
 209.55880 210.69642 210.91804 211.13866 211.06828 210.76589 210.39151 210.01413
 209.62375 209.32637 209.12699 208.98361 208.90423 209.22784 209.60646 209.98808
 210.77370 211.94432 213.18694 214.96256 216.88318 218.91879 221.00641 223.08203
 225.13465 227.21127 229.30089 231.39951 233.52113 235.68574 237.93436 240.29698
 242.91060 245.15422 247.14884 248.90646 250.31608 251.43169 252.24631 252.55493
 252.58455 252.35117 251.70379 250.64441 249.24303 247.39664 245.29826 243.12388
 240.90750 238.70412 236.51674 234.34836 232.20098 230.06059 228.07921 226.22883
 224.50445 222.96907 221.59169 220.35631 219.23093 218.18355 217.28016 216.41378
 215.64840 214.82102 213.91164 213.26826 212.71088 213.21048 214.45131 215.80682
 216.51549 217.64272 219.39630 221.15204 222.95529 225.00200 228.14284 231.69193
 234.50983 237.25970 239.69180 242.15193 245.01689 248.40376 252.10391 255.63289
 258.88092 261.83521 264.58356 267.16342 269.51382 271.61694 273.51666 275.29547
 277.03763 278.83499 280.41299 281.82867 283.13779 284.35629 285.46799 286.47510
 287.38089 288.18750 288.89215 289.79013
 366.78100 356.32670 345.75040 334.60810 323.00280 311.18850 299.05020 286.84490
 274.54860 262.43730 250.43800 239.73070 229.84440 220.94010 213.11380 206.10750
 199.93320 194.86290 191.43660 189.47030 188.49900 188.55470 189.38140 190.68110
 192.39780 194.48450 196.73920 199.08990 201.52660 203.99830 206.07800 207.91170
 209.52940 210.66610 210.88680 211.10650 211.03520 210.73190 210.35660 209.97830
 209.58700 209.28870 209.08840 208.94410 208.86380 209.18650 209.56420 209.94490
 210.72960 211.89930 213.14100 214.91570 216.83540 218.87010 220.95680 223.03150
 225.08320 227.15890 229.24760 231.34530 233.46600 235.62970 237.87740 240.23910
 242.85180 245.09450 247.08820 248.84490 250.25360 251.36830 252.18200 252.48970
 252.51840 252.28410 251.63580 250.57550 249.17320 247.32590 245.22660 243.05130
 240.83400 238.62970 236.44140 234.27210 232.12380 229.98250 228.00020 226.14890
 224.42360 222.88730 221.50900 220.27270 219.14640 218.09810 217.19380 216.32650
 215.56020 214.73190 213.82160 213.17730 212.61900 213.18637 214.58621 215.95100
 216.64574 217.76653 219.51932 221.29552 223.08467 225.09090 228.21242 231.69504
 234.41440 236.99557 239.29671 241.72099 244.63728 248.13281 251.91306 255.51768
 258.79980 261.78613 264.58524 267.18451 269.50278 271.54257 273.41223 275.18130
 277.15982 278.97165 280.56430 282.01108 283.38654 284.60345 285.71375 286.71954
 287.62418 288.42975 289.13348 290.03030
 366.78100 356.32752 345.75204 334.61057 323.00609 311.19261 299.05513 286.85065
 274.55517 262.44470 250.44622 239.73974 229.85426 220.95078 213.12530 206.11983
 199.94635 194.87687 191.45139 189.48591 188.51543 188.57196 189.39948 190.70000
 192.41752 194.50504 196.76056 199.11209 201.54961 204.02213 206.10265 207.93717
 209.55569 210.69322 210.91474 211.13526 211.06478 210.76230 210.38783 210.01035
 209.61987 209.32239 209.12291 208.97943 208.89996 209.22348 209.60200 209.98352
 210.76904 211.93956 213.18209 214.95761 216.87813 218.91365 221.00117 223.07669
 225.12922 227.20574 229.29526 231.39378 233.51530 235.67982 237.92835 240.29087
 242.90439 245.14791 247.14243 248.89996 250.30948 251.42500 252.23952 252.54804
 252.57756 252.34409 251.69661 250.63713 249.23565 247.38917 245.29069 243.11622
 240.89974 238.69626 236.50878 234.34030 232.19282 230.05235 228.07087 226.22039
 224.49591 222.96043 221.58295 220.34748 219.22200 218.17452 217.27104 216.40456
 215.63908 214.81161 213.90213 213.25865 212.70117 213.25249 214.64108 216.03961
 216.83659 218.07266 219.79347 221.48630 223.19507 225.12340 228.29836 231.65260
 234.30081 236.71040 238.85455 241.19130 244.16722 247.82858 251.73962 255.35626
 258.66867 261.78824 264.61984 267.22318 269.51160 271.50488 273.33365 275.17538
 277.24493 279.07938 280.74957 282.39053 283.81067 285.06711 286.21341 287.25189
 288.18588 289.01761 289.74420 290.67014
 366.78100 356.32846 345.75392 334.61338 323.00984 311.19730 299.06076 286.85722
 274.56268 262.45315 250.45561 239.75007 229.86553 220.96299 213.13845 206.13391
 199.96137 194.89283 191.46829 189.50375 188.53421 188.59167 189.42013 190.72159
 192.44005 194.52851 196.78498 199.13744 201.57590 204.04936 206.13082 207.96628
 209.58574 210.72420 210.94666 211.16812 211.09858 210.79704 210.42350 210.04696
 209.65742 209.36088 209.16234 209.01981 208.94127 209.26573 209.64519 210.02765
 210.81411 211.98557 213.22903 215.00549 216.92695 218.96341 221.05187 223.12833
 225.18179 227.25925 229.34971 231.44917 233.57164 235.73710 237.98656 240.35002
 242.96448 245.20894 247.20440 248.96286 250.37332 251.48978 252.30524 252.61470
 252.64516 252.41262 251.76608 250.70754 249.30700 247.46147 245.36393 243.19039
 240.97485 238.77231 236.58577 234.41823 232.27169 230.13215 228.15161 226.30207
 224.57853 223.04399 221.66745 220.43291 219.30837 218.26184 217.35930 216.49376
 215.72922 214.90268 213.99414 213.35160 212.79506 213.31346 214.68237 216.21828
 216.93425 218.29694 220.02258 221.66827 223.31363 225.22491 228.38130 231.58369
 234.18230 236.42343 238.36890 240.63354 243.76758 247.52507 251.51518 255.17816
 258.48505 261.64496 264.55753 267.21326 269.53619 271.54114 273.36151 275.29227
 277.40024 279.26840 281.05670 282.70633 284.13391 285.39697 286.54932 287.59326
 288.53220 289.36829 290.09869 291.02954
 366.78100 356.32809 345.75317 334.61226 323.00835 311.19543 299.05852 286.85461
 274.55969 262.44978 250.45187 239.74595 229.86104 220.95813 213.13321 206.12830
 199.95539 194.88647 191.46156 189.49665 188.52674 188.58382 189.41191 190.71300
 192.43108 194.51917 196.77526 199.12734 201.56543 204.03852 206.11960 207.95469
 209.57378 210.71186 210.93395 211.15504 211.08512 210.78321 210.40930 210.03238
 209.64247 209.34556 209.14664 209.00373 208.92482 209.24890 209.62799 210.01008
 210.79616 211.96725 213.21034 214.98642 216.90751 218.94360 221.03168 223.10777
 225.16086 227.23794 229.32803 231.42712 233.54921 235.71429 237.96338 240.32647
 242.94055 245.18464 247.17973 248.93781 250.34790 251.46399 252.27907 252.58816
 252.61825 252.38533 251.73842 250.67951 249.27859 247.43268 245.33477 243.16085
 240.94494 238.74203 236.55511 234.38720 232.24029 230.10037 228.11946 226.26955
 224.54563 223.01072 221.63381 220.39889 219.27398 218.22707 217.32415 216.45824
 215.69333 214.86641 213.95750 213.31459 212.75768 213.30157 214.74530 216.41991
 217.03366 218.33871 220.05359 221.71826 223.34505 225.39638 228.43239 231.59921
 234.11285 236.23222 238.01884 240.16916 243.35141 247.26497 251.29373 254.98416
 258.32452 261.49661 264.48325 267.20456 269.57306 271.59775 273.40698 275.43777
 277.54727 279.40747 281.11536 282.71948 284.10773 285.33597 286.45657 287.47174
 288.38477 289.19785 289.90811 290.81326
 366.78100 356.32674 345.75048 334.60822 323.00296 311.18870 299.05044 286.84517
 274.54891 262.43765 250.43839 239.73113 229.84487 220.94061 213.11435 206.10809
 199.93383 194.86357 191.43731 189.47105 188.49978 188.55552 189.38226 190.68200
 192.39874 194.48548 196.74022 199.09096 201.52770 203.99944 206.07918 207.91292
 209.53066 210.66740 210.88813 211.10787 211.03661 210.73335 210.35809 209.97983
 209.58857 209.29031 209.09005 208.94579 208.86553 209.18827 209.56601 209.94674
 210.73148 211.90122 213.14296 214.91770 216.83744 218.87218 220.95892 223.03366
 225.08540 227.16114 229.24988 231.34762 233.46835 235.63209 237.87983 240.24157
 242.85431 245.09705 247.09079 248.84753 250.25627 251.37101 252.18475 252.49249
 252.52123 252.28697 251.63870 250.57844 249.17618 247.32892 245.22966 243.05440
 240.83714 238.63288 236.44462 234.27536 232.12710 229.98584 228.00358 226.15231
 224.42705 222.89079 221.51253 220.27627 219.15001 218.10175 217.19749 216.33023
 215.56397 214.73571 213.82545 213.18119 212.62292 213.23752 214.78442 216.59720
 217.01208 218.17079 220.05513 221.72751 223.37219 225.50385 228.60988 231.59145
 234.01591 236.05090 237.80489 239.99686 243.18672 247.14719 251.20222 254.95285
 258.33783 261.49881 264.48035 267.17038 269.50955 271.56927 273.52356 275.52780
 277.57617 279.38663 280.96619 282.37466 283.64749 284.84579 285.93909 286.92953
 287.82031 288.61356 289.30655 290.18964
 366.78100 356.32503 345.74705 334.60308 322.99611 311.18014 299.04016 286.83319
 274.53522 262.42225 250.42127 239.71230 229.82433 220.91836 213.09038 206.08241
 199.90644 194.83447 191.40649 189.43852 188.46555 188.51957 189.34460 190.64263
 192.35766 194.44268 196.69571 199.04474 201.47977 203.94979 206.02782 207.85985
 209.47588 210.61090 210.82993 211.04796 210.97499 210.67001 210.29304 209.91307
 209.52009 209.22012 209.01815 208.87218 208.79020 209.11123 209.48726 209.86629
 210.64931 211.81734 213.05737 214.83040 216.74842 218.78145 220.86648 222.93951
 224.98953 227.06356 229.15059 231.24661 233.36564 235.52767 237.77370 240.13372
 242.74475 244.98578 246.97781 248.73283 250.13986 251.25289 252.06492 252.37094
 252.39797 252.16200 251.51202 250.45005 249.04608 247.19711 245.09613 242.91916
 240.70019 238.49422 236.30424 234.13327 231.98330 229.84033 227.85635 226.00338
 224.27641 222.73844 221.35846 220.12049 218.99252 217.94254 217.03657 216.16760
 215.39963 214.56965 213.65768 213.01171 212.45174 213.16013 214.84816 216.73195
 217.20305 218.07779 220.18649 221.93846 223.46353 225.47495 228.74344 231.43643
 233.86327 235.75629 237.40709 239.56734 242.84982 246.95906 251.11444 254.92134
 258.36572 261.54138 264.51654 267.19147 269.52484 271.60684 273.59579 275.53412
 277.40039 279.16248 280.72324 282.10153 283.30612 284.37030 285.32526 286.19092
 286.99045 287.73013 288.37631 289.19977
 366.78100 356.32336 345.74372 334.59809 322.98945 311.17181 299.03017 286.82153
 274.52189 262.40726 250.40462 239.69398 229.80434 220.89670 213.06706 206.05743
 199.87979 194.80615 191.37651 189.40687 188.43223 188.48460 189.30796 190.60432
 192.31768 194.40104 196.65240 198.99977 201.43313 203.90149 205.97785 207.80821
 209.42257 210.55594 210.77330 210.98966 210.91502 210.60838 210.22975 209.84811
 209.45347 209.15183 208.94819 208.80055 208.71692 209.03628 209.41064 209.78800
 210.56936 211.73572 212.97409 214.74545 216.66181 218.69317 220.77653 222.84789
 224.89626 226.96862 229.05398 231.14834 233.26570 235.42606 237.67043 240.02879
 242.63815 244.87751 246.86787 248.62123 250.02660 251.13796 251.94832 252.25268
 252.27804 252.04041 251.38877 250.32513 248.91949 247.06885 244.96621 242.78758
 240.56694 238.35930 236.16766 233.99502 231.84338 229.69875 227.71311 225.85847
 224.12983 222.59019 221.20855 219.96892 218.83928 217.78764 216.88000 216.00936
 215.23972 214.40809 213.49445 212.84681 212.28517 213.08734 214.98259 216.75847
 217.45552 218.39082 220.31900 222.15976 223.68932 225.60722 228.68199 231.38361
 233.55592 235.35243 236.98428 239.27634 242.69969 246.86125 251.03719 254.89400
 258.36380 261.55707 264.54727 267.25195 269.59662 271.63797 273.57407 275.47079
 277.31207 278.98761 280.50278 281.83508 282.98929 284.04446 285.01764 285.77490
 286.48822 287.17746 287.80026 288.64655
 366.78100 356.32309 345.74318 334.59727 322.98836 311.17045 299.02853 286.81962
 274.51971 262.40480 250.40189 239.69098 229.80107 220.89316 213.06325 206.05334
 199.87542 194.80151 191.37160 189.40169 188.42678 188.47887 189.30196 190.59805
 192.31114 194.39423 196.64532 198.99240 201.42549 203.89358 205.96967 207.79976
 209.41385 210.54694 210.76403 210.98012 210.90521 210.59829 210.21938 209.83747
 209.44256 209.14065 208.93674 208.78883 208.70492 209.02401 209.39810 209.77518
 210.55627 211.72236 212.96045 214.73154 216.64763 218.67872 220.76181 222.83290
 224.88099 226.95308 229.03816 231.13225 233.24934 235.40943 237.65352 240.01161
 242.62070 244.85979 246.84988 248.60297 250.00805 251.11914 251.92923 252.23332
 252.25841 252.02050 251.36859 250.30468 248.89877 247.04786 244.94495 242.76603
 240.54512 238.33721 236.14530 233.97239 231.82048 229.67557 227.68966 225.83475
 224.10584 222.56592 221.18401 219.94410 218.81419 217.76228 216.85437 215.98346
 215.21355 214.38164 213.46773 212.81982 212.25790 213.08589 215.04210 216.83725
 217.61212 218.56924 220.42790 222.28792 223.80054 225.68286 228.65463 231.31923
 233.37914 235.00580 236.57581 238.96060 242.54314 246.77859 250.96541 254.85542
 258.34985 261.56018 264.55246 267.27017 269.62106 271.65033 273.53693 275.37329
 277.19315 278.88333 280.40189 281.74707 282.92526 283.98120 284.95468 285.61612
 286.35434 287.04855 287.67551 288.53104
 366.78100 356.32369 345.74438 334.59907 322.99077 311.17346 299.03215 286.82384
 274.52453 262.41022 250.40791 239.69761 229.80830 220.90099 213.07168 206.06237
 199.88506 194.81175 191.38245 189.41314 188.43883 188.49152 189.31521 190.61190
 192.32559 194.40929 196.66098 199.00867 201.44236 203.91105 205.98774 207.81844
 209.43313 210.56682 210.78451 211.00120 210.92689 210.62058 210.24228 209.86097
 209.46666 209.16535 208.96204 208.81473 208.73142 209.05112 209.42581 209.80350
 210.58519 211.75188 212.99057 214.76226 216.67896 218.71065 220.79434 222.86603
 224.91472 226.98741 229.07310 231.16780 233.28549 235.44618 237.69087 240.04956
 242.65925 244.89894 246.88964 248.64333 250.04902 251.16071 251.97140 252.27609
 252.30178 252.06448 251.41317 250.34986 248.94455 247.09424 244.99193 242.81363
 240.59332 238.38601 236.19470 234.02239 231.87108 229.72677 227.74147 225.88716
 224.15885 222.61954 221.23823 219.99892 218.86961 217.81831 216.91100 216.04069
 215.27138 214.44007 213.52676 212.87945 212.31815 213.12740 215.03934 216.96330
 217.82530 218.69583 220.53308 222.37938 223.87575 225.73656 228.65263 231.22780
 233.15958 234.65276 236.19826 238.68210 242.39679 246.68295 250.90578 254.83926
 258.36139 261.57932 264.56375 267.26877 269.60367 271.61148 273.45795 275.26233
 277.08881 278.81088 280.34354 281.70551 282.88678 283.93851 284.90750 285.60956
 286.36447 287.06049 287.68741 288.54449
 366.78100 356.32410 345.74520 334.60030 322.99240 311.17550 299.03460 286.82669
 274.52779 262.41389 250.41199 239.70209 229.81319 220.90629 213.07739 206.06849
 199.89159 194.81869 191.38979 189.42088 188.44698 188.50008 189.32418 190.62128
 192.33538 194.41948 196.67158 199.01968 201.45378 203.92288 205.99998 207.83107
 209.44617 210.58027 210.79837 211.01547 210.94157 210.63567 210.25777 209.87687
 209.48297 209.18207 208.97917 208.83226 208.74936 209.06946 209.44456 209.82266
 210.60476 211.77186 213.01096 214.78306 216.70016 218.73226 220.81636 222.88845
 224.93755 227.01065 229.09675 231.19185 233.30995 235.47105 237.71615 240.07525
 242.68535 244.92545 246.91655 248.67064 250.07674 251.18884 251.99994 252.30504
 252.33114 252.09424 251.44334 250.38044 248.97554 247.12564 245.02374 242.84583
 240.62593 238.41903 236.22813 234.05623 231.90533 229.76143 227.77653 225.92263
 224.19473 222.65583 221.27493 220.03602 218.90712 217.85622 216.94932 216.07942
 215.31052 214.47962 213.56672 212.91982 212.35892 213.15733 215.04367 217.09586
 218.05879 218.80051 220.63568 222.48943 223.94788 225.80309 228.66898 231.09828
 232.86490 234.23793 235.80038 238.42502 242.27596 246.59714 250.86288 254.84416
 258.39520 261.61230 264.57147 267.24377 269.55414 271.54782 273.36514 275.15201
 276.98926 278.74478 280.29517 281.65906 282.83987 283.88937 284.85498 285.69473
 286.43750 287.13004 287.75357 288.59952
 366.78100 356.32441 345.74583 334.60124 322.99366 311.17707 299.03649 286.82890
 274.53032 262.41673 250.41515 239.70556 229.81698 220.91039 213.08181 206.07322
 199.89664 194.82405 191.39547 189.42688 188.45329 188.50671 189.33112 190.62854
 192.34295 194.42737 196.67978 199.02820 201.46261 203.93203 206.00944 207.84086
 209.45627 210.59069 210.80910 211.02652 210.95293 210.64734 210.26976 209.88917
 209.49559 209.19500 208.99242 208.84583 208.76325 209.08366 209.45908 209.83749
 210.61991 211.78732 213.02674 214.79915 216.71657 218.74898 220.83340 222.90581
 224.95522 227.02864 229.11505 231.21047 233.32888 235.49030 237.73571 240.09513
 242.70554 244.94596 246.93737 248.69179 250.09820 251.21062 252.02203 252.32745
 252.35386 252.11727 251.46669 250.40410 248.99952 247.14993 245.04835 242.87076
 240.65118 238.44459 236.25401 234.08242 231.93184 229.78825 227.80367 225.95008
 224.22250 222.68391 221.30333 220.06474 218.93615 217.88557 216.97898 216.10940
 215.34081 214.51023 213.59764 212.95106 212.39047 213.17992 215.04504 217.25357
 218.25830 218.88338 220.71861 222.63503 224.12177 225.88068 228.63179 230.95938
 232.54997 233.80359 235.43398 238.21042 242.17233 246.51350 250.82146 254.84647
 258.42728 261.64453 264.57712 267.21225 269.50507 271.49878 273.29410 275.06268
 276.90808 278.68210 280.23721 281.60287 282.78888 283.84399 284.81372 285.68869
 286.46872 287.15900 287.77420 288.60208
 366.78100 356.32359 345.74418 334.59878 322.99037 311.17296 299.03155 286.82314
 274.52374 262.40933 250.40692 239.69651 229.80711 220.89970 213.07029 206.06088
 199.88347 194.81007 191.38066 189.41125 188.43684 188.48943 189.31303 190.60962
 192.32321 194.40680 196.65840 199.00599 201.43958 203.90817 205.98476 207.81536
 209.42995 210.56354 210.78113 210.99772 210.92332 210.61691 210.23850 209.85709
 209.46268 209.16128 208.95787 208.81046 208.72705 209.04665 209.42124 209.79883
 210.58042 211.74701 212.98561 214.75720 216.67379 218.70538 220.78897 222.86057
 224.90916 226.98175 229.06734 231.16194 233.27953 235.44012 237.68471 240.04330
 242.65290 244.89249 246.88308 248.63667 250.04226 251.15386 251.96445 252.26904
 252.29463 252.05722 251.40582 250.34241 248.93700 247.08659 244.98419 242.80578
 240.58537 238.37796 236.18655 234.01415 231.86274 229.71833 227.73292 225.87851
 224.15011 222.61070 221.22929 219.98988 218.86048 217.80907 216.90166 216.03125
 215.26184 214.43044 213.51703 212.86962 212.30821 213.14653 215.12712 217.30798
 218.51105 219.03078 220.79825 222.73433 224.15509 225.93544 228.65202 230.84206
 232.24858 233.38358 235.04118 238.00523 242.07877 246.45262 250.79240 254.84392
 258.44629 261.66467 264.57458 267.17801 269.46487 271.47769 273.27051 275.01846
 276.82455 278.59628 280.15213 281.52005 282.70810 283.76746 284.74368 285.62695
 286.41168 287.10849 287.72357 288.56000
 366.78100 356.32247 345.74195 334.59542 322.98590 311.16737 299.02485 286.81532
 274.51480 262.39927 250.39574 239.68422 229.79369 220.88517 213.05464 206.04412
 199.86559 194.79107 191.36054 189.39001 188.41449 188.46596 189.28844 190.58391
 192.29639 194.37886 196.62933 198.97581 201.40828 203.87576 205.95123 207.78071
 209.39418 210.52666 210.74313 210.95860 210.88308 210.57555 210.19603 209.81350
 209.41798 209.11545 208.91093 208.76240 208.67787 208.99635 209.36982 209.74630
 210.52677 211.69225 212.92972 214.70020 216.61567 218.64614 220.72862 222.79909
 224.84657 226.91804 229.00252 231.09599 233.21246 235.37194 237.61541 239.97289
 242.58136 244.81984 246.80931 248.56179 249.96626 251.07673 251.88621 252.18968
 252.21416 251.97563 251.32311 250.25858 248.85206 247.00053 244.89700 242.71748
 240.49595 238.28743 236.09490 233.92138 231.76885 229.62333 227.63680 225.78127
 224.05175 222.51122 221.12870 219.88817 218.75765 217.70512 216.79660 215.92507
 215.15454 214.32202 213.40749 212.75897 212.19644 213.09973 215.23387 217.35928
 218.58818 219.36429 220.97479 222.73048 224.16838 226.01190 228.70908 230.77495
 231.83702 232.76788 234.71167 237.89294 242.01268 246.42566 250.77199 254.83176
 258.45016 261.67450 264.57104 267.15222 269.44394 271.48712 273.27884 274.99667
 276.75513 278.47327 280.01929 281.38116 282.56348 283.60992 284.55945 285.44046
 286.27203 286.98639 287.60941 288.45804
 366.78100 356.32242 345.74184 334.59526 322.98568 311.16710 299.02452 286.81494
 274.51436 262.39878 250.39520 239.68362 229.79304 220.88446 213.05388 206.04330
 199.86472 194.79014 191.35956 189.38898 188.41340 188.46482 189.28724 190.58266
 192.29508 194.37750 196.62792 198.97434 201.40676 203.87418 205.94960 207.77902
 209.39244 210.52486 210.74128 210.95670 210.88112 210.57354 210.19396 209.81138
 209.41580 209.11322 208.90864 208.76006 208.67548 208.99390 209.36732 209.74374
 210.52416 211.68958 212.92700 214.69742 216.61284 218.64327 220.72569 222.79611
 224.84353 226.91495 228.99937 231.09279 233.20921 235.36863 237.61205 239.96947
 242.57789 244.81631 246.80573 248.55815 249.96257 251.07299 251.88241 252.18583
 252.21025 251.97167 251.31909 250.25451 248.84793 246.99635 244.89277 242.71319
 240.49161 238.28303 236.09045 233.91687 231.76429 229.61871 227.63213 225.77655
 224.04697 222.50639 221.12381 219.88323 218.75265 217.70007 216.79149 215.91991
 215.14933 214.31675 213.40217 212.75359 212.19101 213.10727 215.27200 217.48853
 218.61461 219.63284 221.15721 222.75468 224.24512 226.07460 228.74767 230.70744
 231.45947 232.20480 234.43170 237.80322 241.94080 246.38797 250.74069 254.80864
 258.44278 261.67303 264.55923 267.12296 269.42001 271.49057 273.27039 274.93250
 276.66061 278.38684 279.93570 281.30200 282.48657 283.53577 284.49304 285.37344
 286.19968 286.92929 287.55249 288.40979
 366.78100 356.32274 345.74249 334.59623 322.98698 311.16872 299.02647 286.81721
 274.51696 262.40170 250.39845 239.68719 229.79694 220.88868 213.05843 206.04817
 199.86992 194.79566 191.36541 189.39515 188.41990 188.47164 189.29439 190.59013
 192.30288 194.38562 196.63636 198.98311 201.41585 203.88360 205.95934 207.78909
 209.40283 210.53558 210.75232 210.96807 210.89281 210.58556 210.20630 209.82405
 209.42879 209.12654 208.92228 208.77403 208.68977 209.00852 209.38226 209.75901
 210.53975 211.70550 212.94324 214.71398 216.62973 218.66047 220.74322 222.81396
 224.86171 226.93345 229.01820 231.11194 233.22869 235.38843 237.63218 239.98992
 242.59867 244.83741 246.82716 248.57990 249.98465 251.09539 251.90514 252.20888
 252.23363 251.99537 251.34312 250.27886 248.87260 247.02135 244.91809 242.73884
 240.51758 238.30933 236.11707 233.94382 231.79156 229.64631 227.66005 225.80480
 224.07554 222.53529 221.15303 219.91278 218.78252 217.73027 216.82201 215.95076
 215.18050 214.34825 213.43399 212.78574 212.22348 213.13556 215.29044 217.61041
 218.66277 219.83693 221.36287 222.86554 224.34259 226.08733 228.73424 230.60368
 231.12276 231.72391 234.15895 237.69882 241.87776 246.34193 250.70160 254.78088
 258.42993 261.66559 264.54333 267.08704 269.38474 271.47098 273.23251 274.87836
 276.56152 278.30981 279.86615 281.23328 282.42224 283.47723 284.43729 285.32205
 286.14044 286.88123 287.50900 288.37009
 366.78100 356.32301 345.74301 334.59702 322.98802 311.17003 299.02803 286.81904
 274.51904 262.40405 250.40105 239.69006 229.80007 220.89207 213.06208 206.05208
 199.87409 194.80009 191.37010 189.40010 188.42511 188.47711 189.30012 190.59612
 192.30913 194.39214 196.64314 198.99015 201.42315 203.89116 205.96716 207.79717
 209.41117 210.54418 210.76118 210.97719 210.90220 210.59520 210.21621 209.83421
 209.43922 209.13722 208.93323 208.78523 208.70124 209.02024 209.39425 209.77125
 210.55226 211.71827 212.95627 214.72728 216.64328 218.67429 220.75729 222.82830
 224.87630 226.94831 229.03331 231.12732 233.24433 235.40433 237.64834 240.00634
 242.61535 244.85435 246.84436 248.59736 250.00237 251.11337 251.92338 252.22738
 252.25239 252.01440 251.36240 250.29841 248.89241 247.04142 244.93842 242.75943
 240.53843 238.33044 236.13844 233.96545 231.81346 229.66846 227.68247 225.82747
 224.09848 222.55848 221.17649 219.93649 218.80650 217.75450 216.84651 215.97552
 215.20552 214.37353 213.45953 212.81154 212.24954 213.16254 215.31958 217.68898
 218.74751 220.00838 221.57925 223.04385 224.44273 226.07274 228.67032 230.43591
 230.80093 231.32448 233.90231 237.59312 241.82739 246.29852 250.66312 254.75021
 258.40964 261.64850 264.51758 267.04004 269.33859 271.45059 273.20807 274.80206
 276.50159 278.25363 279.80933 281.17682 282.36664 283.42123 284.38647 285.27039
 286.08609 286.82559 287.45871 288.32669
 366.78100 356.32333 345.74365 334.59798 322.98931 311.17163 299.02996 286.82129
 274.52161 262.40694 250.40427 239.69359 229.80392 220.89625 213.06657 206.05690
 199.87923 194.80555 191.37588 189.40621 188.43153 188.48386 189.30719 190.60351
 192.31684 194.40017 196.65149 198.99882 201.43215 203.90047 205.97680 207.80713
 209.42145 210.55478 210.77211 210.98843 210.91376 210.60708 210.22841 209.84674
 209.45206 209.15039 208.94672 208.79904 208.71537 209.03470 209.40902 209.78635
 210.56768 211.73400 212.97233 214.74366 216.65998 218.69131 220.77464 222.84596
 224.89429 226.96662 229.05194 231.14627 233.26360 235.42392 237.66825 240.02658
 242.63590 244.87523 246.86556 248.61888 250.02421 251.13554 251.94586 252.25019
 252.27552 252.03784 251.38617 250.32250 248.91682 247.06615 244.96348 242.78480
 240.56413 238.35646 236.16478 233.99211 231.84044 229.69576 227.71009 225.85542
 224.12674 222.58707 221.20540 219.96572 218.83605 217.78438 216.87670 216.00603
 215.23636 214.40468 213.49101 212.84334 212.28166 213.19635 215.35739 217.73155
 218.85712 220.17650 221.78189 223.24057 224.56024 226.07097 228.57510 230.20708
 230.48622 230.99199 233.65791 237.48529 241.77946 246.25999 250.62662 254.72086
 258.39127 261.63611 264.49747 266.99747 269.28943 271.41956 273.18576 274.49069
 276.44092 278.23349 279.78784 281.15707 282.34674 283.40500 284.37018 285.25641
 286.07034 286.80905 287.45868 288.35156
 366.78100 356.32375 345.74450 334.59925 322.99100 311.17375 299.03250 286.82425
 274.52500 262.41075 250.40850 239.69825 229.80900 220.90175 213.07250 206.06325
 199.88600 194.81275 191.38350 189.41425 188.44000 188.49275 189.31650 190.61325
 192.32700 194.41076 196.66251 199.01026 201.44401 203.91276 205.98951 207.82026
 209.43501 210.56876 210.78651 211.00326 210.92901 210.62276 210.24451 209.86326
 209.46901 209.16776 208.96451 208.81726 208.73401 209.05376 209.42851 209.80626
 210.58801 211.75476 212.99351 214.76526 216.68201 218.71376 220.79751 222.86926
 224.91801 226.99076 229.07651 231.17126 233.28901 235.44976 237.69451 240.05326
 242.66301 244.90276 246.89351 248.64726 250.05301 251.16476 251.97551 252.28026
 252.30601 252.06876 251.41752 250.35427 248.94902 247.09877 244.99652 242.81827
 240.59802 238.39077 236.19952 234.02727 231.87602 229.73177 227.74652 225.89227
 224.16402 222.62477 221.24352 220.00427 218.87502 217.82377 216.91652 216.04627
 215.27702 214.44577 213.53252 212.88527 212.32402 213.23610 215.39098 217.75864
 218.97321 220.35497 221.96533 223.41800 224.69081 226.09131 228.47227 229.94849
 230.18468 230.71284 233.42998 237.37709 241.73186 246.21902 250.58231 254.67958
 258.35666 261.60214 264.45453 266.93185 269.22137 271.37054 273.10455 274.60535
 276.38406 278.16153 279.72510 281.09998 282.29456 283.35590 284.32516 285.21191
 286.02386 286.75980 287.40540 288.31540
 366.78100 356.32437 345.74575 334.60112 322.99350 311.17687 299.03624 286.82862
 274.52999 262.41637 250.41474 239.70512 229.81649 220.90986 213.08124 206.07261
 199.89599 194.82336 191.39473 189.42611 188.45248 188.50586 189.33023 190.62761
 192.34198 194.42635 196.67873 199.02710 201.46148 203.93085 206.00822 207.83960
 209.45497 210.58935 210.80772 211.02509 210.95147 210.64584 210.26822 209.88759
 209.49397 209.19334 208.99071 208.84409 208.76146 209.08184 209.45721 209.83558
 210.61796 211.78533 213.02471 214.79708 216.71446 218.74683 220.83120 222.90358
 224.95295 227.02633 229.11270 231.20807 233.32645 235.48782 237.73320 240.09257
 242.70294 244.94332 246.93469 248.68907 250.09544 251.20782 252.01919 252.32456
 252.35094 252.11431 251.46369 250.40106 248.99643 247.14681 245.04518 242.86756
 240.64793 238.44130 236.25068 234.07905 231.92843 229.78480 227.80018 225.94655
 224.21892 222.68030 221.29967 220.06105 218.93242 217.88179 216.97517 216.10554
 215.33692 214.50629 213.59367 212.94704 212.38641 213.28790 215.41774 217.77773
 219.08339 220.53865 222.13666 223.57349 224.81955 226.12929 228.38417 229.69005
 229.88866 230.46019 233.21523 237.26968 241.68361 246.17363 250.53329 254.63181
 258.31335 261.56183 264.41205 266.87759 269.17349 271.34143 272.99356 274.59653
 276.33862 278.11038 279.67633 281.05203 282.24744 283.31012 284.28006 285.16760
 285.97775 286.70877 287.35620 288.26025
 366.78100 356.32514 345.74728 334.60343 322.99657 311.18071 299.04085 286.83399
 274.53614 262.42328 250.42242 239.71356 229.82570 220.91985 213.09199 206.08413
 199.90827 194.83641 191.40856 189.44070 188.46784 188.52198 189.34712 190.64527
 192.36041 194.44555 196.69869 199.04783 201.48297 203.95312 206.03126 207.86340
 209.47954 210.61468 210.83383 211.05197 210.97911 210.67425 210.29739 209.91754
 209.52468 209.22482 209.02296 208.87710 208.79525 209.11639 209.49253 209.87167
 210.65481 211.82296 213.06310 214.83624 216.75438 218.78752 220.87267 222.94581
 224.99595 227.07009 229.15723 231.25338 233.37252 235.53466 237.78080 240.14094
 242.75209 244.99323 246.98537 248.74051 250.14765 251.26080 252.07294 252.37908
 252.40622 252.17036 251.52050 250.45865 249.05479 247.20593 245.10507 242.92821
 240.70936 238.50350 236.31364 234.14278 231.99292 229.85007 227.86621 226.01335
 224.28649 222.74863 221.36878 220.13092 219.00306 217.95320 217.04734 216.17849
 215.41063 214.58077 213.66891 213.02305 212.46320 213.34781 215.43784 217.79242
 219.19185 220.71460 222.29976 223.71718 224.93399 226.17265 228.31096 229.43987
 229.59160 230.22606 233.02267 237.17307 241.63675 246.12491 250.47980 254.57443
 258.25476 261.50537 264.35706 266.81955 269.13071 271.32324 272.94528 274.53809
 276.30463 278.07767 279.64139 281.01526 282.20816 283.26682 284.23642 285.12119
 285.92740 286.65799 287.30563 288.21027
 366.78100 356.32600 345.74899 334.60599 322.99998 311.18498 299.04597 286.83997
 274.54296 262.43096 250.43095 239.72295 229.83594 220.93094 213.10393 206.09693
 199.92192 194.85092 191.42391 189.45691 188.48490 188.53990 189.36590 190.66489
 192.38089 194.46688 196.72088 199.07087 201.50687 203.97786 206.05686 207.88985
 209.50685 210.64284 210.86284 211.08183 211.00983 210.70582 210.32982 209.95081
 209.55881 209.25980 209.05880 208.91379 208.83279 209.15479 209.53178 209.91178
 210.69577 211.86477 213.10576 214.87976 216.79875 218.83275 220.91874 222.99274
 225.04373 227.11873 229.20672 231.30372 233.42371 235.58671 237.83370 240.19470
 242.80669 245.04869 247.04169 248.79768 250.20568 251.31967 252.13267 252.43966
 252.46766 252.23265 251.58365 250.52264 249.11964 247.27163 245.17163 242.99562
 240.77762 238.57261 236.38361 234.21360 232.06460 229.92259 227.93959 226.08758
 224.36158 222.82458 221.44557 220.20857 219.08156 218.03256 217.12755 216.25955
 215.49254 214.66354 213.75253 213.10753 212.54852 213.41324 215.45625 217.80054
 219.29953 220.87798 222.46303 223.86232 225.04234 226.22183 228.24162 229.18544
 229.28830 230.01176 232.85660 237.08882 241.59119 246.07658 250.42680 254.51302
 258.18692 261.43774 264.29300 266.75482 269.07913 271.27698 272.91040 274.52701
 276.28653 278.05704 279.61960 280.99319 282.18719 283.24777 284.21832 285.10489
 285.91562 286.64963 287.29913 288.20917
 366.78100 356.32691 345.75081 334.60872 323.00363 311.18954 299.05144 286.84635
 274.55026 262.43916 250.44007 239.73298 229.84689 220.94279 213.11670 206.11061
 199.93651 194.86642 191.44033 189.47423 188.50314 188.55905 189.38596 190.68586
 192.40277 194.48968 196.74458 199.09549 201.53240 204.00431 206.08421 207.91812
 209.53603 210.67293 210.89384 211.11375 211.04266 210.73956 210.36447 209.98638
 209.59528 209.29719 209.09710 208.95301 208.87291 209.19582 209.57373 209.95463
 210.73954 211.90945 213.15135 214.92626 216.84617 218.88108 220.96798 223.04289
 225.09480 227.17070 229.25961 231.35752 233.47843 235.64233 237.89024 240.25215
 242.86505 245.10796 247.10187 248.85878 250.26768 251.38259 252.19650 252.50440
 252.53331 252.29922 251.65113 250.59103 249.18894 247.34185 245.24275 243.06766
 240.85057 238.64647 236.45838 234.28929 232.14120 230.00010 228.01801 226.16692
 224.44182 222.90573 221.52764 220.29155 219.16545 218.11736 217.21327 216.34617
 215.58008 214.75199 213.84190 213.19780 212.63971 213.48273 215.47443 217.80554
 219.40610 221.03081 222.62993 224.01144 225.15198 226.27530 228.17311 228.93561
 228.99208 229.82159 232.71364 237.00938 241.54065 246.02266 250.36650 254.44014
 258.10345 261.35519 264.21759 266.69061 269.03354 271.23212 272.82794 274.51697
 276.29825 278.07114 279.63403 281.00751 282.20175 283.26218 284.23401 285.12247
 285.93362 286.66959 287.31784 288.23410
 366.78100 356.32786 345.75272 334.61158 323.00744 311.19430 299.05716 286.85302
 274.55788 262.44774 250.44960 239.74347 229.85833 220.95519 213.13005 206.12491
 199.95177 194.88263 191.45749 189.49235 188.52221 188.57907 189.40693 190.70779
 192.42565 194.51351 196.76937 199.12123 201.55909 204.03195 206.11281 207.94767
 209.56653 210.70440 210.92626 211.14712 211.07698 210.77484 210.40070 210.02356
 209.63342 209.33628 209.13714 208.99400 208.91486 209.23872 209.61758 209.99944
 210.78530 211.95616 213.19902 214.97488 216.89574 218.93160 221.01947 223.09533
 225.14819 227.22505 229.31491 231.41377 233.53563 235.70049 237.94935 240.31221
 242.92607 245.16993 247.16479 248.92265 250.33251 251.44837 252.26323 252.57209
 252.60195 252.36881 251.72167 250.66253 249.26140 247.41526 245.31712 243.14298
 240.92684 238.72370 236.53656 234.36842 232.22128 230.08114 228.10000 226.24986
 224.52572 222.99058 221.61344 220.37830 219.25316 218.20602 217.30288 216.43674
 215.67160 214.84446 213.93533 213.29219 212.73505 213.55400 215.48885 217.80424
 219.50812 221.17606 222.79655 224.16022 225.26357 226.33058 228.09462 228.67436
 228.69676 229.65257 232.59500 236.94020 241.49417 245.97403 250.31204 254.37302
 258.02618 261.27969 264.15063 266.63705 268.98904 271.15900 272.70261 274.46454
 276.31134 278.08954 279.65167 281.02579 282.22040 283.28235 284.25497 285.14114
 285.95453 286.69058 287.33847 288.25507
 366.78100 356.32880 345.75459 334.61439 323.01118 311.19898 299.06277 286.85957
 274.56536 262.45616 250.45895 239.75375 229.86954 220.96734 213.14313 206.13893
 199.96672 194.89852 191.47431 189.51011 188.54090 188.59870 189.42749 190.72929
 192.44808 194.53688 196.79367 199.14647 201.58526 204.05906 206.14085 207.97665
 209.59644 210.73524 210.95803 211.17983 211.11062 210.80942 210.43621 210.06001
 209.67080 209.37460 209.17639 209.03419 208.95598 209.28078 209.66057 210.04337
 210.83016 212.00196 213.24575 215.02255 216.94434 218.98114 221.06993 223.14673
 225.20052 227.27832 229.36911 231.46891 233.59170 235.75750 238.00729 240.37109
 242.98588 245.23068 247.22647 248.98527 250.39606 251.51286 252.32865 252.63845
 252.66924 252.43704 251.79083 250.73263 249.33242 247.48722 245.39002 243.21681
 241.00161 238.79940 236.61320 234.44599 232.29979 230.16058 228.18038 226.33117
 224.60797 223.07376 221.69756 220.46335 219.33915 218.29294 217.39074 216.52553
 215.76133 214.93512 214.02692 213.38471 212.82851 213.62566 215.50902 217.80122
 219.59160 221.31366 222.96570 224.30879 225.37416 226.39465 228.03078 228.41838
 228.40540 229.50613 232.49397 236.87125 241.44031 245.91505 250.24489 254.28813
 257.92728 261.18237 264.06296 266.57120 268.93076 271.06171 272.60846 274.38235
 276.32632 278.11487 279.67630 281.04935 282.24448 283.30682 284.27942 285.16821
 285.98053 286.71774 287.36697 288.28223
 366.78100 356.32958 345.75617 334.61675 323.01433 311.20291 299.06750 286.86508
 274.57166 262.46324 250.46683 239.76241 229.87899 220.97757 213.15416 206.15074
 199.97932 194.91190 191.48849 189.52507 188.55665 188.61523 189.44482 190.74740
 192.46698 194.55656 196.81415 199.16773 201.60731 204.08189 206.16448 208.00106
 209.62164 210.76122 210.98481 211.20739 211.13897 210.83856 210.46614 210.09072
 209.70230 209.40689 209.20947 209.06805 208.99063 209.31622 209.69680 210.08038
 210.86796 212.04055 213.28513 215.06271 216.98529 219.02288 221.11246 223.19004
 225.24462 227.32321 229.41479 231.51537 233.63895 235.80554 238.05612 240.42070
 243.03628 245.28187 247.27845 249.03803 250.44961 251.56720 252.38378 252.69436
 252.72595 252.49453 251.84911 250.79169 249.39228 247.54786 245.45144 243.27902
 241.06461 238.86319 236.67777 234.51135 232.36594 230.22752 228.24810 226.39968
 224.67727 223.14385 221.76843 220.53501 219.41160 218.36618 217.46476 216.60034
 215.83693 215.01151 214.10409 213.46267 212.90726 213.68797 215.53252 217.80063
 219.65886 221.43916 223.12805 224.46794 225.49409 226.46187 227.95844 228.17819
 228.14693 229.37227 232.40411 236.80736 241.38657 245.85504 250.17523 254.19846
 257.82639 261.08527 263.98001 266.51422 268.88019 270.97873 272.46063 274.49307
 276.37582 278.15109 279.71118 281.08258 282.27585 283.33636 284.30704 285.19489
 286.00693 286.74304 287.39297 288.30032
 366.78100 356.33023 345.75747 334.61870 323.01694 311.20617 299.07141 286.86964
 274.57688 262.46911 250.47335 239.76958 229.88681 220.98605 213.16328 206.16052
 199.98975 194.92299 191.50022 189.53746 188.56969 188.62893 189.45916 190.76240
 192.48263 194.57286 196.83110 199.18533 201.62557 204.10080 206.18404 208.02127
 209.64251 210.78274 211.00698 211.23021 211.16244 210.86268 210.49091 210.11615
 209.72838 209.43362 209.23685 209.09609 209.01932 209.34556 209.72679 210.11103
 210.89926 212.07249 213.31773 215.09596 217.01920 219.05743 221.14767 223.22590
 225.28114 227.36037 229.45261 231.55384 233.67807 235.84531 238.09654 240.46178
 243.07801 245.32425 247.32148 249.08172 250.49395 251.61219 252.42942 252.74066
 252.77289 252.54212 251.89736 250.84059 249.44183 247.59806 245.50230 243.33053
 241.11677 238.91600 236.73124 234.56547 232.42070 230.28294 228.30417 226.45641
 224.73464 223.20188 221.82711 220.59435 219.47158 218.42682 217.52605 216.66228
 215.89952 215.07475 214.16799 213.52722 212.97246 213.74239 215.56146 217.78986
 219.72804 221.56876 223.29315 224.61922 225.60265 226.54111 227.89496 227.88686
 227.84322 229.26865 232.34171 236.75076 241.33771 245.80067 250.11136 254.11501
 257.73026 260.99487 263.90973 266.47049 268.82834 270.88477 272.37866 274.50998
 276.40091 278.17767 279.73865 281.11267 282.30707 283.36923 284.34006 285.22903
 286.03952 286.77612 287.42380 288.33884
 366.78100 356.33119 345.75937 334.62156 323.02075 311.21094 299.07712 286.87631
 274.58450 262.47769 250.48287 239.78006 229.89825 220.99844 213.17662 206.17481
 200.00500 194.93918 191.51737 189.55556 188.58875 188.64893 189.48012 190.78431
 192.50550 194.59668 196.85587 199.21106 201.65225 204.12843 206.21262 208.05081
 209.67299 210.81418 211.03937 211.26356 211.19674 210.89793 210.52712 210.15331
 209.76649 209.47268 209.27687 209.13706 209.06124 209.38843 209.77062 210.15580
 210.94499 212.11918 213.36537 215.14455 217.06874 219.10793 221.19912 223.27830
 225.33449 227.41468 229.50787 231.61005 233.73524 235.90343 238.15561 240.52180
 243.13899 245.38618 247.38436 249.14555 250.55874 251.67793 252.49611 252.80830
 252.84149 252.61168 251.96786 250.91205 249.51424 247.67142 245.57661 243.40580
 241.19299 238.99317 236.80936 234.64455 232.50074 230.36392 228.38611 226.53930
 224.81849 223.28667 221.91286 220.68105 219.55924 218.51542 217.61561 216.75280
 215.99098 215.16717 214.26136 213.62155 213.06773 213.81534 215.58165 217.77647
 219.78462 221.69226 223.43677 224.78362 225.72441 226.62863 227.85226 227.67876
 227.57809 229.09100 232.26093 236.70305 241.29089 245.74817 250.04829 254.03085
 257.63104 260.89749 263.82574 266.40762 268.75601 270.77313 272.41263 274.53342
 276.43839 278.21832 279.77924 281.15109 282.34412 283.40424 284.37448 285.26047
 286.07303 286.80887 287.45761 288.36560
 366.78100 356.33220 345.76141 334.62461 323.02481 311.21602 299.08322 286.88342
 274.59263 262.48683 250.49303 239.79124 229.91044 221.01164 213.19085 206.19005
 200.02125 194.95646 191.53566 189.57486 188.60907 188.67027 189.50247 190.80768
 192.52988 194.62208 196.88228 199.23849 201.68069 204.15789 206.24310 208.08230
 209.70550 210.84771 211.07391 211.29911 211.23332 210.93552 210.56572 210.19293
 209.80713 209.51433 209.31954 209.18074 209.10594 209.43415 209.81735 210.20355
 210.99376 212.16896 213.41616 215.19637 217.12157 219.16177 221.25398 223.33418
 225.39138 227.47259 229.56679 231.66999 233.79620 235.96540 238.21860 240.58581
 243.20401 245.45221 247.45142 249.21362 250.62782 251.74803 252.56723 252.88043
 252.91464 252.68584 252.04304 250.98825 249.59145 247.74965 245.65585 243.48606
 241.27426 239.07546 236.89267 234.72887 232.58607 230.45028 228.47348 226.62768
 224.90789 223.37709 222.00429 220.77350 219.65270 218.60990 217.71111 216.84931
 216.08851 215.26572 214.36092 213.72212 213.16933 213.89008 215.59293 217.78021
 219.82668 221.81038 223.58481 224.93295 225.81819 226.68587 227.80695 227.54141
 227.38664 228.92589 232.18840 236.65767 241.23550 245.68300 249.96684 253.92480
 257.51221 260.78726 263.73962 266.34998 268.69116 270.70044 272.46478 274.53638
 276.49860 278.26178 279.81381 281.18323 282.37170 283.42987 284.39807 285.28348
 286.09399 286.82904 287.47638 288.38242
 366.78100 356.33275 345.76251 334.62626 323.02702 311.21877 299.08653 286.88728
 274.59704 262.49179 250.49855 239.79730 229.91705 221.01881 213.19856 206.19832
 200.03007 194.96583 191.54558 189.58534 188.62009 188.68185 189.51460 190.82036
 192.54311 194.63586 196.89662 199.25337 201.69613 204.17388 206.25964 208.09939
 209.72315 210.86590 211.09266 211.31841 211.25316 210.95592 210.58667 210.21443
 209.82918 209.53694 209.34269 209.20445 209.13020 209.45896 209.84271 210.22946
 211.02022 212.19597 213.44373 215.22448 217.15024 219.19099 221.28375 223.36450
 225.42226 227.50401 229.59876 231.70252 233.82927 235.99903 238.25278 240.62054
 243.23929 245.48805 247.48780 249.25056 250.66531 251.78607 252.60582 252.91957
 252.95433 252.72608 252.08384 251.02959 249.63335 247.79210 245.69886 243.52961
 241.31837 239.12012 236.93787 234.77463 232.63238 230.49714 228.52089 226.67565
 224.95640 223.42616 222.05391 220.82367 219.70342 218.66117 217.76293 216.90168
 216.14144 215.31919 214.41495 213.77670 213.22446 213.93936 215.62839 217.80321
 219.84618 221.88380 223.71475 225.07594 225.91769 226.74823 227.77019 227.44547
 227.24347 228.79205 232.13643 236.62032 241.18436 245.62126 249.88747 253.82207
 257.39758 260.67755 263.64590 266.26752 268.56818 270.48996 272.56802 274.52234
 276.54718 278.31732 279.86008 281.22290 282.40826 283.46317 284.42865 285.31213
 286.12000 286.85300 287.49841 288.40170
 366.78100 356.33281 345.76261 334.62642 323.02723 311.21904 299.08684 286.88765
 274.59746 262.49226 250.49907 239.79788 229.91769 221.01949 213.19930 206.19911
 200.03092 194.96672 191.54653 189.58634 188.62114 188.68295 189.51576 190.82157
 192.54437 194.63718 196.89799 199.25479 201.69760 204.17541 206.26122 208.10102
 209.72483 210.86764 211.09445 211.32025 211.25506 210.95787 210.58867 210.21648
 209.83129 209.53910 209.34490 209.20671 209.13252 209.46132 209.84513 210.23194
 211.02275 212.19855 213.44636 215.22717 217.15297 219.19378 221.28659 223.36740
 225.42520 227.50701 229.60182 231.70563 233.83243 236.00224 238.25605 240.62385
 243.24266 245.49147 247.49128 249.25408 250.66889 251.78970 252.60950 252.92331
 252.95812 252.72993 252.08773 251.03354 249.63735 247.79616 245.70296 243.53377
 241.32258 239.12438 236.94219 234.77900 232.63681 230.50161 228.52542 226.68023
 224.96103 223.43084 222.05865 220.82846 219.70826 218.66607 217.76788 216.90669
 216.14649 215.32430 214.42011 213.78191 213.22972 213.95811 215.67903 217.83582
 219.86195 221.91718 223.80083 225.19511 226.02756 226.82916 227.74547 227.37413
 227.13258 228.68687 232.10257 236.59210 241.13954 245.56352 249.81038 253.72227
 257.28540 260.56873 263.55148 266.18152 268.44946 270.36459 272.61328 274.53928
 276.56433 278.34421 279.88968 281.25192 282.43588 283.48871 284.45300 285.33582
 286.14172 286.87143 287.51773 288.41544
 366.78100 356.33297 345.76294 334.62691 323.02788 311.21985 299.08782 286.88879
 274.59876 262.49373 250.50070 239.79967 229.91964 221.02161 213.20158 206.20155
 200.03352 194.96949 191.54945 189.58942 188.62439 188.68636 189.51933 190.82530
 192.54827 194.64124 196.90221 199.25918 201.70215 204.18012 206.26609 208.10606
 209.73003 210.87300 211.09997 211.32594 211.26091 210.96388 210.59485 210.22282
 209.83779 209.54576 209.35173 209.21370 209.13967 209.46864 209.85261 210.23958
 211.03055 212.20652 213.45449 215.23546 217.16143 219.20239 221.29536 223.37633
 225.43430 227.51627 229.61124 231.71521 233.84218 236.01215 238.26612 240.63409
 243.25306 245.50203 247.50200 249.26497 250.67994 251.80091 252.62088 252.93485
 252.96982 252.74179 252.09976 251.04573 249.64970 247.80867 245.71564 243.54661
 241.33558 239.13755 236.95552 234.79249 232.65046 230.51543 228.53940 226.69437
 224.97534 223.44530 222.07327 220.84324 219.72321 218.68118 217.78315 216.92212
 216.16209 215.34006 214.43603 213.79800 213.24597 213.98199 215.72095 217.86981
 219.90277 221.95517 223.84930 225.27039 226.12418 226.90694 227.71185 227.29472
 227.02841 228.60435 232.08606 236.57787 241.11026 245.52336 249.75764 253.65579
 257.20984 260.49207 263.47787 266.09735 268.31335 270.13086 272.49234 274.53171
 276.56137 278.34680 279.89822 281.26346 282.44916 283.50351 284.46619 285.34747
 286.15222 286.87906 287.52393 288.41034
 366.78100 356.33354 345.76407 334.62861 323.03014 311.22268 299.09121 286.89275
 274.60328 262.49882 250.50636 239.80589 229.92643 221.02896 213.20950 206.21003
 200.04257 194.97910 191.55964 189.60017 188.63571 188.69825 189.53178 190.83832
 192.56185 194.65539 196.91692 199.27446 201.71799 204.19653 206.28307 208.12360
 209.74814 210.89167 211.11921 211.34574 211.28128 210.98481 210.61635 210.24488
 209.86042 209.56896 209.37549 209.23803 209.16456 209.49410 209.87863 210.26617
 211.05770 212.23424 213.48278 215.26431 217.19085 219.23238 221.32592 223.40745
 225.46599 227.54852 229.64406 231.74860 233.87613 236.04667 238.30120 240.66974
 243.28927 245.53881 247.53934 249.30288 250.71841 251.83995 252.66049 252.97502
 253.01056 252.78309 252.14163 251.08816 249.69270 247.85223 245.75977 243.59131
 241.38084 239.18338 237.00191 234.83945 232.69798 230.56352 228.58805 226.74359
 225.02513 223.49566 222.12420 220.89473 219.77527 218.73380 217.83634 216.97587
 216.21641 215.39494 214.49148 213.85402 213.30255 214.02890 215.74501 217.90002
 219.97696 222.03113 223.89325 225.31883 226.20663 226.97571 227.66434 227.19012
 226.90616 228.51718 232.06522 236.56027 241.07658 245.47791 249.69858 253.58319
 257.13196 260.42047 263.42328 266.04895 268.23087 270.20380 272.38925 274.51932
 276.56073 278.33954 279.88925 281.25351 282.43973 283.49384 284.45703 285.33731
 286.13983 286.87103 287.51221 288.40274
 366.78100 356.33416 345.76532 334.63048 323.03265 311.22581 299.09497 286.89713
 274.60829 262.50445 250.51262 239.81278 229.93394 221.03710 213.21826 206.21942
 200.05259 194.98975 191.57091 189.61207 188.64823 188.71139 189.54555 190.85272
 192.57688 194.67104 196.93320 199.29136 201.73552 204.21469 206.30185 208.14301
 209.76817 210.91233 211.14049 211.36766 211.30382 211.00798 210.64014 210.26930
 209.88546 209.59462 209.40179 209.26495 209.19211 209.52227 209.90743 210.29559
 211.08776 212.26492 213.51408 215.29624 217.22340 219.26556 221.35973 223.44189
 225.50105 227.58421 229.68037 231.78553 233.91369 236.08486 238.34002 240.70918
 243.32934 245.57950 247.58066 249.34483 250.76099 251.88315 252.70431 253.01947
 253.05563 252.82880 252.18796 251.13512 249.74028 247.90044 245.80860 243.64076
 241.43093 239.23409 237.05325 234.89141 232.75057 230.61673 228.64190 226.79806
 225.08022 223.55138 222.18054 220.95170 219.83287 218.79203 217.89519 217.03535
 216.27651 215.45567 214.55283 213.91600 213.36516 214.07784 215.76161 217.93161
 220.05406 222.11656 223.92773 225.34357 226.27698 227.04871 227.63312 227.11963
 226.81590 228.44237 232.04388 236.54268 241.04594 245.43611 249.64426 253.51604
 257.05429 260.33563 263.32922 265.91998 268.05954 270.32181 272.33051 274.57193
 276.54739 278.31708 279.86710 281.23166 282.41867 283.47040 284.43539 285.31430
 286.11801 286.84476 287.48831 288.37601
 366.78100 356.33451 345.76601 334.63152 323.03403 311.22754 299.09704 286.89955
 274.61106 262.50757 250.51607 239.81658 229.93809 221.04160 213.22310 206.22461
 200.05812 194.99563 191.57713 189.61864 188.65515 188.71866 189.55316 190.86067
 192.58518 194.67969 196.94219 199.30070 201.74521 204.22472 206.31222 208.15373
 209.77924 210.92375 211.15225 211.37976 211.31627 211.02078 210.65328 210.28279
 209.89930 209.60881 209.41631 209.27982 209.20733 209.53784 209.92334 210.31185
 211.10436 212.28187 213.53137 215.31388 217.24139 219.28390 221.37840 223.46091
 225.52042 227.60393 229.70043 231.80594 233.93445 236.10596 238.36146 240.73097
 243.35148 245.60199 247.60349 249.36800 250.78451 251.90702 252.72852 253.04403
 253.08054 252.85405 252.21355 251.16106 249.76657 247.92708 245.83558 243.66809
 241.45860 239.26211 237.08161 234.92012 232.77963 230.64614 228.67164 226.82815
 225.11066 223.58217 222.21167 220.98318 219.86469 218.82420 217.92770 217.06821
 216.30972 215.48923 214.58673 213.95024 213.39975 214.10870 215.78371 217.97650
 220.11978 222.17941 223.93872 225.33952 226.32750 227.12393 227.62733 227.09978
 226.77467 228.38818 232.02724 236.52969 241.02159 245.39835 249.59050 253.44531
 256.96808 260.24005 263.22833 265.80966 267.94577 270.28574 272.29279 274.56335
 276.49976 278.26883 279.82010 281.18561 282.37140 283.42435 284.38794 285.26950
 286.07281 286.80325 287.44879 288.32919
 366.78100 356.33463 345.76626 334.63189 323.03452 311.22815 299.09778 286.90041
 274.61205 262.50868 250.51731 239.81794 229.93957 221.04320 213.22483 206.22646
 200.06009 194.99772 191.57935 189.62098 188.65761 188.72124 189.55587 190.86350
 192.58814 194.68277 196.94540 199.30403 201.74866 204.22829 206.31592 208.15755
 209.78318 210.92781 211.15644 211.38407 211.32070 211.02533 210.65796 210.28759
 209.90423 209.61386 209.42149 209.28512 209.21275 209.54338 209.92901 210.31764
 211.11027 212.28790 213.53753 215.32016 217.24779 219.29042 221.38505 223.46768
 225.52732 227.61095 229.70758 231.81321 233.94184 236.11347 238.36910 240.73873
 243.35936 245.60999 247.61162 249.37625 250.79288 251.91551 252.73714 253.05278
 253.08941 252.86304 252.22267 251.17030 249.77593 247.93656 245.84519 243.67782
 241.46845 239.27208 237.09171 234.93034 232.78997 230.65660 228.68223 226.83887
 225.12150 223.59313 222.22276 220.99439 219.87602 218.83565 217.93928 217.07991
 216.32154 215.50117 214.59880 213.96243 213.41206 214.12592 215.81244 218.03351
 220.18842 222.22189 223.92940 225.31001 226.35014 227.18730 227.63312 227.10616
 226.76521 228.35577 232.02075 236.52792 241.01033 245.37105 249.54424 253.37946
 256.88556 260.14597 263.13019 265.70306 267.83115 270.24265 272.23218 274.49985
 276.44174 278.20688 279.75681 281.12161 282.30682 283.36035 284.32120 285.20389
 286.00784 286.73767 287.38367 288.26675
 366.78100 356.33468 345.76636 334.63205 323.03473 311.22841 299.09809 286.90078
 274.61246 262.50914 250.51782 239.81850 229.94019 221.04387 213.22555 206.22723
 200.06092 194.99860 191.58028 189.62196 188.65864 188.72233 189.55701 190.86469
 192.58937 194.68406 196.94674 199.30542 201.75010 204.22978 206.31747 208.15915
 209.78483 210.92951 211.15820 211.38588 211.32256 211.02724 210.65992 210.28961
 209.90629 209.61597 209.42365 209.28734 209.21502 209.54570 209.93138 210.32006
 211.11275 212.29043 213.54011 215.32279 217.25047 219.29316 221.38784 223.47052
 225.53020 227.61389 229.71057 231.81625 233.94493 236.11661 238.37230 240.74198
 243.36266 245.61334 247.61503 249.37971 250.79639 251.91907 252.74075 253.05644
 253.09312 252.86680 252.22648 251.17417 249.77985 247.94053 245.84921 243.68189
 241.47258 239.27626 237.09594 234.93462 232.79431 230.66099 228.68667 226.84335
 225.12603 223.59772 222.22740 220.99908 219.88076 218.84045 217.94413 217.08481
 216.32649 215.50617 214.60386 213.96754 213.41722 214.13791 215.84062 218.10054
 220.26497 222.25337 223.90355 225.25574 226.34425 227.23053 227.63774 227.11861
 226.76958 228.33815 232.02220 236.53616 241.01277 245.35678 249.51247 253.33255
 256.82178 260.06543 263.03415 265.58307 267.67969 270.19336 272.16681 274.42703
 276.36856 278.12915 279.67664 281.04001 282.22491 283.27713 284.23758 285.11749
 285.92297 286.65207 287.29333 288.15936
 366.78100 356.33478 345.76657 334.63235 323.03514 311.22892 299.09870 286.90149
 274.61327 262.51005 250.51884 239.81962 229.94141 221.04519 213.22697 206.22876
 200.06254 195.00033 191.58211 189.62389 188.66068 188.72446 189.55924 190.86703
 192.59181 194.68660 196.94938 199.30816 201.75295 204.23273 206.32052 208.16230
 209.78808 210.93287 211.16165 211.38943 211.32622 211.03100 210.66379 210.29357
 209.91035 209.62014 209.42792 209.29170 209.21949 209.55027 209.93606 210.32484
 211.11762 212.29541 213.54519 215.32798 217.25576 219.29854 221.39333 223.47611
 225.53589 227.61968 229.71646 231.82225 233.95103 236.12281 238.37860 240.74838
 243.36917 245.61995 247.62173 249.38652 250.80330 251.92608 252.74787 253.06365
 253.10044 252.87422 252.23400 251.18179 249.78757 247.94836 245.85714 243.68992
 241.48071 239.28449 237.10427 234.94306 232.80284 230.66963 228.69541 226.85219
 225.13498 223.60676 222.23655 221.00833 219.89011 218.84990 217.95368 217.09446
 216.33625 215.51603 214.61382 213.97760 213.42738 214.15034 215.85841 218.17906
 220.36304 222.28406 223.86658 225.18240 226.30809 227.24944 227.64000 227.13542
 226.78494 228.33423 232.03273 236.55643 241.02924 245.35535 249.49092 253.29321
 256.76135 259.98138 262.93903 265.49280 267.58109 270.14587 272.12158 274.34802
 276.27942 278.03281 279.57782 280.94156 282.12433 283.17468 284.13657 285.01434
 285.81964 286.55157 287.19449 288.05145
 366.78100 356.33495 345.76689 334.63284 323.03578 311.22973 299.09968 286.90262
 274.61457 262.51151 250.52046 239.82141 229.94335 221.04730 213.22924 206.23119
 200.06514 195.00308 191.58503 189.62697 188.66392 188.72787 189.56281 190.87076
 192.59570 194.69065 196.95360 199.31254 201.75749 204.23744 206.32538 208.16733
 209.79327 210.93822 211.16717 211.39511 211.33206 211.03700 210.66995 210.29990
 209.91684 209.62679 209.43473 209.29868 209.22663 209.55757 209.94352 210.33246
 211.12541 212.30336 213.55330 215.33625 217.26419 219.30714 221.40209 223.48503
 225.54498 227.62892 229.72587 231.83182 233.96076 236.13271 238.38865 240.75860
 243.37955 245.63049 247.63244 249.39738 250.81433 251.93728 252.75922 253.07517
 253.11211 252.88606 252.24601 251.19395 249.79990 247.96084 245.86979 243.70274
 241.49368 239.29763 237.11757 234.95652 232.81647 230.68341 228.70936 226.86631
 225.14925 223.62120 222.25114 221.02309 219.90504 218.86498 217.96893 217.10987
 216.35182 215.53177 214.62971 213.99366 213.44360 214.16371 215.86502 218.26299
 220.48909 222.33597 223.81810 225.08786 226.25050 227.23798 227.61734 227.13290
 226.79890 228.34537 232.05383 236.58827 241.06071 245.36789 249.48230 253.26764
 256.71243 259.90677 262.85834 265.43384 267.53537 270.09396 272.04263 274.25662
 276.16949 277.91367 279.45615 280.81705 281.99976 283.04926 284.00946 284.88541
 285.69156 286.42422 287.06577 287.91751
 366.78100 356.33530 345.76760 334.63389 323.03719 311.23149 299.10179 286.90508
 274.61738 262.51468 250.52398 239.82528 229.94757 221.05187 213.23417 206.23647
 200.07076 195.00906 191.59136 189.63366 188.67096 188.73525 189.57055 190.87885
 192.60415 194.69944 196.96274 199.32204 201.76734 204.24763 206.33593 208.17823
 209.80453 210.94983 211.17912 211.40742 211.34472 211.05002 210.68331 210.31361
 209.93091 209.64121 209.44951 209.31380 209.24210 209.57340 209.95970 210.34899
 211.14229 212.32059 213.57089 215.35419 217.28248 219.32578 221.42108 223.50438
 225.56467 227.64897 229.74627 231.85257 233.98187 236.15416 238.41046 240.78076
 243.40206 245.65335 247.65565 249.42095 250.83825 251.96154 252.78384 253.10014
 253.13744 252.91174 252.27203 251.22033 249.82663 247.98793 245.89722 243.73052
 241.52182 239.32612 237.14642 234.98571 232.84601 230.71331 228.73961 226.89690
 225.18020 223.65250 222.28280 221.05510 219.93739 218.89769 218.00199 217.14329
 216.38558 215.56588 214.66418 214.02848 213.47878 214.18468 215.85245 218.35754
 220.63336 222.39798 223.78859 224.99541 226.16106 227.18645 227.57420 227.10965
 226.79785 228.35635 232.07764 236.62679 241.10239 245.39215 249.48627 253.26028
 256.68744 259.85757 262.80084 265.38873 267.46939 270.02438 271.97232 274.14972
 276.04959 277.78207 279.32007 280.68027 281.86191 282.91028 283.86807 284.74478
 285.54962 286.28363 286.91849 287.76831
 366.78100 356.33560 345.76820 334.63479 323.03839 311.23299 299.10359 286.90719
 274.61978 262.51738 250.52698 239.82858 229.95118 221.05577 213.23837 206.24097
 200.07557 195.01417 191.59676 189.63936 188.67696 188.74156 189.57716 190.88575
 192.61135 194.70695 196.97055 199.33015 201.77575 204.25634 206.34494 208.18754
 209.81414 210.95974 211.18933 211.41793 211.35553 211.06113 210.69473 210.32532
 209.94292 209.65352 209.46212 209.32672 209.25531 209.58691 209.97351 210.36311
 211.15671 212.33530 213.58590 215.36950 217.29810 219.34170 221.43729 223.52089
 225.58149 227.66609 229.76369 231.87028 233.99988 236.17248 238.42908 240.79968
 243.42127 245.67287 247.67547 249.44107 250.85867 251.98226 252.80486 253.12146
 253.15906 252.93366 252.29426 251.24285 249.84945 248.01105 245.92065 243.75425
 241.54584 239.35044 237.17104 235.01064 232.87124 230.73883 228.76543 226.92303
 225.20663 223.67923 222.30982 221.08242 219.96502 218.92562 218.03022 217.17181
 216.41441 215.59501 214.69361 214.05821 213.50880 214.20287 215.84265 218.44177
 220.79240 222.46419 223.73241 224.89780 226.09140 227.13759 227.51239 227.06572
 226.77751 228.36366 232.10013 236.66734 241.14726 245.42018 249.49380 253.25537
 256.66132 259.80051 262.72964 265.35193 267.50247 270.02048 271.88837 274.01959
 275.91827 277.64270 279.17545 280.53366 281.71460 282.76224 283.71875 284.59732
 285.40247 286.14255 286.78766 287.64243
 366.78100 356.33544 345.76787 334.63431 323.03774 311.23218 299.10261 286.90605
 274.61848 262.51592 250.52535 239.82679 229.94922 221.05366 213.23609 206.23853
 200.07296 195.01140 191.59383 189.63627 188.67370 188.73814 189.57358 190.88201
 192.60745 194.70288 196.96632 199.32575 201.77119 204.25162 206.34006 208.18249
 209.80893 210.95436 211.18380 211.41223 211.34967 211.05510 210.68854 210.31897
 209.93641 209.64684 209.45528 209.31971 209.24815 209.57959 209.96602 210.35546
 211.14889 212.32733 213.57776 215.36120 217.28963 219.33307 221.42850 223.51194
 225.57237 227.65681 229.75424 231.86068 233.99011 236.16255 238.41898 240.78942
 243.41085 245.66229 247.66473 249.43016 250.84760 251.97103 252.79347 253.10990
 253.14734 252.92177 252.28221 251.23064 249.83708 247.99851 245.90795 243.74138
 241.53282 239.33725 237.15769 234.99712 232.85756 230.72499 228.75143 226.90887
 225.19230 223.66474 222.29517 221.06761 219.95004 218.91048 218.01491 217.15635
 216.39878 215.57922 214.67765 214.04209 213.49252 214.19676 215.86061 218.50157
 220.94368 222.55782 223.69490 224.81281 226.01381 227.06143 227.42439 226.99570
 226.74471 228.37944 232.13190 236.71767 241.20778 245.46506 249.51627 253.26666
 256.65289 259.75372 262.66690 265.34042 267.51663 269.95007 271.80106 273.88065
 275.77817 277.49896 279.02600 280.38284 281.56335 282.61066 283.56830 284.44611
 285.25623 285.99329 286.64539 287.49561
 366.78100 356.33578 345.76856 334.63535 323.03913 311.23391 299.10469 286.90848
 274.62126 262.51904 250.52882 239.83060 229.95339 221.05817 213.24095 206.24373
 200.07852 195.01730 191.60008 189.64286 188.68064 188.74543 189.58121 190.88999
 192.61577 194.71156 196.97534 199.33512 201.78090 204.26168 206.35047 208.19325
 209.82003 210.96581 211.19560 211.42438 211.36216 211.06794 210.70172 210.33251
 209.95029 209.66107 209.46985 209.33464 209.26342 209.59520 209.98198 210.37176
 211.16555 212.34433 213.59511 215.37889 217.30768 219.35146 221.44724 223.53102
 225.59180 227.67659 229.77437 231.88115 234.01093 236.18372 238.44050 240.81128
 243.43306 245.68484 247.68763 249.45341 250.87119 251.99497 252.81776 253.13454
 253.17232 252.94710 252.30788 251.25667 249.86345 248.02523 245.93501 243.76880
 241.56058 239.36536 237.18614 235.02592 232.88671 230.75449 228.78127 226.93905
 225.22284 223.69562 222.32640 221.09918 219.98196 218.94275 218.04753 217.18931
 216.43209 215.61288 214.71166 214.07644 213.52722 214.21640 215.84465 218.58145
 221.11667 222.67020 223.68896 224.73785 225.90211 226.93677 227.33545 226.92570
 226.73660 228.41606 232.17453 236.77286 241.28069 245.52663 249.55861 253.29721
 256.66748 259.73471 262.62558 265.31836 267.52713 269.87018 271.77682 273.72775
 275.67004 277.36172 278.87061 280.21658 281.39288 282.43622 283.39014 284.26422
 285.07214 285.81470 286.43753 287.27625
 366.78100 356.33709 345.77118 334.63927 323.04436 311.24045 299.11254 286.91763
 274.63172 262.53081 250.54191 239.84500 229.96909 221.07518 213.25927 206.26336
 200.09945 195.03954 191.62363 189.66772 188.70681 188.77290 189.60999 190.92008
 192.64717 194.74426 197.00935 199.37044 201.81753 204.29962 206.38972 208.23381
 209.86190 211.00899 211.24008 211.47017 211.40926 211.11635 210.75144 210.38353
 210.00262 209.71471 209.52480 209.39089 209.32098 209.65407 210.04216 210.43325
 211.22834 212.40843 213.66053 215.44562 217.37571 219.42080 221.51789 223.60298
 225.66507 227.75116 229.85025 231.95834 234.08943 236.26352 238.52161 240.89370
 243.51679 245.76988 247.77397 249.54106 250.96015 252.08524 252.90934 253.22743
 253.26652 253.04261 252.40470 251.35479 249.96288 248.12597 246.03706 243.87215
 241.66524 239.47133 237.29342 235.13451 232.99660 230.86569 228.89378 227.05287
 225.33796 223.81205 222.44415 221.21824 220.10233 219.06442 218.17051 217.31360
 216.55769 215.73978 214.83987 214.20596 213.65805 214.29265 215.79193 218.61369
 221.31816 222.82385 223.69943 224.63824 225.73862 226.73643 227.15065 226.84332
 226.75264 228.48897 232.23352 236.84212 241.36751 245.60545 249.61549 253.34668
 256.70758 259.73349 262.58362 265.32458 267.57333 269.83618 271.69846 273.63214
 275.55038 277.21103 278.69150 280.02518 281.19699 282.24002 283.19412 284.06961
 284.88657 285.62650 286.27130 287.11829
 366.78100 356.33793 345.77285 334.64178 323.04770 311.24463 299.11755 286.92348
 274.63841 262.53833 250.55026 239.85418 229.97911 221.08604 213.27096 206.27589
 200.11281 195.05374 191.63866 189.68359 188.72352 188.79044 189.62837 190.93929
 192.66722 194.76514 197.03107 199.39300 201.84092 204.32385 206.41477 208.25970
 209.88862 211.03655 211.26848 211.49940 211.43933 211.14725 210.78318 210.41611
 210.03603 209.74896 209.55988 209.42681 209.35773 209.69166 210.08059 210.47251
 211.26844 212.44936 213.70229 215.48821 217.41914 219.46507 221.56299 223.64892
 225.71184 227.79877 229.89869 232.00762 234.13955 236.31447 238.57340 240.94632
 243.57025 245.82418 247.82910 249.59703 251.01695 252.14288 252.96780 253.28673
 253.32666 253.10358 252.46651 251.41743 250.02636 248.19028 246.10221 243.93814
 241.73206 239.53899 237.36191 235.20384 233.06676 230.93669 228.96562 227.12554
 225.41147 223.88639 222.51932 221.29425 220.17917 219.14210 218.24902 217.39295
 216.63787 215.82080 214.92173 214.28865 213.74158 214.34911 215.78447 218.57883
 221.43724 222.95247 223.73184 224.58920 225.64809 226.59460 226.95177 226.69193
 226.62904 228.47858 232.26291 236.89767 241.49124 245.74388 249.73270 253.46454
 256.82712 259.82370 262.59528 265.33160 267.60742 269.61050 271.84058 273.63522
 275.40997 277.04288 278.51892 279.83908 280.98685 282.00345 282.92123 283.78391
 284.55740 285.21252 285.75955 286.45670
 366.78100 356.33761 345.77222 334.64083 323.04644 311.24305 299.11566 286.92127
 274.63588 262.53549 250.54710 239.85071 229.97532 221.08192 213.26653 206.27114
 200.10775 195.04836 191.63297 189.67758 188.71719 188.78380 189.62141 190.93202
 192.65963 194.75724 197.02285 199.38446 201.83207 204.31468 206.40529 208.24990
 209.87851 211.02612 211.25773 211.48834 211.42795 211.13556 210.77117 210.40377
 210.02338 209.73599 209.54660 209.41321 209.34382 209.67743 210.06604 210.45765
 211.25326 212.43387 213.68648 215.47209 217.40270 219.44831 221.54592 223.63153
 225.69414 227.78075 229.88036 231.98897 234.12058 236.29519 238.55380 240.92641
 243.55002 245.80362 247.80823 249.57584 250.99545 252.12106 252.94567 253.26428
 253.30389 253.08050 252.44311 251.39372 250.00233 248.16594 246.07755 243.91316
 241.70677 239.51338 237.33599 235.17760 233.04021 230.90982 228.93843 227.09804
 225.38365 223.85826 222.49086 221.26547 220.15008 219.11269 218.21930 217.36291
 216.60752 215.79013 214.89074 214.25735 213.70996 214.33856 215.82368 218.63129
 221.44928 223.02673 223.84767 224.65691 225.66269 226.54665 226.87476 226.48517
 226.47627 228.43605 232.26669 236.93080 241.53584 245.81549 249.80298 253.53456
 256.90247 259.89481 262.61261 265.37561 267.69653 269.54074 271.76071 273.49564
 275.29904 276.90710 278.37701 279.68549 280.80612 281.76770 282.60464 283.46170
 284.25244 284.97067 285.54141 286.26874
 366.78100 356.33725 345.77151 334.63976 323.04501 311.24127 299.11352 286.91877
 274.63302 262.53228 250.54353 239.84678 229.97104 221.07729 213.26154 206.26580
 200.10205 195.04230 191.62655 189.67081 188.71006 188.77631 189.61357 190.92382
 192.65107 194.74833 197.01358 199.37483 201.82208 204.30434 206.39459 208.23884
 209.86710 211.01435 211.24560 211.47586 211.41511 211.12236 210.75761 210.38987
 210.00912 209.72137 209.53163 209.39788 209.32813 209.66139 210.04964 210.44089
 211.23614 212.41640 213.66865 215.45390 217.38416 219.42941 221.52666 223.61192
 225.67417 227.76042 229.85967 231.96793 234.09918 236.27343 238.53169 240.90394
 243.52719 245.78045 247.78470 249.55195 250.97120 252.09646 252.92071 253.23896
 253.27822 253.05447 252.41672 251.36698 249.97523 248.13848 246.04973 243.88499
 241.67824 239.48449 237.30675 235.14800 233.01025 230.87951 228.90776 227.06701
 225.35227 223.82652 222.45877 221.23302 220.11728 219.07953 218.18578 217.32904
 216.57329 215.75554 214.85580 214.22205 213.67430 214.32349 215.85724 218.71252
 221.51569 223.09250 223.92480 224.70796 225.66437 226.49704 226.81334 226.33081
 226.35036 228.38937 232.25781 236.93906 241.55701 245.83582 249.82452 253.54985
 256.93253 259.91327 262.63486 265.38184 267.75601 269.58923 271.63177 273.47260
 275.22357 276.78387 278.22842 279.51849 280.61755 281.58832 282.50189 283.35968
 284.13464 284.80774 285.37000 286.07266
 366.78100 356.33767 345.77233 334.64100 323.04666 311.24333 299.11599 286.92166
 274.63632 262.53599 250.54766 239.85132 229.97599 221.08265 213.26732 206.27198
 200.10865 195.04932 191.63398 189.67865 188.71831 188.78498 189.62264 190.93331
 192.66097 194.75864 197.02431 199.38597 201.83364 204.31630 206.40697 208.25163
 209.88030 211.02797 211.25963 211.49030 211.42996 211.13763 210.77329 210.40596
 210.02562 209.73829 209.54896 209.41562 209.34629 209.67995 210.06862 210.46028
 211.25595 212.43661 213.68928 215.47495 217.40561 219.45128 221.54894 223.63461
 225.69727 227.78394 229.88361 231.99227 234.12394 236.29860 238.55727 240.92993
 243.55360 245.80726 247.81193 249.57960 250.99926 252.12493 252.94959 253.26826
 253.30792 253.08459 252.44726 251.39792 250.00659 248.17025 246.08192 243.91758
 241.71125 239.51791 237.34058 235.18225 233.04491 230.91458 228.94324 227.10291
 225.38857 223.86324 222.49590 221.27057 220.15524 219.11790 218.22457 217.36823
 216.61290 215.79556 214.89623 214.26290 213.71556 214.35255 215.85751 218.73367
 221.63263 223.18703 223.92345 224.66669 225.60310 226.40862 226.71971 226.28679
 226.35106 228.40926 232.27824 236.96516 241.54965 245.87138 249.87500 253.59227
 256.97195 259.93271 262.59711 265.36478 267.76904 269.58914 271.54434 273.42590
 275.14178 276.67017 278.08197 279.33359 280.38657 281.31949 282.24301 283.11252
 283.88785 284.55688 285.13678 285.87988
 366.78100 356.33759 345.77219 334.64078 323.04637 311.24296 299.11556 286.92115
 274.63574 262.53534 250.54693 239.85052 229.97511 221.08171 213.26630 206.27089
 200.10749 195.04808 191.63267 189.67726 188.71686 188.78345 189.62104 190.93163
 192.65923 194.75682 197.02241 199.38401 201.83160 204.31419 206.40478 208.24938
 209.87797 211.02556 211.25716 211.48775 211.42734 211.13493 210.77053 210.40312
 210.02271 209.73531 209.54590 209.41249 209.34308 209.67668 210.06527 210.45686
 211.25246 212.43305 213.68564 215.47123 217.40183 219.44742 221.54501 223.63061
 225.69320 227.77979 229.87938 231.98798 234.11957 236.29416 238.55276 240.92535
 243.54894 245.80253 247.80713 249.57472 250.99431 252.11990 252.94450 253.26309
 253.30268 253.07928 252.44187 251.39246 250.00105 248.16465 246.07624 243.91183
 241.70543 239.51202 237.33461 235.17620 233.03880 230.90839 228.93698 227.09658
 225.38217 223.85676 222.48935 221.26395 220.14854 219.11113 218.21773 217.36132
 216.60591 215.78850 214.88910 214.25569 213.70828 214.36197 215.90654 218.69200
 221.66225 223.22543 223.90848 224.64273 225.59610 226.36722 226.61365 226.27612
 226.31546 228.37979 232.27226 236.99782 241.56847 245.91476 249.93712 253.67577
 257.05624 260.00525 262.64526 265.36166 267.75882 269.62717 271.44467 273.32016
 275.04297 276.56000 277.94009 279.15967 280.19781 281.22253 282.18631 283.06961
 283.86520 284.59894 285.24225 286.06204
 366.78100 356.33680 345.77061 334.63841 323.04321 311.23902 299.11082 286.91562
 274.62943 262.52823 250.53903 239.84184 229.96564 221.07145 213.25525 206.25905
 200.09486 195.03466 191.61846 189.66227 188.70107 188.76687 189.60368 190.91348
 192.64028 194.73709 197.00189 199.36269 201.80950 204.29130 206.38110 208.22491
 209.85271 210.99952 211.23032 211.46012 211.39893 211.10573 210.74053 210.37234
 209.99114 209.70294 209.51275 209.37855 209.30835 209.64116 210.02896 210.41976
 211.21457 212.39437 213.64617 215.43098 217.36078 219.40558 221.50239 223.58719
 225.64900 227.73480 229.83360 231.94141 234.07221 236.24601 238.50382 240.87562
 243.49842 245.75123 247.75503 249.52183 250.94064 252.06544 252.88924 253.20705
 253.24585 253.02165 252.38346 251.33326 249.94107 248.10387 246.01467 243.84948
 241.64228 239.44808 237.26989 235.11069 232.97249 230.84130 228.86910 227.02790
 225.31271 223.78651 222.41831 221.19212 220.07592 219.03772 218.14353 217.28633
 216.53013 215.71194 214.81174 214.17755 213.62935 214.33231 216.01588 218.75253
 221.55533 223.11552 223.93175 224.75040 225.74461 226.46310 226.54095 226.08801
 226.09868 228.28444 232.22444 236.97466 241.59612 245.91017 249.95497 253.69957
 257.08630 260.04611 262.72623 265.40936 267.80716 269.68369 271.49051 273.38046
 275.06323 276.56577 277.90637 279.09567 280.20813 281.25015 282.22974 283.13193
 283.98529 284.75290 285.42349 286.27808
 366.78100 356.33697 345.77095 334.63892 323.04390 311.23987 299.11185 286.91682
 274.63080 262.52977 250.54075 239.84372 229.96770 221.07367 213.25765 206.26162
 200.09760 195.03757 191.62155 189.66552 188.70450 188.77047 189.60745 190.91742
 192.64440 194.74137 197.00635 199.36732 201.81430 204.29627 206.38625 208.23022
 209.85819 211.00517 211.23614 211.46612 211.40509 211.11207 210.74704 210.37902
 209.99799 209.70997 209.51994 209.38592 209.31589 209.64887 210.03684 210.42782
 211.22279 212.40277 213.65474 215.43972 217.36969 219.41467 221.51164 223.59662
 225.65859 227.74457 229.84354 231.95152 234.08249 236.25647 238.51444 240.88642
 243.50939 245.76236 247.76634 249.53331 250.95229 252.07726 252.90124 253.21921
 253.25819 253.03416 252.39614 251.34611 249.95409 248.11706 246.02804 243.86301
 241.65599 239.46196 237.28394 235.12491 232.98689 230.85586 228.88384 227.04281
 225.32779 223.80176 222.43374 221.20771 220.09169 219.05366 218.15964 217.30261
 216.54658 215.72856 214.82853 214.19451 213.64648 214.34525 216.01790 218.84814
 221.62213 223.10168 223.85732 224.68681 225.77396 226.57721 226.66183 226.05583
 225.90839 228.14120 232.20779 236.97942 241.59476 245.84792 249.94203 253.71643
 257.12753 260.06918 262.71817 265.41437 267.81100 269.60336 271.40442 273.30670
 274.96030 276.44263 277.79108 279.07501 280.22687 281.26834 282.24316 283.13000
 283.95395 284.69891 285.34973 286.17911
 366.78100 356.33987 345.77674 334.64760 323.05547 311.25434 299.12921 286.93708
 274.65395 262.55581 250.56968 239.87555 230.00242 221.11129 213.29816 206.30502
 200.14389 195.08676 191.67363 189.72050 188.76236 188.83123 189.67110 190.98397
 192.71384 194.81371 197.08157 199.44544 201.89531 204.38018 206.47305 208.31991
 209.95078 211.10065 211.33452 211.56739 211.50926 211.21912 210.85699 210.49186
 210.11373 209.82860 209.64147 209.51033 209.44320 209.77907 210.16994 210.56381
 211.36167 212.54454 213.79941 215.58728 217.52015 219.56802 221.66788 223.75575
 225.82062 227.90949 230.01136 232.12222 234.25609 236.43296 238.69383 241.06870
 243.69457 245.95043 247.95730 249.72717 251.14904 252.27691 253.10378 253.42464
 253.46651 253.24538 252.61025 251.56312 250.17398 248.33985 246.25372 244.09159
 241.88746 239.69633 237.52119 235.36506 233.22993 231.10180 229.13267 227.29453
 225.58240 224.05927 222.69414 221.47101 220.35788 219.32274 218.43161 217.57748
 216.82435 216.00922 215.11209 214.48095 213.93582 214.51472 216.01741 218.86053
 221.69910 222.98683 223.79237 224.68109 225.75490 226.54897 226.56822 226.52048
 226.21657 228.21602 232.09525 236.80420 241.47699 245.84933 249.93855 253.73082
 257.14453 260.10526 262.75104 265.34879 267.64380 269.50995 271.34677 273.13028
 274.65390 276.03195 277.26221 278.51566 279.76086 280.99832 282.13458 283.16397
 284.08978 284.91425 285.63446 286.55228
 366.78100 356.34339 345.78378 334.65817 323.06956 311.27195 299.15034 286.96173
 274.68212 262.58751 250.60489 239.91428 230.04467 221.15706 213.34745 206.35784
 200.20023 195.14662 191.73701 189.78740 188.83279 188.90518 189.74857 191.06496
 192.79835 194.90174 197.17313 199.54052 201.99391 204.48230 206.57868 208.42907
 210.06346 211.21685 211.45424 211.69063 211.63602 211.34941 210.99080 210.62919
 210.25458 209.97297 209.78936 209.66175 209.59814 209.93753 210.33192 210.72931
 211.53070 212.71708 213.97547 215.76686 217.70325 219.75464 221.85803 223.94942
 226.01781 228.11020 230.21559 232.32998 234.46737 236.64776 238.91215 241.29054
 243.91993 246.17932 248.18971 249.96310 251.38849 252.51987 253.35026 253.67465
 253.72004 253.50243 252.87082 251.82721 250.44160 248.61099 246.52838 244.36977
 242.16916 239.98155 237.80994 235.65733 233.52572 231.40111 229.43550 227.60089
 225.89227 224.37266 223.01105 221.79144 220.68183 219.65022 218.76261 217.91200
 217.16239 216.35078 215.45717 214.82956 214.28795 214.73712 216.08772 218.84016
 221.73779 223.29979 224.18393 224.97322 225.81558 226.09644 226.68396 225.96208
 226.18803 228.37561 232.27821 236.87692 241.48877 245.87251 249.99236 253.80800
 257.11401 260.11884 262.89651 265.44562 267.60565 269.49243 271.34451 273.15225
 274.68082 276.27231 278.04166 279.59528 280.93979 282.12933 283.21463 284.19781
 285.08209 285.86957 286.55746 287.43411
 366.78100 356.34200 345.78100 334.65400 323.06400 311.26500 299.14200 286.95200
 274.67100 262.57500 250.59100 239.89900 230.02800 221.13900 213.32800 206.33700
 200.17800 195.12300 191.71199 189.76099 188.80499 188.87599 189.71799 191.03299
 192.76499 194.86699 197.13699 199.50299 201.95499 204.44199 206.53699 208.38599
 210.01899 211.17099 211.40699 211.64199 211.58599 211.29799 210.93799 210.57499
 210.19899 209.91599 209.73099 209.60199 209.53699 209.87499 210.26799 210.66399
 211.46399 212.64899 213.90599 215.69599 217.63099 219.68098 221.78298 223.87298
 225.93998 228.03098 230.13498 232.24798 234.38398 236.56298 238.82598 241.20298
 243.83098 246.08898 248.09798 249.86998 251.29398 252.42398 253.25298 253.57598
 253.61998 253.40098 252.76798 251.72298 250.33598 248.50398 246.41998 244.25998
 242.05798 239.86898 237.69598 235.54198 233.40898 231.28298 229.31598 227.47998
 225.76997 224.24897 222.88597 221.66497 220.55397 219.52097 218.63197 217.77997
 217.02897 216.21597 215.32097 214.69197 214.14897 214.69652 216.21918 218.74562
 221.58809 223.53906 224.49924 225.02101 225.75459 226.15475 226.50438 225.60634
 225.81374 228.22621 232.29346 236.96149 241.61298 246.02574 250.17924 254.06650
 257.49036 260.53415 263.27545 265.84378 268.10526 269.97653 271.64182 273.18951
 274.97791 277.15305 279.19836 280.99432 282.54858 283.92368 285.17825 286.31482
 287.33704 288.24731 289.04254 290.05594
 366.78100 356.34060 345.77820 334.64980 323.05840 311.25800 299.13360 286.94220
 274.65980 262.56240 250.57700 239.88360 230.01120 221.12080 213.30840 206.31600
 200.15560 195.09920 191.68680 189.73440 188.77700 188.84660 189.68720 191.00080
 192.73140 194.83200 197.10060 199.46520 201.91580 204.40140 206.49500 208.34260
 209.97420 211.12480 211.35940 211.59300 211.53560 211.24620 210.88480 210.52040
 210.14299 209.85859 209.67219 209.54179 209.47539 209.81199 210.20359 210.59819
 211.39679 212.58039 213.83599 215.62459 217.55819 219.60679 221.70739 223.79599
 225.86159 227.95119 230.05379 232.16539 234.29999 236.47759 238.73919 241.11479
 243.74139 245.99799 248.00559 249.77619 251.19879 252.32739 253.15499 253.47659
 253.51919 253.29879 252.66439 251.61799 250.22959 248.39619 246.31079 244.14939
 241.94599 239.75559 237.58119 235.42579 233.29139 231.16399 229.19559 227.35819
 225.64679 224.12439 222.75999 221.53759 220.42519 219.39079 218.50039 217.64699
 216.89459 216.08019 215.18379 214.55339 214.00899 214.63170 216.27216 218.75494
 221.45065 223.38182 224.59895 225.14423 225.76756 226.36653 226.28047 225.55470
 225.80360 228.17712 232.23985 236.90950 241.54762 245.94835 250.11475 253.96585
 257.43878 260.48340 263.26016 265.86734 268.17212 270.14188 271.89703 273.55130
 275.02060 276.75128 278.52307 280.28906 281.81735 283.16949 284.40314 285.52072
 286.52588 287.42096 288.20291 289.19937
 366.78100 356.34080 345.77859 334.65039 323.05918 311.25898 299.13477 286.94357
 274.66137 262.56416 250.57896 239.88575 230.01355 221.12334 213.31114 206.31893
 200.15873 195.10253 191.69032 189.73812 188.78091 188.85071 189.69150 191.00530
 192.73610 194.83689 197.10569 199.47048 201.92128 204.40707 206.50087 208.34866
 209.98046 211.13126 211.36605 211.59985 211.54264 211.25344 210.89223 210.52803
 210.15083 209.86662 209.68042 209.55021 209.48401 209.82080 210.21260 210.60740
 211.40619 212.58999 213.84578 215.63458 217.56837 219.61717 221.71796 223.80676
 225.87256 227.96235 230.06515 232.17694 234.31174 236.48953 238.75133 241.12713
 243.75392 246.01072 248.01851 249.78931 251.21210 252.34090 253.16870 253.49049
 253.53329 253.31308 252.67888 251.63267 250.24447 248.41126 246.32606 244.16486
 241.96165 239.77145 237.59724 235.44204 233.30783 231.18063 229.21243 227.37522
 225.66402 224.14181 222.77761 221.55540 220.44320 219.40899 218.51879 217.66559
 216.91338 216.09918 215.20297 214.57277 214.02856 214.65814 216.30540 218.74817
 221.46443 223.32655 224.59123 225.17793 225.76730 226.34166 226.33461 225.58315
 225.76366 228.13411 232.21915 236.91422 241.56700 245.97112 250.14845 253.96393
 257.35358 260.44522 263.28378 265.87592 268.15073 270.06720 271.74533 273.36093
 274.79562 276.52518 278.31464 280.07724 281.60260 282.95218 284.18347 285.29892
 286.30215 287.19553 287.97595 288.97055
 366.78100 356.34160 345.78020 334.65279 323.06239 311.26299 299.13959 286.94918
 274.66778 262.57138 250.58698 239.89457 230.02317 221.13377 213.32237 206.33096
 200.17156 195.11616 191.70476 189.75336 188.79695 188.86755 189.70915 191.02375
 192.75534 194.85694 197.12654 199.49214 201.94373 204.43033 206.52493 208.37353
 210.00612 211.15772 211.39332 211.62792 211.57152 211.28311 210.92271 210.55931
 210.18291 209.89950 209.71410 209.58470 209.51930 209.85689 210.24949 210.64509
 211.44469 212.62928 213.88588 215.67548 217.61008 219.65968 221.76127 223.85087
 225.91747 228.00807 230.11166 232.22426 234.35986 236.53846 238.80105 241.17765
 243.80525 246.06285 248.07144 249.84304 251.26664 252.39624 253.22484 253.54743
 253.59103 253.37163 252.73823 251.69282 250.30542 248.47302 246.38862 244.22821
 242.02581 239.83641 237.66301 235.50860 233.37520 231.24880 229.28140 227.44500
 225.73459 224.21319 222.84979 221.62839 220.51698 219.48358 218.59418 217.74178
 216.99037 216.17697 215.28157 214.65217 214.10876 214.71982 216.33504 218.75204
 221.42424 223.38998 224.66667 225.15512 225.72125 226.26982 226.33664 225.44501
 225.57208 228.05399 232.22672 236.95175 241.63754 246.08714 250.30986 254.16518
 257.59741 260.70154 263.46396 266.02194 268.33838 270.26291 271.89746 273.44550
 274.83322 276.60510 278.52145 280.29977 281.83878 283.20041 284.44266 285.56808
 286.58026 287.48163 288.26901 289.27249
 366.78100 356.34285 345.78270 334.65654 323.06739 311.26924 299.14709 286.95794
 274.67778 262.58263 250.59948 239.90833 230.03818 221.15003 213.33987 206.34972
 200.19157 195.13742 191.72727 189.77711 188.82196 188.89381 189.73666 191.05251
 192.78535 194.88820 197.15905 199.52590 201.97875 204.46660 206.56244 208.41229
 210.04614 211.19899 211.43584 211.67168 211.61653 211.32938 210.97023 210.60808
 210.23292 209.95077 209.76662 209.63847 209.57432 209.91316 210.30701 210.70386
 211.50471 212.69056 213.94841 215.73925 217.67510 219.72595 221.82880 223.91965
 225.98749 228.07934 230.18419 232.29804 234.43489 236.61473 238.87858 241.25643
 243.88528 246.14413 248.15397 249.92682 251.35167 252.48252 253.31237 253.63622
 253.68106 253.46291 252.83076 251.78661 250.40046 248.56930 246.48615 244.32700
 242.12585 239.93770 237.76554 235.61239 233.48024 231.35509 229.38894 227.55379
 225.84463 224.32448 222.96233 221.74218 220.63203 219.59987 218.71172 217.86057
 217.11042 216.29827 215.40411 214.77596 214.23381 214.80429 216.35344 218.77710
 221.39055 223.42276 224.69989 225.15474 225.73845 226.30670 226.41246 225.20595
 225.24709 227.85660 232.14656 236.89781 241.60118 246.09869 250.37781 254.31290
 257.82101 260.84674 263.59100 266.14246 268.47522 270.38293 271.98511 273.48917
 275.12741 277.08658 279.23041 281.11288 282.74197 284.18332 285.49832 286.68964
 287.76108 288.71521 289.54871 290.61093
 366.78100 356.34272 345.78245 334.65617 323.06690 311.26862 299.14635 286.95707
 274.67679 262.58152 250.59824 239.90697 230.03669 221.14841 213.33814 206.34786
 200.18959 195.13531 191.72504 189.77476 188.81948 188.89121 189.73393 191.04966
 192.78238 194.88511 197.15583 199.52255 201.97528 204.46300 206.55873 208.40845
 210.04217 211.19490 211.43162 211.66735 211.61207 211.32480 210.96552 210.60324
 210.22797 209.94569 209.76142 209.63314 209.56886 209.90759 210.30131 210.69804
 211.49876 212.68449 213.94221 215.73293 217.66866 219.71938 221.82211 223.91283
 225.98056 228.07228 230.17700 232.29073 234.42745 236.60718 238.87090 241.24862
 243.87735 246.13607 248.14580 249.91852 251.34325 252.47397 253.30369 253.62742
 253.67214 253.45387 252.82159 251.77732 250.39104 248.55976 246.47649 244.31721
 242.11594 239.92766 237.75538 235.60211 233.46983 231.34456 229.37828 227.54301
 225.83373 224.31345 222.95118 221.73090 220.62063 219.58835 218.70008 217.84880
 217.09852 216.28625 215.39197 214.76370 214.22142 214.82172 216.42250 218.74953
 221.33884 223.42760 224.70160 225.14493 225.71443 226.42757 226.54491 225.07468
 225.06233 227.69525 232.06525 236.80940 241.51982 246.05115 250.36725 254.38211
 257.95758 260.99881 263.78122 266.31039 268.63876 270.56158 272.14749 273.58279
 275.56067 277.63986 279.78232 281.66354 283.29160 284.73199 286.04614 287.23669
 288.30743 289.26096 290.09390 291.15543
 366.78100 356.34137 345.77975 334.65212 323.06150 311.26187 299.13824 286.94762
 274.66599 262.56937 250.58474 239.89211 230.02049 221.13086 213.31924 206.32761
 200.16798 195.11236 191.70073 189.74911 188.79248 188.86285 189.70423 191.01860
 192.74997 194.85135 197.12072 199.48610 201.93747 204.42384 206.51822 208.36659
 209.99897 211.15034 211.38571 211.62009 211.56346 211.27484 210.91421 210.55058
 210.17396 209.89033 209.70471 209.57508 209.50945 209.84683 210.23920 210.63458
 211.43395 212.61832 213.87470 215.66407 217.59845 219.64782 221.74919 223.83857
 225.90494 227.99532 230.09869 232.21106 234.34644 236.52481 238.78719 241.16356
 243.79093 246.04831 248.05668 249.82805 251.25143 252.38080 253.20918 253.53155
 253.57492 253.35530 252.72167 251.67605 250.28842 248.45579 246.37117 244.21054
 242.00792 239.81829 237.64466 235.49004 233.35641 231.22979 229.26216 227.42553
 225.71491 224.19328 222.82966 221.60803 220.49640 219.46278 218.57315 217.72053
 216.96890 216.15527 215.25965 214.63002 214.08640 214.77159 216.50247 218.69202
 221.20357 223.38918 224.66277 225.08333 225.55611 226.51138 226.61864 225.28207
 225.30280 227.74040 231.97427 236.67999 241.37761 245.92455 250.26474 254.28552
 257.88126 261.05869 263.95081 266.58038 268.96252 271.00983 272.72501 274.22598
 275.77512 277.59015 279.27802 281.15372 282.78247 284.22348 285.53821 286.72925
 287.80048 288.75439 289.58771 290.64969
 366.78100 356.34133 345.77965 334.65198 323.06130 311.26163 299.13796 286.94728
 274.66561 262.56894 250.58426 239.89159 230.01991 221.13024 213.31857 206.32689
 200.16722 195.11155 191.69987 189.74820 188.79152 188.86185 189.70318 191.01750
 192.74883 194.85015 197.11948 199.48481 201.93613 204.42246 206.51679 208.36511
 209.99744 211.14876 211.38409 211.61842 211.56174 211.27307 210.91240 210.54872
 210.17205 209.88837 209.70270 209.57303 209.50735 209.84468 210.23700 210.63233
 211.43166 212.61598 213.87231 215.66164 217.59596 219.64529 221.74661 223.83594
 225.90227 227.99259 230.09592 232.20825 234.34357 236.52190 238.78422 241.16055
 243.78788 246.04520 248.05353 249.82485 251.24818 252.37751 253.20583 253.52816
 253.57149 253.35181 252.71814 251.67246 250.28479 248.45212 246.36744 244.20677
 242.00410 239.81442 237.64075 235.48607 233.35240 231.22573 229.25805 227.42138
 225.71070 224.18903 222.82536 221.60368 220.49201 219.45834 218.56866 217.71599
 216.96431 216.15064 215.25497 214.62529 214.08162 214.77475 216.47997 218.72964
 221.00075 223.11818 224.62033 225.03610 225.33276 226.41805 227.07072 225.24632
 225.47652 227.67476 231.87172 236.56337 241.22154 245.75117 250.06258 254.03931
 257.61667 260.85330 263.83148 266.56119 269.00262 271.16183 273.06696 274.72610
 276.20203 277.66440 279.22797 280.60806 281.78650 282.92462 284.00830 284.99005
 285.87305 286.65933 287.34622 288.22162
 366.78100 356.34099 345.77898 334.65097 323.05996 311.25995 299.13594 286.94493
 274.66292 262.56591 250.58090 239.88789 230.01588 221.12587 213.31386 206.32185
 200.16184 195.10583 191.69382 189.74180 188.78479 188.85478 189.69577 191.00976
 192.74075 194.84174 197.11073 199.47572 201.92671 204.41270 206.50669 208.35468
 209.98667 211.13766 211.37265 211.60664 211.54963 211.26062 210.89961 210.53560
 210.15859 209.87458 209.68857 209.55856 209.49255 209.82954 210.22153 210.61652
 211.41551 212.59950 213.85549 215.64448 217.57847 219.62746 221.72845 223.81744
 225.88343 227.97341 230.07640 232.18839 234.32338 236.50137 238.76336 241.13935
 243.76634 246.02333 248.03132 249.80231 251.22530 252.35429 253.18228 253.50427
 253.54726 253.32725 252.69324 251.64723 250.25922 248.42621 246.34120 244.18019
 241.97718 239.78717 237.61316 235.45815 233.32414 231.19713 229.22912 227.39211
 225.68110 224.15909 222.79508 221.57307 220.46106 219.42705 218.53704 217.68402
 216.93201 216.11800 215.22199 214.59198 214.04797 214.76331 216.47548 218.77014
 220.99141 223.05774 224.65083 225.05446 225.32430 226.29947 226.97176 225.14485
 225.52841 227.70512 231.86566 236.55690 241.21680 245.74796 250.04854 253.98717
 257.50845 260.70135 263.66022 266.38190 268.84039 271.05472 273.06042 274.85294
 276.41275 277.83075 279.20914 280.54971 281.61179 282.49448 283.39627 284.29681
 285.14883 285.90756 286.57037 287.41504
 366.78100 356.33957 345.77615 334.64672 323.05430 311.25287 299.12745 286.93502
 274.65160 262.55317 250.56675 239.87232 229.99890 221.10747 213.29405 206.30062
 200.13920 195.08177 191.66835 189.71492 188.75650 188.82507 189.66465 190.97722
 192.70680 194.80637 197.07395 199.43752 201.88710 204.37167 206.46425 208.31082
 209.94140 211.09097 211.32455 211.55712 211.49870 211.20827 210.84585 210.48042
 210.10200 209.81657 209.62915 209.49772 209.43030 209.76587 210.15645 210.55002
 211.34760 212.53017 213.78475 215.57232 217.50490 219.55247 221.65205 223.73962
 225.80420 227.89277 229.99435 232.10492 234.23850 236.41507 238.67565 241.05022
 243.67580 245.93137 247.93795 249.70752 251.12910 252.25667 253.08325 253.40382
 253.44540 253.22397 252.58855 251.54112 250.15170 248.31727 246.23085 244.06842
 241.86400 239.67257 237.49715 235.34072 233.20530 231.07687 229.10744 227.26902
 225.55659 224.03317 222.66774 221.44432 220.33089 219.29547 218.40404 217.54962
 216.79619 215.98077 215.08334 214.45192 213.90649 214.69640 216.57329 218.80757
 220.86729 223.00304 224.72591 225.11606 225.35936 226.24507 226.78218 225.10765
 225.51227 227.82239 231.92841 236.58983 241.25676 245.79628 250.09500 254.02330
 257.52893 260.71555 263.67145 266.36798 268.77560 270.93884 272.94717 274.79700
 276.41431 277.83340 279.11679 280.33862 281.35056 282.09988 282.89645 283.77939
 284.65558 285.45117 286.14618 287.03189
 366.78100 356.34062 345.77824 334.64986 323.05848 311.25810 299.13372 286.94234
 274.65996 262.56258 250.57720 239.88383 230.01145 221.12107 213.30869 206.31631
 200.15593 195.09955 191.68717 189.73479 188.77741 188.84703 189.68765 191.00127
 192.73189 194.83251 197.10113 199.46575 201.91637 204.40199 206.49561 208.34323
 209.97486 211.12548 211.36010 211.59372 211.53634 211.24696 210.88558 210.52120
 210.14382 209.85944 209.67306 209.54268 209.47630 209.81292 210.20454 210.59916
 211.39778 212.58140 213.83702 215.62564 217.55926 219.60789 221.70851 223.79713
 225.86275 227.95237 230.05499 232.16661 234.30123 236.47885 238.74047 241.11609
 243.74271 245.99933 248.00695 249.77757 251.20019 252.32881 253.15643 253.47805
 253.52067 253.30029 252.66592 251.61954 250.23116 248.39778 246.31240 244.15102
 241.94764 239.75726 237.58288 235.42750 233.29312 231.16574 229.19736 227.35998
 225.64860 224.12622 222.76184 221.53946 220.42708 219.39270 218.50232 217.64894
 216.89657 216.08219 215.18581 214.55543 214.01105 214.75272 216.52179 218.96747
 220.73460 222.78203 224.74532 225.21025 225.42105 226.23239 226.70511 225.13037
 225.52617 227.84113 231.94104 236.58189 241.25133 245.78970 250.08401 254.01018
 257.52072 260.71252 263.66913 266.35556 268.73792 270.86002 272.84988 274.71707
 276.36105 277.76675 278.97675 280.04718 281.07013 281.88068 282.76639 283.67450
 284.58145 285.39304 286.10202 287.00552
 366.78100 356.34117 345.77934 334.65151 323.06067 311.26084 299.13701 286.94618
 274.66435 262.56752 250.58269 239.88986 230.01802 221.12819 213.31636 206.32453
 200.16470 195.10887 191.69704 189.74521 188.78837 188.85854 189.69971 191.01388
 192.74505 194.84622 197.11539 199.48056 201.93172 204.41789 206.51206 208.36023
 209.99240 211.14357 211.37874 211.61291 211.55607 211.26724 210.90641 210.54258
 210.16575 209.88192 209.69609 209.56626 209.50042 209.83759 210.22976 210.62493
 211.42410 212.60827 213.86444 215.65360 217.58777 219.63694 221.73811 223.82728
 225.89345 227.98362 230.08679 232.19895 234.33412 236.51229 238.77446 241.15063
 243.77780 246.03497 248.04314 249.81430 251.23747 252.36664 253.19481 253.51698
 253.56015 253.34032 252.70649 251.66065 250.27282 248.43999 246.35516 244.19433
 241.99150 239.80167 237.62784 235.47300 233.33917 231.21234 229.24451 227.40768
 225.69685 224.17502 222.81118 221.58935 220.47752 219.44369 218.55386 217.70103
 216.94920 216.13537 215.23953 214.60970 214.06587 214.78671 216.48978 218.99908
 220.84837 222.70180 224.60092 225.22697 225.52504 226.20833 226.62329 225.29079
 225.57452 227.93091 231.94337 236.55205 241.21953 245.76682 250.08119 254.02541
 257.53406 260.70096 263.64236 266.33057 268.72488 270.83441 272.81003 274.68146
 276.33124 277.72565 278.90106 279.90286 280.91388 281.81955 282.54724 283.42477
 284.24518 285.03311 285.72144 286.59863
 366.78100 356.34034 345.77769 334.64903 323.05738 311.25672 299.13206 286.94041
 274.65775 262.56009 250.57444 239.88078 230.00813 221.11747 213.30481 206.31216
 200.15150 195.09485 191.68219 189.72953 188.77188 188.84122 189.68156 190.99491
 192.72525 194.82560 197.09394 199.45828 201.90863 204.39397 206.48731 208.33466
 209.96600 211.11635 211.35069 211.58403 211.52638 211.23672 210.87507 210.51041
 210.13275 209.84810 209.66144 209.53078 209.46413 209.80047 210.19182 210.58616
 211.38450 212.56785 213.82319 215.61154 217.54488 219.59322 221.69357 223.78191
 225.84725 227.93660 230.03894 232.15029 234.28463 236.46197 238.72332 241.09866
 243.72501 245.98135 247.98869 249.75904 251.18138 252.30972 253.13707 253.45841
 253.50076 253.28010 252.64544 251.59879 250.21013 248.37648 246.29082 244.12916
 241.92551 239.73485 237.56019 235.40454 233.26988 231.14223 229.17357 227.33591
 225.62426 224.10160 222.73694 221.51429 220.40163 219.36698 218.47632 217.62266
 216.87001 216.05535 215.15870 214.52804 213.98338 214.75334 216.57245 218.91971
 220.97887 222.76781 224.46242 225.19540 225.58395 226.13426 226.46292 225.47450
 225.64656 228.01657 231.94092 236.53061 241.19594 245.75610 250.08560 254.04257
 257.54428 260.68509 263.60611 266.30383 268.72186 270.82266 272.78000 274.64850
 276.30652 277.70847 278.90784 279.92532 280.87537 281.85022 282.60794 283.24985
 284.02011 284.73502 285.40387 286.27695
 366.78100 356.34005 345.77710 334.64816 323.05621 311.25526 299.13031 286.93837
 274.65542 262.55747 250.57152 239.87758 230.00463 221.11368 213.30073 206.30779
 200.14684 195.08989 191.67694 189.72400 188.76605 188.83510 189.67515 190.98820
 192.71826 194.81831 197.08636 199.45041 201.90047 204.38552 206.47857 208.32562
 209.95668 211.10673 211.34078 211.57383 211.51589 211.22594 210.86399 210.49904
 210.12110 209.83615 209.64920 209.51825 209.45131 209.78736 210.17841 210.57246
 211.37051 212.55357 213.80862 215.59667 217.52972 219.57778 221.67783 223.76588
 225.83093 227.91999 230.02204 232.13309 234.26714 236.44420 238.70525 241.08030
 243.70635 245.96241 247.96946 249.73951 251.16156 252.28961 253.11667 253.43772
 253.47977 253.25882 252.62388 251.57693 250.18798 248.35403 246.26809 244.10614
 241.90219 239.71124 237.53630 235.38035 233.24540 231.11745 229.14851 227.31056
 225.59861 224.07566 222.71072 221.48777 220.37482 219.33987 218.44892 217.59498
 216.84203 216.02708 215.13013 214.49919 213.95424 214.74783 216.62277 218.87857
 221.01465 222.80887 224.40158 225.19852 225.53871 225.98094 226.32167 225.54402
 225.72929 228.14037 231.97632 236.52983 241.19269 245.76289 250.10228 254.06044
 257.54568 260.66650 263.57703 266.28561 268.71503 270.83218 272.78775 274.62515
 276.25873 277.65820 278.86368 279.90894 280.94568 281.99399 282.82703 283.30316
 283.92023 284.60928 285.23892 286.10446
 366.78100 356.34055 345.77810 334.64964 323.05819 311.25774 299.13329 286.94183
 274.65938 262.56193 250.57648 239.88302 230.01057 221.12012 213.30767 206.31521
 200.15476 195.09831 191.68586 189.73340 188.77595 188.84550 189.68605 190.99959
 192.73014 194.83069 197.09924 199.46378 201.91433 204.39988 206.49343 208.34097
 209.97252 211.12307 211.35762 211.59116 211.53371 211.24426 210.88281 210.51835
 210.14090 209.85645 209.67000 209.53954 209.47309 209.80964 210.20119 210.59573
 211.39428 212.57783 213.83338 215.62192 217.55547 219.60402 221.70457 223.79311
 225.85866 227.94821 230.05076 232.16230 234.29685 236.47440 238.73595 241.11149
 243.73804 245.99459 248.00214 249.77268 251.19523 252.32378 253.15133 253.47288
 253.51542 253.29497 252.66052 251.61407 250.22561 248.39216 246.30671 244.14526
 241.94180 239.75135 237.57690 235.42145 233.28699 231.15954 229.19109 227.35364
 225.64218 224.11973 222.75528 221.53283 220.42037 219.38592 218.49547 217.64202
 216.88956 216.07511 215.17866 214.54821 214.00375 214.78365 216.62625 218.87457
 221.00868 222.81725 224.37483 225.15839 225.41002 225.77255 226.15205 225.78391
 226.04851 228.19884 231.98453 236.53749 241.19740 245.77261 250.11562 254.07082
 257.54144 260.65210 263.56403 266.28568 268.72345 270.85196 272.80618 274.62170
 276.23514 277.62897 278.84305 279.91751 280.90497 281.90439 282.88354 283.52014
 284.01120 284.68103 285.31067 286.16568
 366.78100 356.34131 345.77962 334.65193 323.06124 311.26155 299.13786 286.94717
 274.66548 262.56879 250.58410 239.89141 230.01972 221.13003 213.31834 206.32665
 200.16696 195.11127 191.69958 189.74789 188.79120 188.86151 189.70282 191.01713
 192.74844 194.84975 197.11906 199.48437 201.93568 204.42199 206.51631 208.36462
 209.99693 211.14824 211.38355 211.61786 211.56117 211.27248 210.91179 210.54810
 210.17141 209.88772 209.70203 209.57234 209.50665 209.84396 210.23627 210.63158
 211.43089 212.61520 213.87151 215.66082 217.59513 219.64444 221.74575 223.83506
 225.90137 227.99168 230.09499 232.20730 234.34261 236.52092 238.78323 241.15954
 243.78685 246.04416 248.05247 249.82378 251.24709 252.37640 253.20471 253.52702
 253.57033 253.35064 252.71695 251.67126 250.28357 248.45088 246.36619 244.20550
 242.00281 239.81312 237.63943 235.48474 233.35105 231.22436 229.25667 227.41998
 225.70930 224.18761 222.82392 221.60223 220.49054 219.45685 218.56716 217.71447
 216.96278 216.14909 215.25340 214.62371 214.08002 214.83453 216.61719 218.87440
 221.00404 222.83333 224.36232 225.10037 225.29839 225.58270 225.95793 226.00702
 226.36649 228.24767 231.98624 236.54713 241.20651 245.78500 250.12764 254.07886
 257.54318 260.65353 263.56735 266.29080 268.72916 270.86365 272.81500 274.61667
 276.21716 277.61325 278.84140 279.94632 280.91248 281.93195 282.93689 283.82510
 284.15958 284.81375 285.43951 286.28491
 366.78100 356.34190 345.78080 334.65370 323.06360 311.26450 299.14140 286.95130
 274.67020 262.57410 250.59001 239.89791 230.02681 221.13771 213.32661 206.33551
 200.17641 195.12131 191.71021 189.75911 188.80301 188.87391 189.71581 191.03071
 192.76261 194.86451 197.13441 199.50031 201.95221 204.43912 206.53402 208.38292
 210.01582 211.16772 211.40362 211.63852 211.58242 211.29432 210.93422 210.57112
 210.19502 209.91192 209.72682 209.59772 209.53262 209.87052 210.26342 210.65933
 211.45923 212.64413 213.90103 215.69093 217.62583 219.67573 221.77763 223.86753
 225.93443 228.02533 230.12923 232.24213 234.37803 236.55693 238.81983 241.19673
 243.82463 246.08253 248.09144 249.86334 251.28724 252.41714 253.24604 253.56894
 253.61284 253.39374 252.76064 251.71554 250.32844 248.49634 246.41224 244.25214
 242.05004 239.86094 237.68784 235.53374 233.40064 231.27455 229.30745 227.47135
 225.76125 224.24015 222.87705 221.65595 220.54485 219.51175 218.62265 217.77055
 217.01945 216.20635 215.31125 214.68215 214.13905 214.87718 216.62108 218.86089
 221.00148 222.86052 224.34882 225.00613 225.17987 225.42654 225.80493 226.16151
 226.58461 228.27930 231.99460 236.56616 241.23016 245.81378 250.15511 254.10385
 257.56595 260.67401 263.58008 266.29172 268.72183 270.85809 272.80621 274.59714
 276.19516 277.60513 278.86292 280.01471 280.99097 282.01215 283.00446 283.90738
 284.59375 285.18472 285.78271 286.59918
 366.78100 356.34206 345.78112 334.65418 323.06425 311.26531 299.14237 286.95243
 274.67149 262.57555 250.59162 239.89968 230.02874 221.13980 213.32886 206.33792
 200.17899 195.12405 191.71311 189.76217 188.80623 188.87729 189.71936 191.03442
 192.76648 194.86854 197.13860 199.50466 201.95673 204.44379 206.53885 208.38791
 210.02097 211.17303 211.40910 211.64416 211.58822 211.30028 210.94034 210.57740
 210.20147 209.91853 209.73359 209.60465 209.53971 209.87777 210.27084 210.66690
 211.46696 212.65202 213.90908 215.69914 217.63421 219.68427 221.78633 223.87639
 225.94345 228.03451 230.13858 232.25164 234.38770 236.56676 238.82982 241.20688
 243.83495 246.09301 248.10207 249.87413 251.29819 252.42825 253.25732 253.58038
 253.62444 253.40550 252.77256 251.72762 250.34069 248.50875 246.42481 244.26487
 242.06293 239.87399 237.70106 235.54712 233.41418 231.28824 229.32130 227.48536
 225.77543 224.25449 222.89155 221.67061 220.55967 219.52673 218.63780 217.78586
 217.03492 216.22198 215.32704 214.69810 214.15517 214.89769 216.65198 218.83441
 220.98866 222.89476 224.34874 224.90163 225.03006 225.26164 225.69577 226.24519
 226.70461 228.31960 232.02704 236.60338 241.27431 245.86249 250.19937 254.14398
 257.60431 260.70691 263.59888 266.29410 268.71323 270.85263 272.79282 274.56390
 276.14600 277.56204 278.84644 280.04044 281.14764 282.19479 283.18341 284.08609
 284.88913 285.58688 286.19485 286.98447
 366.78100 356.34186 345.78071 334.65357 323.06342 311.26428 299.14113 286.95099
 274.66985 262.57370 250.58956 239.89741 230.02627 221.13713 213.32598 206.33484
 200.17569 195.12055 191.70940 189.75826 188.80212 188.87297 189.71483 191.02968
 192.76154 194.86340 197.13325 199.49911 201.95096 204.43782 206.53267 208.38153
 210.01439 211.16624 211.40210 211.63695 211.58081 211.29267 210.93252 210.56938
 210.19323 209.91009 209.72494 209.59580 209.53066 209.86851 210.26137 210.65722
 211.45708 212.64194 213.89879 215.68865 217.62350 219.67336 221.77521 223.86507
 225.93193 228.02278 230.12664 232.23949 234.37535 236.55421 238.81706 241.19392
 243.82177 246.07963 248.08848 249.86034 251.28420 252.41405 253.24291 253.56576
 253.60962 253.39048 252.75733 251.71219 250.32504 248.49290 246.40875 244.24861
 242.04647 239.85732 237.68418 235.53003 233.39689 231.27075 229.30360 227.46746
 225.75731 224.23617 222.87302 221.65188 220.54074 219.50759 218.61845 217.76630
 217.01516 216.20202 215.30687 214.67773 214.13458 214.89775 216.70084 218.80934
 220.95117 222.92224 224.37535 224.82079 224.85803 225.05873 225.59767 226.25491
 226.75529 228.39497 232.09096 236.65674 241.33131 245.92212 250.25238 254.18991
 257.64838 260.74414 263.62109 266.29886 268.71234 270.86151 272.79877 274.55600
 276.12970 277.55429 278.86096 280.06760 281.23184 282.28189 283.23956 284.12189
 284.93408 285.68213 286.30850 287.10809
 366.78100 356.34162 345.78024 334.65286 323.06247 311.26309 299.13971 286.94933
 274.66795 262.57157 250.58719 239.89481 230.02342 221.13404 213.32266 206.33128
 200.17190 195.11652 191.70514 189.75376 188.79737 188.86799 189.70961 191.02423
 192.75585 194.85747 197.12709 199.49270 201.94432 204.43094 206.52556 208.37418
 210.00680 211.15842 211.39404 211.62865 211.57227 211.28389 210.92351 210.56013
 210.18375 209.90037 209.71499 209.58560 209.52022 209.85784 210.25046 210.64608
 211.44570 212.63032 213.88694 215.67655 217.61117 219.66079 221.76241 223.85203
 225.91865 228.00927 230.11288 232.22550 234.36112 236.53974 238.80236 241.17898
 243.80660 246.06422 248.07283 249.84445 251.26807 252.39769 253.22631 253.54893
 253.59255 253.37317 252.73978 251.69440 250.30702 248.47464 246.39026 244.22988
 242.02750 239.83811 237.66473 235.51035 233.37697 231.25059 229.28321 227.44683
 225.73645 224.21506 222.85168 221.63030 220.51892 219.48554 218.59616 217.74378
 216.99240 216.17901 215.28363 214.65425 214.11087 214.89543 216.74908 218.79880
 220.89735 222.93147 224.40956 224.76492 224.68823 224.83429 225.49237 226.21204
 226.77084 228.50229 232.17825 236.71828 241.39352 245.98747 250.31372 254.24229
 257.69934 260.78641 263.64581 266.30475 268.71207 270.87051 272.80524 274.55072
 276.12186 277.56195 278.89423 280.14520 281.31775 282.36966 283.33124 284.20923
 285.01581 285.74924 286.38895 287.19208
 366.78100 356.34159 345.78018 334.65277 323.06236 311.26295 299.13955 286.94914
 274.66773 262.57132 250.58691 239.89450 230.02309 221.13368 213.32227 206.33086
 200.17145 195.11605 191.70464 189.75323 188.79682 188.86741 189.70900 191.02359
 192.75518 194.85677 197.12636 199.49196 201.94355 204.43014 206.52473 208.37332
 210.00591 211.15750 211.39309 211.62768 211.57127 211.28286 210.92246 210.55905
 210.18264 209.89923 209.71382 209.58441 209.51900 209.85659 210.24918 210.64477
 211.44436 212.62896 213.88555 215.67514 217.60973 219.65932 221.76091 223.85050
 225.91709 228.00768 230.11127 232.22387 234.35946 236.53805 238.80064 241.17723
 243.80482 246.06241 248.07100 249.84259 251.26618 252.39577 253.22437 253.54696
 253.59055 253.37114 252.73773 251.69232 250.30491 248.47250 246.38809 244.22768
 242.02527 239.83587 237.66246 235.50805 233.37464 231.24823 229.28082 227.44441
 225.73400 224.21259 222.84918 221.62777 220.51637 219.48296 218.59355 217.74114
 216.98973 216.17632 215.28091 214.65150 214.10809 214.90378 216.78368 218.80272
 220.84506 222.91852 224.42253 224.71548 224.53827 224.62186 225.37598 226.14597
 226.77724 228.61621 232.27090 236.78183 241.45924 246.05840 250.38274 254.30290
 257.75772 260.83551 263.67688 266.31619 268.71689 270.88312 272.81232 274.54535
 276.11359 277.56747 278.92108 280.23001 281.41025 282.46176 283.42398 284.30203
 285.10034 285.81961 286.45444 287.26392
 366.78100 356.34176 345.78052 334.65327 323.06303 311.26379 299.14055 286.95031
 274.66907 262.57282 250.58858 239.89634 230.02510 221.13586 213.32461 206.33337
 200.17413 195.11889 191.70765 189.75641 188.80016 188.87092 189.71268 191.02744
 192.75920 194.86095 197.13071 199.49647 201.94823 204.43499 206.52975 208.37850
 210.01126 211.16302 211.39878 211.63354 211.57729 211.28905 210.92881 210.56557
 210.18933 209.90608 209.72084 209.59160 209.52636 209.86412 210.25688 210.65263
 211.45239 212.63715 213.89391 215.68367 217.61842 219.66818 221.76994 223.85970
 225.92646 228.01722 230.12097 232.23373 234.36949 236.54825 238.81101 241.18776
 243.81552 246.07328 248.08204 249.85380 251.27756 252.40731 253.23607 253.55883
 253.60259 253.38335 252.75010 251.70486 250.31762 248.48538 246.40114 244.24090
 242.03865 239.84941 237.67617 235.52193 233.38869 231.26244 229.29520 227.45896
 225.74872 224.22748 222.86424 221.64299 220.53175 219.49851 218.60927 217.75703
 217.00578 216.19254 215.29730 214.66806 214.12482 214.92297 216.80870 218.81053
 220.80450 222.88969 224.40263 224.66016 224.41066 224.43600 225.24742 226.07588
 226.78696 228.71967 232.35930 236.84944 241.53198 246.13696 250.45845 254.36864
 257.81845 260.88638 263.71140 266.33316 268.72809 270.89694 272.82141 274.54105
 276.10742 277.57535 278.95599 280.30264 281.48972 282.54343 283.50821 284.38522
 285.18219 285.90460 286.53455 287.34192
 366.78100 356.34201 345.78101 334.65402 323.06402 311.26503 299.14204 286.95204
 274.67105 262.57506 250.59106 239.89907 230.02807 221.13908 213.32809 206.33709
 200.17810 195.12310 191.71211 189.76112 188.80512 188.87613 189.71813 191.03314
 192.76515 194.86715 197.13716 199.50317 201.95517 204.44218 206.53718 208.38619
 210.01920 211.17120 211.40721 211.64221 211.58622 211.29823 210.93823 210.57524
 210.19924 209.91625 209.73126 209.60226 209.53727 209.87528 210.26828 210.66429
 211.46429 212.64930 213.90631 215.69631 217.63132 219.68132 221.78333 223.87334
 225.94034 228.03135 230.13536 232.24836 234.38437 236.56337 238.82638 241.20339
 243.83139 246.08940 248.09840 249.87041 251.29442 252.42442 253.25343 253.57643
 253.62044 253.40145 252.76845 251.72346 250.33647 248.50447 246.42048 244.26048
 242.05849 239.86950 237.69650 235.54251 233.40951 231.28352 229.31653 227.48053
 225.77054 224.24955 222.88655 221.66556 220.55456 219.52157 218.63258 217.78058
 217.02959 216.21659 215.32160 214.69261 214.14961 214.94687 216.83051 218.81621
 220.77434 222.85335 224.36003 224.59247 224.29262 224.27518 225.10773 226.00182
 226.80064 228.81013 232.44518 236.92610 241.61482 246.22282 250.53830 254.43652
 257.87860 260.93784 263.74890 266.35651 268.74435 270.91089 272.82474 274.53192
 276.10049 277.58517 279.01080 280.36679 281.55508 282.60904 283.57401 284.45209
 285.25058 285.97235 286.60458 287.40948
 366.78100 356.34230 345.78160 334.65491 323.06521 311.26651 299.14381 286.95411
 274.67341 262.57772 250.59402 239.90232 230.03162 221.14292 213.33223 206.34153
 200.18283 195.12813 191.71743 189.76673 188.81104 188.88234 189.72464 191.03994
 192.77224 194.87455 197.14485 199.51115 201.96345 204.45075 206.54606 208.39536
 210.02866 211.18096 211.41726 211.65256 211.59687 211.30917 210.94947 210.58677
 210.21107 209.92838 209.74368 209.61498 209.55028 209.88858 210.28188 210.67819
 211.47849 212.66379 213.92109 215.71139 217.64670 219.69700 221.79930 223.88960
 225.95690 228.04820 230.15251 232.26581 234.40211 236.58141 238.84471 241.22202
 243.85032 246.10862 248.11792 249.89022 251.31453 252.44483 253.27413 253.59743
 253.64173 253.42303 252.79034 251.74564 250.35894 248.52724 246.44354 244.28385
 242.08215 239.89345 237.72075 235.56705 233.43435 231.30866 229.34196 227.50626
 225.79656 224.27586 222.91317 221.69247 220.58177 219.54907 218.66037 217.80867
 217.05798 216.24528 215.35058 214.72188 214.17918 214.97301 216.84848 218.82166
 220.75040 222.81221 224.30873 224.51981 224.17244 224.12230 224.96329 225.92818
 226.81345 228.88867 232.53255 237.01392 241.70709 246.31358 250.62007 254.50444
 257.93625 260.98889 263.79004 266.38669 268.76715 270.92599 272.82504 274.51895
 276.09317 277.59546 279.05621 280.41376 281.60110 282.65622 283.61942 284.49847
 285.29733 286.01941 286.65344 287.45087
 366.78100 356.34261 345.78221 334.65582 323.06642 311.26803 299.14564 286.95624
 274.67585 262.58045 250.59706 239.90567 230.03527 221.14688 213.33649 206.34609
 200.18770 195.13330 191.72291 189.77252 188.81712 188.88873 189.73133 191.04694
 192.77955 194.88215 197.15276 199.51936 201.97197 204.45958 206.55518 208.40479
 210.03840 211.19100 211.42761 211.66321 211.60782 211.32043 210.96103 210.59864
 210.22324 209.94085 209.75646 209.62806 209.56367 209.90227 210.29588 210.69249
 211.49309 212.67870 213.93630 215.72691 217.66252 219.71312 221.81573 223.90634
 225.97394 228.06555 230.17015 232.28376 234.42037 236.59997 238.86358 241.24118
 243.86979 246.12840 248.13800 249.91061 251.33521 252.46582 253.29543 253.61903
 253.66364 253.44525 252.81285 251.76846 250.38206 248.55067 246.46728 244.30788
 242.10649 239.91809 237.74570 235.59231 233.45991 231.33452 229.36812 227.53273
 225.82334 224.30294 222.94055 221.72016 220.60976 219.57737 218.68897 217.83758
 217.08719 216.27479 215.38040 214.75200 214.20961 214.99899 216.86401 218.82489
 220.73141 222.77200 224.24861 224.43945 224.05562 223.97849 224.80931 225.85555
 226.83035 228.95688 232.61961 237.11081 241.80688 246.40770 250.70218 254.57146
 257.98990 261.03726 263.83344 266.42169 268.79373 270.94116 272.82510 274.50882
 276.09204 277.61078 279.08102 280.43988 281.62433 282.67880 283.64255 284.52069
 285.31900 286.04120 286.67245 287.47415
 366.78100 356.34296 345.78293 334.65689 323.06785 311.26982 299.14778 286.95874
 274.67871 262.58367 250.60063 239.90960 230.03956 221.15152 213.34149 206.35145
 200.19342 195.13938 191.72934 189.77931 188.82427 188.89623 189.73920 191.05516
 192.78812 194.89109 197.16205 199.52901 201.98198 204.46994 206.56590 208.41587
 210.04983 211.20279 211.43976 211.67572 211.62068 211.33365 210.97461 210.61257
 210.23754 209.95550 209.77147 209.64343 209.57939 209.91836 210.31232 210.70928
 211.51025 212.69621 213.95417 215.74514 217.68110 219.73206 221.83503 223.92599
 225.99395 228.08592 230.19088 232.30484 234.44181 236.62177 238.88573 241.26370
 243.89266 246.15162 248.16159 249.93455 251.35952 252.49048 253.32044 253.64441
 253.68937 253.47133 252.83930 251.79526 250.40922 248.57819 246.49515 244.33611
 242.13508 239.94704 237.77500 235.62197 233.48993 231.36489 229.39886 227.56382
 225.85478 224.33475 222.97271 221.75267 220.64264 219.61060 218.72257 217.87153
 217.12149 216.30946 215.41542 214.78738 214.24535 215.02805 216.87726 218.82738
 220.71376 222.73357 224.18602 224.35147 223.92885 223.83344 224.66695 225.78502
 226.83580 229.01326 232.70721 237.21545 241.91301 246.50447 250.78464 254.63690
 258.04019 261.08261 263.87869 266.46112 268.82318 270.95605 272.82489 274.50381
 276.09802 277.62653 279.08871 280.44281 281.62766 282.67935 283.64249 284.52130
 285.31772 286.03918 286.66980 287.46933
 366.78100 356.34346 345.78392 334.65838 323.06984 311.27231 299.15077 286.96223
 274.68269 262.58815 250.60561 239.91507 230.04553 221.15799 213.34845 206.35892
 200.20138 195.14784 191.73830 189.78876 188.83422 188.90668 189.75014 191.06660
 192.80007 194.90353 197.17499 199.54245 201.99591 204.48437 206.58083 208.43129
 210.06575 211.21921 211.45668 211.69314 211.63860 211.35206 210.99352 210.63198
 210.25744 209.97590 209.79236 209.66483 209.60129 209.94075 210.33521 210.73267
 211.53413 212.72059 213.97905 215.77051 217.70697 219.75844 221.86190 223.95336
 226.02182 228.11428 230.21974 232.33420 234.47166 236.65212 238.91659 241.29505
 243.92451 246.18397 248.19443 249.96789 251.39335 252.52481 253.35527 253.67973
 253.72520 253.50766 252.87612 251.83258 250.44704 248.61650 246.53396 244.37542
 242.17488 239.98735 237.81581 235.66327 233.53173 231.40719 229.44165 227.60711
 225.89857 224.37903 223.01749 221.79796 220.68842 219.65688 218.76934 217.91880
 217.16926 216.35772 215.46418 214.83664 214.29510 215.06496 216.88383 218.83554
 220.69556 222.68327 224.12430 224.27994 223.81880 223.66803 224.48636 225.74269
 226.87442 229.05762 232.79424 237.33142 242.02663 246.60413 250.86752 254.70091
 258.08698 261.12497 263.92505 266.50330 268.85364 270.96957 272.82379 274.50235
 276.10828 277.64188 279.08615 280.43100 281.61340 282.66412 283.62604 284.50256
 285.29919 286.01990 286.64960 287.44858
 366.78100 356.34400 345.78501 334.66001 323.07202 311.27502 299.15402 286.96603
 274.68703 262.59304 250.61104 239.92105 230.05205 221.16505 213.35606 206.36706
 200.21007 195.15707 191.74807 189.79908 188.84508 188.91809 189.76209 191.07909
 192.81310 194.91710 197.18911 199.55711 202.01112 204.50012 206.59712 208.44813
 210.08313 211.23714 211.47514 211.71214 211.65815 211.37215 211.01416 210.65316
 210.27916 209.99817 209.81517 209.68818 209.62518 209.96518 210.36019 210.75819
 211.56020 212.74720 214.00621 215.79821 217.73521 219.78722 221.89122 223.98323
 226.05223 228.14523 230.25124 232.36624 234.50425 236.68525 238.95025 241.32926
 243.95926 246.21927 248.23027 250.00428 251.43028 252.56228 253.39329 253.71829
 253.76430 253.54730 252.91630 251.87331 250.48831 248.65832 246.57632 244.41832
 242.21833 240.03133 237.86034 235.70834 233.57735 231.45335 229.48835 227.65436
 225.94636 224.42737 223.06637 221.84737 220.73838 219.70738 218.82039 217.97039
 217.22139 216.41040 215.51740 214.89041 214.34941 215.10374 216.88594 218.84714
 220.67918 222.62102 224.05037 224.22238 223.74469 223.53252 224.30316 225.58176
 226.84377 229.15305 232.90955 237.45499 242.14404 246.70238 250.94695 254.76225
 258.13144 261.16583 263.97385 266.54819 268.88635 270.98352 272.82468 274.50443
 276.12259 277.65607 279.08081 280.40897 281.58878 282.63748 283.59790 284.47348
 285.26755 285.98798 286.61707 287.41962
 366.78100 356.34449 345.78597 334.66146 323.07394 311.27743 299.15691 286.96940
 274.69088 262.59737 250.61585 239.92634 230.05782 221.17131 213.36279 206.37428
 200.21776 195.16525 191.75673 189.80822 188.85470 188.92819 189.77267 191.09016
 192.82465 194.92913 197.20162 199.57010 202.02459 204.51407 206.61156 208.46304
 210.09853 211.25301 211.49150 211.72898 211.67547 211.38995 211.03244 210.67192
 210.29841 210.01789 209.83538 209.70886 209.64635 209.98683 210.38232 210.78081
 211.58329 212.77078 214.03026 215.82275 217.76023 219.81272 221.91720 224.00969
 226.07917 228.17266 230.27914 232.39463 234.53311 236.71460 238.98008 241.35957
 243.99005 246.25054 248.26202 250.03651 251.46299 252.59548 253.42697 253.75245
 253.79894 253.58242 252.95191 251.90939 250.52488 248.69536 246.61385 244.45633
 242.25682 240.07030 237.89979 235.74827 233.61776 231.49424 229.52973 227.69621
 225.98870 224.47018 223.10967 221.89115 220.78264 219.75213 218.86561 218.01610
 217.26758 216.45707 215.56455 214.93804 214.39752 215.13824 216.88831 218.85155
 220.66859 222.56078 223.95694 224.15182 223.68698 223.42798 224.12682 225.39308
 226.79141 229.24638 233.02962 237.58516 242.26393 246.79916 251.02370 254.82237
 258.17468 261.20728 264.02481 266.59515 268.91901 270.99582 272.82278 274.50592
 276.13535 277.67026 279.07700 280.38406 281.55621 282.60464 283.56400 284.43829
 285.23270 285.95016 286.57825 287.37628
 366.78100 356.34498 345.78695 334.66293 323.07590 311.27988 299.15985 286.97283
 274.69480 262.60178 250.62075 239.93173 230.06370 221.17768 213.36965 206.38163
 200.22561 195.17358 191.76556 189.81753 188.86451 188.93848 189.78346 191.10143
 192.83641 194.94138 197.21436 199.58333 202.03831 204.52828 206.62626 208.47824
 210.11421 211.26919 211.50816 211.74614 211.69311 211.40809 211.05106 210.69104
 210.31801 210.03799 209.85596 209.72994 209.66791 210.00889 210.40487 210.80384
 211.60682 212.79479 214.05477 215.84774 217.78572 219.83869 221.94367 224.03664
 226.10662 228.20059 230.30757 232.42354 234.56252 236.74450 239.01047 241.39045
 244.02142 246.28240 248.29437 250.06935 251.49632 252.62930 253.46127 253.78725
 253.83422 253.61820 252.98817 251.94615 250.56213 248.73310 246.65208 244.49505
 242.29603 240.11000 237.93998 235.78895 233.65893 231.53590 229.57188 227.73885
 226.03183 224.51380 223.15378 221.93576 220.82773 219.79771 218.91168 218.06266
 217.31463 216.50461 215.61258 214.98656 214.44653 215.17371 216.89175 218.84349
 220.66370 222.51079 223.85133 224.05688 223.62234 223.33980 223.96191 225.21017
 226.72701 229.32625 233.15648 237.72525 242.38788 246.89561 251.10004 254.88359
 258.22000 261.25116 264.07587 266.64127 268.94785 271.00409 272.81799 274.50458
 276.14737 277.68323 279.07770 280.36084 281.52600 282.57162 283.52927 284.40286
 285.19565 285.91217 286.53802 287.34012
 366.78100 356.34549 345.78799 334.66448 323.07797 311.28246 299.16296 286.97645
 274.69894 262.60644 250.62593 239.93742 230.06991 221.18441 213.37690 206.38939
 200.23389 195.18238 191.77487 189.82737 188.87486 188.94935 189.79484 191.11334
 192.84883 194.95432 197.22782 199.59731 202.05280 204.54329 206.64179 208.49428
 210.13077 211.28627 211.52576 211.76425 211.71174 211.42724 211.07073 210.71122
 210.33872 210.05921 209.87770 209.75220 209.69069 210.03218 210.42867 210.82817
 211.63166 212.82015 214.08065 215.87414 217.81263 219.86612 221.97162 224.06511
 226.13560 228.23010 230.33759 232.45408 234.59357 236.77607 239.04256 241.42305
 244.05455 246.31604 248.32853 250.10402 251.53152 252.66501 253.49750 253.82400
 253.87149 253.65598 253.02648 251.98497 250.60146 248.77295 246.69245 244.53594
 242.33743 240.15193 237.98242 235.83191 233.70240 231.57990 229.61639 227.78388
 226.07738 224.55987 223.20036 221.98285 220.87535 219.84584 218.96033 218.11183
 217.36432 216.55481 215.66331 215.03780 214.49829 215.21138 216.89612 218.82996
 220.66103 222.46851 223.74460 223.94252 223.53760 223.24550 223.81186 225.03928
 226.64638 229.39532 233.29765 237.87836 242.51767 246.99580 251.18059 254.94765
 258.26706 261.29626 264.12704 266.68524 268.97491 271.00586 272.80701 274.50067
 276.15720 277.69809 279.08347 280.34818 281.50299 282.54645 283.50223 284.37350
 285.16437 285.87784 286.50247 287.29999
 366.78100 356.34599 345.78898 334.66597 323.07996 311.28495 299.16593 286.97992
 274.70291 262.61090 250.63089 239.94288 230.07587 221.19086 213.38385 206.39684
 200.24183 195.19082 191.78380 189.83679 188.88478 188.95977 189.80576 191.12475
 192.86074 194.96673 197.24072 199.61071 202.06670 204.55768 206.65667 208.50966
 210.14665 211.30264 211.54263 211.78162 211.72961 211.44560 211.08959 210.73058
 210.35857 210.07955 209.89854 209.77353 209.71252 210.05451 210.45150 210.85149
 211.65548 212.84447 214.10546 215.89945 217.83843 219.89242 221.99841 224.09240
 226.16339 228.25838 230.36637 232.48336 234.62335 236.80634 239.07333 241.45431
 244.08630 246.34829 248.36128 250.13727 251.56526 252.69925 253.53224 253.85923
 253.90722 253.69221 253.06320 252.02218 250.63917 248.81116 246.73115 244.57514
 242.37713 240.19212 238.02311 235.87310 233.74409 231.62208 229.65906 227.82705
 226.12104 224.60403 223.24502 222.02801 220.92100 219.89199 219.00698 218.15897
 217.41196 216.60295 215.71193 215.08692 214.54791 215.24744 216.90013 218.81636
 220.65639 222.42958 223.64284 223.82091 223.43739 223.13664 223.66939 224.87534
 226.55351 229.45721 233.44846 238.04050 242.65398 247.10437 251.27065 255.02032
 258.32092 261.34174 264.17343 266.71970 268.99011 271.00140 272.79456 274.49655
 276.17142 277.71414 279.09460 280.34497 281.48865 282.52924 283.48456 284.35477
 285.14420 285.85541 286.47937 287.27573
 366.78100 356.34649 345.78998 334.66746 323.08195 311.28744 299.16893 286.98342
 274.70690 262.61539 250.63588 239.94837 230.08186 221.19735 213.39083 206.40432
 200.24981 195.19930 191.79279 189.84627 188.89476 188.97025 189.81674 191.13623
 192.87271 194.97920 197.25369 199.62418 202.08067 204.57215 206.67164 208.52513
 210.16262 211.31911 211.55960 211.79908 211.74757 211.46406 211.10855 210.75004
 210.37852 210.10001 209.91950 209.79499 209.73448 210.07696 210.47445 210.87494
 211.67943 212.86892 214.13040 215.92489 217.86438 219.91887 222.02536 224.11984
 226.19133 228.28682 230.39531 232.51280 234.65329 236.83677 239.10426 241.48575
 244.11824 246.38073 248.39421 250.17070 251.59919 252.73368 253.56717 253.89465
 253.94314 253.72863 253.10012 252.05961 250.67709 248.84958 246.77007 244.61456
 242.41705 240.23254 238.06402 235.91451 233.78600 231.66449 229.70198 227.87046
 226.16495 224.64844 223.28993 222.07342 220.96690 219.93839 219.05388 218.20637
 217.45986 216.65134 215.76083 215.13632 214.59781 215.28275 216.90100 218.79836
 220.64853 222.39679 223.55298 223.69698 223.32227 223.01216 223.52568 224.72025
 226.46800 229.51892 233.60133 238.20528 242.79326 247.21538 251.36249 255.09134
 258.37372 261.38977 264.22256 266.75482 269.00137 270.98737 272.77112 274.48819
 276.18027 277.72977 279.10898 280.35236 281.48856 282.52542 283.48154 284.35001
 285.13831 285.84833 286.47098 287.27216
 366.78100 356.34688 345.79076 334.66864 323.08352 311.28940 299.17128 286.98616
 274.71004 262.61892 250.63980 239.95268 230.08656 221.20245 213.39633 206.41021
 200.25609 195.20597 191.79985 189.85373 188.90261 188.97849 189.82537 191.14525
 192.88213 194.98901 197.26389 199.63477 202.09165 204.58353 206.68341 208.53729
 210.17517 211.33205 211.57293 211.81281 211.76169 211.47857 211.12345 210.76534
 210.39422 210.11610 209.93598 209.81186 209.75174 210.09462 210.49250 210.89338
 211.69826 212.88814 214.15002 215.94490 217.88478 219.93966 222.04654 224.14142
 226.21330 228.30918 230.41806 232.53594 234.67682 236.86070 239.12858 241.51046
 244.14335 246.40623 248.42011 250.19699 251.62587 252.76075 253.59463 253.92251
 253.97139 253.75727 253.12915 252.08903 250.70691 248.87979 246.80067 244.64555
 242.44843 240.26431 238.09619 235.94707 233.81895 231.69783 229.73571 227.90459
 226.19947 224.68335 223.32524 222.10912 221.00300 219.97488 219.09076 218.24364
 217.49752 216.68940 215.79928 215.17516 214.63704 215.30933 216.89769 218.78047
 220.64212 222.36911 223.47319 223.57320 223.19206 222.86819 223.36703 224.56592
 226.39519 229.58980 233.76024 238.37718 242.94276 247.33992 251.46730 255.17165
 258.42886 261.43198 264.25854 266.77908 269.00412 270.96262 272.74622 274.49640
 276.17896 277.74548 279.12622 280.36642 281.50024 282.53564 283.48880 284.35837
 285.14557 285.85461 286.47684 287.27789
 366.78100 356.34721 345.79142 334.66963 323.08484 311.29106 299.17327 286.98848
 274.71269 262.62190 250.64311 239.95632 230.09053 221.20674 213.40095 206.41517
 200.26138 195.21159 191.80580 189.86001 188.90922 188.98543 189.83264 191.15285
 192.89007 194.99728 197.27249 199.64370 202.10091 204.59312 206.69333 208.54754
 210.18575 211.34296 211.58418 211.82439 211.77360 211.49081 211.13602 210.77823
 210.40744 210.12965 209.94986 209.82608 209.76629 210.10950 210.50771 210.90892
 211.71413 212.90434 214.16655 215.96176 217.90197 219.95719 222.06440 224.15961
 226.23182 228.32803 230.43724 232.55545 234.69666 236.88087 239.14909 241.53130
 244.16451 246.42772 248.44193 250.21914 251.64835 252.78356 253.61777 253.94598
 253.99520 253.78141 253.15362 252.11383 250.73204 248.90525 246.82646 244.67167
 242.47488 240.29110 238.12331 235.97452 233.84673 231.72594 229.76415 227.93336
 226.22857 224.71278 223.35499 222.13921 221.03342 220.00563 219.12184 218.27505
 217.52926 216.72147 215.83168 215.20789 214.67010 215.33180 216.89514 218.76132
 220.63759 222.34288 223.38882 223.43866 223.04601 222.71275 223.19864 224.41997
 226.33875 229.66637 233.91913 238.55043 243.09846 247.47543 251.58611 255.26932
 258.50443 261.49338 264.30557 266.79684 268.99237 270.94751 272.72333 274.34805
 276.22980 277.80203 279.17273 280.39938 281.52496 282.55814 283.51230 284.37979
 285.16864 285.87561 286.50284 287.30371
 366.78100 356.34767 345.79233 334.67100 323.08667 311.29333 299.17600 286.99166
 274.71633 262.62600 250.64766 239.96133 230.09600 221.21266 213.40733 206.42200
 200.26866 195.21933 191.81399 189.86866 188.91833 188.99499 189.84266 191.16333
 192.90099 195.00866 197.28433 199.65599 202.11366 204.60632 206.70699 208.56166
 210.20032 211.35799 211.59966 211.84032 211.78999 211.50766 211.15332 210.79599
 210.42565 210.14832 209.96899 209.84565 209.78632 210.12999 210.52865 210.93032
 211.73599 212.92665 214.18932 215.98498 217.92565 219.98132 222.08898 224.18465
 226.25732 228.35398 230.46365 232.58232 234.72398 236.90865 239.17732 241.55998
 244.19365 246.45731 248.47198 250.24965 251.67931 252.81498 253.64965 253.97831
 254.02798 253.81465 253.18731 252.14798 250.76664 248.94031 246.86198 244.70764
 242.51131 240.32798 238.16064 236.01231 233.88498 231.76464 229.80331 227.97297
 226.26864 224.75331 223.39597 222.18064 221.07531 220.04797 219.16464 218.31831
 217.57297 216.76564 215.87630 215.25297 214.71564 215.36409 216.89613 218.72911
 220.62567 222.33076 223.32425 223.30486 222.87599 222.52971 223.00902 224.27762
 226.30011 229.75262 234.07951 238.72667 243.26224 247.62410 251.71877 255.37636
 258.58484 261.55331 264.34695 266.81787 268.99786 270.91367 272.54865 274.45883
 276.25977 277.82419 279.19034 280.42221 281.55273 282.58853 283.54297 284.41275
 285.20145 285.91415 286.54459 287.35077
 366.78100 356.34794 345.79288 334.67182 323.08776 311.29470 299.17764 286.99358
 274.71851 262.62845 250.65039 239.96433 230.09927 221.21621 213.41115 206.42609
 200.27303 195.22397 191.81891 189.87385 188.92379 189.00073 189.84867 191.16961
 192.90754 195.01548 197.29142 199.66336 202.12130 204.61424 206.71518 208.57012
 210.20906 211.36700 211.60894 211.84988 211.79982 211.51776 211.16370 210.80663
 210.43657 210.15951 209.98045 209.85739 209.79833 210.14227 210.54121 210.94315
 211.74909 212.94003 214.20297 215.99891 217.93985 219.99579 222.10372 224.19966
 226.27260 228.36954 230.47948 232.59842 234.74036 236.92530 239.19424 241.57718
 244.21112 246.47506 248.49000 250.26794 251.69788 252.83382 253.66875 253.99769
 254.04763 253.83457 253.20751 252.16845 250.78739 248.96133 246.88327 244.72921
 242.53315 240.35009 238.18303 236.03497 233.90791 231.78784 229.82678 227.99672
 226.29266 224.77760 223.42054 222.20548 221.10042 220.07336 219.19030 218.34424
 217.59918 216.79212 215.90306 215.28000 214.74294 215.38503 216.90204 218.70552
 220.59731 222.30580 223.26952 223.18846 222.70671 222.33101 222.79288 224.13791
 226.27982 229.84561 234.23892 238.90176 243.42897 247.78238 251.86526 255.49780
 258.67505 261.61523 264.37378 266.79950 268.93109 270.79388 272.69919 274.52615
 276.23547 277.80106 279.17679 280.42108 281.55850 282.59311 283.54718 284.41632
 285.20911 285.92505 286.55643 287.36371
 366.78100 356.34807 345.79314 334.67221 323.08828 311.29535 299.17842 286.99449
 274.71956 262.62963 250.65170 239.96577 230.10085 221.21792 213.41299 206.42806
 200.27513 195.22620 191.82127 189.87634 188.92641 189.00348 189.85155 191.17262
 192.91069 195.01876 197.29483 199.66690 202.12497 204.61804 206.71911 208.57418
 210.21325 211.37132 211.61339 211.85446 211.80454 211.52261 211.16868 210.81175
 210.44182 210.16489 209.98596 209.86303 209.80410 210.14817 210.54724 210.94931
 211.75538 212.94645 214.20952 216.00559 217.94666 220.00273 222.11080 224.20687
 226.27994 228.37701 230.48708 232.60616 234.74823 236.93330 239.20237 241.58544
 244.21951 246.48358 248.49865 250.27672 251.70679 252.84286 253.67793 254.00700
 254.05707 253.84414 253.21721 252.17828 250.79735 248.97142 246.89349 244.73956
 242.54363 240.36070 238.19377 236.04585 233.91892 231.79899 229.83806 228.00813
 226.30420 224.78927 223.43234 222.21741 221.11248 220.08555 219.20262 218.35669
 217.61176 216.80483 215.91590 215.29297 214.75604 215.39484 216.90405 218.69351
 220.57765 222.26869 223.20367 223.05745 222.52139 222.12106 222.57344 224.00060
 226.27469 229.96036 234.41064 239.08582 243.60922 247.95686 252.02721 255.63123
 258.77249 261.67426 264.39178 266.78369 268.86102 270.71283 272.78107 274.54694
 276.28799 277.84061 279.20239 280.42139 281.53470 282.56284 283.51556 284.38379
 285.17670 285.89471 286.52643 287.33939
 366.78100 356.34830 345.79360 334.67290 323.08920 311.29650 299.17980 286.99610
 274.72140 262.63170 250.65400 239.96830 230.10360 221.22090 213.41620 206.43150
 200.27880 195.23010 191.82540 189.88070 188.93100 189.00830 189.85659 191.17789
 192.91619 195.02449 197.30079 199.67309 202.13139 204.62469 206.72599 208.58129
 210.22059 211.37889 211.62119 211.86249 211.81279 211.53109 211.17739 210.82069
 210.45099 210.17429 209.99559 209.87289 209.81419 210.15849 210.55779 210.96009
 211.76639 212.95769 214.22099 216.01729 217.95859 220.01489 222.12319 224.21949
 226.29279 228.39009 230.50039 232.61969 234.76199 236.94729 239.21659 241.59989
 244.23418 246.49848 248.51378 250.29208 251.72238 252.85868 253.69398 254.02328
 254.07358 253.86088 253.23418 252.19548 250.81478 248.98908 246.91138 244.75768
 242.56198 240.37928 238.21258 236.06488 233.93818 231.81848 229.85778 228.02808
 226.32438 224.80968 223.45298 222.23828 221.13358 220.10688 219.22418 218.37848
 217.63378 216.82708 215.93838 215.31568 214.77898 215.40907 216.89774 218.66791
 220.57684 222.25090 223.15511 222.95502 222.32042 221.84967 222.28845 223.83704
 226.27583 230.09625 234.59706 239.28445 243.81612 248.16324 252.22240 255.80824
 258.92502 261.77280 264.42328 266.77197 268.84637 270.55539 272.69418 274.52499
 276.25684 277.80518 279.15601 280.38840 281.51199 282.54202 283.49469 284.36386
 285.15750 285.87704 286.51019 287.32150
 366.78100 356.34844 345.79388 334.67331 323.08975 311.29719 299.18063 286.99706
 274.72250 262.63294 250.65538 239.96981 230.10525 221.22269 213.41813 206.43356
 200.28100 195.23244 191.82788 189.88331 188.93375 189.01119 189.85963 191.18106
 192.91950 195.02794 197.30438 199.67681 202.13525 204.62869 206.73013 208.58556
 210.22500 211.38344 211.62588 211.86731 211.81775 211.53619 211.18263 210.82606
 210.45650 210.17994 210.00138 209.87881 209.82025 210.16469 210.56413 210.96656
 211.77300 212.96444 214.22788 216.02432 217.96575 220.02219 222.13063 224.22707
 226.30050 228.39794 230.50838 232.62782 234.77025 236.95569 239.22513 241.60857
 244.24300 246.50744 248.52288 250.30132 251.73175 252.86819 253.70363 254.03307
 254.08350 253.87094 253.24438 252.20582 250.82525 248.99969 246.92213 244.76857
 242.57300 240.39044 238.22388 236.07632 233.94975 231.83019 229.86963 228.04007
 226.33650 224.82194 223.46538 222.25082 221.14625 220.11969 219.23713 218.39157
 217.64700 216.84044 215.95188 215.32932 214.79276 215.41528 216.88608 218.63171
 220.55566 222.24480 223.10930 222.87737 222.20226 221.62413 222.00204 223.62126
 226.21413 230.19164 234.76035 239.46678 244.00687 248.36015 252.41032 255.97775
 259.08383 261.90140 264.47971 266.72855 268.61612 270.82135 272.72061 274.65451
 276.20065 277.61703 278.98779 280.21631 281.32996 282.34784 283.29465 284.16183
 284.95715 285.68143 286.30688 287.12320
 366.78100 356.34865 345.79431 334.67396 323.09061 311.29827 299.18192 286.99858
 274.72423 262.63488 250.65754 239.97219 230.10784 221.22550 213.42115 206.43680
 200.28446 195.23611 191.83177 189.88742 188.93807 189.01573 189.86438 191.18603
 192.92469 195.03334 197.30999 199.68265 202.14130 204.63495 206.73661 208.59226
 210.23192 211.39057 211.63322 211.87488 211.82553 211.54418 211.19084 210.83449
 210.46514 210.18880 210.01045 209.88811 209.82976 210.17441 210.57407 210.97672
 211.78337 212.97503 214.23868 216.03533 217.97699 220.03364 222.14230 224.23895
 226.31260 228.41026 230.52091 232.64056 234.78322 236.96887 239.23852 241.62218
 244.25683 246.52149 248.53714 250.31579 251.74645 252.88310 253.71875 254.04841
 254.09906 253.88671 253.26037 252.22202 250.84167 249.01633 246.93898 244.78564
 242.59029 240.40794 238.24160 236.09425 233.96790 231.84856 229.88821 228.05886
 226.35552 224.84117 223.48483 222.27048 221.16613 220.13979 219.25744 218.41209
 217.66775 216.86140 215.97305 215.35071 214.81436 215.42821 216.87849 218.61575
 220.51106 222.20354 223.04770 222.76689 222.02805 221.42691 221.75995 223.44998
 226.20242 230.30797 234.94073 239.65080 244.20064 248.55104 252.57443 256.12390
 259.23178 262.06415 264.62711 266.77368 268.42303 270.88220 272.86340 274.60995
 276.18503 277.48001 278.78201 279.93048 280.95618 281.90497 282.82504 283.68927
 284.48663 285.22086 285.84485 286.67294
 366.78100 356.34873 345.79446 334.67419 323.09092 311.29865 299.18238 286.99911
 274.72484 262.63557 250.65830 239.97303 230.10876 221.22648 213.42221 206.43794
 200.28567 195.23740 191.83313 189.88886 188.93959 189.01732 189.86605 191.18778
 192.92651 195.03524 197.31197 199.68470 202.14343 204.63716 206.73889 208.59462
 210.23435 211.39308 211.63581 211.87754 211.82827 211.54700 211.19372 210.83745
 210.46818 210.19191 210.01364 209.89137 209.83310 210.17783 210.57756 210.98029
 211.78702 212.97875 214.24248 216.03921 217.98094 220.03767 222.14640 224.24313
 226.31686 228.41459 230.52532 232.64505 234.78778 236.97351 239.24324 241.62697
 244.26169 246.52642 248.54215 250.32088 251.75161 252.88834 253.72407 254.05380
 254.10453 253.89226 253.26599 252.22772 250.84745 249.02218 246.94491 244.79164
 242.59637 240.41410 238.24783 236.10056 233.97429 231.85502 229.89475 228.06548
 226.36221 224.84793 223.49166 222.27739 221.17312 220.14685 219.26458 218.41931
 217.67504 216.86877 215.98050 215.35823 214.82196 215.43098 216.86989 218.60243
 220.48740 222.15536 222.95183 222.67677 221.92409 221.13382 221.46706 223.36507
 226.25287 230.44577 235.11432 239.81104 244.35414 248.68933 252.65817 256.18848
 259.31793 262.17453 264.77908 266.89731 268.51147 270.93991 272.89426 274.58432
 276.09860 277.40894 278.57550 279.64200 280.61603 281.55789 282.47839 283.34348
 284.14105 284.88049 285.49881 286.33383
 366.78100 356.34860 345.79420 334.67380 323.09041 311.29801 299.18161 286.99821
 274.72381 262.63441 250.65701 239.97162 230.10722 221.22482 213.42042 206.43602
 200.28362 195.23522 191.83083 189.88643 188.93703 189.01463 189.86323 191.18483
 192.92343 195.03204 197.30864 199.68124 202.13984 204.63344 206.73504 208.59064
 210.23025 211.38885 211.63145 211.87305 211.82365 211.54225 211.18885 210.83246
 210.46306 210.18666 210.00826 209.88586 209.82746 210.17206 210.57167 210.97427
 211.78087 212.97247 214.23607 216.03267 217.97427 220.03088 222.13948 224.23608
 226.30968 228.40728 230.51788 232.63748 234.78009 236.96569 239.23529 241.61889
 244.25349 246.51809 248.53369 250.31230 251.74290 252.87950 253.71510 254.04470
 254.09530 253.88290 253.25651 252.21811 250.83771 249.01231 246.93491 244.78151
 242.58611 240.40372 238.23732 236.08992 233.96352 231.84412 229.88372 228.05432
 226.35093 224.83653 223.48013 222.26573 221.16133 220.13493 219.25253 218.40714
 217.66274 216.85634 215.96794 215.34554 214.80914 215.42062 216.86533 218.58047
 220.46613 222.12416 222.86600 222.54315 221.77698 220.81015 221.16055 223.27017
 226.30539 230.61197 235.34856 240.04324 244.54872 248.86662 252.80769 256.27390
 259.36746 262.19614 264.81149 267.05301 268.71518 270.79663 272.79520 274.64386
 276.15054 277.44693 278.56897 279.60535 280.55533 281.56384 282.52020 283.40134
 284.19302 284.90356 285.53317 286.37024
 366.78100 356.34845 345.79390 334.67335 323.08980 311.29725 299.18070 286.99715
 274.72260 262.63305 250.65550 239.96995 230.10540 221.22285 213.41830 206.43375
 200.28120 195.23265 191.82810 189.88355 188.93400 189.01145 189.85990 191.18135
 192.91980 195.02825 197.30470 199.67715 202.13560 204.62905 206.73050 208.58595
 210.22540 211.38385 211.62630 211.86775 211.81820 211.53665 211.18310 210.82655
 210.45700 210.18045 210.00190 209.87935 209.82080 210.16525 210.56470 210.96715
 211.77360 212.96505 214.22850 216.02495 217.96640 220.02285 222.13130 224.22775
 226.30120 228.39865 230.50910 232.62855 234.77100 236.95645 239.22590 241.60935
 244.24380 246.50825 248.52370 250.30215 251.73260 252.86905 253.70450 254.03395
 254.08440 253.87185 253.24530 252.20675 250.82620 249.00065 246.92310 244.76956
 242.57401 240.39146 238.22491 236.07736 233.95081 231.83126 229.87071 228.04116
 226.33761 224.82306 223.46651 222.25196 221.14741 220.12086 219.23831 218.39276
 217.64821 216.84166 215.95311 215.33056 214.79401 215.40941 216.86336 218.56236
 220.42877 222.09019 222.80544 222.39862 221.59866 220.47780 220.85440 223.14999
 226.34036 230.76024 235.56032 240.26544 244.77107 249.08272 253.01649 256.44217
 259.49747 262.26859 264.80740 267.08841 269.00198 270.82816 272.85791 274.68341
 276.17621 277.45108 278.57208 279.59250 280.45575 281.31723 282.22476 283.07947
 283.85736 284.55447 285.18704 286.02646
 366.78100 356.34811 345.79323 334.67234 323.08845 311.29557 299.17868 286.99479
 274.71991 262.63002 250.65213 239.96625 230.10136 221.21847 213.41359 206.42870
 200.27582 195.22693 191.82204 189.87716 188.92727 189.00438 189.85250 191.17361
 192.91172 195.01984 197.29595 199.66806 202.12618 204.61929 206.72040 208.57552
 210.21463 211.37274 211.61486 211.85597 211.80608 211.52420 211.17031 210.81342
 210.44354 210.16665 209.98777 209.86488 209.80599 210.15011 210.54922 210.95133
 211.75745 212.94856 214.21167 216.00779 217.94890 220.00501 222.11313 224.20924
 226.28235 228.37947 230.48958 232.60869 234.75081 236.93592 239.20503 241.58815
 244.22226 246.48637 248.50149 250.27960 251.70971 252.84583 253.68094 254.01006
 254.06017 253.84728 253.22040 252.18151 250.80062 248.97474 246.89685 244.74296
 242.54708 240.36419 238.19730 236.04942 233.92253 231.80264 229.84176 228.01187
 226.30798 224.79310 223.43621 222.22132 221.11644 220.08955 219.20666 218.36078
 217.61589 216.80901 215.92012 215.29723 214.76035 215.38782 216.87027 218.54523
 220.38934 222.03009 222.71878 222.25902 221.44008 220.18387 220.57843 223.01543
 226.36583 230.88882 235.74597 240.46713 244.96664 249.27264 253.18633 256.59161
 259.63382 262.37741 264.84500 267.08493 269.14740 271.01688 272.93930 274.68900
 276.16827 277.40668 278.48047 279.44153 280.25696 281.05899 281.92670 282.77060
 283.53870 284.23538 284.89038 285.75165
 366.78100 356.34805 345.79311 334.67216 323.08821 311.29527 299.17832 286.99437
 274.71943 262.62948 250.65153 239.96559 230.10064 221.21769 213.41275 206.42780
 200.27485 195.22591 191.82096 189.87601 188.92607 189.00312 189.85117 191.17223
 192.91028 195.01833 197.29439 199.66644 202.12449 204.61755 206.71860 208.57365
 210.21271 211.37076 211.61281 211.85387 211.80392 211.52197 211.16803 210.81108
 210.44113 210.16419 209.98524 209.86229 209.80335 210.14740 210.54645 210.94851
 211.75456 212.94561 214.20867 216.00472 217.94577 220.00183 222.10988 224.20593
 226.27899 228.37604 230.48609 232.60515 234.74720 236.93225 239.20131 241.58436
 244.21841 246.48247 248.49752 250.27557 251.70563 252.84168 253.67673 254.00579
 254.05584 253.84289 253.21595 252.17700 250.79605 248.97011 246.89216 244.73821
 242.54227 240.35932 238.19237 236.04443 233.91748 231.79753 229.83659 228.00664
 226.30269 224.78775 223.43080 222.21585 221.11091 220.08396 219.20101 218.35507
 217.61012 216.80317 215.91423 215.29128 214.75433 215.37759 216.85013 218.55168
 220.34831 221.93176 222.62737 222.11058 221.29375 219.91188 220.33336 222.84947
 226.38051 230.99557 235.93062 240.68111 245.15987 249.42700 253.31209 256.69141
 259.73157 262.47202 264.91214 267.12823 269.22275 271.18683 273.04684 274.75308
 276.19943 277.39325 278.42215 279.34946 280.13419 280.79590 281.57907 282.42548
 283.20895 283.94730 284.66531 285.58035
 366.78100 356.34805 345.79310 334.67215 323.08821 311.29526 299.17831 286.99436
 274.71941 262.62946 250.65152 239.96557 230.10062 221.21767 213.41272 206.42777
 200.27482 195.22588 191.82093 189.87598 188.92603 189.00308 189.85113 191.17218
 192.91024 195.01829 197.29434 199.66639 202.12444 204.61749 206.71855 208.57360
 210.21265 211.37070 211.61275 211.85380 211.80385 211.52191 211.16796 210.81101
 210.44106 210.16411 209.98516 209.86221 209.80327 210.14732 210.54637 210.94842
 211.75447 212.94552 214.20858 216.00463 217.94568 220.00173 222.10978 224.20583
 226.27888 228.37594 230.48599 232.60504 234.74709 236.93214 239.20119 241.58424
 244.21830 246.48235 248.49740 250.27545 251.70550 252.84155 253.67661 254.00566
 254.05571 253.84276 253.21581 252.17686 250.79591 248.96997 246.89202 244.73807
 242.54212 240.35917 238.19222 236.04427 233.91733 231.79738 229.83643 228.00648
 226.30253 224.78758 223.43064 222.21569 221.11074 220.08379 219.20084 218.35489
 217.60994 216.80300 215.91405 215.29110 214.75415 215.37083 216.82782 218.54352
 220.35091 221.88766 222.51218 221.92976 221.05811 219.72942 220.17223 222.73456
 226.42160 231.10449 236.08641 240.88033 245.36548 249.56985 253.39938 256.75110
 259.77762 262.51517 264.95062 267.16974 269.26855 271.28513 273.15314 274.82767
 276.21872 277.37671 278.38007 279.26965 280.00388 280.61197 281.38412 282.24661
 283.04184 283.77573 284.46774 285.34964
 354.97500 345.04800 334.58700 324.11500 313.32600 302.53700 291.65000 280.76700
 269.93100 259.19300 248.62200 238.61700 229.08700 220.35500 212.54000 205.53500
 199.46400 194.49300 191.14300 189.19000 188.08900 188.01400 188.72400 189.90600
 191.46900 193.38200 195.40300 197.55600 199.80700 202.06000 204.28800 206.47900
 208.55200 210.37800 212.02500 213.65900 214.99800 216.11800 217.17200 218.25900
 219.49400 220.64500 221.67900 222.61400 223.54500 224.98200 226.57100 228.19000
 229.79700 231.81100 233.86500 235.97200 238.24200 240.55300 242.89900 245.25300
 247.48800 249.53500 251.36600 252.84800 254.09800 255.16700 256.02700 256.25300
 256.09500 255.54300 253.93500 252.56600 251.38400 250.24500 249.05200 247.70100
 246.01600 243.99600 241.78400 239.39300 236.81300 234.22300 231.65800 229.14400
 226.74000 224.47300 222.33500 220.32500 218.44000 216.67700 214.96200 213.47200
 212.20000 211.10800 210.26000 209.63900 209.24400 209.03100 209.05800 209.33300
 209.78400 210.62600 211.33100 212.39100 213.62500 214.84668 217.72949 219.47640
 220.32566 220.86828 220.88710 220.27371 219.43733 218.84250 219.04934 220.86203
 222.60583 225.72206 229.03064 232.61777 236.12270 239.51333 242.70767 245.68587
 248.41061 250.90679 253.19353 254.91714 256.48655 257.94920 259.39966 260.69384
 261.81714 262.77997 263.71679 264.54570 265.26305 265.89772 266.47676 267.00133
 267.47312 267.89325 268.26027 268.72800
