|-------------------------------------------------------------------------|
|   File Name : in_temp.dat
|   Subject   : temperature profiles used for initial guess atmosphere
|   File Type : input of gmtr
|   Data Type : atmospherical data
|   Author/s  : WRF-Chem
|   Date      : Fri Jul 26 15:39:24 2024
|-------------------------------------------------------------------------|

 WRF-Chem temperature
#
 values of T (K)    (8f10.5)
#
 354.97500 345.04800 334.58700 324.11500 313.32600 302.53700 291.65000 280.76700
 269.93100 259.19300 248.62200 238.61700 229.08700 220.35500 212.54000 205.53500
 199.46400 194.49300 191.14300 189.19000 188.08900 188.01400 188.72400 189.90600
 191.46900 193.38200 195.40300 197.55600 199.80700 202.06000 204.28800 206.47900
 208.55200 210.37800 212.02500 213.65900 214.99800 216.11800 217.17200 218.25900
 219.49400 220.64500 221.67900 222.61400 223.54500 224.98200 226.57100 228.19000
 229.79700 231.81100 233.86500 235.97200 238.24200 240.55300 242.89900 245.25300
 247.48800 249.53500 251.36600 252.84800 254.09800 255.16700 256.02700 256.25300
 256.09500 255.54300 253.93500 252.56600 251.38400 250.24500 249.05200 247.70100
 246.01600 243.99600 241.78400 239.39300 236.81300 234.22300 231.65800 229.14400
 226.74000 224.47300 222.33500 220.32500 218.44000 216.67700 214.96200 213.47200
 212.20000 211.10800 210.26000 209.63900 209.24400 209.03100 209.05800 209.33300
 209.78400 210.62600 211.33100 212.39100 213.62500 214.84668 217.72949 219.47640
 220.32566 220.86828 220.88710 220.27371 219.43733 218.84250 219.04934 220.86203
 222.60583 225.72206 229.03064 232.61777 236.12270 239.51333 242.70767 245.68587
 248.41061 250.90679 253.19353 254.91714 256.48655 257.94920 259.39966 260.69384
 261.81714 262.77997 263.71679 264.54570 265.26305 265.89772 266.47676 267.00133
 267.47312 267.89325 268.26027 268.72800
 366.78100 356.33500 345.76700 334.63300 323.03600 311.23000 299.10000 286.90300
 274.61500 262.51200 250.52100 239.82200 229.94400 221.04800 213.23000 206.23200
 200.06600 195.00400 191.58600 189.62800 188.66500 188.72900 189.56400 190.87200
 192.59700 194.69200 196.95500 199.31400 201.75900 204.23900 206.32700 208.16900
 209.79500 210.94000 211.16900 211.39700 211.33400 211.03900 210.67200 210.30200
 209.91900 209.62900 209.43700 209.30100 209.22900 209.56000 209.94600 210.33500
 211.12800 212.30600 213.55600 215.33900 217.26700 219.31000 221.40500 223.48800
 225.54800 227.63200 229.72900 231.83500 233.96400 236.13600 238.39200 240.76200
 243.38300 245.63400 247.63600 249.40100 250.81800 251.94100 252.76300 253.07900
 253.11600 252.89000 252.25000 251.19800 249.80400 247.96500 245.87400 243.70700
 241.49800 239.30200 237.12200 234.96100 232.82100 230.68800 228.71400 226.87100
 225.15400 223.62600 222.25600 221.02800 219.91000 218.87000 217.97400 217.11500
 216.35700 215.53700 214.63500 213.99900 213.44900 212.85855 212.01316 212.61654
 214.26826 216.08686 218.14273 220.53346 223.40855 226.78828 231.49734 235.90155
 239.42278 243.28576 247.23140 251.11907 254.80144 258.23331 261.38913 264.27520
 266.89312 269.26852 271.44504 273.08845 274.58484 275.98591 277.39845 278.65879
 279.75272 280.69038 281.56708 282.34086 283.01050 283.60295 284.14348 284.63317
 285.07358 285.46577 285.80838 286.24500
 381.81900 372.39900 361.20600 349.77600 337.62200 324.85300 311.81000 298.35300
 284.86000 271.32400 258.56100 246.30400 236.08700 226.79600 218.44800 211.29000
 205.52200 200.89400 197.38100 194.84800 193.01500 192.31500 192.25000 192.43100
 192.91200 193.53700 194.13600 194.71200 195.26200 195.83100 196.39300 196.97600
 197.60400 198.14900 198.58400 199.05700 199.69500 200.37800 201.05400 201.70800
 202.31300 202.85700 203.35500 203.86200 204.56900 205.29700 206.02600 206.98700
 208.19300 209.44100 210.96900 212.57600 214.46200 216.51300 218.63000 220.85300
 223.34100 225.96200 228.73900 231.69700 234.70600 237.70600 240.69200 243.65700
 246.73700 249.69900 252.52100 255.06300 257.29000 259.23300 260.63300 261.68000
 262.46100 262.79800 262.69100 262.22400 261.06900 259.52500 257.70700 255.50700
 253.00100 250.30200 247.39800 244.45200 241.65400 239.05400 236.73300 234.59000
 232.59500 230.72500 228.83400 226.82600 224.66600 222.38700 220.10400 217.71500
 215.45900 213.06600 210.54600 208.09300 205.35400 202.08130 196.05959 200.71215
 209.01611 216.90438 223.84126 229.78593 235.00632 240.20838 245.98943 250.68668
 254.32982 257.93487 261.55666 264.96801 268.15192 271.06452 273.76717 276.25691
 278.57680 280.74479 282.77456 284.60533 286.27232 287.81705 289.31715 290.65561
 291.81734 292.81312 293.70701 294.49387 295.17482 295.77730 296.32696 296.82492
 297.27278 297.67160 298.02000 298.46400
 399.33000 389.90700 379.81300 368.66800 357.52200 345.30100 333.07400 320.22700
 307.21600 293.84800 280.37600 267.29600 254.61000 242.98700 232.15100 221.97700
 212.67200 204.28600 197.66900 192.82100 189.48600 187.45200 186.81400 187.08900
 187.78100 189.05400 190.64800 192.54200 194.63000 196.75200 198.67100 200.15800
 201.53500 202.48700 202.97500 203.34000 203.53900 203.49700 203.38500 203.24700
 203.00500 202.78600 202.60300 202.43700 202.42600 202.88800 203.42000 203.95100
 204.89500 205.99200 207.30100 208.95800 210.73800 213.10000 215.56400 218.18000
 220.96600 223.91800 226.96100 230.09200 233.29300 236.55700 239.95500 243.53700
 246.84500 249.39000 251.54200 253.47400 255.19500 256.48400 257.43100 258.05900
 258.21200 258.04000 257.58200 256.64300 255.23900 253.50700 251.40800 249.05600
 246.57600 243.99400 241.38900 238.83000 236.34400 233.98600 231.96900 230.11800
 228.42300 226.89900 225.54800 224.29700 223.10500 221.96500 220.95800 220.11300
 219.49000 218.92000 218.32500 217.88100 217.42300 216.96366 216.35568 216.80261
 217.73415 218.28582 218.64258 219.10077 220.44626 222.53987 226.38451 230.35736
 233.59734 237.39164 241.29814 245.22796 248.98002 252.51130 255.78595 258.80109
 261.54781 264.05210 266.34239 268.04198 269.58951 271.01303 272.35754 273.55718
 274.59842 275.49092 276.28989 276.99307 277.60161 278.14001 278.63122 279.07623
 279.47646 279.83287 280.14422 280.54100
 399.73800 389.78500 379.66200 368.15100 356.64100 344.35000 331.79200 318.88800
 305.72600 292.49300 279.20900 266.73800 254.69600 244.21100 234.45700 225.43300
 217.56900 210.45100 204.30000 199.30600 195.45800 192.57600 191.02700 190.38600
 190.23900 190.53400 191.16600 191.92500 192.79500 193.76600 194.73200 195.31200
 195.80000 196.05200 196.11500 196.11500 196.03900 195.72300 195.34000 194.98900
 194.75100 194.79200 195.13300 195.59800 196.50600 198.13600 199.85800 201.56600
 204.17900 206.82300 209.89300 213.28400 216.82800 220.60500 224.38700 228.20900
 232.03200 235.82500 239.56000 243.25800 246.84500 250.20100 253.70900 257.46800
 261.53000 264.22100 266.60100 268.68100 270.32900 271.74100 272.83600 273.47400
 273.89800 274.00200 273.75700 273.28800 272.37100 271.10000 269.58900 267.77900
 265.81600 263.72100 261.39300 258.91600 256.29800 253.42300 250.33100 247.11400
 243.83700 240.52900 237.24900 233.99900 230.72800 227.51500 224.25400 220.95200
 217.62700 213.65600 210.12100 206.78900 204.01000 201.99491 199.07309 198.76551
 199.40006 200.48994 201.46112 202.31912 203.45100 204.96110 207.47502 210.85391
 213.70530 217.29629 220.99574 224.72316 228.28753 231.64854 234.68024 237.40893
 239.70644 241.60899 243.46854 245.67368 247.68154 249.52395 251.24767 252.78566
 254.12057 255.26479 256.23740 257.09036 257.82852 258.48160 259.07744 259.61723
 260.10271 260.53504 260.91270 261.39400
 399.73800 389.78500 379.66200 368.15100 356.64100 344.35000 331.79200 318.88800
 305.72600 292.49300 279.20900 266.73800 254.69600 244.21100 234.45700 225.43300
 217.56900 210.45100 204.30000 199.30600 195.45800 192.57600 191.02700 190.38600
 190.23900 190.53400 191.16600 191.92500 192.79500 193.76600 194.73200 195.31200
 195.80000 196.05200 196.11500 196.11500 196.03900 195.72300 195.34000 194.98900
 194.75100 194.79200 195.13300 195.59800 196.50600 198.13600 199.85800 201.56600
 204.17900 206.82300 209.89300 213.28400 216.82800 220.60500 224.38700 228.20900
 232.03200 235.82500 239.56000 243.25800 246.84500 250.20100 253.70900 257.46800
 261.53000 264.22100 266.60100 268.68100 270.32900 271.74100 272.83600 273.47400
 273.89800 274.00200 273.75700 273.28800 272.37100 271.10000 269.58900 267.77900
 265.81600 263.72100 261.39300 258.91600 256.29800 253.42300 250.33100 247.11400
 243.83700 240.52900 237.24900 233.99900 230.72800 227.51500 224.25400 220.95200
 217.62700 213.65600 210.12100 206.78900 204.01000 201.99491 199.07309 198.76551
 199.40006 200.48994 201.46112 202.31912 203.45100 204.96110 207.47502 210.85391
 213.70530 217.29629 220.99574 224.72316 228.28753 231.64854 234.68024 237.40893
 239.70644 241.60899 243.46854 245.67368 247.68154 249.52395 251.24767 252.78566
 254.12057 255.26479 256.23740 257.09036 257.82852 258.48160 259.07744 259.61723
 260.10271 260.53504 260.91270 261.39400
 399.33000 389.90700 379.81300 368.66800 357.52200 345.30100 333.07400 320.22700
 307.21600 293.84800 280.37600 267.29600 254.61000 242.98700 232.15100 221.97700
 212.67200 204.28600 197.66900 192.82100 189.48600 187.45200 186.81400 187.08900
 187.78100 189.05400 190.64800 192.54200 194.63000 196.75200 198.67100 200.15800
 201.53500 202.48700 202.97500 203.34000 203.53900 203.49700 203.38500 203.24700
 203.00500 202.78600 202.60300 202.43700 202.42600 202.88800 203.42000 203.95100
 204.89500 205.99200 207.30100 208.95800 210.73800 213.10000 215.56400 218.18000
 220.96600 223.91800 226.96100 230.09200 233.29300 236.55700 239.95500 243.53700
 246.84500 249.39000 251.54200 253.47400 255.19500 256.48400 257.43100 258.05900
 258.21200 258.04000 257.58200 256.64300 255.23900 253.50700 251.40800 249.05600
 246.57600 243.99400 241.38900 238.83000 236.34400 233.98600 231.96900 230.11800
 228.42300 226.89900 225.54800 224.29700 223.10500 221.96500 220.95800 220.11300
 219.49000 218.92000 218.32500 217.88100 217.42300 216.96366 216.35568 216.80261
 217.73415 218.28582 218.64258 219.10077 220.44626 222.53987 226.38451 230.35736
 233.59734 237.39164 241.29814 245.22796 248.98002 252.51130 255.78595 258.80109
 261.54781 264.05210 266.34239 268.04198 269.58951 271.01303 272.35754 273.55718
 274.59842 275.49092 276.28989 276.99307 277.60161 278.14001 278.63122 279.07623
 279.47646 279.83287 280.14422 280.54100
 381.81900 372.39900 361.20600 349.77600 337.62200 324.85300 311.81000 298.35300
 284.86000 271.32400 258.56100 246.30400 236.08700 226.79600 218.44800 211.29000
 205.52200 200.89400 197.38100 194.84800 193.01500 192.31500 192.25000 192.43100
 192.91200 193.53700 194.13600 194.71200 195.26200 195.83100 196.39300 196.97600
 197.60400 198.14900 198.58400 199.05700 199.69500 200.37800 201.05400 201.70800
 202.31300 202.85700 203.35500 203.86200 204.56900 205.29700 206.02600 206.98700
 208.19300 209.44100 210.96900 212.57600 214.46200 216.51300 218.63000 220.85300
 223.34100 225.96200 228.73900 231.69700 234.70600 237.70600 240.69200 243.65700
 246.73700 249.69900 252.52100 255.06300 257.29000 259.23300 260.63300 261.68000
 262.46100 262.79800 262.69100 262.22400 261.06900 259.52500 257.70700 255.50700
 253.00100 250.30200 247.39800 244.45200 241.65400 239.05400 236.73300 234.59000
 232.59500 230.72500 228.83400 226.82600 224.66600 222.38700 220.10400 217.71500
 215.45900 213.06600 210.54600 208.09300 205.35400 202.08130 196.05959 200.71215
 209.01611 216.90438 223.84126 229.78593 235.00632 240.20838 245.98943 250.68668
 254.32982 257.93487 261.55666 264.96801 268.15192 271.06452 273.76717 276.25691
 278.57680 280.74479 282.77456 284.60533 286.27232 287.81705 289.31715 290.65561
 291.81734 292.81312 293.70701 294.49387 295.17482 295.77730 296.32696 296.82492
 297.27278 297.67160 298.02000 298.46400
 366.78100 356.34419 345.78539 334.66058 323.07277 311.27597 299.15516 286.96735
 274.68854 262.59474 250.61293 239.92312 230.05432 221.16751 213.35870 206.36990
 200.21309 195.16028 191.75147 189.80267 188.84886 188.92205 189.76625 191.08344
 192.81763 194.92183 197.19402 199.56221 202.01640 204.50560 206.60279 208.45398
 210.08918 211.24337 211.48156 211.71876 211.66495 211.37914 211.02133 210.66053
 210.28672 210.00591 209.82311 209.69630 209.63349 209.97369 210.36888 210.76707
 211.56926 212.75646 214.01565 215.80784 217.74504 219.79723 221.90142 223.99362
 226.06281 228.15600 230.26219 232.37739 234.51558 236.69677 238.96197 241.34116
 243.97135 246.23155 248.24274 250.01693 251.44312 252.57532 253.40651 253.73170
 253.77790 253.56109 252.93028 251.88748 250.50267 248.67286 246.59106 244.43325
 242.23344 240.04663 237.87583 235.72402 233.59321 231.46941 229.50460 227.67079
 225.96299 224.44418 223.08337 221.86456 220.75576 219.72495 218.83814 217.98834
 217.23953 216.42872 215.53592 214.90911 214.36830 213.43690 211.23880 210.35133
 211.06094 212.73349 214.90611 216.76909 219.28481 223.48030 229.28096 234.40430
 238.26877 242.04042 245.78734 249.66368 253.72372 257.26871 259.96689 262.00897
 264.82867 267.64185 269.98035 271.88397 273.66022 275.40854 277.02490 278.67868
 280.41080 282.01498 283.48566 284.84088 286.02109 287.06909 288.02911 288.90045
 289.69278 290.39981 291.02255 291.85297
 366.78100 356.34372 345.78443 334.65915 323.07086 311.27358 299.15230 286.96401
 274.68473 262.59045 250.60816 239.91788 230.04859 221.16131 213.35203 206.36274
 200.20546 195.15218 191.74289 189.79361 188.83932 188.91204 189.75576 191.07247
 192.80619 194.90990 197.18162 199.54934 202.00305 204.49177 206.58849 208.43920
 210.07392 211.22763 211.46535 211.70207 211.64778 211.36150 211.00321 210.64193
 210.26765 209.98636 209.80308 209.67580 209.61251 209.95223 210.34694 210.74466
 211.54638 212.73309 213.99181 215.78353 217.72024 219.77196 221.87567 223.96739
 226.03611 228.12882 230.23454 232.34925 234.48697 236.66769 238.93240 241.31112
 243.94084 246.20055 248.21127 249.98498 251.41070 252.54242 253.37313 253.69785
 253.74356 253.52628 252.89500 251.85171 250.46643 248.63615 246.55386 244.39558
 242.19529 240.00801 237.83673 235.68444 233.55316 231.42888 229.46359 227.62931
 225.92102 224.40174 223.04046 221.82117 220.71189 219.68060 218.79332 217.94304
 217.19375 216.38247 215.48919 214.86190 214.32062 213.43411 211.34146 210.45714
 211.12917 212.83191 214.99852 216.80026 219.25220 223.41225 229.22186 234.32236
 238.16968 241.93309 245.68268 249.58025 253.68958 257.19522 259.84222 261.90488
 264.73523 267.56644 269.92139 271.81143 273.54782 275.26776 276.90369 278.57831
 280.31332 281.91547 283.38611 284.74146 285.92221 286.96948 287.93155 288.80365
 289.59305 290.30212 290.92682 291.75723
 366.78100 356.34327 345.78354 334.65780 323.06907 311.27134 299.14961 286.96088
 274.68115 262.58641 250.60368 239.91295 230.04322 221.15549 213.34576 206.35602
 200.19829 195.14456 191.73483 189.78510 188.83037 188.90263 189.74590 191.06217
 192.79544 194.89871 197.16998 199.53724 201.99051 204.47878 206.57505 208.42532
 210.05959 211.21285 211.45012 211.68639 211.63166 211.34493 210.98620 210.62446
 210.24973 209.96800 209.78427 209.65654 209.59281 209.93207 210.32634 210.72361
 211.52488 212.71115 213.96942 215.76068 217.69695 219.74822 221.85149 223.94276
 226.01103 228.10329 230.20856 232.32283 234.46010 236.64037 238.90464 241.28290
 243.91217 246.17144 248.18171 249.95498 251.38025 252.51151 253.34178 253.66605
 253.71132 253.49359 252.86186 251.81812 250.43239 248.60166 246.51893 244.36020
 242.15947 239.97173 237.80000 235.64727 233.51554 231.39081 229.42508 227.59034
 225.88161 224.36188 223.00015 221.78042 220.67069 219.63895 218.75122 217.90049
 217.15076 216.33903 215.44530 214.81756 214.27583 213.43149 211.43799 210.56366
 211.19934 212.94012 215.09419 216.83411 219.21330 223.34935 229.16278 234.24077
 238.06929 241.82343 245.57596 249.49568 253.65115 257.11569 259.71283 261.79831
 264.63699 267.48581 269.85950 271.73819 273.44019 275.13452 276.78940 278.48157
 280.21979 281.82010 283.29132 284.64566 285.82822 286.87622 287.83728 288.70959
 289.50244 290.20990 290.83307 291.66769
 366.78100 356.34287 345.78274 334.65661 323.06748 311.26934 299.14721 286.95808
 274.67795 262.58282 250.59969 239.90856 230.03843 221.15030 213.34016 206.35003
 200.19190 195.13777 191.72764 189.77751 188.82238 188.89425 189.73711 191.05298
 192.78585 194.88872 197.15959 199.52646 201.97933 204.46720 206.56307 208.41293
 210.04680 211.19967 211.43654 211.67241 211.61728 211.33015 210.97102 210.60889
 210.23375 209.95162 209.76749 209.63936 209.57523 209.91410 210.30797 210.70484
 211.50571 212.69157 213.94944 215.74031 217.67618 219.72705 221.82992 223.92079
 225.98866 228.08052 230.18539 232.29926 234.43613 236.61600 238.87987 241.25774
 243.88661 246.14548 248.15534 249.92821 251.35308 252.48395 253.31382 253.63769
 253.68256 253.46443 252.83230 251.78816 250.40203 248.57090 246.48777 244.32864
 242.12751 239.93938 237.76725 235.61412 233.48198 231.35685 229.39072 227.55559
 225.84646 224.32633 222.96420 221.74407 220.63393 219.60180 218.71367 217.86254
 217.11241 216.30028 215.40615 214.77802 214.23589 213.43045 211.52855 210.66928
 211.27902 213.04938 215.18820 216.88516 219.17093 223.28397 229.10335 234.16013
 237.96898 241.71321 245.47008 249.41307 253.60992 257.03149 259.58060 261.69019
 264.53293 267.39667 269.78949 271.66037 273.33545 275.00986 276.68338 278.39337
 280.13144 281.73090 283.20108 284.55719 285.73892 286.78735 287.74924 288.62228
 289.41336 290.12268 290.74890 291.58139
 366.78100 356.34247 345.78194 334.65541 323.06589 311.26736 299.14483 286.95530
 274.67477 262.57924 250.59572 239.90419 230.03366 221.14513 213.33460 206.34407
 200.18554 195.13102 191.72049 189.76996 188.81443 188.88590 189.72837 191.04384
 192.77632 194.87879 197.14926 199.51573 201.96820 204.45567 206.55115 208.40062
 210.03409 211.18656 211.42303 211.65850 211.60297 211.31545 210.95592 210.59339
 210.21786 209.93533 209.75080 209.62228 209.55775 209.89622 210.28969 210.68616
 211.48663 212.67210 213.92958 215.72005 217.65552 219.70599 221.80846 223.89893
 225.96640 228.05788 230.16235 232.27582 234.41229 236.59176 238.85523 241.23271
 243.86118 246.11965 248.12912 249.90159 251.32606 252.45653 253.28601 253.60948
 253.65395 253.43542 252.80289 251.75836 250.37184 248.54031 246.45678 244.29725
 242.09572 239.90719 237.73466 235.58114 233.44861 231.32308 229.35655 227.52102
 225.81149 224.29097 222.92844 221.70791 220.59738 219.56485 218.67632 217.82479
 217.07427 216.26174 215.36721 214.73868 214.19615 213.42859 211.61584 210.77344
 211.36884 213.15691 215.27863 216.94835 219.13275 223.21709 229.04460 234.07695
 237.86676 241.60219 245.36786 249.33667 253.56699 256.94318 259.44559 261.57898
 264.42261 267.29605 269.70700 271.57614 273.23596 274.89853 276.58865 278.31335
 280.05008 281.64926 283.11725 284.47287 285.65448 286.70444 287.66449 288.53952
 289.33246 290.04099 290.66797 291.49765
 366.78100 356.34206 345.78111 334.65417 323.06422 311.26528 299.14233 286.95239
 274.67145 262.57550 250.59156 239.89961 230.02867 221.13972 213.32878 206.33784
 200.17889 195.12395 191.71300 189.76206 188.80611 188.87717 189.71923 191.03428
 192.76634 194.86839 197.13845 199.50450 201.95656 204.44362 206.53867 208.38773
 210.02078 211.17284 211.40889 211.64395 211.58801 211.30006 210.94012 210.57717
 210.20123 209.91828 209.73334 209.60440 209.53945 209.87751 210.27056 210.66662
 211.46667 212.65173 213.90879 215.69884 217.63390 219.68395 221.78601 223.87606
 225.94312 228.03418 230.13823 232.25129 234.38734 236.56640 238.82945 241.20651
 243.83457 246.09262 248.10168 249.87373 251.29779 252.42784 253.25690 253.57996
 253.62401 253.40507 252.77212 251.72718 250.34023 248.50829 246.42435 244.26440
 242.06246 239.87351 237.70057 235.54662 233.41368 231.28774 229.32079 227.48485
 225.77490 224.25396 222.89101 221.67007 220.55913 219.52618 218.63724 217.78529
 217.03435 216.22140 215.32646 214.69752 214.15457 213.42493 211.70151 210.87923
 211.46118 213.26431 215.36839 217.00893 219.10976 223.15279 228.98444 233.98868
 237.76196 241.49115 245.27045 249.26637 253.52031 256.85272 259.31100 261.46695
 264.30499 267.18274 269.61044 271.48245 273.13797 274.79965 276.50540 278.24054
 279.97598 281.57117 283.03900 284.39609 285.57767 286.62784 287.58902 288.46432
 289.25449 289.96579 290.59256 291.42676
 366.78100 356.34154 345.78007 334.65261 323.06215 311.26268 299.13922 286.94876
 274.66729 262.57083 250.58637 239.89390 230.02244 221.13298 213.32151 206.33005
 200.17059 195.11512 191.70366 189.75220 188.79573 188.86627 189.70781 191.02234
 192.75388 194.85542 197.12495 199.49049 201.94203 204.42856 206.52310 208.37163
 210.00417 211.15571 211.39124 211.62578 211.56932 211.28085 210.92039 210.55693
 210.18046 209.89700 209.71154 209.58207 209.51661 209.85415 210.24668 210.64222
 211.44176 212.62629 213.88283 215.67237 217.60690 219.65644 221.75798 223.84751
 225.91405 228.00459 230.10812 232.22066 234.35620 236.53473 238.79727 241.17381
 243.80134 246.05888 248.06742 249.83895 251.26249 252.39203 253.22056 253.54310
 253.58664 253.36717 252.73371 251.68825 250.30078 248.46832 246.38386 244.22339
 242.02093 239.83147 237.65800 235.50354 233.37008 231.24361 229.27615 227.43969
 225.72922 224.20776 222.84430 221.62283 220.51137 219.47790 218.58844 217.73598
 216.98451 216.17105 215.27559 214.64612 214.10266 213.41499 211.79051 210.98347
 211.55611 213.36743 215.45706 217.07120 219.09309 223.09920 228.92543 233.89456
 237.65164 241.37807 245.17781 249.20139 253.47020 256.76089 259.18088 261.35904
 264.18362 267.05768 269.49734 271.37573 273.04034 274.71320 276.43326 278.17529
 279.90802 281.49991 282.96759 284.32443 285.50729 286.55698 287.51874 288.39346
 289.18579 289.89548 290.52606 291.35971
 366.78100 356.34103 345.77905 334.65108 323.06011 311.26014 299.13616 286.94519
 274.66322 262.56624 250.58127 239.88830 230.01633 221.12635 213.31438 206.32241
 200.16243 195.10646 191.69449 189.74252 188.78554 188.85557 189.69660 191.01062
 192.74165 194.84268 197.11171 199.47673 201.92776 204.41379 206.50781 208.35584
 209.98787 211.13889 211.37392 211.60795 211.55098 211.26200 210.90103 210.53706
 210.16008 209.87611 209.69014 209.56017 209.49419 209.83122 210.22325 210.61827
 211.41730 212.60133 213.85736 215.64638 217.58041 219.62944 221.73046 223.81949
 225.88552 227.97555 230.07857 232.19060 234.32563 236.50365 238.76568 241.14171
 243.76874 246.02576 248.03379 249.80482 251.22784 252.35687 253.18490 253.50693
 253.54995 253.32998 252.69601 251.65003 250.26206 248.42909 246.34412 244.18314
 241.98017 239.79020 237.61622 235.46125 233.32728 231.20031 229.23233 227.39536
 225.68439 224.16241 222.79844 221.57647 220.46450 219.43052 218.54055 217.68758
 216.93560 216.12163 215.22566 214.59568 214.05171 213.40501 211.87717 211.08963
 211.64998 213.47571 215.54869 217.12527 219.09343 223.04932 228.86069 233.79420
 237.53911 241.26607 245.08987 249.14128 253.41444 256.66479 259.05283 261.25522
 264.05911 266.92059 269.36945 271.25937 272.94574 274.64221 276.37381 278.11685
 279.84671 281.43237 282.90405 284.26047 285.44379 286.49283 287.45511 288.33008
 289.12289 289.83600 290.46222 291.30096
 366.78100 356.34072 345.77844 334.65015 323.05887 311.25859 299.13431 286.94303
 274.66075 262.56346 250.57818 239.88490 230.01262 221.12234 213.31006 206.31777
 200.15749 195.10121 191.68893 189.73665 188.77937 188.84908 189.68980 191.00352
 192.73424 194.83496 197.10368 199.46839 201.91911 204.40483 206.49855 208.34627
 209.97799 211.12870 211.36342 211.59714 211.53986 211.25058 210.88929 210.52501
 210.14773 209.86345 209.67717 209.54689 209.48060 209.81732 210.20904 210.60376
 211.40248 212.58620 213.84191 215.63063 217.56435 219.61307 221.71379 223.80251
 225.86822 227.95794 230.06066 232.17238 234.30710 236.48482 238.74653 241.12225
 243.74897 246.00569 248.01341 249.78412 251.20684 252.33556 253.16328 253.48500
 253.52772 253.30743 252.67315 251.62687 250.23859 248.40531 246.32003 244.15874
 241.95546 239.76518 237.59090 235.43562 233.30134 231.17405 229.20577 227.36849
 225.65721 224.13493 222.77065 221.54836 220.43608 219.40180 218.51152 217.65824
 216.90596 216.09167 215.19539 214.56511 214.02083 213.40530 211.95105 211.19623
 211.75665 213.57439 215.64993 217.18192 219.07867 223.00638 228.79779 233.69279
 237.42566 241.15527 245.00746 249.08667 253.35371 256.56641 258.93228 261.16144
 263.93576 266.77533 269.22839 271.13101 272.84738 274.57626 276.31845 278.05923
 279.78976 281.36929 282.84393 284.20102 285.38443 286.43491 287.39642 288.27185
 289.06531 289.77686 290.40530 291.24606
 366.78100 356.34021 345.77741 334.64862 323.05682 311.25603 299.13123 286.93944
 274.65664 262.55885 250.57306 239.87926 230.00647 221.11567 213.30288 206.31008
 200.14929 195.09249 191.67970 189.72691 188.76911 188.83832 189.67852 190.99173
 192.72193 194.82214 197.09035 199.45455 201.90476 204.38996 206.48317 208.33037
 209.96158 211.11178 211.34599 211.57920 211.52140 211.23161 210.86981 210.50502
 210.12722 209.84243 209.65563 209.52484 209.45805 209.79425 210.18546 210.57966
 211.37787 212.56107 213.81628 215.60448 217.53769 219.58590 221.68610 223.77431
 225.83951 227.92872 230.03092 232.14213 234.27634 236.45354 238.71475 241.08995
 243.71616 245.97236 247.97957 249.74977 251.17198 252.30019 253.12739 253.44860
 253.49080 253.27001 252.63521 251.58842 250.19962 248.36583 246.28004 244.11824
 241.91445 239.72365 237.54886 235.39306 233.25827 231.13047 229.16168 227.32389
 225.61209 224.08930 222.72450 221.50171 220.38891 219.35412 218.46333 217.60953
 216.85674 216.04194 215.14515 214.51435 213.96956 213.39490 212.03717 211.29640
 211.85873 213.67218 215.73447 217.23604 219.09721 222.97188 228.72810 233.58630
 237.31226 241.04962 244.93486 249.04021 253.29243 256.46994 258.82062 261.07703
 263.81290 266.62097 269.07260 270.98904 272.74332 274.51294 276.26550 277.99976
 279.72849 281.30588 282.78955 284.14774 285.33130 286.38293 287.34372 288.21848
 289.01379 289.72562 290.35416 291.19693
 366.78100 356.33878 345.77456 334.64434 323.05112 311.24890 299.12268 286.92946
 274.64524 262.54602 250.55880 239.86358 229.98936 221.09714 213.28292 206.28869
 200.12647 195.06825 191.65403 189.69981 188.74059 188.80837 189.64715 190.95893
 192.68771 194.78649 197.05327 199.41605 201.86483 204.34861 206.44039 208.28617
 209.91595 211.06473 211.29751 211.52929 211.47007 211.17885 210.81563 210.44941
 210.07019 209.78397 209.59575 209.46353 209.39530 209.73008 210.11986 210.51264
 211.30942 212.49120 213.74498 215.53176 217.46354 219.51032 221.60910 223.69588
 225.75966 227.84744 229.94822 232.05800 234.19078 236.36656 238.62634 241.00012
 243.62490 245.87968 247.88546 249.65424 251.07502 252.20180 253.02758 253.34736
 253.38814 253.16591 252.52969 251.48147 250.09125 248.25603 246.16881 244.00559
 241.80037 239.60815 237.43193 235.27471 233.13849 231.00927 229.03905 227.19983
 225.48661 223.96239 222.59617 221.37195 220.25773 219.22151 218.32929 217.47407
 216.71985 215.90363 215.00541 214.37319 213.82697 213.33548 212.17430 211.40334
 211.90121 213.77132 215.85602 217.28485 219.09926 222.93399 228.66603 233.48962
 237.20302 240.95311 244.87260 248.99979 253.22786 256.36768 258.70712 260.99258
 263.68723 266.45667 268.90479 270.84094 272.64291 274.46188 276.22342 277.94626
 279.66885 281.24435 282.73969 284.09799 285.28110 286.33243 287.29446 288.16943
 288.96356 289.67584 290.30753 291.15097
 366.78100 356.33827 345.77353 334.64280 323.04907 311.24634 299.11960 286.92587
 274.64114 262.54141 250.55367 239.85794 229.98321 221.09047 213.27574 206.28101
 200.11828 195.05954 191.64481 189.69008 188.73035 188.79761 189.63588 190.94715
 192.67541 194.77368 197.03995 199.40222 201.85048 204.33375 206.42502 208.27029
 209.89955 211.04782 211.28009 211.51135 211.45162 211.15989 210.79616 210.42942
 210.04969 209.76296 209.57423 209.44149 209.37276 209.70703 210.09629 210.48856
 211.28483 212.46610 213.71936 215.50563 217.43690 219.48316 221.58143 223.66770
 225.73097 227.81823 229.91850 232.02777 234.16004 236.33530 238.59457 240.96784
 243.59210 245.84637 247.85164 249.61991 251.04017 252.16644 252.99171 253.31098
 253.35124 253.12851 252.49178 251.44304 250.05231 248.21658 246.12885 243.96511
 241.75938 239.56665 237.38992 235.23218 233.09545 230.96572 228.99498 227.15525
 225.44152 223.91679 222.55005 221.32532 220.21059 219.17386 218.28112 217.42539
 216.67066 215.85392 214.95519 214.32246 213.77573 213.32088 212.24623 211.51950
 212.04227 213.79494 215.93143 217.39601 219.14346 222.92126 228.58554 233.37253
 237.08064 240.84937 244.81073 248.96054 253.15625 256.25876 258.59427 260.91235
 263.56433 266.29041 268.73511 270.69528 272.54865 274.41980 276.18997 277.90030
 279.61392 281.18842 282.69040 284.05029 285.23547 286.28598 287.24713 288.12344
 288.91956 289.62988 290.26086 291.10980
 366.78100 356.33740 345.77180 334.64020 323.04560 311.24201 299.11441 286.91981
 274.63421 262.53361 250.54501 239.84841 229.97281 221.07922 213.26362 206.26802
 200.10442 195.04482 191.62922 189.67362 188.71302 188.77942 189.61683 190.92723
 192.65463 194.75203 197.01743 199.37883 201.82623 204.30863 206.39904 208.24344
 209.87184 211.01924 211.25064 211.48104 211.42044 211.12784 210.76324 210.39565
 210.01505 209.72745 209.53785 209.40425 209.33465 209.66805 210.05645 210.44786
 211.24326 212.42366 213.67606 215.46146 217.39186 219.43726 221.53466 223.62006
 225.68247 227.76887 229.86827 231.97667 234.10807 236.28247 238.54087 240.91327
 243.53668 245.79008 247.79448 249.56188 250.98128 252.10668 252.93108 253.24948
 253.28888 253.06529 252.42769 251.37809 249.98649 248.14989 246.06129 243.89669
 241.69009 239.49650 237.31890 235.16030 233.02270 230.89210 228.92050 227.07990
 225.36530 223.83970 222.47211 221.24651 220.13091 219.09331 218.19971 217.34311
 216.58751 215.76991 214.87032 214.23672 213.68912 213.29129 212.35139 211.59142
 212.08366 214.00043 216.08649 217.42780 219.12633 222.83984 228.51022 233.26375
 236.96185 240.75426 244.75928 248.92877 253.08621 256.15582 258.49338 260.84442
 263.44925 266.12653 268.56439 270.54800 272.45111 274.37436 276.15186 277.84601
 279.55319 281.12851 282.64880 284.00989 285.19382 286.24551 287.20731 288.08350
 288.87787 289.59055 290.22357 291.06854
 366.78100 356.33683 345.77065 334.63848 323.04331 311.23913 299.11096 286.91579
 274.62961 262.52844 250.53927 239.84209 229.96592 221.07174 213.25557 206.25940
 200.09522 195.03505 191.61888 189.66270 188.70153 188.76736 189.60418 190.91401
 192.64084 194.73766 197.00249 199.36332 201.81014 204.29197 206.38180 208.22562
 209.85345 211.00028 211.23110 211.46093 211.39976 211.10658 210.74141 210.37323
 209.99206 209.70389 209.51371 209.37954 209.30937 209.64219 210.03002 210.42085
 211.21567 212.39550 213.64733 215.43215 217.36198 219.40681 221.50363 223.58846
 225.65029 227.73611 229.83494 231.94277 234.07359 236.24742 238.50524 240.87707
 243.49990 245.75272 247.75655 249.52338 250.94220 252.06703 252.89086 253.20868
 253.24751 253.02334 252.38516 251.33499 249.94282 248.10564 246.01647 243.85130
 241.64412 239.44995 237.27178 235.11260 232.97443 230.84325 228.87108 227.02991
 225.31473 223.78856 222.42039 221.19421 220.07804 219.03987 218.14569 217.28852
 216.53235 215.71417 214.81400 214.17983 213.63165 213.27539 212.43369 211.69090
 212.14803 214.15161 216.21294 217.47273 219.12212 222.75475 228.44571 233.16403
 236.85165 240.67105 244.71921 248.90422 253.01483 256.05426 258.39700 260.77869
 263.33575 265.96088 268.38837 270.39514 272.35004 274.32770 276.11282 277.79050
 279.48996 281.07373 282.60522 283.96866 285.15414 286.20572 287.16833 288.04477
 288.83951 289.55533 290.18460 291.03394
 366.78100 356.33638 345.76975 334.63713 323.04150 311.23688 299.10826 286.91263
 274.62601 262.52438 250.53476 239.83714 229.96051 221.06589 213.24927 206.25264
 200.08802 195.02739 191.61077 189.65415 188.69252 188.75790 189.59427 190.90365
 192.63003 194.72640 196.99078 199.35115 201.79753 204.27891 206.36828 208.21166
 209.83903 210.98541 211.21579 211.44516 211.38354 211.08992 210.72429 210.35567
 209.97404 209.68542 209.49480 209.36017 209.28955 209.62192 210.00930 210.39968
 211.19405 212.37343 213.62480 215.40918 217.33856 219.38293 221.47931 223.56368
 225.62506 227.71044 229.80881 231.91619 234.04657 236.21994 238.47732 240.84869
 243.47107 245.72345 247.72682 249.49320 250.91157 252.03595 252.85933 253.17670
 253.21508 252.99045 252.35183 251.30121 249.90858 248.07096 245.98133 243.81571
 241.60809 239.41346 237.23484 235.07522 232.93659 230.80497 228.83234 226.99072
 225.27510 223.74847 222.37985 221.15322 220.03660 218.99798 218.10335 217.24573
 216.48910 215.67048 214.76986 214.13523 213.58661 213.26436 212.50302 211.79283
 212.25243 214.26947 216.29562 217.52733 219.14548 222.68796 228.38194 233.06673
 236.74797 240.59627 244.68704 248.88269 252.93938 255.94554 258.29480 260.70670
 263.21896 265.79337 268.21133 270.24429 272.25400 274.28824 276.08194 277.74130
 279.43228 281.02426 282.56027 283.92526 285.11066 286.16394 287.12735 288.00433
 288.80075 289.51413 290.14496 291.00430
 366.78100 356.33568 345.76836 334.63504 323.03872 311.23340 299.10408 286.90776
 274.62044 262.51812 250.52780 239.82948 229.95216 221.05684 213.23952 206.24220
 200.07688 195.01556 191.59824 189.64092 188.67860 188.74328 189.57896 190.88764
 192.61332 194.70900 196.97268 199.33236 201.77804 204.25872 206.34739 208.19007
 209.81675 210.96243 211.19211 211.42079 211.35847 211.06415 210.69783 210.32851
 209.94619 209.65687 209.46555 209.33023 209.25891 209.59059 209.97727 210.36695
 211.16063 212.33931 213.58999 215.37367 217.30235 219.34603 221.44171 223.52539
 225.58607 227.67075 229.76843 231.87511 234.00479 236.17747 238.43415 240.80483
 243.42651 245.67819 247.68087 249.44655 250.86423 251.98791 252.81059 253.12727
 253.16495 252.93963 252.30031 251.24899 249.85567 248.01735 245.92703 243.76071
 241.55239 239.35707 237.17775 235.01743 232.87811 230.74579 228.77247 226.93015
 225.21383 223.68650 222.31718 221.08986 219.97254 218.93322 218.03790 217.17958
 216.42226 215.60294 214.70162 214.06630 213.51698 213.23976 212.58479 211.89038
 212.35960 214.38277 216.36726 217.58112 219.17381 222.64549 228.31596 232.97034
 236.65038 240.52919 244.65977 248.86206 252.85661 255.82663 258.18365 260.62640
 263.10034 265.62851 268.03973 270.10379 272.16730 274.25485 276.05676 277.69910
 279.37671 280.97687 282.51483 283.88156 285.06833 286.12088 287.08673 287.96289
 288.75842 289.47403 290.10614 290.96289
 366.78100 356.33479 345.76657 334.63236 323.03514 311.22893 299.09871 286.90150
 274.61328 262.51007 250.51886 239.81964 229.94143 221.04521 213.22700 206.22878
 200.06257 195.00035 191.58214 189.62392 188.66071 188.72450 189.55928 190.86707
 192.59185 194.68664 196.94942 199.30821 201.75299 204.23278 206.32057 208.16235
 209.78814 210.93292 211.16171 211.38949 211.32628 211.03106 210.66385 210.29363
 209.91042 209.62021 209.42799 209.29178 209.21956 209.55035 209.93613 210.32492
 211.11770 212.29549 213.54528 215.32806 217.25585 219.29863 221.39342 223.47620
 225.53599 227.61977 229.71656 231.82235 233.95113 236.12292 238.37870 240.74849
 243.36927 245.62006 247.62184 249.38663 250.80341 251.92620 252.74799 253.06377
 253.10056 252.87434 252.23413 251.18191 249.78770 247.94848 245.85727 243.69006
 241.48084 239.28463 237.10441 234.94320 232.80298 230.66977 228.69555 226.85234
 225.13513 223.60691 222.23670 221.00848 219.89027 218.85005 217.95384 217.09462
 216.33641 215.51619 214.61398 213.97777 213.42755 213.20436 212.67706 211.99205
 212.45757 214.49461 216.43871 217.63023 219.20001 222.61385 228.25214 232.87762
 236.55954 240.46849 244.63605 248.83922 252.76425 255.69545 258.06259 260.53888
 262.98450 265.47342 267.88126 269.97903 272.09167 274.22498 276.03159 277.65820
 279.32095 280.92993 282.47064 283.83688 285.02582 286.07925 287.04337 287.92102
 288.71725 289.43140 290.06281 290.92538
 366.78100 356.33378 345.76456 334.62934 323.03113 311.22391 299.09269 286.89447
 274.60525 262.50103 250.50881 239.80860 229.92938 221.03216 213.21294 206.21372
 200.04650 194.98329 191.56407 189.60485 188.64063 188.70341 189.53719 190.84397
 192.56776 194.66154 196.92332 199.28110 201.72488 204.20366 206.29044 208.13123
 209.75601 210.89979 211.12757 211.35435 211.29013 210.99391 210.62570 210.25448
 209.87026 209.57904 209.38582 209.24860 209.17539 209.50517 209.88995 210.27773
 211.06951 212.24629 213.49507 215.27686 217.20364 219.24542 221.33920 223.42098
 225.47976 227.56254 229.65833 231.76311 233.89089 236.06167 238.31645 240.68523
 243.30501 245.55480 247.55558 249.31936 250.73514 251.85692 252.67770 252.99249
 253.02827 252.80105 252.15983 251.10661 249.71139 247.87117 245.77896 243.61074
 241.40052 239.20330 237.02208 234.85986 232.71864 230.58443 228.60921 226.76499
 225.04677 223.51755 222.14633 220.91712 219.79790 218.75668 217.85946 216.99924
 216.24002 215.41880 214.51559 213.87837 213.32715 213.16272 212.77426 212.09879
 212.55510 214.60185 216.49782 217.67336 219.23326 222.58652 228.19299 232.78891
 236.47566 240.41479 244.61377 248.81163 252.66017 255.55167 257.93329 260.44653
 262.87384 265.33060 267.73737 269.87027 272.02496 274.19559 276.00476 277.61783
 279.26819 280.88318 282.42661 283.79282 284.98166 286.03647 287.00015 287.87997
 288.67566 289.39301 290.02280 290.88693
 366.78100 356.33272 345.76244 334.62616 323.02689 311.21861 299.08633 286.88705
 274.59677 262.49149 250.49821 239.79693 229.91666 221.01838 213.19810 206.19782
 200.02954 194.96526 191.54498 189.58470 188.61943 188.68115 189.51387 190.81959
 192.54231 194.63503 196.89575 199.25248 201.69520 204.17292 206.25864 208.09836
 209.72208 210.86480 211.09152 211.31725 211.25197 210.95469 210.58541 210.21313
 209.82785 209.53557 209.34129 209.20302 209.12874 209.45746 209.84118 210.22790
 211.01862 212.19434 213.44207 215.22279 217.14851 219.18923 221.28195 223.36267
 225.42039 227.50211 229.59684 231.70056 233.82728 235.99700 238.25072 240.61844
 243.23716 245.48588 247.48561 249.24833 250.66305 251.78377 252.60349 252.91721
 252.95193 252.72366 252.08138 251.02710 249.63082 247.78954 245.69626 243.52698
 241.31570 239.11743 236.93515 234.77187 232.62959 230.49431 228.51803 226.67275
 224.95347 223.42320 222.05092 220.82064 219.70036 218.65808 217.75980 216.89852
 216.13825 215.31597 214.41169 213.77341 213.22113 213.11778 212.87360 212.21227
 212.65619 214.70068 216.53513 217.71086 219.28053 222.56340 228.13931 232.70747
 236.40041 240.36786 244.59135 248.77708 252.54510 255.39905 257.79822 260.34778
 262.76620 265.19937 267.60941 269.77676 271.96793 274.16803 275.97772 277.57776
 279.21564 280.83752 282.38223 283.74982 284.93765 285.99460 286.95828 287.83694
 288.63437 289.34967 289.98175 290.84692
 366.78100 356.33165 345.76029 334.62294 323.02259 311.21324 299.07988 286.87953
 274.58818 262.48183 250.48747 239.78512 229.90377 221.00441 213.18306 206.18171
 200.01236 194.94700 191.52565 189.56430 188.59794 188.65859 189.49024 190.79489
 192.51653 194.60818 196.86783 199.22348 201.66512 204.14177 206.22642 208.06506
 209.68771 210.82936 211.05501 211.27965 211.21330 210.91495 210.54460 210.17124
 209.78489 209.49154 209.29618 209.15683 209.08148 209.40913 209.79177 210.17742
 210.96707 212.14171 213.38836 215.16801 217.09266 219.13230 221.22395 223.30360
 225.36025 227.44089 229.53454 231.63719 233.76283 235.93148 238.18413 240.55078
 243.16842 245.41607 247.41472 249.17636 250.59001 251.70966 252.52831 252.84095
 252.87460 252.64525 252.00190 250.94654 249.54919 247.70684 245.61248 243.44213
 241.22978 239.03043 236.84707 234.68272 232.53937 230.40302 228.42566 226.57931
 224.85896 223.32760 221.95425 220.72290 219.60155 218.55819 217.65884 216.79649
 216.03513 215.21178 214.30643 213.66708 213.11372 213.07161 212.97209 212.33470
 212.76512 214.78511 216.54443 217.74553 219.33530 222.54654 228.09109 232.63593
 236.33543 240.32788 244.56940 248.73599 252.42256 255.24149 257.65781 260.23959
 262.65686 265.07620 267.49500 269.69751 271.92078 274.14404 275.95297 277.54086
 279.16666 280.79282 282.33752 283.70526 284.89508 285.95056 286.91476 287.79425
 288.59134 289.30634 289.93994 290.80493
 366.78100 356.33057 345.75813 334.61970 323.01826 311.20783 299.07339 286.87196
 274.57952 262.47209 250.47665 239.77322 229.89078 220.99035 213.16791 206.16548
 199.99504 194.92861 191.50617 189.54374 188.57630 188.63587 189.46643 190.77000
 192.49056 194.58113 196.83969 199.19426 201.63482 204.11039 206.19395 208.03152
 209.65308 210.79365 211.01821 211.24178 211.17434 210.87491 210.50347 210.12904
 209.74160 209.44717 209.25073 209.11030 209.03386 209.36043 209.74199 210.12656
 210.91512 212.08869 213.33425 215.11282 217.03638 219.07495 221.16551 223.24408
 225.29964 227.37921 229.47177 231.57334 233.69791 235.86547 238.11704 240.48260
 243.09917 245.34573 247.34330 249.10386 250.51643 251.63499 252.45256 252.76412
 252.79669 252.56625 251.92182 250.86538 249.46695 247.62351 245.52808 243.35664
 241.14321 238.94277 236.75834 234.59290 232.44847 230.31103 228.33260 226.48516
 224.76373 223.23129 221.85686 220.62442 219.50199 218.45755 217.55712 216.69368
 215.93125 215.10681 214.20038 213.55994 213.00551 213.02440 213.06905 212.46851
 212.87788 214.85342 216.53116 217.77034 219.38972 222.53299 228.05051 232.57761
 236.28189 240.29776 244.55185 248.69315 252.29636 255.08098 257.51080 260.11734
 262.54141 264.95813 267.39297 269.63403 271.88782 274.12677 275.93433 277.51190
 279.12793 280.74847 282.29367 283.66251 284.85190 285.90701 286.87387 287.75098
 288.54752 289.26694 289.89612 290.76468
 366.78100 356.32942 345.75584 334.61627 323.01369 311.20211 299.06653 286.86395
 274.57038 262.46180 250.46522 239.76064 229.87706 220.97548 213.15191 206.14833
 199.97675 194.90917 191.48559 189.52202 188.55344 188.61186 189.44128 190.74370
 192.46313 194.55255 196.80997 199.16339 201.60281 204.07723 206.15966 207.99608
 209.61650 210.75592 210.97934 211.20177 211.13319 210.83261 210.46003 210.08445
 209.69588 209.40030 209.20272 209.06114 208.98356 209.30899 209.68941 210.07283
 210.86025 212.03267 213.27709 215.05452 216.97694 219.01436 221.10378 223.18120
 225.23563 227.31405 229.40547 231.50589 233.62931 235.79574 238.04616 240.41058
 243.02600 245.27142 247.26785 249.02727 250.43869 251.55611 252.37253 252.68295
 252.71438 252.48280 251.83722 250.77964 249.38006 247.53549 245.43891 243.26633
 241.05175 238.85017 236.66460 234.49802 232.35244 230.21386 228.23428 226.38570
 224.66313 223.12955 221.75397 220.52039 219.39681 218.35124 217.44966 216.58508
 215.82150 214.99592 214.08835 213.44677 212.89119 212.97417 213.17021 212.61151
 213.00075 214.90639 216.48840 217.78284 219.43578 222.52628 228.01869 232.53186
 236.24095 240.27899 244.54022 248.65013 252.16699 254.91374 257.35263 259.97913
 262.41766 264.84579 267.30475 269.58987 271.87161 274.11896 275.92197 277.48792
 279.09955 280.70633 282.25214 283.62109 284.81082 285.86676 286.83096 287.71115
 288.50867 289.22531 289.85727 290.72449
 366.78100 356.32838 345.75376 334.61314 323.00952 311.19690 299.06028 286.85666
 274.56204 262.45242 250.45480 239.74918 229.86456 220.96194 213.13732 206.13270
 199.96008 194.89146 191.46683 189.50221 188.53259 188.58997 189.41835 190.71973
 192.43811 194.52649 196.78287 199.13525 201.57363 204.04701 206.12839 207.96377
 209.58315 210.72153 210.94391 211.16529 211.09567 210.79405 210.42043 210.04381
 209.65419 209.35757 209.15895 209.01633 208.93771 209.26209 209.64147 210.02385
 210.81023 211.98161 213.22499 215.00137 216.92275 218.95913 221.04750 223.12388
 225.17726 227.25464 229.34502 231.44440 233.56678 235.73216 237.98154 240.34492
 242.95930 245.20368 247.19906 248.95744 250.36782 251.48420 252.29958 252.60896
 252.63934 252.40672 251.76010 250.70148 249.30086 247.45524 245.35762 243.18400
 240.96838 238.76576 236.57914 234.41152 232.26490 230.12528 228.14466 226.29504
 224.57142 223.03680 221.66017 220.42555 219.30093 218.25431 217.35169 216.48607
 215.72145 214.89483 213.98621 213.34359 212.78697 212.92912 213.26500 212.77863
 213.11577 214.93367 216.43184 217.78377 219.48442 222.51688 227.99565 232.49825
 236.21288 240.27394 244.53668 248.60870 252.03629 254.74257 257.18741 259.82803
 262.28867 264.73898 267.22925 269.55893 271.86502 274.11279 275.90485 277.45877
 279.06848 280.66818 282.21216 283.58273 284.77289 285.82892 286.79562 287.67291
 288.47125 289.18906 289.82053 290.68317
 366.78100 356.32668 345.75035 334.60803 323.00271 311.18838 299.05006 286.84473
 274.54841 262.43709 250.43776 239.73044 229.84412 220.93979 213.11347 206.10715
 199.93282 194.86250 191.43617 189.46985 188.49853 188.55420 189.38088 190.68056
 192.39723 194.48391 196.73859 199.08926 201.52594 203.99762 206.07729 207.91097
 209.52864 210.66532 210.88600 211.10567 211.03435 210.73103 210.35570 209.97738
 209.58606 209.28773 209.08741 208.94308 208.86276 209.18544 209.56311 209.94379
 210.72847 211.89814 213.13982 214.91450 216.83417 218.86885 220.95552 223.03020
 225.08188 227.15755 229.24623 231.34391 233.46458 235.62826 237.87594 240.23761
 242.85029 245.09296 247.08664 248.84332 250.25199 251.36667 252.18035 252.48802
 252.51670 252.28238 251.63405 250.57373 249.17141 247.32408 245.22476 243.04943
 240.83211 238.62779 236.43946 234.27014 232.12182 229.98049 227.99817 226.14685
 224.42152 222.88520 221.50687 220.27055 219.14423 218.09590 217.19158 216.32426
 215.55793 214.72961 213.81929 213.17496 212.61664 212.85335 213.41261 212.89163
 213.24281 214.97694 216.35172 217.77255 219.53078 222.52431 227.97992 232.47441
 236.19987 240.28471 244.54460 248.57220 251.90842 254.57150 257.01697 259.66287
 262.14688 264.62625 267.15292 269.52695 271.85547 274.09811 275.87430 277.41708
 279.02664 280.63391 282.17953 283.54837 284.73853 285.79526 286.75940 287.63977
 288.43652 289.15393 289.78781 290.65054
 366.78100 356.32575 345.74850 334.60525 322.99900 311.18375 299.04451 286.83826
 274.54101 262.42876 250.42851 239.72026 229.83301 220.92776 213.10051 206.09326
 199.91801 194.84677 191.41952 189.45227 188.48002 188.53477 189.36052 190.65927
 192.37502 194.46077 196.71452 199.06428 201.50003 203.97078 206.04953 207.88228
 209.49903 210.63478 210.85453 211.07328 211.00103 210.69678 210.32054 209.94129
 209.54904 209.24979 209.04854 208.90329 208.82204 209.14379 209.52054 209.90029
 210.68404 211.85280 213.09355 214.86730 216.78605 218.81980 220.90555 222.97930
 225.03005 227.10480 229.19255 231.28931 233.40906 235.57181 237.81856 240.17931
 242.79106 245.03281 247.02556 248.78131 250.18906 251.30281 252.11557 252.42232
 252.45007 252.21482 251.56557 250.50432 249.10107 247.25282 245.15257 242.97632
 240.75807 238.55283 236.36358 234.19333 232.04408 229.90183 227.91858 226.06633
 224.34008 222.80283 221.42358 220.18634 219.05909 218.00984 217.10459 216.23634
 215.46909 214.63984 213.72859 213.08334 212.52409 212.81770 213.51140 213.10226
 213.30363 214.95287 216.27983 217.76839 219.58804 222.53262 227.98239 232.47394
 236.20744 240.31462 244.56363 248.53638 251.77582 254.38860 256.82898 259.47476
 261.98453 264.50330 267.07391 269.49405 271.84711 274.08438 275.84601 277.37759
 278.97943 280.60504 282.14932 283.51901 284.70819 285.76492 286.73022 287.61072
 288.40689 289.12476 289.75522 290.61850
 366.78100 356.32658 345.75016 334.60775 323.00233 311.18791 299.04949 286.84407
 274.54766 262.43624 250.43682 239.72940 229.84298 220.93857 213.11215 206.10573
 199.93131 194.86090 191.43448 189.46806 188.49664 188.55222 189.37881 190.67839
 192.39497 194.48155 196.73613 199.08672 201.52330 203.99488 206.07446 207.90804
 209.52563 210.66221 210.88279 211.10237 211.03095 210.72754 210.35212 209.97370
 209.58228 209.28387 209.08345 208.93903 208.85861 209.18119 209.55878 209.93936
 210.72394 211.89352 213.13510 214.90969 216.82927 218.86385 220.95043 223.02501
 225.07660 227.15218 229.24076 231.33834 233.45892 235.62251 237.87009 240.23167
 242.84425 245.08684 247.08042 248.83700 250.24558 251.36016 252.17375 252.48133
 252.50991 252.27549 251.62707 250.56666 249.16424 247.31682 245.21740 243.04198
 240.82457 238.62015 236.43173 234.26231 232.11389 229.97248 227.99006 226.13864
 224.41322 222.87681 221.49839 220.26197 219.13555 218.08713 217.18272 216.31530
 215.54888 214.72046 213.81004 213.16563 212.60721 212.86876 213.48669 213.46799
 213.40584 214.78110 216.10535 217.79097 219.72658 222.57832 227.98947 232.48138
 236.22235 240.35040 244.57957 248.48505 251.62010 254.17969 256.61673 259.26642
 261.81116 264.38217 267.00418 269.47635 271.85193 274.08185 275.82916 277.34940
 278.92099 280.58994 282.13062 283.49603 284.68198 285.73825 286.70190 287.58081
 288.37805 289.09415 289.72617 290.58661
 366.78100 356.32626 345.74951 334.60677 323.00103 311.18629 299.04754 286.84180
 274.54506 262.43331 250.43357 239.72583 229.83908 220.93434 213.10760 206.10086
 199.92611 194.85537 191.42863 189.46188 188.49014 188.54540 189.37166 190.67091
 192.38717 194.47343 196.72768 199.07794 201.51420 203.98546 206.06471 207.89797
 209.51523 210.65148 210.87174 211.09100 211.01925 210.71551 210.33977 209.96103
 209.56928 209.27054 209.06980 208.92505 208.84431 209.16657 209.54383 209.92408
 210.70834 211.87760 213.11885 214.89311 216.81237 218.84662 220.93288 223.00714
 225.05840 227.13365 229.22191 231.31917 233.43942 235.60268 237.84994 240.21120
 242.82345 245.06571 247.05897 248.81522 250.22348 251.33774 252.15099 252.45825
 252.48651 252.25177 251.60302 250.54228 249.13954 247.29179 245.19205 243.01631
 240.79857 238.59382 236.40508 234.23534 232.08659 229.94485 227.96211 226.11037
 224.38462 222.84788 221.46914 220.23239 219.10565 218.05691 217.15216 216.28442
 215.51768 214.68894 213.77819 213.13345 212.57471 212.86850 213.56261 213.68570
 213.50577 214.65593 215.99026 217.82622 219.85863 222.66295 227.98935 232.48019
 236.23489 240.38419 244.58652 248.41661 251.44675 253.95853 256.39877 259.05676
 261.64536 264.27551 266.95377 269.47495 271.86737 274.08371 275.81543 277.32394
 278.86850 280.57346 282.11145 283.47333 284.65796 285.71091 286.67542 287.55289
 288.35031 289.06628 289.69730 290.55695
 366.78100 356.32559 345.74818 334.60478 322.99837 311.18296 299.04355 286.83715
 274.53974 262.42733 250.42692 239.71851 229.83111 220.92570 213.09829 206.09088
 199.91548 194.84407 191.41666 189.44925 188.47684 188.53144 189.35703 190.65562
 192.37121 194.45681 196.71040 199.05999 201.49558 203.96618 206.04477 207.87736
 209.49395 210.62954 210.84914 211.06773 210.99532 210.69091 210.31451 209.93510
 209.54269 209.24328 209.04187 208.89647 208.81506 209.13665 209.51324 209.89284
 210.67643 211.84502 213.08561 214.85920 216.77780 218.81139 220.89698 222.97057
 225.02117 227.09576 229.18335 231.27994 233.39953 235.56213 237.80872 240.16931
 242.78090 245.02250 247.01509 248.77068 250.17827 251.29186 252.10446 252.41105
 252.43864 252.20323 251.55383 250.49242 249.08901 247.24060 245.14020 242.96379
 240.74538 238.53997 236.35056 234.18016 232.03075 229.88834 227.90493 226.05253
 224.32612 222.78871 221.40930 220.17189 219.04449 217.99508 217.08967 216.22126
 215.45386 214.62445 213.71304 213.06763 212.50822 212.85419 213.67157 213.79814
 213.64139 214.62944 215.93599 217.82616 219.92636 222.73543 227.97211 232.46904
 236.24376 240.41624 244.58875 248.34000 251.27089 253.74228 256.18942 258.85654
 261.49127 264.18216 266.91412 269.47800 271.88107 274.07803 275.78949 277.28934
 278.83057 280.54807 282.08734 283.44870 284.63193 285.68570 286.64816 287.52618
 288.32324 289.03864 289.67096 290.52396
 366.78100 356.32548 345.74796 334.60444 322.99793 311.18241 299.04289 286.83637
 274.53885 262.42633 250.42581 239.71729 229.82978 220.92426 213.09674 206.08922
 199.91370 194.84218 191.41466 189.44714 188.47463 188.52911 189.35459 190.65307
 192.36855 194.45403 196.70751 199.05700 201.49248 203.96296 206.04144 207.87392
 209.49040 210.62588 210.84536 211.06385 210.99133 210.68681 210.31029 209.93077
 209.53825 209.23873 209.03722 208.89170 208.81018 209.13166 209.50814 209.88762
 210.67110 211.83958 213.08007 214.85355 216.77203 218.80551 220.89099 222.96447
 225.01495 227.08943 229.17692 231.27340 233.39288 235.55536 237.80184 240.16232
 242.77380 245.01529 247.00777 248.76325 250.17073 251.28421 252.09669 252.40317
 252.43065 252.19514 251.54562 250.48410 249.08058 247.23206 245.13154 242.95502
 240.73651 238.53099 236.34147 234.17095 232.02143 229.87891 227.89539 226.04287
 224.31636 222.77884 221.39932 220.16180 219.03428 217.98476 217.07924 216.21072
 215.44321 214.61369 213.70217 213.05665 212.49713 212.86861 213.74625 213.91307
 213.78952 214.64882 215.90480 217.79285 219.94815 222.78952 227.94685 232.46043
 236.25583 240.44997 244.58980 248.26018 251.09717 253.53232 255.98737 258.66202
 261.34335 264.09531 266.87637 269.47702 271.88779 274.06387 275.75464 277.25031
 278.79730 280.51453 282.05902 283.42310 284.60715 285.65903 286.62228 287.49942
 288.29568 289.01239 289.64206 290.49268
 366.78100 356.32582 345.74864 334.60546 322.99927 311.18409 299.04491 286.83873
 274.54155 262.42937 250.42918 239.72100 229.83382 220.92864 213.10146 206.09428
 199.91909 194.84791 191.42073 189.45355 188.48137 188.53619 189.36200 190.66082
 192.37664 194.46246 196.71628 199.06610 201.50191 203.97273 206.05155 207.88437
 209.50119 210.63701 210.85682 211.07564 211.00346 210.69928 210.32310 209.94392
 209.55174 209.25255 209.05137 208.90619 208.82501 209.14683 209.52365 209.90346
 210.68728 211.85610 213.09692 214.87074 216.78956 218.82337 220.90919 222.98301
 225.03383 227.10865 229.19647 231.29328 233.41310 235.57592 237.82274 240.18356
 242.79538 245.03719 247.03001 248.78583 250.19365 251.30747 252.12029 252.42710
 252.45492 252.21974 251.57056 250.50938 249.10620 247.25802 245.15783 242.98165
 240.76347 238.55829 236.36911 234.19893 232.04974 229.90756 227.92438 226.07220
 224.34602 222.80884 221.42965 220.19247 219.06529 218.01611 217.11093 216.24275
 215.47556 214.64638 213.73520 213.09002 212.53084 212.90616 213.79286 214.04947
 213.93108 214.68060 215.88766 217.75052 219.95090 222.83617 227.92252 232.45639
 236.27173 240.48311 244.58495 248.17001 250.91751 253.32036 255.78569 258.46878
 261.19785 264.00967 266.83740 269.46942 271.88629 274.04495 275.71960 277.21503
 278.77588 280.48581 282.02817 283.39142 284.57672 285.62909 286.59387 287.47052
 288.26712 288.98029 289.61234 290.45691
 366.78100 356.32632 345.74963 334.60695 323.00126 311.18658 299.04789 286.84221
 274.54552 262.43384 250.43416 239.72647 229.83979 220.93510 213.10842 206.10173
 199.92705 194.85636 191.42968 189.46299 188.49131 188.54663 189.37294 190.67226
 192.38857 194.47489 196.72920 199.07952 201.51583 203.98715 206.06647 207.89978
 209.51710 210.65341 210.87373 211.09304 211.02136 210.71767 210.34199 209.96330
 209.57162 209.27294 209.07225 208.92757 208.84688 209.16920 209.54651 209.92683
 210.71114 211.88046 213.12178 214.89609 216.81541 218.84972 220.93604 223.01035
 225.06167 227.13698 229.22530 231.32262 233.44293 235.60625 237.85356 240.21488
 242.82719 245.06951 247.06282 248.81914 250.22745 251.34177 252.15509 252.46240
 252.49072 252.25603 251.60735 250.54666 249.14398 247.29629 245.19661 243.02093
 240.80324 238.59856 236.40987 234.24019 232.09150 229.94982 227.96713 226.11545
 224.38977 222.85308 221.47440 220.23771 219.11103 218.06234 217.15766 216.28997
 215.52329 214.69460 213.78392 213.13924 212.58055 212.95284 213.83241 214.18665
 214.07246 214.72011 215.88553 217.71532 219.94504 222.87624 227.90103 232.45271
 236.28819 240.51033 244.56851 248.06367 250.72520 253.10065 255.58171 258.27872
 261.05710 263.92734 266.79712 269.45810 271.88071 274.02448 275.68723 277.18329
 278.76987 280.44278 281.98901 283.35666 284.54501 285.59750 286.56183 287.43790
 288.23392 288.94873 289.57767 290.42337
 366.78100 356.32684 345.75068 334.60852 323.00336 311.18920 299.05104 286.84588
 274.54972 262.43856 250.43940 239.73224 229.84608 220.94192 213.11576 206.10960
 199.93544 194.86528 191.43912 189.47296 188.50181 188.55765 189.38449 190.68433
 192.40117 194.48801 196.74285 199.09369 201.53053 204.00237 206.08221 207.91605
 209.53389 210.67073 210.89157 211.11141 211.04025 210.73709 210.36193 209.98377
 209.59261 209.29445 209.09429 208.95013 208.86997 209.19281 209.57065 209.95149
 210.73633 211.90617 213.14801 214.92285 216.84269 218.87753 220.96437 223.03921
 225.09105 227.16689 229.25574 231.35358 233.47442 235.63826 237.88610 240.24794
 242.86078 245.10362 247.09746 248.85430 250.26314 251.37798 252.19182 252.49966
 252.52850 252.29434 251.64618 250.58602 249.18386 247.33670 245.23754 243.06238
 240.84522 238.64106 236.45290 234.28374 232.13558 229.99442 228.01226 226.16110
 224.43594 222.89978 221.52162 220.28546 219.15930 218.11114 217.20698 216.33982
 215.57367 214.74551 213.83535 213.19119 212.63303 213.00238 213.87503 214.31096
 214.22000 214.76923 215.90077 217.69341 219.93542 222.90643 227.88202 232.44749
 236.30309 240.52948 244.53670 247.93811 250.51859 252.87288 255.37550 258.09335
 260.92273 263.84778 266.75391 269.44003 271.87024 274.00253 275.65683 277.15735
 278.74948 280.41074 281.95724 283.32639 284.51431 285.56879 286.53464 287.41220
 288.21353 288.93436 289.56299 290.40912
 366.78100 356.32735 345.75170 334.61005 323.00540 311.19175 299.05411 286.84946
 274.55381 262.44316 250.44451 239.73786 229.85221 220.94856 213.12291 206.11726
 199.94362 194.87397 191.44832 189.48267 188.51202 188.56837 189.39572 190.69607
 192.41342 194.50077 196.75613 199.10748 201.54483 204.01718 206.09753 207.93188
 209.55023 210.68758 210.90893 211.12928 211.05864 210.75599 210.38134 210.00369
 209.61304 209.31539 209.11574 208.97209 208.89244 209.21579 209.59414 209.97550
 210.76085 211.93120 213.17355 214.94890 216.86925 218.90460 220.99195 223.06730
 225.11965 227.19601 229.28536 231.38371 233.50506 235.66941 237.91776 240.28011
 242.89346 245.13681 247.13116 248.88852 250.29787 251.41322 252.22757 252.53592
 252.56527 252.33162 251.68397 250.62432 249.22267 247.37602 245.27738 243.10273
 240.88608 238.68243 236.49478 234.32613 232.17848 230.03783 228.05618 226.20553
 224.48089 222.94524 221.56759 220.33194 219.20629 218.15864 217.25499 216.38834
 215.62269 214.79504 213.88540 213.24175 212.68410 213.05266 213.92340 214.42102
 214.37039 214.82805 215.92726 217.69167 219.93343 222.92880 227.86453 232.44023
 236.31407 240.53676 244.48625 247.78966 250.29388 252.63565 255.17007 257.91794
 260.80005 263.77478 266.71014 269.41574 271.85092 273.97305 275.62155 277.13391
 278.72943 280.37912 281.92560 283.29468 284.48206 285.53848 286.50299 287.38321
 288.18497 288.90295 289.53647 290.37521
 366.78100 356.32792 345.75283 334.61175 323.00767 311.19459 299.05750 286.85342
 274.55834 262.44826 250.45017 239.74409 229.85901 220.95592 213.13084 206.12576
 199.95268 194.88359 191.45851 189.49343 188.52334 188.58026 189.40818 190.70910
 192.42701 194.51493 196.77085 199.12277 201.56068 204.03360 206.11452 207.94943
 209.56835 210.70627 210.92819 211.14910 211.07902 210.77694 210.40285 210.02577
 209.63569 209.33861 209.13952 208.99644 208.91736 209.24128 209.62019 210.00211
 210.78803 211.95894 213.20186 214.97778 216.89870 218.93461 221.02253 223.09845
 225.15136 227.22828 229.31820 231.41712 233.53903 235.70395 237.95287 240.31579
 242.92970 245.17362 247.16854 248.92645 250.33637 251.45229 252.26721 252.57612
 252.60604 252.37296 251.72587 250.66679 249.26571 247.41963 245.32154 243.14746
 240.93138 238.72830 236.54121 234.37313 232.22605 230.08596 228.10488 226.25480
 224.53072 222.99563 221.61855 220.38347 219.25838 218.21130 217.30822 216.44214
 215.67705 214.84997 213.94089 213.29781 212.74072 213.10693 213.97215 214.52486
 214.51443 214.89598 215.97423 217.70656 219.93404 222.94867 227.84700 232.42929
 236.31804 240.52908 244.41039 247.61198 250.04744 252.39114 254.96977 257.75916
 260.69485 263.71365 266.66913 269.38696 271.82465 273.93280 275.57700 277.10260
 278.69849 280.34628 281.89117 283.26089 284.44986 285.50290 286.46893 287.34967
 288.15073 288.86682 289.49979 290.33914
 366.78100 356.32865 345.75430 334.61395 323.01061 311.19826 299.06191 286.85856
 274.56421 262.45486 250.45752 239.75217 229.86782 220.96547 213.14112 206.13677
 199.96443 194.89608 191.47173 189.50738 188.53803 188.59568 189.42434 190.72599
 192.44464 194.53329 196.78994 199.14259 201.58125 204.05490 206.13655 207.97220
 209.59185 210.73050 210.95316 211.17481 211.10546 210.80411 210.43076 210.05441
 209.66507 209.36872 209.17037 209.02802 208.94967 209.27432 209.65398 210.03663
 210.82328 211.99493 213.23858 215.01523 216.93688 218.97354 221.06219 223.13884
 225.19249 227.27014 229.36079 231.46045 233.58310 235.74875 237.99840 240.36205
 242.97670 245.22136 247.21701 248.97566 250.38631 251.50296 252.31861 252.62827
 252.65892 252.42657 251.78022 250.72187 249.32152 247.47618 245.37883 243.20548
 240.99013 238.78778 236.60143 234.43409 232.28774 230.14839 228.16804 226.31869
 224.59534 223.06100 221.68465 220.45030 219.32595 218.27960 217.37725 216.51191
 215.74756 214.92121 214.01286 213.37051 212.81416 213.17091 214.01376 214.62437
 214.65836 214.97299 216.01759 217.74417 219.96042 222.96353 227.82941 232.41808
 236.31564 240.50493 244.30898 247.40790 249.78612 252.14543 254.77808 257.61624
 260.60513 263.66019 266.62775 269.35312 271.79272 273.88922 275.53317 277.06747
 278.66284 280.30420 281.84961 283.21890 284.40588 285.46106 286.42621 287.30560
 288.10611 288.82394 289.45755 290.28873
 366.78100 356.32960 345.75619 334.61679 323.01439 311.20299 299.06758 286.86518
 274.57178 262.46338 250.46697 239.76257 229.87917 220.97777 213.15436 206.15096
 199.97956 194.91216 191.48875 189.52535 188.55695 188.61554 189.44514 190.74774
 192.46734 194.55693 196.81453 199.16813 201.60773 204.08232 206.16492 208.00152
 209.62212 210.76171 210.98531 211.20791 211.13951 210.83910 210.46670 210.09130
 209.70289 209.40749 209.21009 209.06869 208.99128 209.31688 209.69748 210.08108
 210.86867 212.04127 213.28587 215.06347 216.98606 219.02366 221.11326 223.19086
 225.24545 227.32405 229.41565 231.51624 233.63984 235.80644 238.05704 240.42163
 243.03723 245.28283 247.27943 249.03902 250.45062 251.56822 252.38482 252.69541
 252.72701 252.49561 251.85021 250.79280 249.39340 247.54900 245.45260 243.28019
 241.06579 238.86439 236.67898 234.51258 232.36718 230.22878 228.24937 226.40097
 224.67857 223.14517 221.76976 220.53636 219.41296 218.36756 217.46615 216.60175
 215.83835 215.01295 214.10554 213.46414 212.90874 213.24670 214.04520 214.71628
 214.80324 215.05289 216.08563 217.78900 219.97365 222.99544 227.82074 232.41119
 236.31165 240.46915 244.18687 247.18060 249.50955 251.89282 254.58574 257.47903
 260.52179 263.60803 266.58176 269.31238 271.76071 273.85608 275.50677 277.03989
 278.62622 280.25171 281.79553 283.16428 284.35168 285.40573 286.37109 287.25076
 288.04968 288.76736 289.39893 290.23853
 366.78100 356.33067 345.75834 334.62002 323.01869 311.20836 299.07403 286.87270
 274.58038 262.47305 250.47772 239.77439 229.89206 220.99174 213.16941 206.16708
 199.99675 194.93042 191.50810 189.54577 188.57844 188.63811 189.46879 190.77246
 192.49313 194.58380 196.84247 199.19715 201.63782 204.11349 206.19716 208.03483
 209.65651 210.79718 211.02185 211.24552 211.17819 210.87887 210.50754 210.13321
 209.74588 209.45155 209.25523 209.11490 209.03857 209.36524 209.74691 210.13159
 210.92026 212.09393 213.33960 215.11827 217.04195 219.08062 221.17129 223.24996
 225.30563 227.38531 229.47798 231.57965 233.70432 235.87199 238.12367 240.48934
 243.10601 245.35268 247.35036 249.11103 250.52370 251.64237 252.46004 252.77172
 252.80439 252.57406 251.92973 250.87340 249.47508 247.63175 245.53642 243.36509
 241.15176 238.95144 236.76711 234.60178 232.45745 230.32012 228.34180 226.49447
 224.77314 223.24081 221.86648 220.63416 219.51183 218.46750 217.56717 216.70384
 215.94152 215.11719 214.21086 213.57053 213.01620 213.33067 214.07365 214.79147
 214.97507 215.12796 216.14874 217.86432 220.02293 223.00641 227.81007 232.40677
 236.30121 240.41563 244.03760 246.92595 249.21780 251.63602 254.39667 257.35251
 260.44998 263.56088 266.53439 269.26871 271.72763 273.83197 275.49661 277.02786
 278.59247 280.18622 281.72733 283.09470 284.28281 285.33673 286.30182 287.18262
 287.98163 288.69949 289.33044 290.16510
 366.78100 356.33259 345.76218 334.62577 323.02636 311.21795 299.08555 286.88614
 274.59573 262.49032 250.49691 239.79550 229.91509 221.01668 213.19627 206.19586
 200.02746 194.96305 191.54264 189.58223 188.61682 188.67841 189.51100 190.81659
 192.53918 194.63177 196.89237 199.24896 201.69155 204.16914 206.25473 208.09432
 209.71791 210.86050 211.08709 211.31268 211.24728 210.94987 210.58046 210.20805
 209.82264 209.53023 209.33582 209.19741 209.12300 209.45159 209.83519 210.22178
 211.01237 212.18796 213.43555 215.21614 217.14173 219.18232 221.27491 223.35550
 225.41310 227.49469 229.58928 231.69287 233.81946 235.98905 238.24264 240.61023
 243.22882 245.47741 247.47701 249.23960 250.65419 251.77478 252.59437 252.90796
 252.94255 252.71414 252.07173 251.01732 249.62092 247.77951 245.68610 243.51669
 241.30528 239.10687 236.92446 234.76105 232.61864 230.48323 228.50683 226.66142
 224.94201 223.41160 222.03919 220.80878 219.68837 218.64596 217.74755 216.88614
 216.12574 215.30333 214.39892 213.76051 213.20810 213.45802 214.04851 214.90352
 215.13710 215.21790 216.24960 217.94148 220.02528 222.98715 227.80606 232.41049
 236.28922 240.34943 243.86923 246.65500 248.92273 251.38405 254.21628 257.24066
 260.39194 263.52197 266.48907 269.22311 271.68939 273.80270 275.48886 277.02701
 278.56598 280.11295 281.64838 283.01547 284.20380 285.25793 286.22238 287.10190
 287.90280 288.61978 289.25317 290.08670
 366.78100 356.33477 345.76653 334.63230 323.03506 311.22883 299.09859 286.90136
 274.61312 262.50989 250.51865 239.81942 229.94118 221.04495 213.22671 206.22848
 200.06224 195.00001 191.58177 189.62354 188.66030 188.72407 189.55883 190.86660
 192.59137 194.68613 196.94890 199.30766 201.75243 204.23219 206.31996 208.16172
 209.78749 210.93225 211.16102 211.38878 211.32555 211.03031 210.66308 210.29284
 209.90961 209.61937 209.42714 209.29090 209.21867 209.54943 209.93520 210.32397
 211.11673 212.29450 213.54426 215.32703 217.25479 219.29756 221.39232 223.47509
 225.53485 227.61862 229.71538 231.82115 233.94991 236.12168 238.37744 240.74721
 243.36797 245.61874 247.62050 249.38527 250.80203 251.92480 252.74657 253.06233
 253.09910 252.87286 252.23263 251.18039 249.78616 247.94692 245.85569 243.68845
 241.47922 239.28298 237.10275 234.94151 232.80128 230.66804 228.69381 226.85057
 225.13334 223.60510 222.23487 221.00663 219.88840 218.84817 217.95193 217.09270
 216.33446 215.51423 214.61199 213.97576 213.42552 213.59967 214.01109 214.99109
 215.34845 215.31363 216.31569 218.01648 220.08354 222.96532 227.80135 232.42102
 236.27521 240.26732 243.67818 246.36151 248.61514 251.12607 254.03587 257.13556
 260.34106 263.48746 266.44589 269.17822 271.64935 273.77243 275.48080 277.03214
 278.54675 280.03793 281.56696 282.93539 284.12100 285.17523 286.13965 287.02090
 287.81979 288.54004 289.17035 290.00549
 366.78100 356.33576 345.76852 334.63528 323.03903 311.23379 299.10455 286.90831
 274.62107 262.51883 250.52859 239.83035 229.95310 221.05786 213.24062 206.24338
 200.07814 195.01690 191.59966 189.64242 188.68017 188.74493 189.58069 190.88945
 192.61521 194.71097 196.97473 199.33449 201.78024 204.26100 206.34976 208.19252
 209.81928 210.96504 211.19480 211.42356 211.36131 211.06707 210.70083 210.33159
 209.94935 209.66011 209.46887 209.33362 209.26238 209.59414 209.98090 210.37066
 211.16442 212.34318 213.59394 215.37769 217.30645 219.35021 221.44597 223.52973
 225.59049 227.67525 229.77301 231.87976 234.00952 236.18228 238.43904 240.80980
 243.43156 245.68332 247.68608 249.45183 250.86959 251.99335 252.81611 253.13287
 253.17063 252.94539 252.30615 251.25490 249.86166 248.02342 245.93318 243.76694
 241.55870 239.36346 237.18421 235.02397 232.88473 230.75249 228.77925 226.93701
 225.22077 223.69353 222.32428 221.09704 219.97980 218.94056 218.04532 217.18708
 216.42984 215.61060 214.70935 214.07411 213.52487 213.68413 214.06039 214.98840
 215.52771 215.46721 216.35518 218.06485 220.13403 223.06836 227.81784 232.42464
 236.25127 240.16647 243.46404 246.04788 248.29767 250.86534 253.85706 257.03830
 260.29810 263.45789 266.40613 269.13470 271.61453 273.75009 275.48157 277.04233
 278.52469 279.96216 281.48401 282.85208 284.03943 285.09311 286.05743 286.93768
 287.73660 288.45901 289.09009 289.92392
 366.78100 356.33698 345.77097 334.63895 323.04394 311.23992 299.11191 286.91689
 274.63088 262.52986 250.54085 239.84383 229.96782 221.07380 213.25778 206.26177
 200.09775 195.03774 191.62172 189.66571 188.70469 188.77068 189.60766 190.91765
 192.64463 194.74162 197.00660 199.36758 201.81457 204.29655 206.38654 208.23052
 209.85851 211.00549 211.23648 211.46646 211.40545 211.11243 210.74742 210.37940
 209.99838 209.71037 209.52035 209.38634 209.31632 209.64931 210.03729 210.42828
 211.22326 212.40325 213.65523 215.44022 217.37020 219.41518 221.51217 223.59715
 225.65914 227.74512 229.84411 231.95209 234.08308 236.25706 238.51505 240.88703
 243.51002 245.76300 247.76698 249.53397 250.95295 252.07794 252.90192 253.21991
 253.25889 253.03488 252.39686 251.34685 249.95483 248.11781 246.02880 243.86378
 241.65677 239.46275 237.28474 235.12572 232.98771 230.85669 228.88468 227.04366
 225.32865 223.80263 222.43461 221.20860 220.09258 219.05457 218.16055 217.30354
 216.54752 215.72951 214.82949 214.19548 213.64746 213.78146 214.09808 214.97780
 215.73720 215.58595 216.38387 218.13741 220.18289 223.17029 227.84276 232.42377
 236.21663 240.05299 243.23792 245.73053 247.98477 250.61162 253.68422 256.94833
 260.25885 263.42773 266.36194 269.08868 271.58151 273.73669 275.49463 277.06317
 278.51624 279.90140 281.39911 282.76318 283.94839 285.00027 285.96664 286.84540
 287.64630 288.36734 289.00024 289.83432
 366.78100 356.33899 345.77498 334.64497 323.05196 311.24996 299.12395 286.93094
 274.64693 262.54792 250.56091 239.86590 229.99189 221.09988 213.28588 206.29187
 200.12986 195.07185 191.65784 189.70383 188.74482 188.81281 189.65181 190.96380
 192.69279 194.79178 197.05877 199.42176 201.87075 204.35474 206.44673 208.29273
 209.92272 211.07171 211.30470 211.53669 211.47768 211.18667 210.82366 210.45765
 210.07865 209.79264 209.60463 209.47262 209.40461 209.73960 210.12959 210.52258
 211.31957 212.50157 213.75556 215.54255 217.47454 219.52153 221.62052 223.70751
 225.77150 227.85949 229.96049 232.07048 234.20347 236.37946 238.63945 241.01344
 243.63843 245.89342 247.89942 249.66841 251.08940 252.21639 253.04238 253.36237
 253.40336 253.18135 252.54534 251.49734 250.10733 248.27232 246.18531 244.02230
 241.81729 239.62528 237.44927 235.29226 233.15626 231.02725 229.05724 227.21823
 225.50522 223.98121 222.61520 221.39119 220.27718 219.24118 218.34917 217.49416
 216.74015 215.92414 215.02613 214.39412 213.84811 213.92004 214.08998 214.98195
 215.95833 215.69975 216.42784 218.24666 220.23090 223.21643 227.86351 232.42043
 236.18130 239.93889 243.01199 245.41679 247.67625 250.36009 253.51245 256.85916
 260.21713 263.39056 266.31265 269.04077 271.54874 273.72934 275.51556 277.09384
 278.52481 279.88663 281.30920 282.66895 283.85492 284.90796 285.87500 286.75568
 287.55652 288.27823 288.91312 289.74695
 366.78100 356.34128 345.77957 334.65185 323.06114 311.26142 299.13771 286.94699
 274.66528 262.56856 250.58384 239.89113 230.01941 221.12970 213.31798 206.32627
 200.16655 195.11083 191.69912 189.74740 188.79069 188.86097 189.70226 191.01654
 192.74783 194.84911 197.11839 199.48368 201.93496 204.42125 206.51553 208.36382
 209.99610 211.14738 211.38267 211.61695 211.56024 211.27152 210.91081 210.54709
 210.17038 209.88666 209.70094 209.57123 209.50551 209.84280 210.23508 210.63037
 211.42965 212.61393 213.87022 215.65950 217.59379 219.64307 221.74436 223.83364
 225.89993 227.99021 230.09349 232.20578 234.34106 236.51935 238.78163 241.15792
 243.78520 246.04248 248.05077 249.82205 251.24534 252.37462 253.20291 253.52519
 253.56848 253.34876 252.71504 251.66933 250.28161 248.44890 246.36418 244.20347
 242.00075 239.81104 237.63732 235.48260 233.34889 231.22217 229.25446 227.41774
 225.70703 224.18531 222.82159 221.59988 220.48816 219.45445 218.56473 217.71202
 216.96030 216.14659 215.25087 214.62115 214.07744 214.07350 214.06419 215.00856
 216.13629 215.83031 216.49506 218.36308 220.27574 223.23959 227.88864 232.42033
 236.15585 239.82761 242.78505 245.10075 247.36560 250.10767 253.34097 256.77121
 260.17392 263.35120 266.26392 268.99487 271.52051 273.72580 275.53961 277.12732
 278.53894 279.87631 281.23206 282.58582 283.77322 284.82828 285.79431 286.67731
 287.48099 288.20276 288.83490 289.67276
 366.78100 356.34301 345.78302 334.65703 323.06804 311.27006 299.14807 286.95908
 274.67909 262.58410 250.60111 239.91012 230.04013 221.15214 213.34215 206.35217
 200.19418 195.14019 191.73020 189.78021 188.82522 188.89723 189.74024 191.05625
 192.78927 194.89228 197.16329 199.53030 201.98331 204.47132 206.56733 208.41734
 210.05135 211.20437 211.44138 211.67739 211.62240 211.33541 210.97642 210.61443
 210.23944 209.95745 209.77346 209.64548 209.58149 209.92050 210.31451 210.71152
 211.51253 212.69854 213.95655 215.74756 217.68358 219.73459 221.83760 223.92861
 225.99662 228.08863 230.19364 232.30765 234.44466 236.62468 238.88869 241.26670
 243.89571 246.15472 248.16473 249.93774 251.36275 252.49376 253.32377 253.64779
 253.69280 253.47481 252.84282 251.79883 250.41284 248.58185 246.49886 244.33987
 242.13889 239.95090 237.77891 235.62592 233.49393 231.36894 229.40295 227.56796
 225.85897 224.33899 222.97700 221.75701 220.64702 219.61503 218.72704 217.87605
 217.12606 216.31407 215.42008 214.79210 214.25011 214.19666 214.07034 215.03897
 216.25392 215.96756 216.58690 218.46519 220.32286 223.27821 227.92548 232.42113
 236.13153 239.70886 242.55170 244.78445 247.06158 249.86440 253.17813 256.68860
 260.13116 263.30981 266.21454 268.94846 271.49023 273.72064 275.56046 277.15820
 278.55389 279.86398 281.16586 282.51489 283.70319 284.75876 285.72665 286.61014
 287.41345 288.13748 288.77243 289.60776
 366.78100 356.34406 345.78512 334.66019 323.07225 311.27531 299.15437 286.96643
 274.68750 262.59356 250.61162 239.92168 230.05274 221.16581 213.35687 206.36793
 200.21099 195.15805 191.74911 189.80018 188.84624 188.91930 189.76336 191.08042
 192.81449 194.91855 197.19061 199.55867 202.01273 204.50180 206.59886 208.44992
 210.08498 211.23904 211.47711 211.71417 211.66023 211.37429 211.01635 210.65542
 210.28148 210.00054 209.81760 209.69066 209.62773 209.96779 210.36285 210.76091
 211.56297 212.75004 214.00910 215.80116 217.73822 219.79028 221.89434 223.98641
 226.05547 228.14853 230.25459 232.36965 234.50772 236.68878 238.95384 241.33290
 243.96296 246.22303 248.23409 250.00815 251.43421 252.56627 253.39734 253.72240
 253.76846 253.55152 252.92058 251.87765 250.49271 248.66277 246.58083 244.42289
 242.22296 240.03602 237.86508 235.71314 233.58220 231.45826 229.49333 227.65939
 225.95145 224.43251 223.07157 221.85264 220.74370 219.71276 218.82582 217.97588
 217.22695 216.41601 215.52307 214.89613 214.35519 214.28333 214.11351 215.06274
 216.33969 216.10060 216.69406 218.54420 220.37843 223.33495 227.96907 232.41652
 236.09445 239.57713 242.31534 244.47910 246.77747 249.63835 253.02586 256.60959
 260.08383 263.26010 266.15793 268.89761 271.45679 273.71143 275.57904 277.19571
 278.58069 279.86920 281.11353 282.45737 283.64642 284.70267 285.66986 286.55463
 287.35846 288.08426 288.71872 289.55750
 366.78100 356.34496 345.78691 334.66287 323.07583 311.27979 299.15974 286.97270
 274.69466 262.60162 250.62057 239.93153 230.06349 221.17745 213.36940 206.38136
 200.22532 195.17327 191.76523 189.81719 188.86415 188.93810 189.78306 191.10102
 192.83598 194.94093 197.21389 199.58285 202.03781 204.52776 206.62572 208.47768
 210.11363 211.26859 211.50755 211.74551 211.69246 211.40742 211.05038 210.69034
 210.31729 210.03725 209.85521 209.72917 209.66712 210.00808 210.40404 210.80299
 211.60595 212.79391 214.05387 215.84682 217.78478 219.83774 221.94270 224.03565
 226.10561 228.19957 230.30652 232.42248 234.56144 236.74340 239.00935 241.38931
 244.02027 246.28123 248.29318 250.06814 251.49510 252.62806 253.46001 253.78597
 253.83293 253.61688 252.98684 251.94480 250.56076 248.73171 246.65067 244.49363
 242.29459 240.10854 237.93850 235.78746 233.65742 231.53437 229.57033 227.73729
 226.03024 224.51220 223.15216 221.93412 220.82607 219.79603 218.90999 218.06095
 217.31290 216.50286 215.61082 214.98478 214.44473 214.36043 214.16125 215.09769
 216.41301 216.21809 216.80424 218.60429 220.44615 223.40137 228.01376 232.40636
 236.04411 239.44005 242.08444 244.18866 246.50981 249.42433 252.87949 256.52859
 260.02762 263.20172 266.09821 268.84726 271.42624 273.70276 275.59756 277.23276
 278.60965 279.87973 281.08408 282.42456 283.61240 284.66956 285.63751 286.52136
 287.32596 288.04932 288.68948 289.52396
 366.78100 356.34585 345.78870 334.66555 323.07940 311.28425 299.16511 286.97896
 274.70181 262.60966 250.62951 239.94136 230.07421 221.18906 213.38191 206.39476
 200.23961 195.18846 191.78132 189.83417 188.88202 188.95687 189.80272 191.12157
 192.85742 194.96327 197.23712 199.60697 202.06282 204.55368 206.65253 208.50538
 210.14223 211.29808 211.53793 211.77678 211.72463 211.44048 211.08433 210.72518
 210.35304 210.07389 209.89274 209.76759 209.70644 210.04829 210.44514 210.84499
 211.64884 212.83769 214.09854 215.89239 217.83125 219.88510 221.99095 224.08480
 226.15565 228.25050 230.35835 232.47520 234.61505 236.79790 239.06475 241.44561
 244.07746 246.33931 248.35216 250.12801 251.55586 252.68971 253.52256 253.84941
 253.89726 253.68211 253.05297 252.01182 250.62867 248.80052 246.72037 244.56422
 242.36607 240.18092 238.01177 235.86162 233.73247 231.61032 229.64718 227.81503
 226.10888 224.59173 223.23258 222.01543 220.90828 219.87913 218.99398 218.14583
 217.39868 216.58954 215.69839 215.07324 214.53409 214.43599 214.20421 215.15569
 216.45120 216.31825 216.90987 218.66180 220.53865 223.48276 228.06479 232.39964
 235.98941 239.30128 241.85333 243.90073 246.24646 249.21783 252.73953 256.44778
 259.96909 263.14441 266.04517 268.80499 271.39764 273.69193 275.61124 277.25876
 278.62369 279.88004 281.07254 282.41043 283.59998 284.65677 285.62387 286.50656
 287.31155 288.03366 288.67230 289.50873
 366.78100 356.34632 345.78965 334.66697 323.08129 311.28662 299.16794 286.98227
 274.70559 262.61391 250.63424 239.94656 230.07988 221.19521 213.38853 206.40185
 200.24718 195.19650 191.78982 189.84315 188.89147 188.96680 189.81312 191.13244
 192.86877 194.97509 197.24941 199.61974 202.07606 204.56738 206.66671 208.52003
 210.15736 211.31368 211.55400 211.79333 211.74165 211.45797 211.10230 210.74362
 210.37194 210.09327 209.91259 209.78791 209.72724 210.06956 210.46689 210.86721
 211.67153 212.86086 214.12218 215.91650 217.85583 219.91015 222.01647 224.11080
 226.18212 228.27745 230.38577 232.50309 234.64342 236.82674 239.09406 241.47539
 244.10771 246.37003 248.38336 250.15968 251.58800 252.72233 253.55565 253.88298
 253.93130 253.71662 253.08795 252.04727 250.66459 248.83692 246.75724 244.60156
 242.40389 240.21921 238.05054 235.90086 233.77218 231.65051 229.68783 227.85615
 226.15048 224.63380 223.27512 222.05845 220.95177 219.92309 219.03842 218.19074
 217.44407 216.63539 215.74471 215.12004 214.58136 214.48872 214.26987 215.21284
 216.44795 216.41534 217.02654 218.73441 220.65578 223.57751 228.11494 232.39168
 235.92426 239.14964 241.60960 243.60965 245.99017 249.02492 252.61182 256.37177
 259.91025 263.08817 265.99567 268.76416 271.36813 273.67868 275.62180 277.27673
 278.62637 279.87030 281.06754 282.40634 283.59384 284.65005 285.61679 286.49939
 287.30225 288.02490 288.66046 289.48959
 366.78100 356.34602 345.78904 334.66605 323.08007 311.28509 299.16611 286.98012
 274.70314 262.61116 250.63118 239.94319 230.07621 221.19123 213.38425 206.39726
 200.24228 195.19130 191.78432 189.83734 188.88535 188.96037 189.80639 191.12541
 192.86142 194.96744 197.24146 199.61148 202.06749 204.55851 206.65753 208.51055
 210.14757 211.30358 211.54360 211.78262 211.73064 211.44665 211.09067 210.73169
 210.35971 210.08072 209.89974 209.77476 209.71378 210.05579 210.45281 210.85283
 211.65685 212.84587 214.10688 215.90090 217.83992 219.89394 221.99995 224.09397
 226.16499 228.26001 230.36802 232.48504 234.62506 236.80808 239.07509 241.45611
 244.08813 246.35015 248.36317 250.13918 251.56720 252.70122 253.53424 253.86125
 253.90927 253.69429 253.06531 252.02432 250.64134 248.81336 246.73338 244.57740
 242.37941 240.19443 238.02545 235.87547 233.74648 231.62450 229.66152 227.82954
 226.12355 224.60657 223.24759 222.03061 220.92362 219.89464 219.00966 218.16168
 217.41470 216.60571 215.71473 215.08975 214.55077 214.50012 214.38048 215.22861
 216.43953 216.54153 217.15976 218.81760 220.76845 223.66287 228.15617 232.37677
 235.84621 238.97885 241.35019 243.31970 245.74771 248.84888 252.49524 256.29715
 259.84555 263.02634 265.94180 268.72101 271.33771 273.66922 275.63986 277.30307
 278.63040 279.85629 281.06372 282.40421 283.59155 284.64676 285.61246 286.49402
 287.29587 288.01849 288.65155 289.47876
 366.78100 356.34569 345.78838 334.66507 323.07876 311.28345 299.16414 286.97784
 274.70053 262.60822 250.62791 239.93960 230.07229 221.18698 213.37967 206.39236
 200.23705 195.18574 191.77843 189.83113 188.87882 188.95351 189.79920 191.11789
 192.85358 194.95927 197.23296 199.60265 202.05834 204.54903 206.64772 208.50042
 210.13711 211.29280 211.53249 211.77118 211.71887 211.43456 211.07825 210.71894
 210.34663 210.06732 209.88601 209.76071 209.69940 210.04109 210.43778 210.83747
 211.64116 212.82985 214.09054 215.88423 217.82292 219.87661 221.98230 224.07599
 226.14669 228.24138 230.34907 232.46576 234.60545 236.78814 239.05483 241.43552
 244.06721 246.32890 248.34159 250.11728 251.54498 252.67867 253.51136 253.83805
 253.88574 253.67043 253.04112 251.99981 250.61650 248.78819 246.70788 244.55157
 242.35327 240.16796 237.99865 235.84834 233.71903 231.59672 229.63341 227.80110
 226.09479 224.57748 223.21817 222.00086 220.89356 219.86425 218.97894 218.13063
 217.38332 216.57401 215.68270 215.05739 214.51808 214.50877 214.48677 215.23862
 216.43898 216.68739 217.31528 218.89290 220.86316 223.74394 228.18584 232.35414
 235.75208 238.78516 241.07828 243.03749 245.52242 248.68831 252.38675 256.21979
 259.77252 262.95670 265.88480 268.67700 271.30920 273.66388 275.66422 277.33740
 278.64172 279.84702 281.06201 282.40283 283.58939 284.64471 285.60895 286.48969
 287.29062 288.01242 288.64362 289.46701
 366.78100 356.34530 345.78759 334.66389 323.07718 311.28148 299.16178 286.97507
 274.69737 262.60467 250.62396 239.93526 230.06755 221.18185 213.37415 206.38644
 200.23074 195.17904 191.77133 189.82363 188.87092 188.94522 189.79052 191.10881
 192.84411 194.94941 197.22270 199.59200 202.04729 204.53759 206.63589 208.48818
 210.12448 211.27978 211.51907 211.75737 211.70466 211.41996 211.06326 210.70355
 210.33085 210.05115 209.86944 209.74374 209.68203 210.02333 210.41963 210.81892
 211.62222 212.81051 214.07081 215.86411 217.80240 219.85570 221.96100 224.05429
 226.12459 228.21888 230.32618 232.44248 234.58177 236.76407 239.03037 241.41066
 244.04196 246.30325 248.31555 250.09085 251.51814 252.65144 253.48374 253.81003
 253.85733 253.64162 253.01192 251.97022 250.58651 248.75781 246.67711 244.52040
 242.32170 240.13599 237.96629 235.81559 233.68588 231.56318 229.59948 227.76677
 226.06007 224.54236 223.18266 221.96496 220.85725 219.82755 218.94185 218.09314
 217.34544 216.53573 215.64403 215.01833 214.47862 214.51233 214.59198 215.24544
 216.44278 216.84373 217.49303 218.96581 220.92154 223.80652 228.21191 232.33795
 235.65324 238.58347 240.80927 242.77075 245.31306 248.53873 252.28178 256.13693
 259.69049 262.88120 265.82538 268.63309 271.28314 273.66132 275.68741 277.37268
 278.65988 279.84930 281.06311 282.40073 283.58734 284.64175 285.60599 286.48572
 287.28574 288.00504 288.63583 289.45706
 366.78100 356.34517 345.78733 334.66350 323.07666 311.28083 299.16099 286.97416
 274.69632 262.60349 250.62266 239.93382 230.06599 221.18015 213.37232 206.38448
 200.22865 195.17682 191.76898 189.82115 188.86831 188.94248 189.78764 191.10581
 192.84097 194.94614 197.21931 199.58847 202.04364 204.53380 206.63197 208.48413
 210.12030 211.27547 211.51463 211.75280 211.69996 211.41513 211.05829 210.69846
 210.32562 210.04579 209.86396 209.73812 209.67629 210.01745 210.41362 210.81278
 211.61595 212.80411 214.06428 215.85745 217.79561 219.84878 221.95394 224.04711
 226.11727 228.21144 230.31861 232.43477 234.57394 236.75610 239.02227 241.40243
 244.03360 246.29476 248.30693 250.08210 251.50926 252.64243 253.47459 253.80076
 253.84792 253.63209 253.00226 251.96042 250.57659 248.74775 246.66692 244.51008
 242.31125 240.12541 237.95558 235.80475 233.67491 231.55208 229.58824 227.75541
 226.04857 224.53074 223.17090 221.95307 220.84524 219.81540 218.92957 218.08073
 217.33290 216.52306 215.63123 215.00540 214.46556 214.52740 214.67352 215.27841
 216.42294 217.01393 217.66701 219.00444 220.99194 223.90102 228.25690 232.33662
 235.55029 238.36932 240.52975 242.49942 245.10225 248.38976 252.17632 256.04895
 259.60342 262.80511 265.77026 268.59399 271.25937 273.65887 275.71082 277.40771
 278.67838 279.85104 281.06342 282.40109 283.58725 284.63965 285.60297 286.48264
 287.28189 288.00070 288.63126 289.44897
 366.78100 356.34568 345.78835 334.66503 323.07870 311.28338 299.16405 286.97773
 274.70040 262.60808 250.62775 239.93943 230.07210 221.18678 213.37945 206.39213
 200.23680 195.18548 191.77815 189.83083 188.87850 188.95318 189.79885 191.11753
 192.85320 194.95888 197.23255 199.60223 202.05790 204.54858 206.64725 208.49993
 210.13660 211.29228 211.53195 211.77063 211.71830 211.43398 211.07765 210.71833
 210.34600 210.06668 209.88535 209.76003 209.69870 210.04038 210.43705 210.83673
 211.64040 212.82908 214.08976 215.88343 217.82211 219.87578 221.98146 224.07513
 226.14581 228.24048 230.34816 232.46483 234.60451 236.78718 239.05386 241.43453
 244.06621 246.32788 248.34056 250.11623 251.54391 252.67758 253.51026 253.83693
 253.88461 253.66928 253.03996 251.99863 250.61531 248.78698 246.70666 244.55033
 242.35201 240.16668 237.99736 235.84703 233.71771 231.59538 229.63206 227.79973
 226.09341 224.57608 223.21676 221.99943 220.89211 219.86278 218.97746 218.12913
 217.38181 216.57248 215.68116 215.05583 214.51651 214.57198 214.70302 215.37866
 216.34789 217.14017 217.90347 219.12886 221.06683 223.98254 228.29301 232.31529
 235.42041 238.12677 240.22743 242.21927 244.89482 248.25148 252.08092 255.96812
 259.52643 262.74219 265.72717 268.56262 271.23856 273.65527 275.73059 277.43372
 278.67996 279.83704 281.06070 282.40057 283.58597 284.63968 285.60291 286.48120
 287.27988 287.99677 288.62769 289.44025
 366.78100 356.34623 345.78945 334.66668 323.08091 311.28614 299.16736 286.98159
 274.70482 262.61304 250.63327 239.94550 230.07873 221.19395 213.38718 206.40041
 200.24563 195.19486 191.78809 189.84132 188.88954 188.96477 189.81100 191.13022
 192.86645 194.97268 197.24691 199.61713 202.07336 204.56459 206.66381 208.51704
 210.15427 211.31050 211.55072 211.78995 211.73818 211.45441 211.09863 210.73986
 210.36809 210.08931 209.90854 209.78377 209.72300 210.06522 210.46245 210.86268
 211.66690 212.85613 214.11736 215.91159 217.85081 219.90504 222.01127 224.10549
 226.17672 228.27195 230.38018 232.49740 234.63763 236.82086 239.08808 241.46931
 244.10154 246.36377 248.37699 250.15322 251.58145 252.71567 253.54890 253.87613
 253.92436 253.70958 253.08081 252.04004 250.65726 248.82949 246.74972 244.59395
 242.39617 240.21140 238.04263 235.89285 233.76408 231.64231 229.67954 227.84776
 226.14199 224.62522 223.26644 222.04967 220.94290 219.91413 219.02935 218.18158
 217.43481 216.62603 215.73526 215.11049 214.57172 214.61543 214.71870 215.50034
 216.27574 217.20886 218.14124 219.29524 221.14740 224.04201 228.31615 232.26657
 235.27527 237.87782 239.93083 241.95914 244.71420 248.13837 252.00348 255.90147
 259.46265 262.69077 265.69049 268.53223 271.21478 273.64648 275.74222 277.44461
 278.66739 279.81494 281.05832 282.40033 283.58704 284.64020 285.60211 286.48029
 287.27927 287.99756 288.62503 289.43723
 366.78100 356.34626 345.78952 334.66678 323.08104 311.28630 299.16756 286.98182
 274.70508 262.61334 250.63360 239.94586 230.07913 221.19439 213.38765 206.40091
 200.24617 195.19543 191.78869 189.84195 188.89021 188.96547 189.81173 191.13099
 192.86725 194.97351 197.24777 199.61803 202.07429 204.56555 206.66481 208.51807
 210.15533 211.31159 211.55185 211.79111 211.73938 211.45564 211.09990 210.74116
 210.36942 210.09068 209.90994 209.78520 209.72446 210.06672 210.46398 210.86424
 211.66850 212.85776 214.11902 215.91328 217.85254 219.90680 222.01306 224.10732
 226.17858 228.27384 230.38210 232.49937 234.63963 236.82289 239.09015 241.47141
 244.10367 246.36593 248.37919 250.15545 251.58371 252.71797 253.55123 253.87849
 253.92675 253.71201 253.08327 252.04253 250.65979 248.83205 246.75231 244.59657
 242.39883 240.21409 238.04536 235.89562 233.76688 231.64514 229.68240 227.85066
 226.14492 224.62818 223.26944 222.05270 220.94596 219.91722 219.03248 218.18474
 217.43800 216.62926 215.73852 215.11378 214.57504 214.63062 214.76190 215.58669
 216.25238 217.26508 218.34360 219.48042 221.24583 224.07050 228.32413 232.19342
 235.12791 237.63652 239.65123 241.72391 244.55817 248.04379 251.93732 255.83960
 259.40012 262.63632 265.64883 268.49637 271.18726 273.63379 275.75009 277.45660
 278.66354 279.80609 281.05515 282.39792 283.58502 284.63699 285.59830 286.47687
 287.27283 287.99072 288.61768 289.43134
 366.78100 356.34577 345.78855 334.66532 323.07910 311.28387 299.16464 286.97842
 274.70119 262.60896 250.62874 239.94051 230.07329 221.18806 213.38083 206.39361
 200.23838 195.18716 191.77993 189.83270 188.88048 188.95525 189.80102 191.11980
 192.85557 194.96135 197.23512 199.60489 202.06067 204.55144 206.65021 208.50299
 210.13976 211.29554 211.53531 211.77408 211.72186 211.43763 211.08141 210.72218
 210.34995 210.07073 209.88950 209.76427 209.70305 210.04482 210.44160 210.84137
 211.64514 212.83392 214.09469 215.88847 217.82724 219.88101 221.98679 224.08056
 226.15133 228.24611 230.35388 232.47066 234.61043 236.79320 239.05998 241.44075
 244.07252 246.33430 248.34707 250.12285 251.55062 252.68439 253.51717 253.84394
 253.89172 253.67649 253.04726 252.00604 250.62281 248.79458 246.71436 244.55813
 242.35991 240.17468 238.00545 235.85523 233.72600 231.60378 229.64055 227.80832
 226.10210 224.58487 223.22564 222.00842 220.90119 219.87197 218.98674 218.13851
 217.39129 216.58206 215.69083 215.06561 214.52638 214.61809 214.83478 215.63197
 216.26526 217.34132 218.51410 219.66905 221.35384 224.07225 228.32387 232.10925
 234.98552 237.40535 239.38582 241.50511 244.41537 247.95769 251.87292 255.77386
 259.33051 262.57413 265.59991 268.45639 271.15881 273.62262 275.76160 277.48041
 278.68082 279.81546 281.05331 282.39243 283.58020 284.63080 285.59323 286.46899
 287.26834 287.98462 288.61139 289.42169
 366.78100 356.34521 345.78741 334.66362 323.07683 311.28104 299.16124 286.97445
 274.69666 262.60387 250.62307 239.93428 230.06649 221.18069 213.37290 206.38511
 200.22932 195.17752 191.76973 189.82194 188.86915 188.94335 189.78856 191.10677
 192.84197 194.94718 197.22039 199.58960 202.04480 204.53501 206.63322 208.48543
 210.12163 211.27684 211.51605 211.75425 211.70146 211.41667 211.05988 210.70008
 210.32729 210.04750 209.86571 209.73991 209.67812 210.01933 210.41553 210.81474
 211.61795 212.80616 214.06636 215.85957 217.79778 219.85099 221.95619 224.04940
 226.11961 228.21381 230.32102 232.43723 234.57644 236.75864 239.02485 241.40506
 244.03627 246.29747 248.30968 250.08489 251.51209 252.64530 253.47751 253.80372
 253.85092 253.63513 253.00534 251.96354 250.57975 248.75096 246.67017 244.51337
 242.31458 240.12879 237.95900 235.80820 233.67841 231.55562 229.59182 227.75903
 226.05224 224.53445 223.17465 221.95686 220.84907 219.81928 218.93348 218.08469
 217.33690 216.52710 215.63531 215.00952 214.46973 214.59990 214.90746 215.66942
 216.29694 217.42250 218.67244 219.84608 221.45714 224.07170 228.32170 232.02333
 234.84746 237.18117 239.12933 241.29768 244.28131 247.87605 251.80896 255.70499
 259.25717 262.50809 265.54800 268.41708 271.13272 273.61523 275.77725 277.51300
 278.71149 279.83710 281.05099 282.38760 283.57382 284.62512 285.58673 286.46219
 287.25882 287.97452 288.60251 289.41141
 366.78100 356.34466 345.78632 334.66198 323.07464 311.27830 299.15796 286.97062
 274.69228 262.59894 250.61760 239.92826 230.05992 221.17358 213.36524 206.37690
 200.22056 195.16822 191.75988 189.81154 188.85820 188.93186 189.77652 191.09418
 192.82884 194.93350 197.20616 199.57482 202.02948 204.51914 206.61680 208.46846
 210.10412 211.25878 211.49744 211.73510 211.68176 211.39642 211.03908 210.67874
 210.30540 210.02506 209.84272 209.71638 209.65404 209.99470 210.39036 210.78902
 211.59168 212.77934 214.03900 215.83166 217.76932 219.82198 221.92664 224.01930
 226.08896 228.18262 230.28928 232.40495 234.54361 236.72527 238.99093 241.37059
 244.00125 246.26191 248.27357 250.04823 251.47489 252.60755 253.43921 253.76487
 253.81153 253.59519 252.96485 251.92251 250.53817 248.70883 246.62749 244.47015
 242.27081 240.08447 237.91413 235.76279 233.63245 231.50911 229.54477 227.71143
 226.00409 224.48575 223.12541 221.90707 220.79873 219.76839 218.88205 218.03271
 217.28437 216.47403 215.58169 214.95535 214.41501 214.58105 214.97334 215.70789
 216.35306 217.49557 218.80844 220.00531 221.54793 224.07991 228.31717 231.93857
 234.71054 236.96477 238.88640 241.10582 244.15933 247.80212 251.74860 255.63741
 259.18466 262.44250 265.49631 268.37872 271.10901 273.60849 275.79263 277.54337
 278.73746 279.85345 281.04980 282.38513 283.57004 284.62161 285.58292 286.45786
 287.25388 287.96927 288.59601 289.40057
 366.78100 356.34416 345.78532 334.66048 323.07264 311.27580 299.15496 286.96712
 274.68828 262.59444 250.61260 239.92276 230.05392 221.16708 213.35824 206.36940
 200.21256 195.15972 191.75088 189.80204 188.84820 188.92136 189.76552 191.08268
 192.81684 194.92101 197.19317 199.56133 202.01549 204.50465 206.60181 208.45297
 210.08813 211.24229 211.48045 211.71761 211.66377 211.37793 211.02009 210.65925
 210.28541 210.00457 209.82173 209.69489 209.63205 209.97221 210.36737 210.76553
 211.56769 212.75485 214.01401 215.80617 217.74333 219.79549 221.89965 223.99181
 226.06097 228.15413 230.26029 232.37545 234.51361 236.69477 238.95993 241.33909
 243.96925 246.22941 248.24057 250.01473 251.44089 252.57305 253.40421 253.72937
 253.77553 253.55870 252.92786 251.88502 250.50018 248.67034 246.58850 244.43066
 242.23082 240.04398 237.87314 235.72130 233.59046 231.46662 229.50178 227.66794
 225.96010 224.44126 223.08042 221.86158 220.75274 219.72190 218.83506 217.98522
 217.23638 216.42554 215.53270 214.90586 214.36502 214.56288 215.03035 215.75270
 216.42247 217.57008 218.91631 220.13797 221.62109 224.09215 228.31067 231.86128
 234.57985 236.76308 238.66293 240.93250 244.05089 247.73515 251.69127 255.57181
 259.11420 262.37811 265.44510 268.34146 271.08566 273.60083 275.80475 277.56863
 278.75934 279.86887 281.04825 282.38150 283.56702 284.61746 285.57803 286.45233
 287.24762 287.96292 288.58966 289.39340
 366.78100 356.34392 345.78484 334.65975 323.07167 311.27459 299.15351 286.96543
 274.68634 262.59226 250.61018 239.92010 230.05101 221.16393 213.35485 206.36577
 200.20869 195.15560 191.74652 189.79744 188.84336 188.91628 189.76019 191.07711
 192.81103 194.91495 197.18687 199.55478 202.00870 204.49762 206.59454 208.44545
 210.08037 211.23429 211.47221 211.70913 211.65504 211.36896 211.01088 210.64980
 210.27572 209.99463 209.81155 209.68447 209.62139 209.96131 210.35622 210.75414
 211.55606 212.74298 214.00189 215.79381 217.73073 219.78265 221.88657 223.97848
 226.04740 228.14032 230.24624 232.36116 234.49907 236.67999 238.94491 241.32383
 243.95375 246.21366 248.22458 249.99850 251.42442 252.55633 253.38725 253.71217
 253.75809 253.54101 252.90992 251.86684 250.48176 248.65168 246.56960 244.41151
 242.21143 240.02435 237.85327 235.70119 233.57010 231.44602 229.48094 227.64686
 225.93878 224.41969 223.05861 221.83953 220.73045 219.69936 218.81228 217.96220
 217.21312 216.40204 215.50895 214.88187 214.34079 214.55658 215.06639 215.82063
 216.48570 217.64005 219.02011 220.24112 221.67316 224.11569 228.31195 231.79678
 234.45441 236.57011 238.45111 240.77029 243.95004 247.67192 251.63635 255.50864
 259.04691 262.31769 265.39731 268.30667 271.06326 273.59134 275.81137 277.58673
 278.77652 279.87857 281.05066 282.38303 283.56741 284.61838 285.57733 286.45349
 287.24564 287.96194 288.58743 289.39282
 366.78100 356.34363 345.78425 334.65888 323.07050 311.27313 299.15175 286.96338
 274.68400 262.58963 250.60725 239.91688 230.04750 221.16013 213.35075 206.36138
 200.20400 195.15063 191.74125 189.79188 188.83750 188.91013 189.75375 191.07038
 192.80400 194.90763 197.17925 199.54688 202.00050 204.48913 206.58575 208.43638
 210.07100 211.22463 211.46225 211.69888 211.64450 211.35813 210.99975 210.63838
 210.26400 209.98263 209.79925 209.67188 209.60850 209.94813 210.34275 210.74038
 211.54200 212.72863 213.98725 215.77888 217.71550 219.76713 221.87075 223.96238
 226.03100 228.12363 230.22925 232.34388 234.48150 236.66213 238.92676 241.30538
 243.93501 246.19463 248.20526 249.97888 251.40451 252.53613 253.36676 253.69138
 253.73701 253.51963 252.88826 251.84488 250.45951 248.62913 246.54676 244.38838
 242.18801 240.00063 237.82926 235.67688 233.54551 231.42113 229.45576 227.62138
 225.91301 224.39363 223.03226 221.81288 220.70351 219.67213 218.78476 217.93438
 217.18501 216.37363 215.48026 214.85288 214.31151 214.54646 215.10158 215.90169
 216.53653 217.69798 219.12027 220.31966 221.72328 224.16451 228.31721 231.73401
 234.32610 236.38010 238.25006 240.62123 243.85838 247.61382 251.58455 255.44812
 258.98334 262.26190 265.35172 268.27255 271.03949 273.57870 275.81323 277.60211
 278.80115 279.90561 281.05557 282.38144 283.56570 284.61508 285.57526 286.44955
 287.24536 287.96008 288.58655 289.39276
 366.78100 356.34310 345.78319 334.65729 323.06839 311.27048 299.14858 286.95968
 274.67977 262.58487 250.60197 239.91107 230.04116 221.15326 213.34336 206.35345
 200.19555 195.14165 191.73174 189.78184 188.82694 188.89903 189.74213 191.05823
 192.79132 194.89442 197.16552 199.53261 201.98571 204.47381 206.56990 208.42000
 210.05410 211.20720 211.44429 211.68039 211.62549 211.33858 210.97968 210.61778
 210.24287 209.96097 209.77707 209.64916 209.58526 209.92436 210.31845 210.71555
 211.51665 212.70274 213.96084 215.75194 217.68803 219.73913 221.84223 223.93333
 226.00142 228.09352 230.19862 232.31271 234.44981 236.62991 238.89400 241.27210
 243.90120 246.16029 248.17039 249.94349 251.36858 252.49968 253.32978 253.65387
 253.69897 253.48107 252.84916 251.80526 250.41936 248.58846 246.50555 244.34665
 242.14575 239.95784 237.78594 235.63304 233.50113 231.37623 229.41033 227.57542
 225.86652 224.34662 222.98471 221.76481 220.65491 219.62300 218.73510 217.88420
 217.13429 216.32239 215.42849 214.80059 214.25868 214.52312 215.14787 215.99037
 216.58623 217.74403 219.20041 220.37915 221.77667 224.22774 228.31908 231.67052
 234.19560 236.19463 238.06314 240.49008 243.78052 247.56479 251.53931 255.39336
 258.92685 262.21198 265.30862 268.24005 271.01556 273.56180 275.80554 277.60049
 278.80219 279.91141 281.06894 282.39944 283.58511 284.63733 285.59918 286.47318
 287.27014 287.98856 288.61435 289.42270
 366.78100 356.34232 345.78164 334.65496 323.06527 311.26659 299.14391 286.95423
 274.67355 262.57787 250.59418 239.90250 230.03182 221.14314 213.33246 206.34178
 200.18310 195.12841 191.71773 189.76705 188.81137 188.88269 189.72501 191.04032
 192.77264 194.87496 197.14528 199.51160 201.96392 204.45124 206.54655 208.39587
 210.02919 211.18151 211.41783 211.65315 211.59746 211.30978 210.95010 210.58742
 210.21174 209.92906 209.74438 209.61569 209.55101 209.88933 210.28265 210.67897
 211.47929 212.66461 213.92192 215.71224 217.64756 219.69788 221.80020 223.89052
 225.95783 228.04915 230.15347 232.26679 234.40311 236.58243 238.84575 241.22306
 243.85138 246.10970 248.11902 249.89134 251.31566 252.44597 253.27529 253.59861
 253.64293 253.42425 252.79157 251.74689 250.36020 248.52852 246.44484 244.28516
 242.08348 239.89480 237.72211 235.56843 233.43575 231.31007 229.34339 227.50771
 225.79803 224.27734 222.91466 221.69398 220.58330 219.55062 218.66194 217.81025
 217.05957 216.24689 215.35221 214.72353 214.18085 214.48619 215.20760 216.06920
 216.66261 217.80431 219.24399 220.40877 221.82297 224.28146 228.29851 231.58250
 234.05104 236.00171 237.88306 240.37675 243.71986 247.52824 251.50591 255.35262
 258.88602 262.17606 265.27658 268.21671 270.99875 273.55023 275.80307 277.61429
 278.82520 279.93167 281.06110 282.38751 283.57047 284.61905 285.57800 286.45135
 287.24619 287.96060 288.58777 289.39294
 366.78100 356.34163 345.78027 334.65290 323.06254 311.26317 299.13981 286.94944
 274.66807 262.57171 250.58734 239.89498 230.02361 221.13425 213.32288 206.33151
 200.17215 195.11678 191.70542 189.75405 188.79769 188.86832 189.70995 191.02459
 192.75622 194.85786 197.12749 199.49313 201.94476 204.43139 206.52603 208.37466
 210.00730 211.15893 211.39457 211.62920 211.57283 211.28447 210.92410 210.56074
 210.18437 209.90100 209.71564 209.58627 209.52091 209.85854 210.25118 210.64681
 211.44644 212.63108 213.88771 215.67735 217.61198 219.66162 221.76325 223.85288
 225.91952 228.01015 230.11379 232.22642 234.36206 236.54069 238.80332 241.17996
 243.80759 246.06523 248.07386 249.84550 251.26913 252.39876 253.22740 253.55003
 253.59367 253.37430 252.74094 251.69557 250.30820 248.47584 246.39147 244.23111
 242.02874 239.83938 237.66601 235.51164 233.37828 231.25191 229.28455 227.44818
 225.73782 224.21645 222.85308 221.63172 220.52035 219.48699 218.59762 217.74526
 216.99389 216.18052 215.28516 214.65579 214.11243 214.45454 215.26286 216.14067
 216.75250 217.87505 219.27492 220.41530 221.84343 224.29292 228.24625 231.47945
 233.89842 235.80185 237.71184 240.27824 243.67213 247.50221 251.48335 255.32515
 258.86127 262.15625 265.25665 268.20129 270.99161 273.54825 275.81192 277.62305
 278.82962 279.94214 281.07635 282.43805 283.62610 284.68298 285.65250 286.53732
 287.34576 288.07773 288.75351 289.66428
 366.78100 356.34183 345.78066 334.65349 323.06332 311.26415 299.14098 286.95081
 274.66964 262.57347 250.58930 239.89713 230.02596 221.13679 213.32562 206.33445
 200.17528 195.12011 191.70894 189.75777 188.80160 188.87243 189.71426 191.02909
 192.76092 194.86275 197.13258 199.49841 201.95024 204.43707 206.53190 208.38073
 210.01356 211.16539 211.40122 211.63605 211.57988 211.29171 210.93154 210.56837
 210.19220 209.90903 209.72386 209.59469 209.52952 209.86735 210.26018 210.65601
 211.45584 212.64067 213.89750 215.68733 217.62216 219.67199 221.77382 223.86365
 225.93048 228.02131 230.12514 232.23797 234.37380 236.55263 238.81546 241.19229
 243.82012 246.07795 248.08678 249.85861 251.28244 252.41227 253.24110 253.56393
 253.60776 253.38859 252.75542 251.71025 250.32308 248.49091 246.40674 244.24657
 242.04440 239.85523 237.68206 235.52789 233.39472 231.26855 229.30138 227.46521
 225.75504 224.23387 222.87070 221.64953 220.53836 219.50519 218.61602 217.76385
 217.01268 216.19951 215.30434 214.67517 214.13200 214.46620 215.25578 216.25240
 216.87384 217.94289 219.29291 220.41193 221.86359 224.31131 228.19136 231.37326
 233.74368 235.60551 237.54689 240.18797 243.62840 247.47609 251.45978 255.29509
 258.83450 262.13635 265.23837 268.19342 270.99149 273.55438 275.82684 277.64679
 278.90155 279.99960 281.12265 282.47467 283.66293 284.71954 285.68866 286.57458
 287.38489 288.11807 288.79507 289.66885
 366.78100 356.34311 345.78321 334.65732 323.06842 311.27053 299.14864 286.95974
 274.67985 262.58495 250.60206 239.91117 230.04127 221.15338 213.34348 206.35359
 200.19570 195.14180 191.73191 189.78201 188.82712 188.89923 189.74233 191.05844
 192.79154 194.89465 197.16576 199.53286 201.98597 204.47407 206.57018 208.42029
 210.05439 211.20750 211.44460 211.68071 211.62582 211.33892 210.98003 210.61813
 210.24324 209.96135 209.77745 209.64956 209.58566 209.92477 210.31887 210.71598
 211.51709 212.70319 213.96130 215.75240 217.68851 219.73962 221.84272 223.93383
 226.00193 228.09404 230.19915 232.31325 234.45036 236.63046 238.89457 241.27268
 243.90178 246.16089 248.17099 249.94410 251.36921 252.50031 253.33042 253.65452
 253.69963 253.48174 252.84984 251.80595 250.42005 248.58916 246.50627 244.34737
 242.14648 239.95858 237.78669 235.63380 233.50190 231.37701 229.41111 227.57622
 225.86733 224.34743 222.98554 221.76564 220.65575 219.62386 218.73596 217.88507
 217.13517 216.32328 215.42939 214.80149 214.25960 214.53137 215.17345 216.39011
 217.05406 218.05688 219.33272 220.41385 221.86224 224.28822 228.10941 231.23508
 233.55064 235.38539 237.37251 240.09843 243.58629 247.45157 251.43672 255.26544
 258.81131 262.11880 265.22571 268.19104 270.99640 273.56757 275.85306 277.69714
 278.99585 280.08298 281.18182 282.47549 283.66370 284.71863 285.68582 286.57007
 287.37616 288.10730 288.77725 289.63290
 366.78100 356.34408 345.78517 334.66025 323.07234 311.27542 299.15451 286.96659
 274.68768 262.59376 250.61185 239.92193 230.05302 221.16610 213.35719 206.36827
 200.21136 195.15844 191.74953 189.80061 188.84670 188.91978 189.76387 191.08095
 192.81504 194.91912 197.19121 199.55929 202.01338 204.50246 206.59955 208.45063
 210.08572 211.23980 211.47789 211.71497 211.66106 211.37514 211.01723 210.65631
 210.28240 210.00148 209.81857 209.69165 209.62874 209.96882 210.36391 210.76199
 211.56408 212.75116 214.01025 215.80233 217.73942 219.79150 221.89559 223.98767
 226.05676 228.14984 230.25593 232.37101 234.50910 236.69018 238.95527 241.33435
 243.96444 246.22452 248.23561 250.00969 251.43578 252.56786 253.39895 253.72403
 253.77012 253.55320 252.92229 251.87937 250.49446 248.66454 246.58263 244.42471
 242.22480 240.03788 237.86697 235.71505 233.58414 231.46022 229.49531 227.66139
 225.95348 224.43456 223.07365 221.85473 220.74582 219.71490 218.82799 217.97807
 217.22916 216.41824 215.52533 214.89841 214.35750 214.58234 215.11354 216.45818
 217.27446 218.24199 219.41165 220.37827 221.79405 224.25693 228.02222 231.08331
 233.34268 235.16785 237.21176 240.02675 243.55780 247.43785 251.42378 255.24599
 258.79803 262.11157 265.21841 268.19278 271.00391 273.58163 275.87823 277.74237
 279.06888 280.15561 281.23090 282.48068 283.66727 284.72220 285.68893 286.57086
 287.37720 288.10809 288.78043 289.63968
 366.78100 356.34383 345.78467 334.65950 323.07133 311.27416 299.15300 286.96483
 274.68566 262.59149 250.60933 239.91916 230.04999 221.16283 213.35366 206.36449
 200.20732 195.15416 191.74499 189.79582 188.84166 188.91449 189.75832 191.07515
 192.80899 194.91282 197.18465 199.55248 202.00632 204.49515 206.59198 208.44282
 210.07765 211.23148 211.46931 211.70615 211.65198 211.36581 211.00764 210.64648
 210.27231 209.99114 209.80798 209.68081 209.61764 209.95747 210.35231 210.75014
 211.55197 212.73880 213.99764 215.78947 217.72630 219.77814 221.88197 223.97380
 226.04263 228.13547 230.24130 232.35613 234.49397 236.67480 238.93963 241.31846
 243.94830 246.20813 248.21896 249.99279 251.41863 252.55046 253.38129 253.70613
 253.75196 253.53479 252.90362 251.86046 250.47529 248.64512 246.56295 244.40479
 242.20462 240.01745 237.84629 235.69412 233.56295 231.43878 229.47362 227.63945
 225.93128 224.41212 223.05095 221.83178 220.72261 219.69145 218.80428 217.95411
 217.20494 216.39378 215.50061 214.87344 214.33228 214.57037 215.13292 216.46886
 217.45988 218.44894 219.52132 220.35585 221.74043 224.25702 227.96207 230.94633
 233.14330 234.97771 237.07840 239.97243 243.53557 247.42482 251.40448 255.21547
 258.76898 262.08221 265.18869 268.17358 270.99496 273.58167 275.89218 277.77774
 279.12381 280.21622 281.27090 282.47943 283.66705 284.72137 285.68707 286.56799
 287.37137 288.10147 288.75977 289.61163
 366.78100 356.34351 345.78403 334.65854 323.07005 311.27257 299.15108 286.96259
 274.68311 262.58862 250.60614 239.91565 230.04616 221.15868 213.34919 206.35970
 200.20222 195.14873 191.73924 189.78976 188.83527 188.90778 189.75130 191.06781
 192.80132 194.90484 197.17635 199.54387 201.99738 204.48589 206.58241 208.43292
 210.06743 211.22095 211.45846 211.69497 211.64049 211.35400 210.99551 210.63403
 210.25954 209.97806 209.79457 209.66708 209.60360 209.94311 210.33762 210.73514
 211.53665 212.72316 213.98168 215.77319 217.70970 219.76122 221.86473 223.95624
 226.02476 228.11727 230.22279 232.33730 234.47481 236.65533 238.91984 241.29835
 243.92787 246.18738 248.19789 249.97141 251.39692 252.52843 253.35895 253.68346
 253.72897 253.51149 252.88000 251.83652 250.45103 248.62054 246.53806 244.37957
 242.17908 239.99160 237.82011 235.66762 233.53614 231.41165 229.44616 227.61168
 225.90319 224.38371 223.02222 221.80273 220.69325 219.66176 218.77427 217.92379
 217.17430 216.36281 215.46933 214.84184 214.30035 214.55348 215.15152 216.52625
 217.58041 218.59576 219.63191 220.37750 221.73756 224.29276 227.92763 230.82179
 232.95073 234.79649 236.95203 239.91774 243.50935 247.40356 251.37199 255.16759
 258.71451 262.02112 265.13278 268.13440 270.96613 273.55969 275.87888 277.78271
 279.15112 280.25412 281.30469 282.48831 283.67407 284.72983 285.69406 286.57632
 287.37805 288.10333 288.74893 289.60327
 366.78100 356.34380 345.78460 334.65940 323.07120 311.27399 299.15279 286.96459
 274.68539 262.59119 250.60899 239.91879 230.04959 221.16239 213.35318 206.36398
 200.20678 195.15358 191.74438 189.79518 188.84098 188.91378 189.75758 191.07437
 192.80817 194.91197 197.18377 199.55157 202.00537 204.49417 206.59097 208.44177
 210.07656 211.23036 211.46816 211.70496 211.65076 211.36456 211.00636 210.64516
 210.27096 209.98975 209.80655 209.67935 209.61615 209.95595 210.35075 210.74855
 211.55035 212.73715 213.99594 215.78774 217.72454 219.77634 221.88014 223.97194
 226.04074 228.13354 230.23934 232.35413 234.49193 236.67273 238.93753 241.31633
 243.94613 246.20593 248.21673 249.99052 251.41632 252.54812 253.37892 253.70372
 253.74952 253.53232 252.90112 251.85792 250.47271 248.64251 246.56031 244.40211
 242.20191 240.01471 237.84351 235.69131 233.56011 231.43590 229.47070 227.63650
 225.92830 224.40910 223.04790 221.82870 220.71950 219.68830 218.80109 217.95089
 217.20169 216.39049 215.49729 214.87009 214.32889 214.56764 215.13173 216.61258
 217.67610 218.69742 219.74463 220.42821 221.75714 224.33139 227.88531 230.68254
 232.75172 234.60500 236.82228 239.86571 243.48795 247.38615 251.34483 255.12473
 258.66385 261.96234 265.07486 268.09259 270.93213 273.52637 275.84827 277.76331
 279.14713 280.27216 281.34186 282.50278 283.67249 284.72662 285.68973 286.56842
 287.36746 288.09097 288.72559 289.54388
 366.78100 356.34418 345.78536 334.66053 323.07271 311.27589 299.15507 286.96724
 274.68842 262.59460 250.61278 239.92295 230.05413 221.16731 213.35849 206.36966
 200.21284 195.16002 191.75120 189.80237 188.84855 188.92173 189.76591 191.08308
 192.81726 194.92144 197.19362 199.56180 202.01597 204.50515 206.60233 208.45351
 210.08868 211.24286 211.48104 211.71822 211.66439 211.37857 211.02075 210.65993
 210.28610 210.00528 209.82246 209.69564 209.63281 209.97299 210.36817 210.76635
 211.56852 212.75570 214.01488 215.80706 217.74424 219.79641 221.90059 223.99277
 226.06195 228.15512 230.26130 232.37648 234.51466 236.69583 238.96101 241.34019
 243.97037 246.23054 248.24172 250.01590 251.44208 252.57425 253.40543 253.73061
 253.77679 253.55996 252.92914 251.88632 250.50150 248.67168 246.58985 244.43203
 242.23221 240.04539 237.87456 235.72274 233.59192 231.46810 229.50327 227.66945
 225.96163 224.44281 223.08198 221.86316 220.75434 219.72352 218.83669 217.98687
 217.23805 216.42723 215.53441 214.90758 214.36676 214.58746 215.10890 216.66934
 217.78584 218.80836 219.87613 220.48776 221.76596 224.34094 227.81221 230.51485
 232.54247 234.41176 236.70227 239.82899 243.48244 247.38376 251.33376 255.10010
 258.63403 261.92731 265.03552 268.06308 270.90558 273.49359 275.81430 277.73599
 279.11777 280.25873 281.34332 282.50089 283.66992 284.72342 285.68719 286.56616
 287.36618 288.08908 288.72089 289.54230
 366.78100 356.34463 345.78626 334.66189 323.07452 311.27815 299.15778 286.97041
 274.69204 262.59867 250.61730 239.92793 230.05956 221.17319 213.36482 206.37645
 200.22008 195.16771 191.75933 189.81096 188.85759 188.93122 189.77585 191.09348
 192.82811 194.93274 197.20537 199.57400 202.02863 204.51826 206.61589 208.46752
 210.10315 211.25778 211.49641 211.73404 211.68067 211.39530 211.03793 210.67756
 210.30419 210.02382 209.84145 209.71508 209.65271 209.99334 210.38897 210.78760
 211.59023 212.77786 214.03749 215.83012 217.76775 219.82038 221.92500 224.01763
 226.08726 228.18089 230.28752 232.40315 234.54178 236.72341 238.98904 241.36867
 243.99930 246.25993 248.27156 250.04619 251.47282 252.60545 253.43708 253.76271
 253.80934 253.59297 252.96260 251.92023 250.53586 248.70649 246.62512 244.46775
 242.26838 240.08201 237.91164 235.76027 233.62990 231.50653 229.54216 227.70879
 226.00142 224.48305 223.12267 221.90430 220.79593 219.76556 218.87919 218.02982
 217.28145 216.47108 215.57871 214.95234 214.41197 214.61060 215.07983 216.70952
 217.92430 218.94684 220.01714 220.53384 221.74661 224.30894 227.70979 230.32722
 232.32916 234.22862 236.59724 239.80594 243.48796 247.39047 251.33130 255.08467
 258.61450 261.90265 265.00623 268.03827 270.87866 273.45795 275.77286 277.69537
 279.07648 280.23370 281.33047 282.49637 283.66788 284.72101 285.68597 286.56564
 287.36667 288.09015 288.72366 289.54480
 366.78100 356.34529 345.78757 334.66386 323.07715 311.28144 299.16172 286.97501
 274.69730 262.60459 250.62387 239.93516 230.06745 221.18174 213.37402 206.38631
 200.23060 195.17889 191.77117 189.82346 188.87075 188.94503 189.79032 191.10861
 192.84390 194.94918 197.22247 199.59176 202.04705 204.53733 206.63562 208.48791
 210.12420 211.27948 211.51877 211.75706 211.70435 211.41963 211.06292 210.70321
 210.33049 210.05078 209.86907 209.74336 209.68164 210.02293 210.41922 210.81851
 211.62179 212.81008 214.07037 215.86366 217.80194 219.85523 221.96052 224.05381
 226.12409 228.21838 230.32567 232.44196 234.58124 236.76353 239.02982 241.41010
 244.04139 246.30268 248.31497 250.09025 251.51754 252.65083 253.48312 253.80940
 253.85669 253.64098 253.01127 251.96955 250.58584 248.75713 246.67642 244.51970
 242.32099 240.13528 237.96556 235.81485 233.68514 231.56243 229.59871 227.76600
 226.05929 224.54158 223.18186 221.96415 220.85644 219.82673 218.94101 218.09230
 217.34459 216.53488 215.64316 215.01745 214.47774 214.64314 215.03394 216.74611
 218.07986 219.10699 220.16119 220.56383 221.70009 224.24818 227.59575 230.14021
 232.12563 234.05898 236.50356 239.78958 243.49779 247.40034 251.33090 255.07106
 258.59485 261.87759 264.97577 268.00809 270.84497 273.41431 275.72186 277.64066
 279.02417 280.20154 281.30826 282.49292 283.66544 284.72034 285.68451 286.56580
 287.36774 288.08914 288.72787 289.54730
 366.78100 356.34580 345.78859 334.66539 323.07919 311.28398 299.16478 286.97858
 274.70137 262.60917 250.62897 239.94077 230.07356 221.18836 213.38116 206.39395
 200.23875 195.18755 191.78034 189.83314 188.88094 188.95573 189.80153 191.12033
 192.85612 194.96192 197.23572 199.60552 202.06131 204.55211 206.65091 208.50370
 210.14050 211.29630 211.53609 211.77489 211.72269 211.43848 211.08228 210.72308
 210.35087 210.07167 209.89047 209.76527 209.70406 210.04586 210.44266 210.84245
 211.64625 212.83505 214.09584 215.88964 217.82844 219.88223 221.98803 224.08183
 226.15262 228.24742 230.35522 232.47202 234.61181 236.79461 239.06141 241.44220
 244.07400 246.33580 248.34859 250.12439 251.55219 252.68598 253.51878 253.84558
 253.89337 253.67817 253.04897 252.00776 250.62456 248.79636 246.71616 244.55995
 242.36175 240.17655 238.00734 235.85714 233.72794 231.60573 229.64253 227.81033
 226.10412 224.58692 223.22772 222.01051 220.90331 219.87411 218.98891 218.14070
 217.39350 216.58430 215.69309 215.06789 214.52869 214.66737 214.99504 216.76570
 218.22917 219.28305 220.30820 220.59120 221.64241 224.17667 227.48727 229.96709
 231.93674 233.90221 236.41925 239.77837 243.51172 247.41391 251.33304 255.05891
 258.57379 261.84879 264.94128 267.97232 270.80319 273.36218 275.65869 277.57040
 278.96072 280.15735 281.28391 282.48590 283.65979 284.71545 285.68079 286.56161
 287.36340 288.08624 288.72141 289.54404
 366.78100 356.34606 345.78911 334.66617 323.08023 311.28528 299.16634 286.98040
 274.70345 262.61151 250.63157 239.94362 230.07668 221.19174 213.38479 206.39785
 200.24291 195.19196 191.78502 189.83808 188.88613 188.96119 189.80725 191.12630
 192.86236 194.96842 197.24247 199.61253 202.06859 204.55964 206.65870 208.51176
 210.14882 211.30487 211.54493 211.78399 211.73204 211.44810 211.09216 210.73321
 210.36127 210.08233 209.90138 209.77644 209.71550 210.05755 210.45461 210.85467
 211.65872 212.84778 214.10884 215.90289 217.84195 219.89601 222.00206 224.09612
 226.16718 228.26223 230.37029 232.48735 234.62740 236.81046 239.07752 241.45857
 244.09063 246.35269 248.36574 250.14180 251.56986 252.70391 253.53697 253.86403
 253.91208 253.69714 253.06820 252.02725 250.64431 248.81637 246.73642 244.58048
 242.38254 240.19759 238.02865 235.87871 233.74976 231.62782 229.66488 227.83293
 226.12699 224.61005 223.25111 222.03416 220.92722 219.89828 219.01333 218.16539
 217.41845 216.60950 215.71856 215.09362 214.55467 214.67821 214.97008 216.76604
 218.36963 219.46681 220.45897 220.62634 221.57814 224.10022 227.38365 229.80217
 231.75546 233.75304 236.34238 239.77303 243.53140 247.43257 251.33830 255.04750
 258.55002 261.81592 264.90353 267.92944 270.75275 273.30078 275.58179 277.48141
 278.88394 280.10083 281.19476 282.49762 283.67438 284.72403 285.68469 286.56207
 287.36118 288.08273 288.71503 289.53238
 366.78100 356.34626 345.78951 334.66677 323.08102 311.28628 299.16753 286.98179
 274.70504 262.61330 250.63355 239.94581 230.07906 221.19432 213.38757 206.40083
 200.24608 195.19534 191.78859 189.84185 188.89010 188.96536 189.81161 191.13087
 192.86712 194.97338 197.24763 199.61789 202.07414 204.56540 206.66465 208.51791
 210.15516 211.31142 211.55167 211.79093 211.73918 211.45544 211.09969 210.74095
 210.36920 210.09046 209.90971 209.78497 209.72422 210.06648 210.46373 210.86399
 211.66824 212.85750 214.11875 215.91301 217.85226 219.90652 222.01277 224.10703
 226.17828 228.27354 230.38180 232.49905 234.63931 236.82256 239.08982 241.47107
 244.10333 246.36558 248.37884 250.15509 251.58335 252.71760 253.55086 253.87811
 253.92637 253.71162 253.08288 252.04213 250.65939 248.83164 246.75190 244.59615
 242.39841 240.21366 238.04492 235.89517 233.76643 231.64468 229.68194 227.85019
 226.14445 224.62770 223.26896 222.05221 220.94547 219.91672 219.03198 218.18423
 217.43749 216.62874 215.73800 215.11325 214.57451 214.68520 214.94670 216.75319
 218.50899 219.65797 220.60272 220.66814 221.51677 224.01514 227.27939 229.64075
 231.57715 233.60934 236.27341 239.77541 243.55930 247.45871 251.34727 255.03619
 258.52338 261.77960 264.86417 267.88330 270.69452 273.22873 275.49139 277.37833
 278.79657 280.03400 281.15594 282.48181 283.66681 284.72040 285.68320 286.56116
 287.36115 288.07840 288.71268 289.53360
 366.78100 356.34651 345.79002 334.66752 323.08203 311.28754 299.16905 286.98356
 274.70706 262.61557 250.63608 239.94859 230.08210 221.19760 213.39111 206.40462
 200.25013 195.19963 191.79314 189.84665 188.89516 188.97067 189.81717 191.13668
 192.87319 194.97970 197.25421 199.62471 202.08122 204.57273 206.67224 208.52575
 210.16325 211.31976 211.56027 211.79978 211.74829 211.46479 211.10930 210.75081
 210.37932 210.10082 209.92033 209.79584 209.73535 210.07786 210.47536 210.87587
 211.68038 212.86989 214.13140 215.92590 217.86541 219.91992 222.02643 224.12094
 226.19244 228.28795 230.39646 232.51397 234.65448 236.83798 239.10549 241.48700
 244.11951 246.38202 248.39552 250.17203 251.60054 252.73505 253.56855 253.89606
 253.94457 253.73008 253.10159 252.06109 250.67860 248.85111 246.77162 244.61613
 242.41863 240.23414 238.06565 235.91616 233.78767 231.66617 229.70368 227.87219
 226.16670 224.65021 223.29171 222.07522 220.96873 219.94024 219.05574 218.20825
 217.46176 216.65327 215.76278 215.13828 214.59979 214.69464 214.91875 216.73401
 218.64664 219.84911 220.74457 220.71094 221.44984 223.92799 227.17139 229.47507
 231.39891 233.47159 236.21332 239.78737 243.59766 247.49306 251.36064 255.02594
 258.49487 261.74115 264.82458 267.83249 270.62894 273.14816 275.38928 277.26334
 278.70087 279.96213 281.13379 282.46689 283.65622 284.71194 285.67865 286.55853
 287.35834 288.07837 288.71085 289.52713
 366.78100 356.34678 345.79057 334.66835 323.08314 311.28892 299.17070 286.98549
 274.70927 262.61806 250.63884 239.95162 230.08541 221.20119 213.39498 206.40876
 200.25454 195.20433 191.79811 189.85190 188.90068 188.97646 189.82325 191.14303
 192.87981 194.98660 197.26138 199.63217 202.08895 204.58073 206.68052 208.53430
 210.17209 211.32887 211.56965 211.80944 211.75822 211.47501 211.11979 210.76157
 210.39036 210.11214 209.93193 209.80771 209.74749 210.09028 210.48806 210.88885
 211.69363 212.88341 214.14520 215.93998 217.87977 219.93455 222.04133 224.13612
 226.20790 228.30369 230.41247 232.53025 234.67104 236.85482 239.12261 241.50439
 244.13717 246.39996 248.41374 250.19053 251.61931 252.75409 253.58788 253.91566
 253.96444 253.75023 253.12201 252.08180 250.69958 248.87236 246.79315 244.63793
 242.44072 240.25650 238.08828 235.93907 233.81085 231.68964 229.72742 227.89620
 226.19099 224.67477 223.31656 222.10034 220.99412 219.96591 219.08169 218.23448
 217.48826 216.68004 215.78983 215.16561 214.62740 214.70540 214.88968 216.70871
 218.78598 220.03596 220.86882 220.76172 221.40009 223.82480 227.05133 229.31110
 231.22658 233.34328 236.16437 239.81020 243.64691 247.53593 251.37761 255.01593
 258.46387 261.70081 264.78345 267.77686 270.55554 273.05740 275.27576 277.13776
 278.59592 279.88675 281.11902 282.45935 283.65021 284.70822 285.67667 286.55728
 287.35764 288.07776 288.70877 289.52417
 366.78100 356.34703 345.79105 334.66908 323.08411 311.29014 299.17216 286.98719
 274.71122 262.62025 250.64127 239.95430 230.08833 221.20436 213.39838 206.41241
 200.25844 195.20846 191.80249 189.85652 188.90555 188.98157 189.82860 191.14863
 192.88566 194.99268 197.26771 199.63874 202.09577 204.58779 206.68782 208.54185
 210.17987 211.33690 211.57793 211.81796 211.76698 211.48401 211.12904 210.77107
 210.40009 210.12212 209.94215 209.81818 209.75820 210.10123 210.49926 210.90028
 211.70531 212.89534 214.15737 215.95239 217.89242 219.94745 222.05448 224.14950
 226.22153 228.31756 230.42659 232.54461 234.68564 236.86967 239.13769 241.51972
 244.15275 246.41578 248.42980 250.20683 251.63586 252.77089 253.60491 253.93294
 253.98197 253.76800 253.14002 252.10005 250.71808 248.89110 246.81213 244.65716
 242.46019 240.27621 238.10824 235.95927 233.83130 231.71032 229.74835 227.91738
 226.21241 224.69643 223.33846 222.12249 221.01651 219.98854 219.10457 218.25760
 217.51162 216.70365 215.81368 215.18971 214.65173 214.71439 214.86241 216.68068
 218.91725 220.22728 220.99496 220.79770 221.33311 223.73325 226.93080 229.13899
 231.05444 233.22212 236.12401 239.84129 243.70494 247.58539 251.39786 255.00616
 258.43149 261.65964 264.74078 267.71695 270.47665 272.95975 275.15283 277.00299
 278.48279 279.81070 281.10681 282.45480 283.64536 284.70566 285.67407 286.55609
 287.35724 288.07382 288.70654 289.51999
 366.78100 356.34724 345.79149 334.66973 323.08497 311.29122 299.17346 286.98870
 274.71295 262.62219 250.64343 239.95668 230.09092 221.20716 213.40141 206.41565
 200.26189 195.21214 191.80638 189.86062 188.90987 188.98611 189.83335 191.15360
 192.89084 194.99808 197.27333 199.64457 202.10182 204.59406 206.69430 208.54855
 210.18679 211.34403 211.58528 211.82552 211.77476 211.49201 211.13725 210.77949
 210.40874 210.13098 209.95122 209.82747 209.76771 210.11095 210.50920 210.91044
 211.71568 212.90593 214.16817 215.96341 217.90366 219.95890 222.06614 224.16139
 226.23363 228.32987 230.43912 232.55736 234.69860 236.88285 239.15109 241.53333
 244.16658 246.42982 248.44406 250.22131 251.65055 252.78579 253.62004 253.94828
 253.99752 253.78377 253.15601 252.11625 250.73450 248.90774 246.82899 244.67423
 242.47747 240.29372 238.12596 235.97720 233.84945 231.72869 229.76693 227.93618
 226.23142 224.71566 223.35791 222.14215 221.03639 220.00864 219.12488 218.27812
 217.53237 216.72461 215.83485 215.21110 214.67334 214.72195 214.83681 216.65428
 219.03705 220.39786 221.12427 220.87636 221.30251 223.58771 226.78429 228.97798
 230.89195 233.10805 236.09302 239.88258 243.77322 247.64308 251.42244 254.99866
 258.40018 261.61948 264.70132 267.65598 270.39352 272.85492 275.02054 276.85852
 278.36353 279.73456 281.09723 282.45093 283.64380 284.70386 285.67297 286.55441
 287.35513 288.07297 288.70337 289.51657
 366.78100 356.34740 345.79181 334.67021 323.08561 311.29202 299.17442 286.98982
 274.71423 262.62363 250.64503 239.95843 230.09284 221.20924 213.40364 206.41805
 200.26445 195.21485 191.80926 189.86366 188.91306 188.98947 189.83687 191.15727
 192.89468 195.00208 197.27748 199.64889 202.10629 204.59869 206.69909 208.55350
 210.19190 211.34930 211.59071 211.83111 211.78051 211.49792 211.14332 210.78572
 210.41513 210.13753 209.95793 209.83434 209.77474 210.11814 210.51655 210.91795
 211.72335 212.91375 214.17616 215.97156 217.91196 219.96737 222.07477 224.17017
 226.24258 228.33898 230.44838 232.56679 234.70819 236.89259 239.16100 241.54340
 244.17680 246.44021 248.45461 250.23201 251.66141 252.79682 253.63122 253.95962
 254.00903 253.79543 253.16783 252.12824 250.74664 248.92004 246.84145 244.68685
 242.49025 240.30666 238.13906 235.99046 233.86287 231.74227 229.78067 227.95007
 226.24548 224.72988 223.37228 222.15669 221.05109 220.02349 219.13990 218.29330
 217.54770 216.74011 215.85051 215.22691 214.68932 214.72699 214.81598 216.62646
 219.14920 220.54659 221.23830 220.96654 221.28308 223.43170 226.63008 228.82195
 230.74030 233.00752 236.07541 239.93640 243.85410 247.71138 251.45462 254.99663
 258.37198 261.58142 264.66104 267.59204 270.30515 272.74390 274.87952 276.70624
 278.24530 279.66803 281.08884 282.44788 283.63885 284.70004 285.66959 286.55121
 287.35144 288.06848 288.69687 289.51041
 366.78100 356.34749 345.79198 334.67047 323.08597 311.29246 299.17495 286.99044
 274.71493 262.62442 250.64592 239.95941 230.09390 221.21039 213.40488 206.41937
 200.26586 195.21636 191.81085 189.86534 188.91483 188.99132 189.83881 191.15930
 192.89680 195.00429 197.27978 199.65127 202.10876 204.60125 206.70175 208.55624
 210.19473 211.35222 211.59371 211.83420 211.78369 211.50119 211.14668 210.78917
 210.41866 210.14115 209.96164 209.83813 209.77863 210.12212 210.52061 210.92210
 211.72759 212.91808 214.18058 215.97607 217.91656 219.97205 222.07954 224.17503
 226.24752 228.34402 230.45351 232.57200 234.71349 236.89798 239.16647 241.54896
 244.18246 246.44595 248.46044 250.23793 251.66742 252.80291 253.63741 253.96590
 254.01539 253.80188 253.17437 252.13486 250.75335 248.92685 246.84834 244.69383
 242.49732 240.31381 238.14630 235.99780 233.87029 231.74978 229.78827 227.95776
 226.25325 224.73774 223.38024 222.16473 221.05922 220.03171 219.14820 218.30169
 217.55618 216.74868 215.85917 215.23566 214.69815 214.72876 214.80107 216.59674
 219.24420 220.68481 221.32829 221.04831 221.26167 223.28036 226.47891 228.67383
 230.60278 232.92299 236.07204 240.00308 243.94684 247.78923 251.49272 254.99698
 258.34387 261.54367 264.61972 267.52505 270.21344 272.62720 274.73352 276.55164
 278.11740 279.57367 281.08942 282.45609 283.64603 284.70435 285.67307 286.55295
 287.35092 288.06689 288.69333 289.50461
 366.78100 356.34746 345.79193 334.67039 323.08585 311.29232 299.17478 286.99024
 274.71470 262.62417 250.64563 239.95909 230.09356 221.21002 213.40448 206.41895
 200.26541 195.21587 191.81034 189.86480 188.91426 188.99073 189.83819 191.15865
 192.89612 195.00358 197.27904 199.65050 202.10797 204.60043 206.70089 208.55536
 210.19382 211.35128 211.59275 211.83321 211.78267 211.50014 211.14560 210.78806
 210.41753 210.13999 209.96045 209.83691 209.77738 210.12084 210.51930 210.92077
 211.72623 212.91669 214.17916 215.97462 217.91508 219.97055 222.07801 224.17347
 226.24594 228.34240 230.45186 232.57032 234.71179 236.89625 239.16471 241.54718
 244.18064 246.44410 248.45857 250.23603 251.66549 252.80096 253.63542 253.96388
 254.01335 253.79981 253.17227 252.13273 250.75120 248.92466 246.84612 244.69159
 242.49505 240.31151 238.14398 235.99544 233.86790 231.74737 229.78583 227.95529
 226.25075 224.73522 223.37768 222.16214 221.05661 220.02907 219.14553 218.29900
 217.55346 216.74592 215.85639 215.23285 214.69531 214.72427 214.79268 216.57657
 219.31230 220.81334 221.39598 221.11435 221.23831 223.13968 226.33472 228.53416
 230.47748 232.85162 236.07991 240.07826 244.04688 247.87271 251.53333 254.99847
 258.31583 261.50482 264.57611 267.45587 270.11761 272.50601 274.58319 276.39722
 278.00790 279.54138 281.07422 282.44409 283.63559 284.69397 285.66061 286.54221
 287.33810 288.05182 288.67603 289.48608
 366.78100 356.34736 345.79173 334.67009 323.08546 311.29182 299.17419 286.98955
 274.71392 262.62328 250.64465 239.95801 230.09238 221.20874 213.40311 206.41747
 200.26384 195.21420 191.80856 189.86293 188.91229 188.98866 189.83602 191.15639
 192.89375 195.00112 197.27648 199.64785 202.10521 204.59758 206.69794 208.55231
 210.19067 211.34804 211.58940 211.82976 211.77913 211.49649 211.14186 210.78422
 210.41359 210.13595 209.95632 209.83268 209.77305 210.11641 210.51478 210.91614
 211.72151 212.91187 214.17424 215.96960 217.90996 219.96533 222.07269 224.16806
 226.24042 228.33679 230.44615 232.56452 234.70588 236.89025 239.15861 241.54098
 244.17434 246.43771 248.45207 250.22944 251.65880 252.79416 253.62853 253.95689
 254.00626 253.79262 253.16499 252.12535 250.74372 248.91708 246.83845 244.68381
 242.48718 240.30354 238.13591 235.98727 233.85964 231.73900 229.77736 227.94673
 226.24209 224.72646 223.36882 222.15319 221.04755 220.01992 219.13628 218.28965
 217.54401 216.73638 215.84674 215.22311 214.68547 214.71931 214.79929 216.57196
 219.35387 220.91676 221.44199 221.15878 221.21442 223.01195 226.19794 228.40202
 230.36201 232.79118 236.09814 240.16176 244.15320 247.95975 251.57573 255.00017
 258.28683 261.46667 264.53387 267.38696 270.02127 272.38120 274.42828 276.24542
 277.91202 279.51617 281.05527 282.42361 283.61551 284.67416 285.64087 286.52081
 287.31506 288.02756 288.65085 289.45749
 366.78100 356.34716 345.79132 334.66949 323.08465 311.29081 299.17297 286.98814
 274.71230 262.62146 250.64262 239.95578 230.08995 221.20611 213.40027 206.41443
 200.26060 195.21076 191.80492 189.85908 188.90824 188.98441 189.83157 191.15173
 192.88889 194.99606 197.27122 199.64238 202.09954 204.59170 206.69187 208.54603
 210.18419 211.34135 211.58252 211.82268 211.77184 211.48900 211.13416 210.77633
 210.40549 210.12765 209.94781 209.82398 209.76414 210.10730 210.50546 210.90662
 211.71179 212.90195 214.16411 215.95927 217.89944 219.95460 222.06176 224.15692
 226.22908 228.32525 230.43441 232.55257 234.69373 236.87790 239.14606 241.52822
 244.16138 246.42454 248.43871 250.21587 251.64503 252.78019 253.61436 253.94252
 253.99168 253.77784 253.15000 252.11017 250.72833 248.90149 246.82265 244.66782
 242.47098 240.28714 238.11930 235.97046 233.84263 231.72179 229.75995 227.92911
 226.22428 224.70844 223.35060 222.13476 221.02892 220.00109 219.11725 218.27041
 217.52457 216.71674 215.82690 215.20306 214.66522 214.71280 214.82521 216.57797
 219.37170 220.98085 221.46912 221.18423 221.19331 222.89954 226.06819 228.27571
 230.25616 232.74254 236.12689 240.25220 244.26483 248.05229 251.62437 255.00798
 258.26535 261.43268 264.48993 267.31412 269.92126 272.25247 274.27731 276.10989
 277.83282 279.48584 281.02829 282.39767 283.58817 284.64572 285.61035 286.48831
 287.28210 287.99390 288.61325 289.41739
 366.78100 356.34664 345.79028 334.66792 323.08257 311.28821 299.16985 286.98449
 274.70813 262.61677 250.63742 239.95006 230.08370 221.19934 213.39298 206.40662
 200.25227 195.20191 191.79555 189.84919 188.89783 188.97347 189.82012 191.13976
 192.87640 194.98304 197.25768 199.62832 202.08496 204.57661 206.67625 208.52989
 210.16753 211.32417 211.56481 211.80446 211.75310 211.46974 211.11438 210.75602
 210.38466 210.10631 209.92595 209.80159 209.74123 210.08387 210.48151 210.88215
 211.68680 212.87644 214.13808 215.93272 217.87236 219.92700 222.03365 224.12829
 226.19993 228.29557 230.40421 232.52185 234.66250 236.84614 239.11378 241.49542
 244.12806 246.39070 248.40435 250.18099 251.60963 252.74427 253.57791 253.90555
 253.95419 253.73984 253.11148 252.07112 250.68876 248.86140 246.78204 244.62669
 242.42933 240.24497 238.07661 235.92725 233.79889 231.67754 229.71518 227.88382
 226.17846 224.66210 223.30374 222.08738 220.98103 219.95267 219.06831 218.22095
 217.47459 216.66623 215.77588 215.15152 214.61316 214.68745 214.86299 216.60135
 219.37149 221.00337 221.47832 221.19218 221.17677 222.80582 225.95062 228.16342
 230.16696 232.71143 236.16930 240.35205 244.38371 248.15033 251.67677 255.01891
 258.24551 261.40073 264.45117 267.24731 269.81906 272.11536 274.12131 275.98065
 277.75916 279.44846 280.99374 282.36215 283.55212 284.60654 285.57062 286.44757
 287.23572 287.94492 288.56418 289.36493
 366.78100 356.34587 345.78875 334.66562 323.07950 311.28437 299.16525 286.97912
 274.70200 262.60987 250.62975 239.94162 230.07450 221.18937 213.38225 206.39512
 200.24000 195.18887 191.78175 189.83462 188.88250 188.95737 189.80325 191.12212
 192.85800 194.96387 197.23775 199.60762 202.06350 204.55437 206.65325 208.50612
 210.14299 211.29887 211.53874 211.77762 211.72549 211.44137 211.08524 210.72612
 210.35399 210.07487 209.89374 209.76862 209.70749 210.04937 210.44624 210.84612
 211.64999 212.83887 214.09974 215.89362 217.83249 219.88637 221.99224 224.08612
 226.15699 228.25187 230.35974 232.47662 234.61649 236.79937 239.06624 241.44711
 244.07899 246.34086 248.35374 250.12961 251.55749 252.69136 253.52424 253.85111
 253.89899 253.68386 253.05474 252.01361 250.63049 248.80236 246.72224 244.56611
 242.36799 240.18286 238.01374 235.86361 233.73449 231.61236 229.64924 227.81711
 226.11099 224.59386 223.23474 222.01761 220.91049 219.88136 218.99623 218.14811
 217.40098 216.59186 215.70073 215.07561 214.53648 214.64639 214.90607 216.64294
 219.36346 220.99345 221.47139 221.17931 221.15268 222.71957 225.83775 228.06006
 230.09396 232.70103 236.22928 240.46248 244.51068 248.25551 251.73891 255.03891
 258.23096 261.36987 264.40027 267.16412 269.71149 271.98251 273.98682 275.88260
 277.69958 279.40121 280.94565 282.31409 283.50150 284.55380 285.51657 286.39001
 287.17963 287.88800 288.50485 289.30542
 366.78100 356.34524 345.78748 334.66373 323.07697 311.28121 299.16145 286.97470
 274.69694 262.60418 250.62342 239.93466 230.06691 221.18115 213.37339 206.38563
 200.22988 195.17812 191.77036 189.82260 188.86984 188.94409 189.78933 191.10757
 192.84281 194.94806 197.22130 199.59054 202.04578 204.53602 206.63427 208.48651
 210.12275 211.27799 211.51724 211.75548 211.70272 211.41796 211.06120 210.70145
 210.32869 210.04893 209.86717 209.74141 209.67966 210.02090 210.41714 210.81638
 211.61963 212.80787 214.06811 215.86135 217.79959 219.85284 221.95808 224.05132
 226.12156 228.21581 230.32305 232.43929 234.57853 236.76077 239.02702 241.40726
 244.03850 246.29974 248.31199 250.08723 251.51447 252.64771 253.47995 253.80620
 253.85344 253.63768 253.00792 251.96617 250.58241 248.75365 246.67289 244.51613
 242.31738 240.13162 237.96186 235.81110 233.68135 231.55859 229.59483 227.76207
 226.05531 224.53756 223.17780 221.96004 220.85228 219.82253 218.93677 218.08801
 217.34025 216.53049 215.63874 215.01298 214.47322 214.61560 214.95198 216.69861
 219.35886 220.97556 221.45589 221.14656 221.11029 222.62468 225.71504 227.94733
 230.01700 232.69518 236.29623 240.57819 244.64244 248.37106 251.81494 255.07016
 258.22925 261.34634 264.36038 267.09235 269.58127 271.81357 273.82541 275.76175
 277.63297 279.35089 280.89499 282.26169 283.44730 284.49884 285.45953 286.33356
 287.12549 287.83475 288.45679 289.25906
 366.78100 356.34500 345.78699 334.66299 323.07598 311.27998 299.15998 286.97297
 274.69497 262.60196 250.62096 239.93196 230.06395 221.17795 213.36994 206.38194
 200.22593 195.17393 191.76593 189.81792 188.86492 188.93891 189.78391 191.10191
 192.83690 194.94190 197.21489 199.58389 202.03889 204.52888 206.62688 208.47887
 210.11487 211.26987 211.50886 211.74686 211.69385 211.40885 211.05185 210.69184
 210.31884 210.03883 209.85683 209.73083 209.66882 210.00982 210.40581 210.80481
 211.60780 212.79580 214.05580 215.84879 217.78679 219.83978 221.94478 224.03778
 226.10777 228.20177 230.30876 232.42476 234.56376 236.74575 239.01175 241.39174
 244.02274 246.28374 248.29573 250.07073 251.49772 252.63072 253.46272 253.78871
 253.83571 253.61970 252.98970 251.94769 250.56369 248.73469 246.65368 244.49668
 242.29767 240.11167 237.94167 235.79066 233.66066 231.53765 229.57365 227.74065
 226.03364 224.51564 223.15563 221.93763 220.82963 219.79962 218.91362 218.06461
 217.31661 216.50661 215.61460 214.98860 214.44859 214.60280 214.96712 216.74533
 219.37575 220.99156 221.47711 221.12665 221.05992 222.52266 225.57469 227.80643
 229.91858 232.68015 236.36119 240.68839 244.76393 248.47185 251.87279 255.09242
 258.22070 261.31931 264.31415 267.01865 269.50745 271.72095 273.72870 275.71466
 277.55954 279.27673 280.81750 282.18073 283.36407 284.41162 285.36813 286.24152
 287.03226 287.74203 288.36243 289.14893
 366.78100 356.34479 345.78659 334.66238 323.07518 311.27897 299.15877 286.97156
 274.69336 262.60015 250.61895 239.92974 230.06154 221.17533 213.36713 206.37892
 200.22272 195.17051 191.76231 189.81410 188.86090 188.93469 189.77949 191.09728
 192.83208 194.93687 197.20967 199.57846 202.03326 204.52305 206.62085 208.47264
 210.10844 211.26323 211.50203 211.73982 211.68662 211.40141 211.04421 210.68400
 210.31080 210.03059 209.84839 209.72218 209.65998 210.00077 210.39657 210.79536
 211.59816 212.78595 214.04575 215.83854 217.77634 219.82913 221.93393 224.02672
 226.09652 228.19031 230.29711 232.41290 234.55170 236.73349 238.99929 241.37908
 244.00988 246.27067 248.28247 250.05726 251.48406 252.61685 253.44865 253.77444
 253.82124 253.60503 252.97483 251.93262 250.54842 248.71921 246.63801 244.48080
 242.28160 240.09539 237.92519 235.77398 233.64378 231.52057 229.55637 227.72316
 226.01596 224.49775 223.13755 221.91934 220.81114 219.78093 218.89473 218.04552
 217.29732 216.48711 215.59491 214.96870 214.42850 214.59682 214.99452 216.79491
 219.38499 221.00591 221.49727 221.09955 220.99045 222.40155 225.41911 227.65379
 229.81300 232.66826 236.43184 240.80220 244.89284 248.59059 251.97040 255.15520
 258.24228 261.31512 264.28049 266.94519 269.32593 271.46265 273.62665 275.63062
 277.56778 279.21204 280.71887 282.07187 283.25034 284.29514 285.24850 286.11819
 286.90808 287.61801 288.22638 289.01642
 366.78100 356.34394 345.78489 334.65983 323.07177 311.27472 299.15366 286.96560
 274.68655 262.59249 250.61043 239.92038 230.05132 221.16426 213.35521 206.36615
 200.20909 195.15604 191.74698 189.79792 188.84387 188.91681 189.76075 191.07770
 192.81164 194.91558 197.18753 199.55547 202.00941 204.49836 206.59530 208.44624
 210.08119 211.23513 211.47307 211.71002 211.65596 211.36991 211.01185 210.65079
 210.27674 209.99568 209.81262 209.68557 209.62251 209.96245 210.35740 210.75534
 211.55728 212.74423 214.00317 215.79511 217.73206 219.78400 221.88794 223.97989
 226.04883 228.14177 230.24772 232.36266 234.50060 236.68155 238.94649 241.32543
 243.95538 246.21532 248.22626 250.00021 251.42615 252.55809 253.38904 253.71398
 253.75992 253.54287 252.91181 251.86875 250.48370 248.65364 246.57158 244.41353
 242.21347 240.02641 237.85536 235.70330 233.57224 231.44819 229.48313 227.64907
 225.94102 224.42196 223.06090 221.84185 220.73279 219.70173 218.81468 217.96462
 217.21556 216.40451 215.51145 214.88439 214.34334 214.55101 215.04167 216.85333
 219.35736 221.00671 221.52859 221.08527 220.92714 222.29552 225.25925 227.47408
 229.68451 232.63921 236.49289 240.90259 245.00191 248.69254 252.05103 255.20251
 258.27731 261.33908 264.30750 266.94611 269.34644 271.47168 273.53998 275.54013
 277.43515 279.05264 280.52933 281.84970 283.00598 284.04169 284.99106 285.85812
 286.65341 287.36658 287.97241 288.76968
 366.78100 356.34392 345.78485 334.65977 323.07169 311.27462 299.15354 286.96546
 274.68639 262.59231 250.61023 239.92016 230.05108 221.16400 213.35493 206.36585
 200.20877 195.15570 191.74662 189.79754 188.84346 188.91639 189.76031 191.07723
 192.81116 194.91508 197.18700 199.55493 202.00885 204.49777 206.59470 208.44562
 210.08054 211.23447 211.47239 211.70931 211.65524 211.36916 211.01108 210.65001
 210.27593 209.99485 209.81178 209.68470 209.62162 209.96155 210.35647 210.75439
 211.55632 212.74324 214.00216 215.79409 217.73101 219.78293 221.88685 223.97878
 226.04770 228.14062 230.24655 232.36147 234.49939 236.68032 238.94524 241.32416
 243.95409 246.21401 248.22493 249.99886 251.42478 252.55670 253.38763 253.71255
 253.75847 253.54140 252.91032 251.86724 250.48217 248.65209 246.57001 244.41194
 242.21186 240.02478 237.85371 235.70163 233.57055 231.44648 229.48140 227.64732
 225.93924 224.42017 223.05909 221.84001 220.73094 219.69986 218.81278 217.96271
 217.21363 216.40255 215.50948 214.88240 214.34132 214.56847 215.10512 216.86807
 219.30634 221.02304 221.59328 221.10286 220.87311 222.17525 225.09753 227.31537
 229.56880 232.62462 236.55988 240.99716 245.10812 248.80222 252.13829 255.26950
 258.31183 261.33630 264.27048 266.91000 269.24847 271.36050 273.69342 275.66507
 277.27130 278.93030 280.34134 281.64792 282.80795 283.84949 284.80658 285.67532
 286.45370 287.14462 287.74951 288.54745
 366.78100 356.34505 345.78711 334.66316 323.07621 311.28027 299.16032 286.97337
 274.69543 262.60248 250.62153 239.93259 230.06464 221.17869 213.37075 206.38280
 200.22685 195.17491 191.76696 189.81901 188.86607 188.94012 189.78517 191.10323
 192.83828 194.94333 197.21639 199.58544 202.04049 204.53055 206.62860 208.48065
 210.11671 211.27176 211.51081 211.74887 211.69592 211.41097 211.05403 210.69408
 210.32113 210.04119 209.85924 209.73329 209.67135 210.01240 210.40845 210.80751
 211.61056 212.79861 214.05867 215.85172 217.78977 219.84283 221.94788 224.04093
 226.11099 228.20504 230.31209 232.42814 234.56720 236.74925 239.01530 241.39536
 244.02641 246.28746 248.29952 250.07457 251.50162 252.63468 253.46673 253.79278
 253.83984 253.62389 252.99394 251.95200 250.56805 248.73910 246.65816 244.50121
 242.30226 240.11632 237.94637 235.79542 233.66548 231.54253 229.57858 227.74564
 226.03869 224.52074 223.16080 221.94285 220.83490 219.80496 218.91901 218.07006
 217.32212 216.51217 215.62022 214.99428 214.45433 214.65282 215.12173 216.83817
 219.27014 221.04013 221.66698 221.12901 220.82817 222.09805 224.94441 227.11441
 229.42921 232.58447 236.59755 241.04449 245.15309 248.84769 252.20467 255.34964
 258.37967 261.40829 264.36728 267.12244 269.21545 271.49823 273.63916 275.55115
 277.27786 278.75470 280.08316 281.26987 282.30093 283.31546 284.26834 285.13031
 285.90488 286.59048 287.19748 287.99979
 366.78100 356.34546 345.78792 334.66438 323.07784 311.28230 299.16277 286.97623
 274.69869 262.60615 250.62561 239.93707 230.06953 221.18399 213.37645 206.38891
 200.23337 195.18183 191.77430 189.82676 188.87422 188.94868 189.79414 191.11260
 192.84806 194.95352 197.22698 199.59644 202.05190 204.54237 206.64083 208.49329
 210.12975 211.28521 211.52467 211.76313 211.71059 211.42605 211.06951 210.70997
 210.33743 210.05790 209.87636 209.75082 209.68928 210.03074 210.42720 210.82666
 211.63012 212.81858 214.07904 215.87250 217.81097 219.86443 221.96989 224.06335
 226.13381 228.22827 230.33573 232.45219 234.59165 236.77411 239.04057 241.42103
 244.05250 246.31396 248.32642 250.10188 251.52934 252.66280 253.49526 253.82172
 253.86918 253.65364 253.02410 251.98257 250.59903 248.77049 246.68995 244.53341
 242.33487 240.14933 237.97979 235.82925 233.69971 231.57717 229.61363 227.78110
 226.07456 224.55702 223.19748 221.97994 220.87240 219.84286 218.95732 218.10878
 217.36124 216.55170 215.66016 215.03463 214.49509 214.69391 215.16367 216.83475
 219.23795 221.02504 221.66449 221.10696 220.75394 221.93851 224.77391 226.98964
 229.32437 232.57552 236.66805 241.10583 245.22258 248.93388 252.31920 255.48381
 258.55511 261.59418 264.55011 267.10837 269.02298 271.29126 273.61014 275.66742
 277.40674 278.80685 280.04071 281.14523 282.06900 282.88480 283.76465 284.61578
 285.38086 286.06815 286.67813 287.50467
 366.78100 356.34595 345.78889 334.66584 323.07978 311.28473 299.16568 286.97962
 274.70257 262.61052 250.63046 239.94241 230.07535 221.19030 213.38325 206.39619
 200.24114 195.19009 191.78303 189.83598 188.88392 188.95887 189.80482 191.12376
 192.85971 194.96566 197.23960 199.60955 202.06549 204.55644 206.65539 208.50833
 210.14528 211.30123 211.54117 211.78012 211.72806 211.44401 211.08796 210.72890
 210.35685 210.07780 209.89674 209.77169 209.71063 210.05258 210.44953 210.84947
 211.65342 212.84237 214.10331 215.89726 217.83620 219.89015 221.99610 224.09004
 226.16099 228.25594 230.36388 232.48083 234.62077 236.80372 239.07067 241.45161
 244.08356 246.34551 248.35845 250.13440 251.56234 252.69629 253.52924 253.85618
 253.90413 253.68908 253.06002 252.01897 250.63591 248.80786 246.72781 244.57175
 242.37370 240.18865 238.01959 235.86954 233.74048 231.61843 229.65538 227.82332
 226.11727 224.60022 223.24116 222.02411 220.91705 219.88800 219.00295 218.15489
 217.40784 216.59879 215.70773 215.08268 214.54362 214.73425 215.18462 216.82265
 219.30173 221.13832 221.75812 221.09174 220.61205 221.70380 224.50072 226.65364
 229.09195 232.47626 236.66400 241.09645 245.22093 249.01097 252.49838 255.67725
 258.74368 261.77481 264.73206 267.22394 269.07809 271.24899 273.57980 275.65280
 277.39774 278.68250 279.85318 280.94534 281.82840 282.53818 283.38525 284.20682
 284.86627 285.54904 286.17703 287.03339
 366.78100 356.34706 345.79113 334.66919 323.08425 311.29032 299.17238 286.98744
 274.71151 262.62057 250.64163 239.95470 230.08876 221.20482 213.39888 206.41295
 200.25901 195.20907 191.80314 189.85720 188.90626 188.98233 189.82939 191.14945
 192.88652 194.99358 197.26864 199.63971 202.09677 204.58883 206.68890 208.54296
 210.18102 211.33809 211.57915 211.81921 211.76827 211.48534 211.13040 210.77246
 210.40153 210.12359 209.94365 209.81972 209.75978 210.10284 210.50091 210.90197
 211.70703 212.89710 214.15916 215.95422 217.89429 219.94935 222.05641 224.15148
 226.22354 228.31960 230.42867 232.54673 234.68779 236.87185 239.13992 241.52198
 244.15504 246.41811 248.43217 250.20923 251.63830 252.77336 253.60742 253.93549
 253.98455 253.77061 253.14268 252.10274 250.72080 248.89387 246.81493 244.65999
 242.46306 240.27912 238.11118 235.96224 233.83431 231.71337 229.75143 227.92050
 226.21556 224.69962 223.34169 222.12575 221.01981 219.99188 219.10794 218.26100
 217.51507 216.70713 215.81719 215.19326 214.65532 214.82620 215.22995 216.66145
 219.26421 221.28249 221.99010 221.20406 220.48534 221.42293 224.24568 226.42085
 228.82170 232.25305 236.56520 241.00455 245.25082 249.08937 252.55313 255.71660
 258.75241 261.74774 264.62329 267.16058 269.27258 271.41757 273.57748 275.56732
 277.18140 278.45410 279.61975 280.66510 281.49673 282.28729 283.20532 284.07117
 284.87704 285.64661 286.31891 287.17566
 366.78100 356.34403 345.78505 334.66008 323.07210 311.27513 299.15415 286.96618
 274.68720 262.59323 250.61125 239.92128 230.05230 221.16533 213.35635 206.36738
 200.21040 195.15743 191.74845 189.79948 188.84550 188.91853 189.76255 191.07958
 192.81360 194.91763 197.18965 199.55768 202.01170 204.50073 206.59775 208.44878
 210.08380 211.23783 211.47585 211.71288 211.65890 211.37293 211.01495 210.65398
 210.28000 209.99903 209.81605 209.68908 209.62610 209.96613 210.36115 210.75918
 211.56120 212.74823 214.00725 215.79928 217.73630 219.78833 221.89235 223.98438
 226.05340 228.14643 230.25245 232.36748 234.50550 236.68653 238.95155 241.33058
 243.96060 246.22063 248.23165 250.00568 251.43170 252.56373 253.39475 253.71978
 253.76580 253.54883 252.91785 251.87488 250.48990 248.65993 246.57795 244.41998
 242.22000 240.03303 237.86205 235.71008 233.57910 231.45513 229.49015 227.65618
 225.94820 224.42923 223.06825 221.84928 220.74030 219.70933 218.82235 217.97238
 217.22340 216.41243 215.51945 214.89248 214.35150 214.71445 215.58923 216.63300
 218.74699 220.89682 221.94969 221.47522 220.79970 221.51706 224.11411 226.56898
 228.83395 232.30469 236.53809 240.93576 245.19810 249.07457 252.54405 255.72890
 258.77200 261.74838 264.63470 267.15466 269.41132 271.57855 273.66058 275.48642
 276.98975 278.32877 279.49438 280.48013 281.51712 282.59894 283.63803 284.57941
 285.42603 286.17999 286.83859 287.67795
 366.78100 356.33941 345.77583 334.64624 323.05365 311.25207 299.12648 286.93389
 274.65031 262.55172 250.56514 239.87055 229.99696 221.10538 213.29179 206.29820
 200.13662 195.07903 191.66544 189.71186 188.75327 188.82168 189.66110 190.97351
 192.70292 194.80234 197.06975 199.43316 201.88258 204.36699 206.45941 208.30582
 209.93623 211.08565 211.31906 211.55147 211.49289 211.20230 210.83971 210.47413
 210.09554 209.80995 209.62237 209.49078 209.42319 209.75861 210.14902 210.54243
 211.33985 212.52226 213.77668 215.56409 217.49650 219.54392 221.64333 223.73074
 225.79516 227.88357 229.98498 232.09540 234.22881 236.40522 238.66564 241.04005
 243.66546 245.92088 247.92729 249.69670 251.11812 252.24553 253.07195 253.39236
 253.43377 253.21219 252.57660 251.52901 250.13943 248.30484 246.21825 244.05567
 241.85108 239.65949 237.48391 235.32732 233.19173 231.06315 229.09356 227.25497
 225.54239 224.01880 222.65322 221.42963 220.31604 219.28046 218.38887 217.53428
 216.78070 215.96511 215.06752 214.43594 213.89035 214.50885 215.93867 216.69199
 218.27994 220.55418 221.93146 221.74721 221.16859 221.74649 224.20029 226.66263
 228.89177 232.36880 236.58418 240.97336 245.20618 249.05070 252.50558 255.73405
 258.82639 261.79950 264.63818 267.21686 269.51627 271.65717 273.72821 275.50598
 277.07202 278.42868 279.55099 280.59305 281.78448 282.90179 283.92114 284.84464
 285.67520 286.41483 287.06094 287.88434
 366.78100 356.34007 345.77713 334.64820 323.05627 311.25533 299.13040 286.93847
 274.65553 262.55760 250.57167 239.87773 230.00480 221.11387 213.30093 206.30800
 200.14707 195.09013 191.67720 189.72427 188.76633 188.83540 189.67547 190.98853
 192.71860 194.81867 197.08674 199.45080 201.90087 204.38594 206.47900 208.32607
 209.95714 211.10720 211.34127 211.57434 211.51640 211.22647 210.86454 210.49960
 210.12167 209.83674 209.64980 209.51887 209.45194 209.78800 210.17907 210.57314
 211.37120 212.55427 213.80934 215.59740 217.53047 219.57854 221.67860 223.76667
 225.83174 227.92080 230.02287 232.13394 234.26800 236.44507 238.70614 241.08120
 243.70727 245.96334 247.97040 249.74047 251.16254 252.29060 253.11767 253.43874
 253.48080 253.25987 252.62494 251.57800 250.18907 248.35514 246.26921 244.10727
 241.90334 239.71241 237.53747 235.38154 233.24661 231.11867 229.14974 227.31181
 225.59987 224.07694 222.71201 221.48907 220.37614 219.34121 218.45027 217.59634
 216.84341 216.02847 215.13154 214.50061 213.95567 214.56436 215.98360 216.80759
 218.08795 220.28387 221.83409 221.76907 221.17299 221.70370 224.17516 226.64255
 228.90645 232.42415 236.67633 241.02905 245.15195 248.92363 252.40051 255.68594
 258.77972 261.74341 264.62292 267.22400 269.55228 271.74478 273.84860 275.70728
 277.29153 278.62695 279.77869 280.78778 281.95059 283.05899 284.07431 284.99414
 285.82141 286.55811 287.20166 288.02182
 366.78100 356.34404 345.78508 334.66012 323.07216 311.27520 299.15424 286.96628
 274.68732 262.59337 250.61141 239.92145 230.05249 221.16553 213.35657 206.36761
 200.21065 195.15769 191.74873 189.79977 188.84581 188.91885 189.76289 191.07993
 192.81397 194.91801 197.19006 199.55810 202.01214 204.50118 206.59822 208.44926
 210.08430 211.23834 211.47638 211.71342 211.65946 211.37350 211.01554 210.65458
 210.28062 209.99966 209.81670 209.68974 209.62679 209.96683 210.36187 210.75991
 211.56195 212.74899 214.00803 215.80007 217.73711 219.78915 221.89319 223.98523
 226.05427 228.14731 230.25335 232.36839 234.50643 236.68748 238.95252 241.33156
 243.96160 246.22164 248.23268 250.00672 251.43276 252.56480 253.39584 253.72088
 253.76692 253.54996 252.91900 251.87604 250.49108 248.66112 246.57917 244.42121
 242.22125 240.03429 237.86333 235.71137 233.58041 231.45645 229.49149 227.65753
 225.94957 224.43061 223.06965 221.85069 220.74173 219.71077 218.82381 217.97385
 217.22490 216.41394 215.52098 214.89402 214.35306 214.79187 215.85048 216.95461
 218.06433 219.99315 221.68509 221.73430 221.11024 221.60558 224.13451 226.62320
 228.94647 232.50342 236.79138 241.11124 245.13358 248.85057 252.33844 255.62199
 258.69019 261.70395 264.61636 267.19864 269.54919 271.79163 273.91760 275.82819
 277.42258 278.76733 279.93869 280.96030 282.05847 283.14764 284.16660 285.08969
 285.91989 286.65921 287.30505 288.12811
 366.78100 356.34549 345.78798 334.66447 323.07795 311.28244 299.16293 286.97642
 274.69891 262.60640 250.62588 239.93737 230.06986 221.18435 213.37684 206.38933
 200.23382 195.18230 191.77479 189.82728 188.87477 188.94926 189.79475 191.11324
 192.84872 194.95421 197.22770 199.59719 202.05268 204.54317 206.64165 208.49414
 210.13063 211.28612 211.52561 211.76410 211.71159 211.42707 211.07056 210.71105
 210.33854 210.05903 209.87752 209.75200 209.69049 210.03198 210.42847 210.82796
 211.63145 212.81994 214.08042 215.87391 217.81240 219.86589 221.97138 224.06487
 226.13536 228.22984 230.33733 232.45382 234.59331 236.77580 239.04229 241.42277
 244.05426 246.31575 248.32824 250.10373 251.53122 252.66471 253.49719 253.82368
 253.87117 253.65566 253.02615 251.98464 250.60112 248.77261 246.69210 244.53559
 242.33708 240.15157 237.98206 235.83154 233.70203 231.57952 229.61601 227.78350
 226.07699 224.55948 223.19996 221.98245 220.87494 219.84543 218.95992 218.11141
 217.36389 216.55438 215.66287 215.03736 214.49785 214.89561 215.86206 216.98737
 218.07895 219.73595 221.46191 221.65836 221.09775 221.55322 224.11920 226.65076
 229.01923 232.60855 236.91545 241.20737 245.16283 248.85948 252.35921 255.59758
 258.64444 261.68256 264.57379 267.14893 269.52548 271.77185 273.88223 275.80225
 277.42184 278.80396 279.98459 281.02365 282.12570 283.19949 284.21005 285.12552
 285.94888 286.68213 287.32263 288.13892
 366.78100 356.34467 345.78634 334.66201 323.07468 311.27835 299.15802 286.97069
 274.69236 262.59902 250.61769 239.92836 230.06003 221.17370 213.36537 206.37704
 200.22071 195.16838 191.76005 189.81172 188.85839 188.93206 189.77673 191.09440
 192.82907 194.93373 197.20640 199.57507 202.02974 204.51941 206.61708 208.46875
 210.10442 211.25909 211.49776 211.73543 211.68210 211.39677 211.03944 210.67911
 210.30578 210.02545 209.84311 209.71678 209.65445 209.99512 210.39079 210.78946
 211.59213 212.77980 214.03947 215.83214 217.76981 219.82248 221.92715 224.01982
 226.08949 228.18316 230.28982 232.40549 234.54416 236.72583 238.99150 241.37117
 244.00184 246.26251 248.27418 250.04885 251.47552 252.60819 253.43986 253.76553
 253.81220 253.59587 252.96554 251.92320 250.53887 248.70954 246.62821 244.47088
 242.27155 240.08522 237.91489 235.76356 233.63323 231.50990 229.54557 227.71224
 226.00491 224.48658 223.12625 221.90791 220.79958 219.76925 218.88292 218.03359
 217.28526 216.47493 215.58260 214.95627 214.41594 214.89528 216.02989 216.92563
 218.09009 219.68077 221.30228 221.57144 221.12408 221.58127 224.03441 226.57611
 229.00790 232.66339 236.98517 241.23199 245.15399 248.94939 252.54836 255.79633
 258.82910 261.82202 264.63019 267.16379 269.49371 271.68469 273.75464 275.63116
 277.27374 278.65378 279.80521 281.04691 282.23343 283.29483 284.26321 285.14050
 285.92953 286.63214 287.24594 288.02817
 366.78100 356.34330 345.78359 334.65789 323.06919 311.27148 299.14978 286.96108
 274.68137 262.58667 250.60397 239.91326 230.04356 221.15586 213.34615 206.35645
 200.19875 195.14504 191.73534 189.78564 188.83093 188.90323 189.74653 191.06282
 192.79612 194.89942 197.17071 199.53801 201.99131 204.47960 206.57590 208.42620
 210.06049 211.21379 211.45109 211.68738 211.63268 211.34598 210.98728 210.62557
 210.25087 209.96917 209.78546 209.65776 209.59406 209.93335 210.32765 210.72495
 211.52624 212.71254 213.97084 215.76213 217.69843 219.74973 221.85302 223.94432
 226.01262 228.10491 230.21021 232.32451 234.46180 236.64210 238.90640 241.28469
 243.91399 246.17329 248.18358 249.95688 251.38218 252.51347 253.34377 253.66807
 253.71336 253.49566 252.86396 251.82025 250.43455 248.60385 246.52114 244.36244
 242.16174 239.97403 237.80233 235.64963 233.51792 231.39322 229.42752 227.59281
 225.88411 224.36441 223.00270 221.78300 220.67330 219.64159 218.75389 217.90319
 217.15348 216.34178 215.44808 214.82037 214.27867 214.86707 216.20262 216.90414
 218.00885 219.66765 221.28952 221.59505 221.12045 221.63606 224.03575 226.38385
 228.86902 232.64624 237.05312 241.25227 245.15269 248.98470 252.67230 256.05692
 259.08725 261.99268 264.74506 267.23401 269.45862 271.54718 273.58929 275.42813
 277.03400 278.41583 279.99066 281.46713 282.74493 283.87543 284.90683 285.84122
 286.68161 287.42996 288.08374 288.91687
 366.78100 356.34247 345.78195 334.65542 323.06590 311.26737 299.14485 286.95532
 274.67480 262.57927 250.59575 239.90422 230.03369 221.14517 213.33464 206.34412
 200.18559 195.13107 191.72054 189.77002 188.81449 188.88597 189.72844 191.04392
 192.77639 194.87886 197.14934 199.51581 201.96829 204.45576 206.55124 208.40071
 210.03419 211.18666 211.42314 211.65861 211.60308 211.31556 210.95603 210.59351
 210.21798 209.93546 209.75093 209.62241 209.55788 209.89636 210.28983 210.68630
 211.48678 212.67225 213.92973 215.72020 217.65568 219.70615 221.80863 223.89910
 225.96658 228.05805 230.16253 232.27600 234.41247 236.59195 238.85542 241.23290
 243.86137 246.11985 248.12932 249.90180 251.32627 252.45675 253.28622 253.60969
 253.65417 253.43564 252.80312 251.75859 250.37207 248.54054 246.45702 244.29749
 242.09597 239.90744 237.73491 235.58139 233.44886 231.32334 229.35681 227.52129
 225.81176 224.29124 222.92871 221.70819 220.59766 219.56513 218.67661 217.82508
 217.07456 216.26203 215.36751 214.73898 214.19646 214.85835 216.31851 216.93816
 217.88104 219.56033 221.24167 221.57996 221.01747 221.59477 224.12190 226.35997
 228.84691 232.67697 237.10881 241.28941 245.21716 249.06996 252.83023 256.21304
 259.17657 262.07742 264.78915 267.22269 269.40588 271.50632 273.55786 275.39258
 276.99887 278.88513 280.60794 282.12067 283.42981 284.58807 285.64481 286.60214
 287.46317 288.22989 288.89969 289.75330
 366.78100 356.34238 345.78176 334.65514 323.06552 311.26691 299.14429 286.95467
 274.67405 262.57843 250.59481 239.90319 230.03257 221.14395 213.33333 206.34272
 200.18410 195.12948 191.71886 189.76824 188.81262 188.88400 189.72638 191.04176
 192.77414 194.87653 197.14691 199.51329 201.96567 204.45305 206.54843 208.39781
 210.03119 211.18357 211.41996 211.65534 211.59972 211.31210 210.95248 210.58986
 210.21424 209.93162 209.74700 209.61838 209.55377 209.89215 210.28553 210.68191
 211.48229 212.66767 213.92505 215.71543 217.65081 219.70119 221.80358 223.89396
 225.96134 228.05272 230.15710 232.27048 234.40686 236.58624 238.84962 241.22701
 243.85539 246.11377 248.12315 249.89553 251.31991 252.45029 253.27967 253.60305
 253.64743 253.42882 252.79620 251.75158 250.36496 248.53334 246.44972 244.29010
 242.08848 239.89986 237.72724 235.57363 233.44101 231.31539 229.34877 227.51315
 225.80353 224.28291 222.92029 221.69967 220.58906 219.55644 218.66782 217.81620
 217.06558 216.25296 215.35834 214.72972 214.18710 214.87836 216.38977 216.95332
 217.81148 219.44601 221.01476 221.30658 220.86375 221.58130 224.16060 226.41360
 228.92242 232.78641 237.24854 241.42755 245.35454 249.21977 252.95210 256.29703
 259.23700 262.10110 264.78015 267.22549 269.48367 271.65665 273.71890 275.51328
 277.31259 279.25238 280.98117 282.49915 283.81284 284.97510 286.03552 286.99615
 287.86017 288.62955 289.30170 290.15823
 366.78100 356.34134 345.77968 334.65202 323.06136 311.26170 299.13803 286.94737
 274.66571 262.56905 250.58439 239.89173 230.02007 221.13041 213.31875 206.32709
 200.16743 195.11177 191.70010 189.74844 188.79178 188.86212 189.70346 191.01780
 192.74914 194.85048 197.11982 199.48516 201.93650 204.42284 206.51717 208.36551
 209.99785 211.14919 211.38453 211.61887 211.56221 211.27355 210.91289 210.54923
 210.17257 209.88891 209.70324 209.57358 209.50792 209.84526 210.23760 210.63294
 211.43228 212.61662 213.87296 215.66230 217.59664 219.64598 221.74731 223.83665
 225.90299 227.99333 230.09667 232.20901 234.34435 236.52269 238.78503 241.16137
 243.78871 246.04605 248.05438 249.82572 251.24906 252.37840 253.20674 253.52908
 253.57242 253.35276 252.71910 251.67344 250.28578 248.45312 246.36845 244.20779
 242.00513 239.81547 237.64181 235.48715 233.35349 231.22683 229.25917 227.42251
 225.71185 224.19019 222.82652 221.60486 220.49320 219.45954 218.56988 217.71722
 216.96556 216.15190 215.25624 214.62658 214.08292 214.84920 216.49869 216.93066
 217.66327 219.47493 221.07091 221.11839 220.55527 221.38222 224.02730 226.38004
 228.97749 232.88640 237.36580 241.54401 245.46219 249.32909 253.04544 256.37665
 259.34952 262.16748 264.83203 267.28210 269.55826 271.73367 273.77798 275.52292
 277.46899 279.41028 281.12408 282.62894 283.93124 285.08347 286.13470 287.08704
 287.94357 288.70630 289.37262 290.22177
 366.78100 356.34259 345.78218 334.65576 323.06635 311.26794 299.14553 286.95612
 274.67571 262.58029 250.59688 239.90547 230.03506 221.14665 213.33624 206.34582
 200.18741 195.13300 191.72259 189.77218 188.81676 188.88835 189.73094 191.04653
 192.77912 194.88171 197.15229 199.51888 201.97147 204.45906 206.55465 208.40424
 210.03782 211.19041 211.42700 211.66259 211.60718 211.31977 210.96035 210.59794
 210.22253 209.94012 209.75571 209.62729 209.56288 209.90147 210.29506 210.69165
 211.49224 212.67782 213.93541 215.72600 217.66159 219.71218 221.81477 223.90535
 225.97294 228.06453 230.16912 232.28271 234.41929 236.59888 238.86247 241.24006
 243.86865 246.12724 248.13682 249.90941 251.33400 252.46459 253.29418 253.61777
 253.66235 253.44394 252.81153 251.76712 250.38071 248.54930 246.46588 244.30647
 242.10506 239.91665 237.74424 235.59082 233.45841 231.33300 229.36659 227.53118
 225.82177 224.30135 222.93894 221.71853 220.60812 219.57571 218.68730 217.83588
 217.08547 216.27306 215.37865 214.75024 214.20782 214.92189 216.49910 217.01199
 217.49692 219.25822 221.11375 221.14857 220.43375 221.25769 223.90741 226.32520
 228.98688 232.95255 237.44604 241.61349 245.52939 249.41461 253.15463 256.49832
 259.49536 262.29855 264.95959 267.39828 269.62064 271.72137 273.67175 275.58893
 277.61432 279.54364 281.23425 282.71875 284.00348 285.14011 286.17709 287.11658
 287.96149 288.71393 289.37122 290.20886
 366.78100 356.34550 345.78799 334.66449 323.07799 311.28249 299.16298 286.97648
 274.69898 262.60648 250.62597 239.93747 230.06997 221.18447 213.37696 206.38946
 200.23396 195.18246 191.77495 189.82745 188.87495 188.94945 189.79494 191.11344
 192.84894 194.95444 197.22793 199.59743 202.05293 204.54343 206.64192 208.49442
 210.13092 211.28642 211.52591 211.76441 211.71191 211.42741 211.07090 210.71140
 210.33890 210.05940 209.87789 209.75239 209.69089 210.03239 210.42888 210.82838
 211.63188 212.82038 214.08087 215.87437 217.81287 219.86637 221.97186 224.06536
 226.13586 228.23036 230.33785 232.45435 234.59385 236.77635 239.04284 241.42334
 244.05484 246.31634 248.32883 250.10433 251.53183 252.66533 253.49782 253.82432
 253.87182 253.65632 253.02681 251.98531 250.60181 248.77331 246.69280 244.53630
 242.33780 240.15230 237.98279 235.83229 233.70279 231.58029 229.61678 227.78428
 226.07778 224.56028 223.20077 221.98327 220.87577 219.84627 218.96076 218.11226
 217.36476 216.55526 215.66375 215.03825 214.49875 215.07578 216.40871 217.11722
 217.57646 218.90388 220.62260 220.86066 220.45161 221.35606 223.84315 226.35565
 228.99117 233.01740 237.58342 241.74640 245.63684 249.50468 253.25960 256.63550
 259.64478 262.43436 265.07681 267.51175 269.71490 271.77267 273.73172 275.59619
 277.48105 279.23792 280.87070 282.30438 283.54514 284.64288 285.64441 286.55173
 287.36777 288.09442 288.72925 289.53824
 366.78100 356.34441 345.78582 334.66123 323.07364 311.27705 299.15646 286.96887
 274.69028 262.59669 250.61510 239.92550 230.05691 221.17032 213.36173 206.37314
 200.21655 195.16396 191.75537 189.80678 188.85319 188.92660 189.77101 191.08842
 192.82283 194.92724 197.19965 199.56806 202.02247 204.51188 206.60929 208.46070
 210.09611 211.25051 211.48892 211.72633 211.67274 211.38715 211.02956 210.66897
 210.29538 210.01479 209.83220 209.70561 209.64302 209.98343 210.37884 210.77725
 211.57966 212.76707 214.02648 215.81889 217.75630 219.80871 221.91311 224.00552
 226.07493 228.16834 230.27475 232.39016 234.52857 236.70998 238.97539 241.35480
 243.98521 246.24562 248.25703 250.03144 251.45785 252.59026 253.42167 253.74708
 253.79349 253.57690 252.94631 251.90372 250.51912 248.68953 246.60794 244.45035
 242.25076 240.06417 237.89358 235.74199 233.61140 231.48781 229.52322 227.68963
 225.98204 224.46345 223.10286 221.88427 220.77568 219.74509 218.85850 218.00891
 217.26032 216.44973 215.55713 214.93054 214.38995 215.04500 216.50406 217.05119
 217.62579 218.93851 220.37047 220.51866 220.20192 221.19678 223.75130 226.36781
 229.10164 233.14009 237.68121 241.85567 245.76419 249.64633 253.41258 256.78726
 259.77457 262.54114 265.13788 267.53085 269.70853 271.75342 273.73730 275.66159
 277.37817 279.18582 280.89767 282.40079 283.70160 284.85251 285.90253 286.85376
 287.70932 288.47116 289.13672 289.98486
 366.78100 356.34305 345.78310 334.65715 323.06820 311.27026 299.14831 286.95936
 274.67941 262.58446 250.60151 239.91056 230.04061 221.15267 213.34272 206.35277
 200.19482 195.14087 191.73092 189.78097 188.82602 188.89808 189.74113 191.05718
 192.79023 194.89328 197.16433 199.53138 201.98443 204.47248 206.56854 208.41859
 210.05264 211.20569 211.44274 211.67879 211.62384 211.33689 210.97795 210.61600
 210.24105 209.95910 209.77515 209.64720 209.58325 209.92230 210.31636 210.71341
 211.51446 212.70051 213.95856 215.74961 217.68566 219.73671 221.83976 223.93082
 225.99887 228.09092 230.19597 232.31002 234.44707 236.62712 238.89117 241.26923
 243.89828 246.15733 248.16738 249.94043 251.36548 252.49653 253.32658 253.65064
 253.69569 253.47774 252.84579 251.80184 250.41589 248.58494 246.50199 244.34304
 242.14210 239.95415 237.78220 235.62925 233.49730 231.37235 229.40640 227.57145
 225.86251 224.34256 222.98061 221.76066 220.65071 219.61876 218.73081 217.87986
 217.12992 216.31797 215.42402 214.79607 214.25412 214.99261 216.59550 217.00735
 217.49055 218.98372 220.44508 220.44417 219.99962 220.96703 223.62730 226.34360
 229.20744 233.24701 237.75572 241.95461 245.88910 249.81342 253.61758 257.00385
 260.00812 262.77625 265.33493 267.65262 269.75159 271.75562 273.72986 275.59860
 277.40427 279.32452 281.02393 282.51611 283.80750 284.95001 285.99240 286.93674
 287.78604 288.54239 289.20309 290.04507
 366.78100 356.34550 345.78800 334.66450 323.07800 311.28250 299.16300 286.97650
 274.69900 262.60650 250.62600 239.93750 230.07000 221.18450 213.37700 206.38950
 200.23400 195.18250 191.77500 189.82750 188.87500 188.94950 189.79500 191.11349
 192.84899 194.95449 197.22799 199.59749 202.05299 204.54349 206.64199 208.49449
 210.13099 211.28649 211.52599 211.76449 211.71199 211.42749 211.07099 210.71149
 210.33899 210.05949 209.87799 209.75249 209.69099 210.03249 210.42899 210.82849
 211.63199 212.82049 214.08099 215.87449 217.81299 219.86649 221.97199 224.06549
 226.13599 228.23049 230.33799 232.45449 234.59399 236.77649 239.04299 241.42349
 244.05499 246.31649 248.32899 250.10449 251.53198 252.66548 253.49798 253.82448
 253.87198 253.65648 253.02698 251.98548 250.60198 248.77348 246.69298 244.53648
 242.33798 240.15248 237.98298 235.83248 233.70298 231.58048 229.61698 227.78448
 226.07798 224.56048 223.20098 221.98348 220.87598 219.84648 218.96098 218.11248
 217.36498 216.55548 215.66398 215.03848 214.49898 215.10968 216.50014 217.09975
 217.44972 218.74547 220.24544 220.34055 220.00836 221.01617 223.52640 226.29773
 229.18011 233.28523 237.82809 242.01677 245.95108 249.87775 253.66444 257.07089
 260.15118 262.99606 265.63239 267.98395 270.08398 272.07126 274.00305 275.82678
 277.49084 279.32611 281.02527 282.51724 283.80841 284.95078 285.99301 286.93719
 287.78641 288.54260 289.20322 290.04510
 366.78100 356.34636 345.78973 334.66709 323.08145 311.28681 299.16818 286.98254
 274.70590 262.61426 250.63463 239.94699 230.08035 221.19571 213.38908 206.40244
 200.24780 195.19716 191.79053 189.84389 188.89225 188.96761 189.81398 191.13334
 192.86970 194.97606 197.25043 199.62079 202.07715 204.56851 206.66788 208.52124
 210.15860 211.31496 211.55533 211.79469 211.74305 211.45941 211.10378 210.74514
 210.37350 210.09486 209.91423 209.78959 209.72895 210.07131 210.46868 210.86904
 211.67340 212.86276 214.12413 215.91849 217.85785 219.91221 222.01858 224.11294
 226.18430 228.27966 230.38803 232.50539 234.64575 236.82911 239.09648 241.47784
 244.11020 246.37256 248.38593 250.16229 251.59065 252.72501 253.55838 253.88574
 253.93410 253.71946 253.09083 252.05019 250.66755 248.83991 246.76028 244.60464
 242.40700 240.22236 238.05373 235.90409 233.77545 231.65381 229.69118 227.85954
 226.15390 224.63726 223.27863 222.06199 220.95535 219.92671 219.04208 218.19444
 217.44780 216.63916 215.74853 215.12389 214.58525 215.14951 216.45702 217.14066
 217.51694 218.50572 219.81245 220.09024 220.00029 221.06187 223.47058 226.29192
 229.25552 233.35516 237.88344 242.08847 246.02670 249.94661 253.71239 257.06522
 260.10080 262.96738 265.66458 268.08923 270.27444 272.32022 274.28448 276.09286
 277.68512 279.18710 280.64664 281.97101 283.11884 284.13434 285.06085 285.90024
 286.65512 287.32739 287.91464 288.66306
 366.78100 356.34447 345.78594 334.66141 323.07389 311.27736 299.15683 286.96930
 274.69077 262.59724 250.61571 239.92618 230.05766 221.17113 213.36260 206.37407
 200.21754 195.16501 191.75648 189.80796 188.85443 188.92790 189.77237 191.08984
 192.82431 194.92878 197.20125 199.56973 202.02420 204.51367 206.61114 208.46261
 210.09808 211.25255 211.49103 211.72850 211.67497 211.38944 211.03191 210.67138
 210.29785 210.01732 209.83480 209.70827 209.64574 209.98621 210.38168 210.78015
 211.58262 212.77010 214.02957 215.82204 217.75951 219.81198 221.91645 224.00892
 226.07839 228.17187 230.27834 232.39381 234.53228 236.71375 238.97922 241.35869
 243.98917 246.24964 248.26111 250.03558 251.46205 252.59452 253.42599 253.75146
 253.79794 253.58141 252.95088 251.90835 250.52382 248.69429 246.61276 244.45524
 242.25571 240.06918 237.89865 235.74712 233.61659 231.49306 229.52853 227.69501
 225.98748 224.46895 223.10842 221.88989 220.78136 219.75083 218.86431 218.01478
 217.26625 216.45572 215.56319 214.93666 214.39613 215.05290 216.55550 217.10590
 217.45944 218.40015 219.58459 219.86641 219.85297 220.94260 223.42084 226.22565
 229.32088 233.42282 237.93713 242.17308 246.15959 250.10338 253.90892 257.25052
 260.20258 262.98679 265.65314 268.07703 270.27869 272.36041 274.35550 276.19672
 277.79462 279.16708 280.44525 281.50101 282.66916 283.72610 284.69043 285.56403
 286.34970 287.04938 287.66061 288.43954
 366.78100 356.34376 345.78453 334.65929 323.07105 311.27382 299.15258 286.96434
 274.68511 262.59087 250.60863 239.91840 230.04916 221.16193 213.35269 206.36345
 200.20622 195.15298 191.74374 189.79451 188.84027 188.91303 189.75680 191.07356
 192.80732 194.91109 197.18285 199.55061 202.00438 204.49314 206.58990 208.44067
 210.07543 211.22919 211.46696 211.70372 211.64949 211.36325 211.00501 210.64378
 210.26954 209.98830 209.80507 209.67783 209.61459 209.95436 210.34912 210.74688
 211.54865 212.73541 213.99417 215.78594 217.72270 219.77446 221.87823 223.96999
 226.03875 228.13152 230.23728 232.35205 234.48981 236.67057 238.93534 241.31410
 243.94386 246.20363 248.21439 249.98815 251.41392 252.54568 253.37644 253.70121
 253.74697 253.52973 252.89850 251.85526 250.47002 248.63979 246.55755 244.39931
 242.19908 240.01184 237.84061 235.68837 233.55713 231.43290 229.46766 227.63342
 225.92519 224.40595 223.04471 221.82548 220.71624 219.68500 218.79777 217.94753
 217.19829 216.38706 215.49382 214.86658 214.32535 215.01331 216.59001 217.13654
 217.39626 218.32343 219.45837 219.68248 219.68538 220.79431 223.30507 226.13429
 229.34526 233.50587 238.03616 242.28772 246.30667 250.26953 254.08629 257.47629
 260.40973 263.12979 265.74582 268.12842 270.30893 272.38339 274.39935 276.26062
 277.84818 279.17508 280.29968 281.19678 282.36002 283.43185 284.40976 285.29565
 286.09241 286.80194 287.42175 288.21167
 366.78100 356.34515 345.78730 334.66346 323.07661 311.28076 299.16091 286.97406
 274.69622 262.60337 250.62252 239.93367 230.06582 221.17998 213.37213 206.38428
 200.22843 195.17658 191.76874 189.82089 188.86804 188.94219 189.78734 191.10550
 192.84065 194.94580 197.21895 199.58810 202.04326 204.53341 206.63156 208.48371
 210.11986 211.27502 211.51417 211.75232 211.69947 211.41463 211.05778 210.69793
 210.32508 210.04523 209.86339 209.73754 209.67569 210.01684 210.41299 210.81215
 211.61530 212.80345 214.06360 215.85675 217.79491 219.84806 221.95321 224.04636
 226.11651 228.21067 230.31782 232.43397 234.57312 236.75527 239.02143 241.40158
 244.03273 246.29388 248.30603 250.08119 251.50834 252.64149 253.47364 253.79979
 253.84695 253.63110 253.00125 251.95940 250.57555 248.74671 246.66586 244.50901
 242.31016 240.12431 237.95447 235.80362 233.67377 231.55092 229.58707 227.75423
 226.04738 224.52953 223.16968 221.95183 220.84399 219.81414 218.92829 218.07944
 217.33159 216.52175 215.62990 215.00405 214.46420 215.07932 216.50699 217.20586
 217.49382 218.29196 219.29166 219.45422 219.48883 220.64066 223.18033 226.08174
 229.36279 233.60439 238.15308 242.40810 246.43454 250.41365 254.26317 257.68661
 260.62967 263.31036 265.87701 268.21603 270.35876 272.42410 274.44632 276.32083
 277.90192 279.15375 280.10281 281.02795 282.25598 283.35904 284.36542 285.27713
 286.09711 286.82730 287.46518 288.27808
 366.78100 356.34660 345.79019 334.66779 323.08239 311.28799 299.16958 286.98418
 274.70778 262.61637 250.63697 239.94957 230.08317 221.19876 213.39236 206.40596
 200.25156 195.20115 191.79475 189.84835 188.89694 188.97254 189.81914 191.13874
 192.87533 194.98193 197.25653 199.62712 202.08372 204.57532 206.67492 208.52851
 210.16611 211.32271 211.56330 211.80290 211.75150 211.46810 211.11269 210.75429
 210.38289 210.10448 209.92408 209.79968 209.73928 210.08187 210.47947 210.88007
 211.68467 212.87426 214.13586 215.93046 217.87005 219.92465 222.03125 224.12585
 226.19744 228.29304 230.40164 232.51923 234.65983 236.84343 239.11103 241.49262
 244.12522 246.38782 248.40141 250.17801 251.60661 252.74121 253.57480 253.90240
 253.95100 253.73659 253.10819 252.06779 250.68539 248.85798 246.77858 244.62318
 242.42578 240.24137 238.07297 235.92357 233.79516 231.67376 229.71136 227.87996
 226.17455 224.65815 223.29975 222.08334 220.97694 219.94854 219.06414 218.21673
 217.47033 216.66193 215.77152 215.14712 214.60872 215.15546 216.43521 217.20647
 217.63882 218.43382 219.28569 219.28912 219.24474 220.41460 222.95999 226.00830
 229.36189 233.70157 238.25609 242.50885 246.54068 250.54843 254.42935 257.89764
 260.88751 263.57068 266.06366 268.31879 270.42023 272.48367 274.50171 276.36517
 277.90417 279.01523 279.92947 281.35541 282.63040 283.75845 284.78760 285.71997
 286.55850 287.30524 287.95758 288.78888
 366.78100 356.34717 345.79134 334.66951 323.08468 311.29085 299.17302 286.98819
 274.71236 262.62153 250.64270 239.95588 230.09005 221.20622 213.40039 206.41456
 200.26073 195.21090 191.80507 189.85924 188.90841 188.98458 189.83175 191.15192
 192.88909 194.99626 197.27143 199.64260 202.09977 204.59194 206.69211 208.54628
 210.18445 211.34163 211.58280 211.82297 211.77214 211.48931 211.13448 210.77665
 210.40582 210.12799 209.94816 209.82433 209.76450 210.10767 210.50584 210.90701
 211.71218 212.90235 214.16452 215.95969 217.89986 219.95503 222.06220 224.15738
 226.22955 228.32572 230.43489 232.55306 234.69423 236.87840 239.14657 241.52874
 244.16191 246.42508 248.43925 250.21642 251.64559 252.78076 253.61493 253.94310
 253.99227 253.77844 253.15061 252.11078 250.72896 248.90213 246.82330 244.66847
 242.47164 240.28781 238.11998 235.97115 233.84332 231.72249 229.76066 227.92983
 226.22500 224.70917 223.35134 222.13551 221.02968 220.00185 219.11802 218.27119
 217.52536 216.71753 215.82771 215.20388 214.66605 215.18985 216.41098 217.15123
 217.69785 218.57870 219.41571 219.24187 218.99759 220.13895 222.72083 225.86426
 229.32338 233.75334 238.34479 242.58067 246.62914 250.65746 254.58279 258.10867
 261.12546 263.81036 266.30066 268.52573 270.59842 272.65903 274.68427 276.52716
 278.03107 279.05188 280.57108 282.07999 283.38583 284.54120 285.59528 286.55017
 287.40903 288.17383 288.84195 289.69339
 366.78100 356.34680 345.79061 334.66841 323.08322 311.28902 299.17083 286.98563
 274.70944 262.61824 250.63904 239.95185 230.08565 221.20146 213.39526 206.40907
 200.25487 195.20467 191.79848 189.85228 188.90109 188.97689 189.82370 191.14350
 192.88031 194.98711 197.26191 199.63272 202.08952 204.58133 206.68113 208.53494
 210.17274 211.32955 211.57035 211.81015 211.75896 211.47576 211.12057 210.76237
 210.39118 210.11298 209.93278 209.80859 209.74839 210.09120 210.48900 210.88981
 211.69461 212.88442 214.14622 215.94102 217.88083 219.93563 222.04244 224.13724
 226.20905 228.30485 230.41366 232.53146 234.67226 236.85607 239.12387 241.50568
 244.13848 246.40129 248.41509 250.19190 251.62070 252.75550 253.58931 253.91711
 253.96592 253.75172 253.12353 252.08333 250.70113 248.87394 246.79474 244.63955
 242.44235 240.25816 238.08996 235.94077 233.81257 231.69137 229.72918 227.89798
 226.19279 224.67659 223.31840 222.10220 220.99601 219.96781 219.08361 218.23642
 217.49022 216.68203 215.79183 215.16764 214.62944 215.16541 216.40907 217.10387
 217.70967 218.57726 219.28360 219.07657 218.86369 220.00896 222.65932 225.91402
 229.44220 233.84032 238.40065 242.63904 246.67908 250.69128 254.57838 258.05371
 261.08676 263.84189 266.39691 268.69312 270.83731 272.96951 275.04169 276.96216
 278.59506 279.81119 280.73657 281.92038 283.01755 283.98825 284.87384 285.67615
 286.39774 287.04031 287.60165 288.31702
 366.78100 356.34643 345.78985 334.66728 323.08170 311.28713 299.16855 286.98298
 274.70640 262.61483 250.63525 239.94768 230.08110 221.19653 213.38995 206.40338
 200.24880 195.19823 191.79165 189.84508 188.89350 188.96893 189.81535 191.13478
 192.87120 194.97763 197.25205 199.62248 202.07890 204.57033 206.66975 208.52318
 210.16060 211.31703 211.55745 211.79688 211.74530 211.46173 211.10615 210.74758
 210.37600 210.09743 209.91685 209.79228 209.73170 210.07413 210.47155 210.87198
 211.67640 212.86583 214.12725 215.92168 217.86110 219.91553 222.02195 224.11638
 226.18780 228.28323 230.39165 232.50908 234.64950 236.83293 239.10035 241.48178
 244.11420 246.37663 248.39005 250.16648 251.59490 252.72933 253.56275 253.89018
 253.93861 253.72403 253.09546 252.05488 250.67231 248.84473 246.76516 244.60958
 242.41201 240.22743 238.05886 235.90928 233.78071 231.65913 229.69656 227.86498
 226.15941 224.64283 223.28426 222.06768 220.96111 219.93253 219.04796 218.20038
 217.45381 216.64523 215.75466 215.13008 214.59151 215.13289 216.40019 217.09709
 217.74391 218.46515 219.01576 218.74252 218.55190 219.74124 222.67090 225.84909
 229.52748 233.89394 238.47386 242.76270 246.82553 250.80742 254.59637 257.99167
 260.99188 263.76404 266.36838 268.74689 270.96716 273.13889 275.22888 277.14142
 278.77725 280.06805 280.99817 281.63715 282.21671 282.93484 283.78906 284.56293
 285.25894 285.87875 286.42020 287.11020
 366.78100 356.34543 345.78785 334.66428 323.07771 311.28213 299.16256 286.97599
 274.69841 262.60584 250.62527 239.93669 230.06912 221.18354 213.37597 206.38840
 200.23282 195.18125 191.77368 189.82610 188.87353 188.94796 189.79338 191.11181
 192.84724 194.95266 197.22609 199.59552 202.05094 204.54137 206.63980 208.49222
 210.12865 211.28408 211.52350 211.76193 211.70936 211.42478 211.06821 210.70863
 210.33606 210.05649 209.87491 209.74934 209.68777 210.02919 210.42562 210.82505
 211.62847 212.81690 214.07733 215.87075 217.80918 219.86261 221.96803 224.06146
 226.13189 228.22631 230.33374 232.45017 234.58959 236.77202 239.03845 241.41887
 244.05030 246.31172 248.32415 250.09958 251.52700 252.66043 253.49286 253.81928
 253.86671 253.65114 253.02156 251.97999 250.59642 248.76784 246.68727 244.53070
 242.33212 240.14655 237.97698 235.82640 233.69683 231.57426 229.61068 227.77811
 226.07154 224.55396 223.19439 221.97681 220.86924 219.83967 218.95409 218.10552
 217.35795 216.54837 215.65680 215.03123 214.49165 215.07928 216.45299 217.02460
 217.85451 218.57004 219.01106 218.49919 218.15976 219.39980 222.47261 225.66032
 229.51225 233.94315 238.56519 242.87267 246.96013 250.96748 254.77319 258.17328
 261.15564 263.89490 266.47012 268.83231 271.04932 273.23657 275.35275 277.27057
 278.89325 280.13376 280.95914 281.45471 281.82996 282.14734 282.99915 283.90210
 284.71420 285.43738 286.06915 286.87424
 366.78100 356.34540 345.78780 334.66420 323.07760 311.28200 299.16240 286.97580
 274.69820 262.60560 250.62500 239.93640 230.06880 221.18320 213.37560 206.38800
 200.23240 195.18080 191.77321 189.82561 188.87301 188.94741 189.79281 191.11121
 192.84661 194.95201 197.22541 199.59481 202.05021 204.54061 206.63901 208.49141
 210.12781 211.28321 211.52261 211.76101 211.70841 211.42381 211.06721 210.70761
 210.33501 210.05541 209.87381 209.74821 209.68661 210.02801 210.42441 210.82381
 211.62721 212.81561 214.07601 215.86941 217.80782 219.86122 221.96662 224.06002
 226.13042 228.22482 230.33222 232.44862 234.58802 236.77042 239.03682 241.41722
 244.04862 246.31002 248.32242 250.09782 251.52522 252.65862 253.49102 253.81742
 253.86482 253.64922 253.01962 251.97802 250.59442 248.76582 246.68522 244.52862
 242.33002 240.14442 237.97482 235.82422 233.69462 231.57202 229.60842 227.77583
 226.06923 224.55163 223.19203 221.97443 220.86683 219.83723 218.95163 218.10303
 217.35543 216.54583 215.65423 215.02863 214.48903 215.07832 216.45395 217.04947
 217.78627 218.53461 219.05423 218.53185 218.02629 219.11668 222.20735 225.60092
 229.51877 234.00056 238.63622 242.96033 247.07469 251.08911 254.90540 258.31400
 261.30161 264.03717 266.60379 268.95050 271.17529 273.39746 275.53735 277.46875
 279.09604 280.28302 281.03967 281.42654 281.71570 282.10129 283.03210 283.92749
 284.73279 285.44992 286.07642 286.87479
 366.78100 356.34664 345.79028 334.66793 323.08257 311.28821 299.16985 286.98450
 274.70814 262.61678 250.63742 239.95007 230.08371 221.19935 213.39299 206.40664
 200.25228 195.20192 191.79556 189.84920 188.89785 188.97349 189.82013 191.13977
 192.87642 194.98306 197.25770 199.62834 202.08499 204.57663 206.67627 208.52991
 210.16756 211.32420 211.56484 211.80448 211.75312 211.46977 211.11441 210.75605
 210.38469 210.10634 209.92598 209.80162 209.74126 210.08391 210.48155 210.88219
 211.68683 212.87648 214.13812 215.93276 217.87240 219.92704 222.03369 224.12833
 226.19997 228.29561 230.40426 232.52190 234.66254 236.84618 239.11383 241.49547
 244.12811 246.39075 248.40440 250.18104 251.60968 252.74432 253.57796 253.90561
 253.95425 253.73989 253.11153 252.07118 250.68882 248.86146 246.78210 244.62675
 242.42939 240.24503 238.07667 235.92732 233.79896 231.67760 229.71524 227.88388
 226.17853 224.66217 223.30381 222.08745 220.98110 219.95274 219.06838 218.22102
 217.47467 216.66631 215.77595 215.15159 214.61324 215.13531 216.36601 217.17104
 217.77892 218.45293 219.04199 218.56833 217.93433 218.88724 222.04503 225.55399
 229.55263 234.07558 238.73141 243.06192 247.18152 251.18195 254.95866 258.32339
 261.30801 264.06714 266.64926 269.01517 271.28091 273.54999 275.74451 277.70517
 279.34930 280.55548 281.24490 281.50418 281.67422 282.10098 283.03317 283.94348
 284.76221 285.49127 286.12820 286.93985
 366.78100 356.34703 345.79107 334.66910 323.08414 311.29017 299.17221 286.98724
 274.71127 262.62031 250.64134 239.95438 230.08841 221.20445 213.39848 206.41252
 200.25855 195.20858 191.80262 189.85665 188.90569 188.98172 189.82876 191.14879
 192.88582 194.99286 197.26789 199.63893 202.09596 204.58800 206.68803 208.54206
 210.18010 211.33713 211.57817 211.81820 211.76724 211.48427 211.12931 210.77134
 210.40037 210.12241 209.94244 209.81848 209.75851 210.10155 210.49958 210.90061
 211.70565 212.89568 214.15772 215.95275 217.89279 219.94782 222.05486 224.14989
 226.22192 228.31796 230.42699 232.54503 234.68606 236.87010 239.13813 241.52016
 244.15320 246.41623 248.43027 250.20730 251.63634 252.77137 253.60540 253.93344
 253.98247 253.76851 253.14054 252.10058 250.71861 248.89165 246.81268 244.65771
 242.46075 240.27678 238.10882 235.95985 233.83189 231.71092 229.74895 227.91799
 226.21302 224.69706 223.33909 222.12313 221.01716 219.98919 219.10523 218.25826
 217.51230 216.70433 215.81437 215.19040 214.65244 215.14992 216.32588 217.20786
 217.92725 218.56551 218.97868 218.40276 217.68536 218.59647 221.89937 225.47321
 229.59309 234.15547 238.83926 243.17575 247.30247 251.28728 255.02217 258.33768
 261.30603 264.07797 266.67737 269.08218 271.40176 273.71167 275.92532 277.88940
 279.49365 280.62607 281.24969 281.46729 281.58475 281.89532 282.61469 283.46506
 284.24274 284.93524 285.54019 286.31116
 366.78100 356.34589 345.78877 334.66566 323.07954 311.28443 299.16531 286.97920
 274.70208 262.60997 250.62985 239.94174 230.07462 221.18951 213.38239 206.39528
 200.24016 195.18905 191.78193 189.83482 188.88270 188.95759 189.80347 191.12236
 192.85824 194.96413 197.23801 199.60790 202.06378 204.55467 206.65355 208.50644
 210.14332 211.29921 211.53909 211.77798 211.72586 211.44175 211.08563 210.72652
 210.35440 210.07529 209.89417 209.76906 209.70794 210.04983 210.44671 210.84660
 211.65048 212.83937 214.10025 215.89414 217.83302 219.88691 221.99279 224.08668
 226.15756 228.25245 230.36033 232.47722 234.61710 236.79999 239.06687 241.44776
 244.07964 246.34153 248.35441 250.13030 251.55818 252.69207 253.52495 253.85184
 253.89972 253.68461 253.05549 252.01438 250.63126 248.80315 246.72303 244.56692
 242.36880 240.18369 238.01458 235.86446 233.73535 231.61323 229.65012 227.81800
 226.11189 224.59477 223.23566 222.01854 220.91143 219.88231 218.99720 218.14908
 217.40197 216.59285 215.70174 215.07662 214.53751 215.09367 216.40474 217.14119
 217.96500 218.72470 218.95322 218.19470 217.40744 218.31987 221.71927 225.42361
 229.62392 234.22475 238.92484 243.28159 247.43411 251.42877 255.15158 258.44379
 261.38474 264.12997 266.72040 269.13416 271.48373 273.83740 276.08228 278.04959
 279.64273 280.72119 281.27454 281.43307 281.50073 281.75134 282.41113 283.25708
 284.05014 284.75638 285.37332 286.15958
 366.78100 356.34487 345.78674 334.66261 323.07548 311.27935 299.15922 286.97210
 274.69397 262.60084 250.61971 239.93058 230.06245 221.17632 213.36819 206.38006
 200.22393 195.17180 191.76367 189.81555 188.86242 188.93629 189.78116 191.09903
 192.83390 194.93877 197.21164 199.58051 202.03538 204.52525 206.62312 208.47500
 210.11087 211.26574 211.50461 211.74248 211.68935 211.40422 211.04709 210.68696
 210.31383 210.03370 209.85157 209.72544 209.66332 210.00419 210.40006 210.79893
 211.60180 212.78967 214.04954 215.84241 217.78028 219.83315 221.93802 224.03089
 226.10077 228.19464 230.30151 232.41738 234.55625 236.73812 239.00399 241.38386
 244.01473 246.27560 248.28747 250.06234 251.48922 252.62209 253.45396 253.77983
 253.82670 253.61057 252.98044 251.93831 250.55418 248.72505 246.64392 244.48679
 242.28766 240.10154 237.93141 235.78028 233.65015 231.52702 229.56289 227.72976
 226.02263 224.50450 223.14437 221.92624 220.81811 219.78799 218.90186 218.05273
 217.30460 216.49447 215.60234 214.97621 214.43608 215.04298 216.47240 217.14307
 217.93089 218.70575 218.86981 218.06366 217.26843 218.15028 221.57394 225.41319
 229.68066 234.31458 239.02742 243.40627 247.57484 251.56155 255.26477 258.54611
 261.47644 264.19290 266.75717 269.17154 271.56073 273.96613 276.23254 278.19385
 279.77600 280.79373 281.21851 281.21396 281.19699 281.50684 282.21085 283.02902
 283.79184 284.47113 285.06458 285.82080
 366.78100 356.34523 345.78747 334.66370 323.07694 311.28117 299.16141 286.97464
 274.69688 262.60411 250.62334 239.93458 230.06681 221.18105 213.37328 206.38552
 200.22975 195.17799 191.77022 189.82245 188.86969 188.94392 189.78916 191.10739
 192.84263 194.94786 197.22110 199.59033 202.04556 204.53580 206.63403 208.48627
 210.12250 211.27774 211.51697 211.75520 211.70244 211.41767 211.06091 210.70114
 210.32838 210.04861 209.86685 209.74108 209.67931 210.02055 210.41678 210.81602
 211.61925 212.80749 214.06772 215.86096 217.79919 219.85242 221.95766 224.05089
 226.12113 228.21536 230.32260 232.43883 234.57807 236.76030 239.02653 241.40677
 244.03800 246.29924 248.31147 250.08671 251.51394 252.64718 253.47941 253.80564
 253.85288 253.63711 253.00735 251.96558 250.58182 248.75305 246.67229 244.51552
 242.31675 240.13099 237.96122 235.81046 233.68069 231.55793 229.59416 227.76140
 226.05463 224.53686 223.17710 221.95933 220.85157 219.82180 218.93604 218.08727
 217.33950 216.52974 215.63797 215.01221 214.47244 215.05879 216.44279 217.25043
 217.98709 218.62125 218.65009 217.85156 217.11856 218.04292 221.49971 225.38980
 229.72272 234.38681 239.11398 243.50659 247.68785 251.67453 255.37740 258.66409
 261.59518 264.29144 266.83905 269.25928 271.65536 274.08423 276.37997 278.35397
 279.92035 280.86493 281.11157 280.89789 280.76108 280.98126 281.66870 282.46484
 283.24249 283.94061 284.55051 285.32770
 354.97500 345.04800 334.58700 324.11500 313.32600 302.53700 291.65000 280.76700
 269.93100 259.19300 248.62200 238.61700 229.08700 220.35500 212.54000 205.53500
 199.46400 194.49300 191.14300 189.19000 188.08900 188.01400 188.72400 189.90600
 191.46900 193.38200 195.40300 197.55600 199.80700 202.06000 204.28800 206.47900
 208.55200 210.37800 212.02500 213.65900 214.99800 216.11800 217.17200 218.25900
 219.49400 220.64500 221.67900 222.61400 223.54500 224.98200 226.57100 228.19000
 229.79700 231.81100 233.86500 235.97200 238.24200 240.55300 242.89900 245.25300
 247.48800 249.53500 251.36600 252.84800 254.09800 255.16700 256.02700 256.25300
 256.09500 255.54300 253.93500 252.56600 251.38400 250.24500 249.05200 247.70100
 246.01600 243.99600 241.78400 239.39300 236.81300 234.22300 231.65800 229.14400
 226.74000 224.47300 222.33500 220.32500 218.44000 216.67700 214.96200 213.47200
 212.20000 211.10800 210.26000 209.63900 209.24400 209.03100 209.05800 209.33300
 209.78400 210.62600 211.33100 212.39100 213.62500 214.84668 217.72949 219.47640
 220.32566 220.86828 220.88710 220.27371 219.43733 218.84250 219.04934 220.86203
 222.60583 225.72206 229.03064 232.61777 236.12270 239.51333 242.70767 245.68587
 248.41061 250.90679 253.19353 254.91714 256.48655 257.94920 259.39966 260.69384
 261.81714 262.77997 263.71679 264.54570 265.26305 265.89772 266.47676 267.00133
 267.47312 267.89325 268.26027 268.72800
