|-------------------------------------------------------------------------|
|   File Name : in_temp.dat
|   Subject   : temperature profiles used for initial guess atmosphere
|   File Type : input of gmtr
|   Data Type : atmospherical data
|   Author/s  : WRF-Chem
|   Date      : Fri Jul 26 15:39:24 2024
|-------------------------------------------------------------------------|

 WRF-Chem temperature
#
 values of T (K)    (8f10.5)
#
 354.97500 345.04800 334.58700 324.11500 313.32600 302.53700 291.65000 280.76700
 269.93100 259.19300 248.62200 238.61700 229.08700 220.35500 212.54000 205.53500
 199.46400 194.49300 191.14300 189.19000 188.08900 188.01400 188.72400 189.90600
 191.46900 193.38200 195.40300 197.55600 199.80700 202.06000 204.28800 206.47900
 208.55200 210.37800 212.02500 213.65900 214.99800 216.11800 217.17200 218.25900
 219.49400 220.64500 221.67900 222.61400 223.54500 224.98200 226.57100 228.19000
 229.79700 231.81100 233.86500 235.97200 238.24200 240.55300 242.89900 245.25300
 247.48800 249.53500 251.36600 252.84800 254.09800 255.16700 256.02700 256.25300
 256.09500 255.54300 253.93500 252.56600 251.38400 250.24500 249.05200 247.70100
 246.01600 243.99600 241.78400 239.39300 236.81300 234.22300 231.65800 229.14400
 226.74000 224.47300 222.33500 220.32500 218.44000 216.67700 214.96200 213.47200
 212.20000 211.10800 210.26000 209.63900 209.24400 209.03100 209.05800 209.33300
 209.78400 210.62600 211.33100 212.39100 213.62500 214.84668 217.72949 219.47640
 220.32566 220.86828 220.88710 220.27371 219.43733 218.84250 219.04934 220.86203
 222.60583 225.72206 229.03064 232.61777 236.12270 239.51333 242.70767 245.68587
 248.41061 250.90679 253.19353 254.91714 256.48655 257.94920 259.39966 260.69384
 261.81714 262.77997 263.71679 264.54570 265.26305 265.89772 266.47676 267.00133
 267.47312 267.89325 268.26027 268.72800
 366.78100 356.33500 345.76700 334.63300 323.03600 311.23000 299.10000 286.90300
 274.61500 262.51200 250.52100 239.82200 229.94400 221.04800 213.23000 206.23200
 200.06600 195.00400 191.58600 189.62800 188.66500 188.72900 189.56400 190.87200
 192.59700 194.69200 196.95500 199.31400 201.75900 204.23900 206.32700 208.16900
 209.79500 210.94000 211.16900 211.39700 211.33400 211.03900 210.67200 210.30200
 209.91900 209.62900 209.43700 209.30100 209.22900 209.56000 209.94600 210.33500
 211.12800 212.30600 213.55600 215.33900 217.26700 219.31000 221.40500 223.48800
 225.54800 227.63200 229.72900 231.83500 233.96400 236.13600 238.39200 240.76200
 243.38300 245.63400 247.63600 249.40100 250.81800 251.94100 252.76300 253.07900
 253.11600 252.89000 252.25000 251.19800 249.80400 247.96500 245.87400 243.70700
 241.49800 239.30200 237.12200 234.96100 232.82100 230.68800 228.71400 226.87100
 225.15400 223.62600 222.25600 221.02800 219.91000 218.87000 217.97400 217.11500
 216.35700 215.53700 214.63500 213.99900 213.44900 212.85855 212.01316 212.61654
 214.26826 216.08686 218.14273 220.53346 223.40855 226.78828 231.49734 235.90155
 239.42278 243.28576 247.23140 251.11907 254.80144 258.23331 261.38913 264.27520
 266.89312 269.26852 271.44504 273.08845 274.58484 275.98591 277.39845 278.65879
 279.75272 280.69038 281.56708 282.34086 283.01050 283.60295 284.14348 284.63317
 285.07358 285.46577 285.80838 286.24500
 381.81900 372.39900 361.20600 349.77600 337.62200 324.85300 311.81000 298.35300
 284.86000 271.32400 258.56100 246.30400 236.08700 226.79600 218.44800 211.29000
 205.52200 200.89400 197.38100 194.84800 193.01500 192.31500 192.25000 192.43100
 192.91200 193.53700 194.13600 194.71200 195.26200 195.83100 196.39300 196.97600
 197.60400 198.14900 198.58400 199.05700 199.69500 200.37800 201.05400 201.70800
 202.31300 202.85700 203.35500 203.86200 204.56900 205.29700 206.02600 206.98700
 208.19300 209.44100 210.96900 212.57600 214.46200 216.51300 218.63000 220.85300
 223.34100 225.96200 228.73900 231.69700 234.70600 237.70600 240.69200 243.65700
 246.73700 249.69900 252.52100 255.06300 257.29000 259.23300 260.63300 261.68000
 262.46100 262.79800 262.69100 262.22400 261.06900 259.52500 257.70700 255.50700
 253.00100 250.30200 247.39800 244.45200 241.65400 239.05400 236.73300 234.59000
 232.59500 230.72500 228.83400 226.82600 224.66600 222.38700 220.10400 217.71500
 215.45900 213.06600 210.54600 208.09300 205.35400 202.08130 196.05959 200.71215
 209.01611 216.90438 223.84126 229.78593 235.00632 240.20838 245.98943 250.68668
 254.32982 257.93487 261.55666 264.96801 268.15192 271.06452 273.76717 276.25691
 278.57680 280.74479 282.77456 284.60533 286.27232 287.81705 289.31715 290.65561
 291.81734 292.81312 293.70701 294.49387 295.17482 295.77730 296.32696 296.82492
 297.27278 297.67160 298.02000 298.46400
 399.33000 389.90700 379.81300 368.66800 357.52200 345.30100 333.07400 320.22700
 307.21600 293.84800 280.37600 267.29600 254.61000 242.98700 232.15100 221.97700
 212.67200 204.28600 197.66900 192.82100 189.48600 187.45200 186.81400 187.08900
 187.78100 189.05400 190.64800 192.54200 194.63000 196.75200 198.67100 200.15800
 201.53500 202.48700 202.97500 203.34000 203.53900 203.49700 203.38500 203.24700
 203.00500 202.78600 202.60300 202.43700 202.42600 202.88800 203.42000 203.95100
 204.89500 205.99200 207.30100 208.95800 210.73800 213.10000 215.56400 218.18000
 220.96600 223.91800 226.96100 230.09200 233.29300 236.55700 239.95500 243.53700
 246.84500 249.39000 251.54200 253.47400 255.19500 256.48400 257.43100 258.05900
 258.21200 258.04000 257.58200 256.64300 255.23900 253.50700 251.40800 249.05600
 246.57600 243.99400 241.38900 238.83000 236.34400 233.98600 231.96900 230.11800
 228.42300 226.89900 225.54800 224.29700 223.10500 221.96500 220.95800 220.11300
 219.49000 218.92000 218.32500 217.88100 217.42300 216.96366 216.35568 216.80261
 217.73415 218.28582 218.64258 219.10077 220.44626 222.53987 226.38451 230.35736
 233.59734 237.39164 241.29814 245.22796 248.98002 252.51130 255.78595 258.80109
 261.54781 264.05210 266.34239 268.04198 269.58951 271.01303 272.35754 273.55718
 274.59842 275.49092 276.28989 276.99307 277.60161 278.14001 278.63122 279.07623
 279.47646 279.83287 280.14422 280.54100
 399.73800 389.78500 379.66200 368.15100 356.64100 344.35000 331.79200 318.88800
 305.72600 292.49300 279.20900 266.73800 254.69600 244.21100 234.45700 225.43300
 217.56900 210.45100 204.30000 199.30600 195.45800 192.57600 191.02700 190.38600
 190.23900 190.53400 191.16600 191.92500 192.79500 193.76600 194.73200 195.31200
 195.80000 196.05200 196.11500 196.11500 196.03900 195.72300 195.34000 194.98900
 194.75100 194.79200 195.13300 195.59800 196.50600 198.13600 199.85800 201.56600
 204.17900 206.82300 209.89300 213.28400 216.82800 220.60500 224.38700 228.20900
 232.03200 235.82500 239.56000 243.25800 246.84500 250.20100 253.70900 257.46800
 261.53000 264.22100 266.60100 268.68100 270.32900 271.74100 272.83600 273.47400
 273.89800 274.00200 273.75700 273.28800 272.37100 271.10000 269.58900 267.77900
 265.81600 263.72100 261.39300 258.91600 256.29800 253.42300 250.33100 247.11400
 243.83700 240.52900 237.24900 233.99900 230.72800 227.51500 224.25400 220.95200
 217.62700 213.65600 210.12100 206.78900 204.01000 201.99491 199.07309 198.76551
 199.40006 200.48994 201.46112 202.31912 203.45100 204.96110 207.47502 210.85391
 213.70530 217.29629 220.99574 224.72316 228.28753 231.64854 234.68024 237.40893
 239.70644 241.60899 243.46854 245.67368 247.68154 249.52395 251.24767 252.78566
 254.12057 255.26479 256.23740 257.09036 257.82852 258.48160 259.07744 259.61723
 260.10271 260.53504 260.91270 261.39400
 399.73800 389.78500 379.66200 368.15100 356.64100 344.35000 331.79200 318.88800
 305.72600 292.49300 279.20900 266.73800 254.69600 244.21100 234.45700 225.43300
 217.56900 210.45100 204.30000 199.30600 195.45800 192.57600 191.02700 190.38600
 190.23900 190.53400 191.16600 191.92500 192.79500 193.76600 194.73200 195.31200
 195.80000 196.05200 196.11500 196.11500 196.03900 195.72300 195.34000 194.98900
 194.75100 194.79200 195.13300 195.59800 196.50600 198.13600 199.85800 201.56600
 204.17900 206.82300 209.89300 213.28400 216.82800 220.60500 224.38700 228.20900
 232.03200 235.82500 239.56000 243.25800 246.84500 250.20100 253.70900 257.46800
 261.53000 264.22100 266.60100 268.68100 270.32900 271.74100 272.83600 273.47400
 273.89800 274.00200 273.75700 273.28800 272.37100 271.10000 269.58900 267.77900
 265.81600 263.72100 261.39300 258.91600 256.29800 253.42300 250.33100 247.11400
 243.83700 240.52900 237.24900 233.99900 230.72800 227.51500 224.25400 220.95200
 217.62700 213.65600 210.12100 206.78900 204.01000 201.99491 199.07309 198.76551
 199.40006 200.48994 201.46112 202.31912 203.45100 204.96110 207.47502 210.85391
 213.70530 217.29629 220.99574 224.72316 228.28753 231.64854 234.68024 237.40893
 239.70644 241.60899 243.46854 245.67368 247.68154 249.52395 251.24767 252.78566
 254.12057 255.26479 256.23740 257.09036 257.82852 258.48160 259.07744 259.61723
 260.10271 260.53504 260.91270 261.39400
 399.33000 389.90700 379.81300 368.66800 357.52200 345.30100 333.07400 320.22700
 307.21600 293.84800 280.37600 267.29600 254.61000 242.98700 232.15100 221.97700
 212.67200 204.28600 197.66900 192.82100 189.48600 187.45200 186.81400 187.08900
 187.78100 189.05400 190.64800 192.54200 194.63000 196.75200 198.67100 200.15800
 201.53500 202.48700 202.97500 203.34000 203.53900 203.49700 203.38500 203.24700
 203.00500 202.78600 202.60300 202.43700 202.42600 202.88800 203.42000 203.95100
 204.89500 205.99200 207.30100 208.95800 210.73800 213.10000 215.56400 218.18000
 220.96600 223.91800 226.96100 230.09200 233.29300 236.55700 239.95500 243.53700
 246.84500 249.39000 251.54200 253.47400 255.19500 256.48400 257.43100 258.05900
 258.21200 258.04000 257.58200 256.64300 255.23900 253.50700 251.40800 249.05600
 246.57600 243.99400 241.38900 238.83000 236.34400 233.98600 231.96900 230.11800
 228.42300 226.89900 225.54800 224.29700 223.10500 221.96500 220.95800 220.11300
 219.49000 218.92000 218.32500 217.88100 217.42300 216.96366 216.35568 216.80261
 217.73415 218.28582 218.64258 219.10077 220.44626 222.53987 226.38451 230.35736
 233.59734 237.39164 241.29814 245.22796 248.98002 252.51130 255.78595 258.80109
 261.54781 264.05210 266.34239 268.04198 269.58951 271.01303 272.35754 273.55718
 274.59842 275.49092 276.28989 276.99307 277.60161 278.14001 278.63122 279.07623
 279.47646 279.83287 280.14422 280.54100
 381.81900 372.39900 361.20600 349.77600 337.62200 324.85300 311.81000 298.35300
 284.86000 271.32400 258.56100 246.30400 236.08700 226.79600 218.44800 211.29000
 205.52200 200.89400 197.38100 194.84800 193.01500 192.31500 192.25000 192.43100
 192.91200 193.53700 194.13600 194.71200 195.26200 195.83100 196.39300 196.97600
 197.60400 198.14900 198.58400 199.05700 199.69500 200.37800 201.05400 201.70800
 202.31300 202.85700 203.35500 203.86200 204.56900 205.29700 206.02600 206.98700
 208.19300 209.44100 210.96900 212.57600 214.46200 216.51300 218.63000 220.85300
 223.34100 225.96200 228.73900 231.69700 234.70600 237.70600 240.69200 243.65700
 246.73700 249.69900 252.52100 255.06300 257.29000 259.23300 260.63300 261.68000
 262.46100 262.79800 262.69100 262.22400 261.06900 259.52500 257.70700 255.50700
 253.00100 250.30200 247.39800 244.45200 241.65400 239.05400 236.73300 234.59000
 232.59500 230.72500 228.83400 226.82600 224.66600 222.38700 220.10400 217.71500
 215.45900 213.06600 210.54600 208.09300 205.35400 202.08130 196.05959 200.71215
 209.01611 216.90438 223.84126 229.78593 235.00632 240.20838 245.98943 250.68668
 254.32982 257.93487 261.55666 264.96801 268.15192 271.06452 273.76717 276.25691
 278.57680 280.74479 282.77456 284.60533 286.27232 287.81705 289.31715 290.65561
 291.81734 292.81312 293.70701 294.49387 295.17482 295.77730 296.32696 296.82492
 297.27278 297.67160 298.02000 298.46400
 366.78100 356.33349 345.76398 334.62848 323.02997 311.22246 299.09095 286.89245
 274.60294 262.49843 250.50592 239.80542 229.92591 221.02840 213.20889 206.20939
 200.04188 194.97837 191.55886 189.59936 188.63485 188.69734 189.53083 190.83733
 192.56082 194.65431 196.91580 199.27330 201.71679 204.19528 206.28177 208.12227
 209.74676 210.89025 211.11774 211.34424 211.27973 210.98322 210.61471 210.24321
 209.85870 209.56719 209.37368 209.23618 209.16267 209.49216 209.87665 210.26415
 211.05564 212.23213 213.48062 215.26212 217.18861 219.23010 221.32359 223.40509
 225.46358 227.54607 229.64156 231.74606 233.87355 236.04404 238.29853 240.66703
 243.28652 245.53601 247.53650 249.30000 250.71549 251.83698 252.65747 252.97197
 253.00746 252.77995 252.13844 251.08494 249.68943 247.84892 245.75641 243.58791
 241.37740 239.17989 236.99838 234.83588 232.69437 230.55986 228.58435 226.73985
 225.02134 223.49183 222.12032 220.89082 219.77131 218.72980 217.83229 216.97179
 216.21228 215.39077 214.48726 213.84976 213.29825 212.88324 211.90514 211.74870
 212.48320 214.39128 216.15134 216.97247 218.69771 222.77278 228.76875 233.76471
 237.57979 241.30228 245.04205 248.86064 252.72667 255.88351 258.45312 260.96692
 263.77249 266.45538 268.83444 270.89874 272.79431 274.59982 276.24863 277.89047
 279.57700 281.21057 282.70654 284.06232 285.24319 286.29190 287.24829 288.12146
 288.91086 289.61725 290.24533 291.07645
 366.78100 356.33130 345.75959 334.62189 323.02118 311.21148 299.07777 286.87707
 274.58537 262.47866 250.48396 239.78125 229.89955 220.99984 213.17814 206.17644
 200.00673 194.94103 191.51932 189.55762 188.59091 188.65121 189.48250 190.78680
 192.50810 194.59939 196.85869 199.21398 201.65528 204.13157 206.21587 208.05417
 209.67646 210.81776 211.04305 211.26735 211.20064 210.90194 210.53124 210.15753
 209.77083 209.47712 209.28142 209.14171 209.06601 209.39331 209.77560 210.16090
 210.95019 212.12449 213.37078 215.15008 217.07438 219.11367 221.20497 223.28426
 225.34056 227.42085 229.51415 231.61644 233.74174 235.91004 238.16233 240.52863
 243.14592 245.39322 247.39151 249.15281 250.56611 251.68540 252.50370 252.81599
 252.84929 252.61958 251.97588 250.92018 249.52247 247.67977 245.58506 243.41436
 241.20165 239.00195 236.81825 234.65354 232.50984 230.37313 228.39543 226.54872
 224.82802 223.29632 221.92261 220.69091 219.56920 218.52550 217.62579 216.76309
 216.00138 215.17768 214.27198 213.63227 213.07857 212.77344 212.05391 211.89543
 212.59612 214.46240 216.15007 217.01561 218.62404 222.68756 228.72241 233.68608
 237.49275 241.23187 244.99879 248.82491 252.66148 255.78362 258.33273 260.85141
 263.62100 266.30856 268.72699 270.79559 272.67285 274.45929 276.10904 277.75772
 279.45190 281.09576 282.59909 283.95630 285.13586 286.18457 287.14484 288.01682
 288.80737 289.51566 290.14105 290.97473
 366.78100 356.32934 345.75568 334.61603 323.01337 311.20171 299.06605 286.86339
 274.56974 262.46108 250.46442 239.75976 229.87611 220.97445 213.15079 206.14713
 199.97547 194.90782 191.48416 189.52050 188.55184 188.61018 189.43953 190.74187
 192.46121 194.55055 196.80789 199.16124 201.60058 204.07492 206.15726 207.99360
 209.61395 210.75329 210.97663 211.19897 211.13032 210.82966 210.45700 210.08134
 209.69268 209.39703 209.19937 209.05771 208.98005 209.30539 209.68574 210.06908
 210.85642 212.02876 213.27310 215.05045 216.97279 219.01013 221.09947 223.17682
 225.23116 227.30950 229.40084 231.50118 233.62453 235.79087 238.04121 240.40555
 243.02089 245.26624 247.26258 249.02192 250.43326 251.55060 252.36695 252.67729
 252.70863 252.47697 251.83131 250.77366 249.37400 247.52934 245.43268 243.26003
 241.04537 238.84371 236.65805 234.49139 232.34574 230.20708 228.22742 226.37876
 224.65610 223.12245 221.74679 220.51313 219.38947 218.34381 217.44216 216.57750
 215.81384 214.98818 214.08053 213.43887 212.88321 212.67450 212.18214 212.05396
 212.69850 214.52710 216.15622 217.06673 218.57397 222.62875 228.67735 233.60413
 237.40118 241.15434 244.94951 248.78273 252.58423 255.67667 258.21506 260.74393
 263.47412 266.16171 268.61652 270.68732 272.54617 274.31720 275.97046 277.62680
 279.33365 280.98459 282.49530 283.85272 285.03488 286.08295 287.04245 287.91629
 288.70615 289.41653 290.04211 290.87805
 366.78100 356.32750 345.75199 334.61049 323.00598 311.19248 299.05497 286.85047
 274.55496 262.44446 250.44595 239.73945 229.85394 220.95044 213.12493 206.11943
 199.94592 194.87642 191.45091 189.48541 188.51490 188.57140 189.39889 190.69939
 192.41688 194.50438 196.75987 199.11137 201.54886 204.02136 206.10186 207.93635
 209.55485 210.69234 210.91384 211.13433 211.06383 210.76132 210.38682 210.00931
 209.61881 209.32130 209.12180 208.97829 208.89879 209.22228 209.60078 209.98227
 210.76777 211.93826 213.18076 214.95625 216.87675 218.91224 220.99974 223.07523
 225.12773 227.20422 229.29372 231.39221 233.51371 235.67821 237.92670 240.28920
 242.90269 245.14619 247.14068 248.89818 250.30767 251.42317 252.23766 252.54616
 252.57565 252.34215 251.69464 250.63514 249.23363 247.38713 245.28862 243.11412
 240.89761 238.69411 236.50660 234.33810 232.19059 230.05009 228.06858 226.21808
 224.49357 222.95807 221.58057 220.34506 219.21956 218.17205 217.26855 216.40204
 215.63654 214.80903 213.89953 213.25602 212.69852 212.57997 212.30020 212.21378
 212.79553 214.58984 216.18210 217.11884 218.53392 222.59262 228.62856 233.52164
 237.30815 241.07506 244.89606 248.73474 252.49684 255.56314 258.09912 260.64127
 263.32898 266.00989 268.49625 270.57059 272.41638 274.17819 275.83673 277.50522
 279.22394 280.87903 282.39661 283.75613 284.93756 285.98660 286.94672 287.82114
 288.61264 289.32162 289.94983 290.78513
 366.78100 356.32580 345.74859 334.60539 322.99918 311.18398 299.04477 286.83857
 274.54137 262.42916 250.42896 239.72075 229.83355 220.92835 213.10114 206.09394
 199.91873 194.84753 191.42032 189.45312 188.48092 188.53571 189.36151 190.66030
 192.37610 194.46189 196.71569 199.06549 201.50128 203.97208 206.05087 207.88367
 209.50047 210.63626 210.85606 211.07485 211.00265 210.69844 210.32224 209.94304
 209.55083 209.25163 209.05042 208.90522 208.82402 209.14581 209.52261 209.90240
 210.68620 211.85499 213.09579 214.86959 216.78838 218.82218 220.90797 222.98177
 225.03256 227.10736 229.19516 231.29195 233.41175 235.57454 237.82134 240.18214
 242.79393 245.03573 247.02852 248.78432 250.19211 251.30591 252.11871 252.42550
 252.45330 252.21809 251.56889 250.50768 249.10448 247.25628 245.15607 242.97987
 240.76166 238.55646 236.36726 234.19705 232.04785 229.90564 227.92244 226.07023
 224.34403 222.80683 221.42762 220.19042 219.06321 218.01401 217.10880 216.24060
 215.47340 214.64419 213.73299 213.08778 212.52858 212.49258 212.40759 212.36568
 212.89751 214.65768 216.22423 217.15907 218.51025 222.57394 228.57477 233.44116
 237.21941 240.99849 244.84236 248.68288 252.39886 255.44124 257.98184 260.53915
 263.18164 265.84943 268.36282 270.44415 272.28760 274.04663 275.71210 277.39392
 279.11899 280.78308 282.30493 283.66476 284.84674 285.89581 286.85678 287.73279
 288.52222 289.23468 289.86050 290.69995
 366.78100 356.32432 345.74564 334.60096 322.99328 311.17660 299.03592 286.82824
 274.52956 262.41588 250.41420 239.70452 229.81584 220.90916 213.08048 206.07179
 199.89511 194.82243 191.39375 189.42507 188.45139 188.50471 189.32903 190.62635
 192.34067 194.42499 196.67731 199.02563 201.45995 203.92927 206.00659 207.83791
 209.45323 210.58755 210.80587 211.02319 210.94951 210.64383 210.26615 209.88547
 209.49179 209.19111 208.98843 208.84175 208.75907 209.07938 209.45470 209.83302
 210.61534 211.78266 213.02198 214.79430 216.71162 218.74394 220.82826 222.90058
 224.94990 227.02322 229.10954 231.20486 233.32318 235.48450 237.72982 240.08914
 242.69946 244.93978 246.93110 248.68542 250.09174 251.20406 252.01538 252.32070
 252.34702 252.11034 251.45965 250.39697 248.99229 247.14261 245.04093 242.86325
 240.64357 238.43689 236.24621 234.07453 231.92385 229.78017 227.79549 225.94181
 224.21413 222.67545 221.29477 220.05609 218.92741 217.87673 216.97005 216.10037
 215.33169 214.50101 213.58833 212.94165 212.38097 212.41664 212.50081 212.50935
 213.00800 214.73254 216.27519 217.18253 218.51692 222.57231 228.52057 233.36504
 237.13628 240.92543 244.78815 248.62654 252.29114 255.31104 257.86310 260.43604
 263.03265 265.68024 268.21268 270.30338 272.15491 273.92419 275.60056 277.29279
 279.02203 280.69302 282.21860 283.57822 284.76065 285.81000 286.77130 287.64642
 288.43823 289.14813 289.77612 290.61768
 366.78100 356.32309 345.74317 334.59726 322.98834 311.17043 299.02851 286.81960
 274.51968 262.40477 250.40185 239.69094 229.80102 220.89311 213.06319 206.05328
 199.87536 194.80145 191.37153 189.40162 188.42670 188.47879 189.30187 190.59796
 192.31104 194.39413 196.64521 198.99230 201.42538 203.89347 205.96955 207.79964
 209.41372 210.54681 210.76389 210.97998 210.90506 210.59815 210.21923 209.83732
 209.44240 209.14049 208.93657 208.78866 208.70474 209.02383 209.39791 209.77500
 210.55608 211.72217 212.96025 214.73134 216.64742 218.67851 220.76159 222.83268
 224.88076 226.95285 229.03793 231.13202 233.24910 235.40919 237.65327 240.01136
 242.62044 244.85953 246.84961 248.60270 250.00778 251.11887 251.92896 252.23304
 252.25813 252.02021 251.36830 250.30438 248.89847 247.04755 244.94464 242.76572
 240.54481 238.33689 236.14498 233.97206 231.82015 229.67523 227.68932 225.83440
 224.10549 222.56557 221.18366 219.94374 218.81383 217.76191 216.85400 215.98308
 215.21317 214.38125 213.46734 212.81942 212.25751 212.35330 212.57947 212.64853
 213.12546 214.81557 216.32381 217.19778 218.55904 222.58412 228.47159 233.29250
 237.05719 240.85553 244.73401 248.56810 252.17441 255.17355 257.74316 260.33307
 262.88467 265.50476 268.04752 270.14456 272.01163 273.80283 275.49808 277.20630
 278.93887 280.61163 282.13828 283.49985 284.68307 285.73212 286.69446 287.56885
 288.36224 289.07278 289.70001 290.54752
 366.78100 356.32212 345.74124 334.59435 322.98447 311.16559 299.02271 286.81282
 274.51194 262.39606 250.39218 239.68029 229.78941 220.88053 213.04965 206.03876
 199.85988 194.78500 191.35412 189.38323 188.40735 188.45847 189.28059 190.57570
 192.28782 194.36994 196.62006 198.96617 201.39829 203.86541 205.94053 207.76964
 209.38276 210.51488 210.73100 210.94611 210.87023 210.56235 210.18247 209.79958
 209.40370 209.10082 208.89594 208.74705 208.66217 208.98029 209.35341 209.72952
 210.50964 211.67476 212.91188 214.68199 216.59711 218.62723 220.70935 222.77946
 224.82658 226.89770 228.98182 231.07493 233.19105 235.35017 237.59329 239.95040
 242.55852 244.79664 246.78576 248.53787 249.94199 251.05211 251.86123 252.16434
 252.18846 251.94958 251.29670 250.23181 248.82493 246.97305 244.86917 242.68928
 240.46740 238.25852 236.06564 233.89175 231.73887 229.59299 227.60611 225.75022
 224.02034 222.47946 221.09658 219.85569 218.72481 217.67193 216.76305 215.89116
 215.12028 214.28740 213.37252 212.72363 212.16075 212.30412 212.64275 212.78397
 213.25273 214.90378 216.37190 217.21524 218.61526 222.59930 228.43129 233.22324
 236.97853 240.78647 244.67943 248.50783 252.04901 255.02562 257.61853 260.22781
 262.73849 265.32697 267.87158 269.97537 271.86310 273.67816 275.39389 277.12064
 278.86176 280.54190 282.07388 283.43567 284.61960 285.66867 286.63120 287.50784
 288.30151 289.01385 289.64301 290.48615
 366.78100 356.32139 345.73979 334.59218 322.98158 311.16197 299.01837 286.80776
 274.50616 262.38955 250.38494 239.67234 229.78073 220.87113 213.03952 206.02792
 199.84831 194.77270 191.34110 189.36949 188.39289 188.44328 189.26468 190.55907
 192.27047 194.35186 196.60125 198.94665 201.37804 203.84444 205.91883 207.74723
 209.35962 210.49102 210.70641 210.92080 210.84420 210.53559 210.15499 209.77138
 209.37478 209.07117 208.86556 208.71596 208.63035 208.94775 209.32014 209.69554
 210.47493 211.63933 212.87572 214.64511 216.55951 218.58890 220.67030 222.73969
 224.78609 226.85648 228.93988 231.03227 233.14766 235.30606 237.54845 239.90485
 242.51224 244.74964 246.73803 248.48942 249.89282 251.00221 251.81061 252.11300
 252.13640 251.89679 251.24319 250.17758 248.76997 246.91737 244.81276 242.63216
 240.40955 238.19995 236.00634 233.83174 231.67813 229.53152 227.54392 225.68731
 223.95671 222.41510 221.03150 219.78989 218.65828 217.60468 216.69507 215.82247
 215.05086 214.21726 213.30165 212.65205 212.08844 212.26865 212.69437 212.91341
 213.38760 215.00224 216.41943 217.23773 218.69153 222.61801 228.39368 233.15547
 236.89923 240.71657 244.62366 248.44402 251.91362 254.86517 257.48630 260.11685
 262.59286 265.14804 267.68832 269.80182 271.72025 273.56189 275.29321 277.03079
 278.78674 280.47900 282.01779 283.38074 284.56482 285.61520 286.57858 287.45627
 288.25070 288.96387 289.59454 290.43881
 366.78100 356.32091 345.73882 334.59073 322.97965 311.15956 299.01547 286.80438
 274.50229 262.38520 250.38011 239.66703 229.77494 220.86485 213.03276 206.02067
 199.84058 194.76449 191.33241 189.36032 188.38323 188.43314 189.25405 190.54796
 192.25888 194.33979 196.58870 198.93361 201.36452 203.83043 205.90434 207.73226
 209.34417 210.47508 210.68999 210.90390 210.82681 210.51772 210.13664 209.75255
 209.35546 209.05137 208.84528 208.69519 208.60910 208.92602 209.29793 209.67284
 210.45175 211.61566 212.85157 214.62048 216.53440 218.56331 220.64422 222.71313
 224.75904 226.82895 228.91186 231.00378 233.11869 235.27660 237.51851 239.87442
 242.48133 244.71824 246.70616 248.45707 249.85998 250.96889 251.77680 252.07871
 252.10163 251.86154 251.20745 250.14136 248.73327 246.88018 244.77509 242.59401
 240.37092 238.16083 235.96674 233.79165 231.63756 229.49047 227.50239 225.64530
 223.91421 222.37212 220.98803 219.74594 218.61385 217.55977 216.64968 215.77659
 215.00450 214.17041 213.25432 212.60423 212.04015 212.24683 212.73511 213.04172
 213.52353 215.09407 216.48805 217.27689 218.75830 222.64233 228.36642 233.08786
 236.81697 240.64545 244.56761 248.37582 251.76836 254.69127 257.34268 259.99673
 262.44647 264.96777 267.49811 269.62817 271.58609 273.45993 275.20004 276.94006
 278.70804 280.42862 281.97348 283.33841 284.52225 285.57294 286.53754 287.41531
 288.21149 288.92276 289.55344 290.40228
 366.78100 356.32047 345.73794 334.58940 322.97787 311.15734 299.01281 286.80128
 274.49874 262.38121 250.37568 239.66215 229.76961 220.85908 213.02655 206.01402
 199.83349 194.75695 191.32442 189.35189 188.37436 188.42383 189.24429 190.53776
 192.24823 194.32870 196.57717 198.92163 201.35210 203.81757 205.89104 207.71850
 209.32997 210.46044 210.67491 210.88838 210.81084 210.50131 210.11978 209.73525
 209.33772 209.03318 208.82665 208.67612 208.58959 208.90605 209.27752 209.65199
 210.43046 211.59393 212.82939 214.59786 216.51133 218.53980 220.62027 222.68873
 224.73420 226.80367 228.88614 230.97761 233.09207 235.24954 237.49101 239.84648
 242.45294 244.68941 246.67688 248.42735 249.82982 250.93828 251.74575 252.04722
 252.06969 251.82916 251.17462 250.10809 248.69956 246.84603 244.74050 242.55896
 240.33543 238.12490 235.93037 233.75483 231.60030 229.45277 227.46424 225.60671
 223.87517 222.33264 220.94811 219.70558 218.57305 217.51851 216.60798 215.73445
 214.96192 214.12738 213.21085 212.56032 211.99579 212.22896 212.77986 213.14928
 213.66280 215.21228 216.54477 217.32489 218.87444 222.67274 228.32314 233.01077
 236.73251 240.57306 244.50945 248.29884 251.60748 254.49794 257.18231 259.86322
 262.29785 264.78922 267.30814 269.46149 271.46906 273.38443 275.13541 276.87024
 278.64319 280.37955 281.92557 283.29062 284.47495 285.52747 286.49045 287.36945
 288.16727 288.88004 289.51050 290.36432
 366.78100 356.32042 345.73784 334.58926 322.97768 311.15709 299.01251 286.80093
 274.49835 262.38077 250.37519 239.66161 229.76903 220.85844 213.02586 206.01328
 199.83270 194.75612 191.32354 189.35096 188.37338 188.42279 189.24321 190.53663
 192.24705 194.32747 196.57589 198.92031 201.35073 203.81614 205.88956 207.71698
 209.32840 210.45882 210.67324 210.88666 210.80908 210.49949 210.11791 209.73333
 209.33575 209.03117 208.82459 208.67401 208.58743 208.90384 209.27526 209.64968
 210.42810 211.59152 212.82694 214.59536 216.50878 218.53719 220.61761 222.68603
 224.73145 226.80087 228.88329 230.97471 233.08913 235.24654 237.48796 239.84338
 242.44980 244.68622 246.67364 248.42406 249.82648 250.93489 251.74231 252.04373
 252.06615 251.82557 251.17099 250.10441 248.69583 246.84224 244.73666 242.55508
 240.33150 238.12092 235.92634 233.75076 231.59618 229.44859 227.46001 225.60243
 223.87085 222.32827 220.94369 219.70111 218.56853 217.51394 216.60336 215.72978
 214.95720 214.12262 213.20604 212.55546 211.99088 212.23369 212.80736 213.25247
 213.78156 215.35001 216.70399 217.36244 218.91011 222.70174 228.29626 232.94054
 236.64781 240.49768 244.44284 248.20750 251.43048 254.29160 257.01300 259.72516
 262.15527 264.61826 267.12119 269.29956 271.35864 273.32144 275.08353 276.81277
 278.58673 280.33383 281.88266 283.24841 284.43405 285.48526 286.45184 287.33160
 288.12769 288.84192 289.47607 290.32507
 366.78100 356.32089 345.73878 334.59067 322.97956 311.15945 299.01535 286.80424
 274.50213 262.38502 250.37991 239.66680 229.77469 220.86458 213.03247 206.02036
 199.84025 194.76414 191.33204 189.35993 188.38282 188.43271 189.25360 190.54749
 192.25838 194.33927 196.58816 198.93305 201.36394 203.82983 205.90373 207.73162
 209.34351 210.47440 210.68929 210.90318 210.82607 210.51696 210.13585 209.75174
 209.35463 209.05053 208.84442 208.69431 208.60820 208.92509 209.29698 209.67187
 210.45076 211.61465 212.85054 214.61943 216.53332 218.56222 220.64311 222.71200
 224.75789 226.82778 228.91067 231.00256 233.11745 235.27534 237.51723 239.87312
 242.48002 244.71691 246.70480 248.45569 249.85858 250.96747 251.77536 252.07725
 252.10014 251.86003 251.20592 250.13981 248.73171 246.87860 244.77349 242.59238
 240.36927 238.15916 235.96505 233.78994 231.63583 229.48872 227.50061 225.64350
 223.91240 222.37029 220.98618 219.74407 218.61196 217.55785 216.64774 215.77463
 215.00252 214.16841 213.25230 212.60220 212.03809 212.26785 212.81071 213.36479
 213.90527 215.42157 216.88318 217.50435 218.99956 222.70747 228.24730 232.84369
 236.54114 240.40807 244.36821 248.11159 251.25476 254.08977 256.84842 259.59186
 262.02277 264.45517 266.93417 269.13562 271.24716 273.25842 275.03299 276.75870
 278.53357 280.28796 281.83804 283.20474 284.39111 285.44476 286.40930 287.28937
 288.08832 288.80313 289.43582 290.28979
 366.78100 356.32136 345.73972 334.59207 322.98143 311.16179 299.01815 286.80751
 274.50586 262.38922 250.38458 239.67194 229.78030 220.87066 213.03901 206.02737
 199.84773 194.77209 191.34045 189.36880 188.39216 188.44252 189.26388 190.55824
 192.26959 194.35095 196.60031 198.94567 201.37703 203.84338 205.91774 207.74610
 209.35846 210.48982 210.70517 210.91953 210.84289 210.53425 210.15361 209.76997
 209.37332 209.06968 208.86404 208.71440 208.62876 208.94611 209.31847 209.69383
 210.47319 211.63755 212.87390 214.64326 216.55762 218.58698 220.66834 222.73769
 224.78405 226.85441 228.93777 231.03013 233.14549 235.30384 237.54620 239.90256
 242.50992 244.74728 246.73563 248.48699 249.89035 250.99971 251.80807 252.11042
 252.13378 251.89414 251.24050 250.17486 248.76721 246.91457 244.80993 242.62929
 240.40665 238.19700 236.00336 233.82872 231.67508 229.52844 227.54080 225.68415
 223.95351 222.41187 221.02823 219.78659 218.65494 217.60130 216.69166 215.81902
 215.04738 214.21373 213.29809 212.64845 212.08481 212.30463 212.82396 213.46144
 214.04918 215.48112 217.01402 217.65405 219.10814 222.69928 228.19351 232.75325
 236.44765 240.33661 244.30991 248.02873 251.08997 253.89149 256.68170 259.45126
 261.88541 264.28992 266.74432 268.97156 271.13904 273.20383 274.99533 276.72235
 278.48648 280.24127 281.79285 283.15878 284.34576 285.39868 286.36481 287.24567
 288.04492 288.76105 289.39352 290.24957
 366.78100 356.32164 345.74028 334.59292 322.98256 311.16319 299.01983 286.80947
 274.50811 262.39175 250.38739 239.67503 229.78367 220.87431 213.04295 206.03158
 199.85222 194.77686 191.34550 189.37414 188.39778 188.44842 189.27006 190.56470
 192.27634 194.35797 196.60761 198.95325 201.38489 203.85153 205.92617 207.75481
 209.36745 210.49909 210.71473 210.92936 210.85300 210.54464 210.16428 209.78092
 209.38456 209.08120 208.87584 208.72648 208.64112 208.95875 209.33139 209.70703
 210.48667 211.65131 212.88795 214.65759 216.57223 218.60187 220.68351 222.75314
 224.79978 226.87042 228.95406 231.04670 233.16234 235.32098 237.56362 239.92026
 242.52790 244.76553 246.75417 248.50581 249.90945 251.01909 251.82773 252.13037
 252.15401 251.91465 251.26129 250.19592 248.78856 246.93620 244.83184 242.65148
 240.42912 238.21976 236.02640 233.85204 231.69868 229.55231 227.56495 225.70859
 223.97823 222.43687 221.05351 219.81215 218.68079 217.62743 216.71807 215.84570
 215.07434 214.24098 213.32562 212.67626 212.11290 212.33453 212.85817 213.53253
 214.21132 215.57091 217.08362 217.78456 219.22112 222.69763 228.15152 232.68930
 236.37732 240.28033 244.25426 247.93703 250.91000 253.67378 256.49442 259.29132
 261.73737 264.12488 266.56195 268.82468 271.05209 273.17307 274.98383 276.70517
 278.44427 280.19510 281.74652 283.11203 284.29944 285.35300 286.31937 287.20035
 288.00015 288.71548 289.35080 290.21030
 366.78100 356.32190 345.74080 334.59369 322.98359 311.16449 299.02139 286.81128
 274.51018 262.39408 250.38998 239.67787 229.78677 220.87767 213.04657 206.03546
 199.85636 194.78126 191.35016 189.37906 188.40295 188.45385 189.27575 190.57065
 192.28254 194.36444 196.61434 198.96024 201.39213 203.85903 205.93393 207.76283
 209.37572 210.50762 210.72352 210.93842 210.86231 210.55421 210.17411 209.79101
 209.39491 209.09180 208.88670 208.73760 208.65250 208.97039 209.34329 209.71919
 210.49909 211.66398 212.90088 214.67078 216.58568 218.61557 220.69747 222.76737
 224.81427 226.88517 228.96906 231.06196 233.17786 235.33676 237.57965 239.93655
 242.54445 244.78235 246.77124 248.52314 249.92704 251.03694 251.84583 252.14873
 252.17263 251.93353 251.28042 250.21532 248.80822 246.95612 244.85202 242.67191
 240.44981 238.24071 236.04761 233.87350 231.72040 229.57430 227.58720 225.73109
 224.00099 222.45989 221.07679 219.83568 218.70458 217.65148 216.74238 215.87028
 215.09917 214.26607 213.35097 212.70187 212.13876 212.36511 212.89989 213.59680
 214.37524 215.68024 217.11032 217.90729 219.36038 222.71201 228.12547 232.63837
 236.30910 240.21741 244.18265 247.82207 250.70889 253.43922 256.29330 259.12070
 261.58951 263.97025 266.39386 268.69629 270.98260 273.15738 274.98981 276.70505
 278.41159 280.15762 281.70816 283.07355 284.26141 285.31543 286.28281 287.16599
 287.96594 288.68817 289.32129 290.18378
 366.78100 356.32210 345.74120 334.59430 322.98439 311.16549 299.02259 286.81269
 274.51179 262.39589 250.39199 239.68008 229.78918 220.88028 213.04938 206.03848
 199.85958 194.78468 191.35377 189.38287 188.40697 188.45807 189.28017 190.57527
 192.28737 194.36946 196.61956 198.96566 201.39776 203.86486 205.93996 207.76906
 209.38215 210.51425 210.73035 210.94545 210.86955 210.56165 210.18175 209.79885
 209.40294 209.10004 208.89514 208.74624 208.66134 208.97944 209.35254 209.72863
 210.50873 211.67383 212.91093 214.68103 216.59613 218.62623 220.70832 222.77842
 224.82552 226.89662 228.98072 231.07382 233.18992 235.34901 237.59211 239.94921
 242.55731 244.79541 246.78451 248.53661 249.94070 251.05080 251.85990 252.16300
 252.18710 251.94820 251.29530 250.23039 248.82349 246.97159 244.86769 242.68779
 240.46589 238.25699 236.06408 233.89018 231.73728 229.59138 227.60448 225.74858
 224.01868 222.47777 221.09487 219.85397 218.72307 217.67017 216.76127 215.88937
 215.11846 214.28556 213.37066 212.72176 212.15886 212.39381 212.94894 213.66872
 214.51555 215.77609 217.12093 218.04073 219.54404 222.74332 228.11758 232.58771
 236.23389 240.14450 244.09740 247.69287 250.50299 253.20515 256.09082 258.94879
 261.44656 263.82455 266.23636 268.57648 270.91614 273.13879 274.99310 276.71088
 278.42471 280.11292 281.65799 283.02408 284.21109 285.26642 286.23480 287.11905
 287.92087 288.64130 289.27621 290.14044
 366.78100 356.32220 345.74140 334.59461 322.98481 311.16601 299.02321 286.81342
 274.51262 262.39682 250.39302 239.68123 229.79043 220.88163 213.05083 206.04004
 199.86124 194.78644 191.35564 189.38484 188.40905 188.46025 189.28245 190.57765
 192.28986 194.37206 196.62226 198.96846 201.40067 203.86787 205.94307 207.77227
 209.38548 210.51768 210.73388 210.94908 210.87328 210.56549 210.18569 209.80289
 209.40709 209.10430 208.89950 208.75070 208.66590 208.98411 209.35731 209.73351
 210.51371 211.67892 212.91612 214.68632 216.60152 218.63172 220.71393 222.78413
 224.83133 226.90253 228.98674 231.07994 233.19614 235.35534 237.59855 239.95575
 242.56395 244.80215 246.79136 248.54356 249.94776 251.05796 251.86716 252.17037
 252.19457 251.95577 251.30297 250.23818 248.83138 246.97958 244.87578 242.69599
 240.47419 238.26539 236.07259 233.89880 231.74600 229.60020 227.61340 225.75760
 224.02781 222.48701 221.10421 219.86341 218.73262 217.67982 216.77102 215.89922
 215.12843 214.29563 213.38083 212.73203 212.16924 212.41852 213.00749 213.74452
 214.63278 215.85030 217.13766 218.19720 219.75710 222.78978 228.11757 232.53545
 236.15700 240.07030 244.00691 247.55547 250.29568 252.97217 255.88519 258.77243
 261.30215 263.68256 266.08688 268.46289 270.84772 273.10687 274.97516 276.69983
 278.43942 280.06894 281.60867 282.97720 284.16428 285.21939 286.18842 287.07407
 287.87488 288.59631 289.23169 290.09244
 366.78100 356.32250 345.74200 334.59551 322.98601 311.16751 299.02501 286.81552
 274.51502 262.39952 250.39602 239.68452 229.79403 220.88553 213.05503 206.04453
 199.86604 194.79154 191.36104 189.39054 188.41504 188.46655 189.28905 190.58455
 192.29705 194.37955 196.63006 198.97656 201.40906 203.87656 205.95207 207.78157
 209.39507 210.52757 210.74407 210.95958 210.88408 210.57658 210.19708 209.81459
 209.41909 209.11659 208.91209 208.76359 208.67910 208.99760 209.37110 209.74760
 210.52810 211.69361 212.93111 214.70161 216.61711 218.64762 220.73012 222.80062
 224.84812 226.91962 229.00413 231.09763 233.21413 235.37363 237.61714 239.97464
 242.58314 244.82164 246.81114 248.56365 249.96815 251.07865 251.88815 252.19166
 252.21616 251.97766 251.32516 250.26066 248.85417 247.00267 244.89917 242.71967
 240.49817 238.28968 236.09718 233.92368 231.77118 229.62569 227.63919 225.78369
 224.05419 222.51369 221.13120 219.89070 218.76020 217.70770 216.79921 215.92771
 215.15721 214.32471 213.41021 212.76172 212.19922 212.45471 213.05832 213.81509
 214.75006 215.92876 217.18767 218.36943 219.96194 222.84302 228.10597 232.47829
 236.07877 239.99394 243.90581 247.39824 250.07237 252.73030 255.66971 258.58679
 261.15375 263.54868 265.95709 268.36969 270.79193 273.07855 274.95798 276.68390
 278.43518 280.02960 281.56635 282.93356 284.12152 285.17715 286.14545 287.02771
 287.83075 288.55106 289.18893 290.05136
 366.78100 356.32320 345.74340 334.59761 322.98881 311.17101 299.02921 286.82041
 274.52061 262.40582 250.40302 239.69222 229.80242 220.89462 213.06483 206.05503
 199.87723 194.80343 191.37363 189.40383 188.42904 188.48124 189.30444 190.60064
 192.31384 194.39705 196.64825 198.99545 201.42865 203.89685 205.97305 207.80326
 209.41746 210.55066 210.76786 210.98406 210.90926 210.60247 210.22367 209.84187
 209.44707 209.14527 208.94148 208.79368 208.70988 209.02908 209.40328 209.78048
 210.56169 211.72789 212.96609 214.73729 216.65349 218.68470 220.76790 222.83910
 224.88730 226.95950 229.04470 231.13891 233.25611 235.41631 237.66051 240.01871
 242.62792 244.86712 246.85732 248.61052 250.01572 251.12692 251.93713 252.24133
 252.26653 252.02873 251.37693 250.31314 248.90734 247.05654 244.95374 242.77494
 240.55414 238.34635 236.15455 233.98175 231.82995 229.68515 227.69936 225.84456
 224.11576 222.57596 221.19416 219.95436 218.82457 217.77277 216.86497 215.99417
 215.22437 214.39257 213.47878 212.83098 212.26918 212.51320 213.08972 213.87573
 214.87497 216.03545 217.28050 218.53792 220.14375 222.90826 228.07924 232.42093
 235.99907 239.91055 243.78401 247.20808 249.82463 252.47337 255.44005 258.38748
 260.99866 263.42487 265.85095 268.30423 270.75928 273.06790 274.96219 276.68323
 278.43170 279.99792 281.53241 282.90033 284.08899 285.14380 286.11337 286.99841
 287.80542 288.53513 289.17236 290.03516
 366.78100 356.32441 345.74582 334.60123 322.99364 311.17705 299.03647 286.82888
 274.53029 262.41670 250.41511 239.70552 229.81693 220.91034 213.08175 206.07316
 199.89657 194.82399 191.39540 189.42681 188.45322 188.50663 189.33104 190.62845
 192.34286 194.42727 196.67968 199.02809 201.46251 203.93192 206.00933 207.84074
 209.45615 210.59056 210.80897 211.02638 210.95279 210.64720 210.26961 209.88903
 209.49544 209.19485 208.99226 208.84567 208.76308 209.08349 209.45890 209.83731
 210.61972 211.78713 213.02655 214.79896 216.71637 218.74878 220.83319 222.90560
 224.95501 227.02842 229.11483 231.21024 233.32865 235.49007 237.73548 240.09489
 242.70530 244.94571 246.93712 248.69153 250.09794 251.21035 252.02176 252.32717
 252.35359 252.11700 251.46641 250.40382 248.99923 247.14964 245.04805 242.87046
 240.65087 238.44428 236.25369 234.08211 231.93152 229.78793 227.80334 225.94975
 224.22216 222.68357 221.30298 220.06439 218.93580 217.88521 216.97863 216.10904
 215.34045 214.50986 213.59727 212.95068 212.39009 212.59903 213.09270 213.94142
 214.99666 216.15552 217.40060 218.69440 220.31689 223.00041 228.05304 232.37790
 235.92981 239.82498 243.64142 246.98108 249.55223 252.19946 255.19397 258.17355
 260.83682 263.31018 265.76926 268.26636 270.74707 273.06833 274.97742 276.69193
 278.43314 279.97812 281.50708 282.87323 284.05963 285.11435 286.08261 286.96906
 287.78067 288.50891 289.15009 290.01056
 366.78100 356.32598 345.74896 334.60594 322.99992 311.18491 299.04589 286.83987
 274.54285 262.43083 250.43081 239.72279 229.83577 220.93076 213.10374 206.09672
 199.92170 194.85068 191.42366 189.45664 188.48462 188.53961 189.36559 190.66457
 192.38055 194.46653 196.72051 199.07049 201.50647 203.97745 206.05644 207.88942
 209.50640 210.64238 210.86236 211.08134 211.00932 210.70530 210.32929 209.95027
 209.55825 209.25923 209.05821 208.91319 208.83217 209.15415 209.53113 209.91112
 210.69510 211.86408 213.10506 214.87904 216.79802 218.83200 220.91798 222.99197
 225.04295 227.11793 229.20591 231.30289 233.42287 235.58585 237.83283 240.19382
 242.80580 245.04778 247.04076 248.79674 250.20472 251.31870 252.13168 252.43866
 252.46665 252.23163 251.58261 250.52159 249.11857 247.27055 245.17053 242.99451
 240.77650 238.57148 236.38246 234.21244 232.06342 229.92140 227.93838 226.08636
 224.36034 222.82333 221.44431 220.20729 219.08027 218.03125 217.12623 216.25821
 215.49119 214.66218 213.75116 213.10614 212.54712 212.70448 213.07628 214.01122
 215.11339 216.27634 217.53162 218.84793 220.50021 223.10901 228.04004 232.35199
 235.87482 239.73927 243.48134 246.72319 249.25819 251.90704 254.92989 257.94598
 260.67145 263.20660 265.71158 268.24780 270.74506 273.07336 274.99371 276.70602
 278.43808 279.97687 281.48203 282.83945 284.02209 285.07468 286.04102 286.92810
 287.74066 288.47278 289.11346 289.97632
 366.78100 356.32770 345.75241 334.61111 323.00681 311.19352 299.05622 286.85193
 274.55663 262.44633 250.44804 239.74174 229.85644 220.95315 213.12785 206.12255
 199.94926 194.87996 191.45466 189.48937 188.51907 188.57578 189.40348 190.70418
 192.42189 194.50959 196.76529 199.11700 201.55470 204.02740 206.10811 207.94281
 209.56152 210.69922 210.92092 211.14163 211.07133 210.76903 210.39474 210.01744
 209.62714 209.32985 209.13055 208.98725 208.90796 209.23166 209.61037 209.99207
 210.77777 211.94848 213.19118 214.96688 216.88759 218.92329 221.01099 223.08670
 225.13940 227.21611 229.30581 231.40451 233.52622 235.69092 237.93962 240.30233
 242.91603 245.15973 247.15444 248.91214 250.32185 251.43755 252.25225 252.56096
 252.59066 252.35736 251.71007 250.65077 249.24947 247.40318 245.30488 243.13058
 240.91429 238.71099 236.52370 234.35540 232.20810 230.06781 228.08651 226.23621
 224.51192 222.97662 221.59932 220.36403 219.23873 218.19144 217.28814 216.42184
 215.65655 214.82925 213.91995 213.27666 212.71936 212.81935 213.05557 214.07347
 215.22452 216.40013 217.66881 219.01419 220.69547 223.22160 228.03728 232.32784
 235.83015 239.65477 243.31000 246.44398 248.94479 251.59882 254.64854 257.70459
 260.50156 263.10901 265.66681 268.23807 270.75049 273.08447 275.01807 276.73267
 278.45270 280.04050 281.43567 282.78830 283.97644 285.03192 286.00360 286.89185
 287.70926 288.44196 289.08954 289.94250
 366.78100 356.32897 345.75494 334.61490 323.01187 311.19984 299.06381 286.86077
 274.56674 262.45771 250.46068 239.75565 229.87161 220.96958 213.14555 206.14152
 199.96948 194.90145 191.47742 189.51339 188.54436 188.60232 189.43129 190.73326
 192.45223 194.54119 196.79816 199.15113 201.59010 204.06407 206.14603 207.98200
 209.60197 210.74094 210.96391 211.18587 211.11684 210.81581 210.44278 210.06674
 209.67771 209.38168 209.18365 209.04162 208.96358 209.28855 209.66852 210.05149
 210.83845 212.01042 213.25439 215.03136 216.95333 218.99029 221.07926 223.15623
 225.21020 227.28816 229.37913 231.47910 233.60207 235.76804 238.01800 240.38197
 242.99694 245.24191 247.23787 248.99684 250.40781 251.52478 252.34075 252.65071
 252.68168 252.44965 251.80362 250.74558 249.34555 247.50052 245.40349 243.23046
 241.01542 238.81339 236.62736 234.46033 232.31429 230.17526 228.19523 226.34620
 224.62317 223.08913 221.71310 220.47907 219.35504 218.30900 217.40697 216.54194
 215.77791 214.95188 214.04384 213.40181 212.84578 212.91223 213.06924 214.10757
 215.32440 216.53970 217.79469 219.17627 220.91104 223.33717 228.05025 232.30896
 235.79094 239.56810 243.12767 246.15181 248.62419 251.28830 254.36444 257.46252
 260.33356 263.01538 265.62466 268.23038 270.75940 273.09805 275.04730 276.76987
 278.47903 280.06403 281.41602 282.75516 283.93671 284.98663 285.95044 286.83499
 287.64673 288.37704 289.00482 289.83954
 366.78100 356.32990 345.75681 334.61771 323.01561 311.20452 299.06942 286.86732
 274.57423 262.46613 250.47003 239.76594 229.88284 220.98175 213.15865 206.15555
 199.98446 194.91736 191.49426 189.53117 188.56307 188.62197 189.45188 190.75478
 192.47468 194.56459 196.82249 199.17639 201.61630 204.09120 206.17410 208.01101
 209.63191 210.77181 210.99572 211.21862 211.15052 210.85043 210.47833 210.10324
 209.71514 209.42004 209.22295 209.08185 209.00475 209.33066 209.71156 210.09546
 210.88337 212.05627 213.30117 215.07908 217.00198 219.03988 221.12979 223.20769
 225.26259 227.34150 229.43340 231.53430 233.65821 235.82511 238.07601 240.44092
 243.05682 245.30273 247.29963 249.05953 250.47144 251.58934 252.40624 252.71715
 252.74905 252.51795 251.87286 250.81576 249.41666 247.57257 245.47647 243.30437
 241.09028 238.88918 236.70408 234.53799 232.39289 230.25479 228.27570 226.42760
 224.70550 223.17241 221.79731 220.56422 219.44112 218.39602 217.49493 216.63083
 215.86773 215.04264 214.13554 213.49444 212.93935 212.98808 213.10324 214.13875
 215.41022 216.66539 217.92896 219.32513 221.09698 223.47087 228.07272 232.29620
 235.76378 239.49423 242.95398 245.86812 248.31302 250.98714 254.08636 257.22290
 260.16388 262.91772 265.57956 268.22610 270.76736 273.10083 275.05246 276.78226
 278.49152 280.07285 281.41827 282.73767 283.91312 284.95847 285.91888 286.80130
 287.61304 288.34256 288.96344 289.79382
 366.78100 356.33073 345.75846 334.62019 323.01892 311.20865 299.07438 286.87311
 274.58084 262.47356 250.47829 239.77502 229.89275 220.99248 213.17021 206.16794
 199.99767 194.93140 191.50913 189.54686 188.57959 188.63932 189.47005 190.77378
 192.49451 194.58524 196.84396 199.19869 201.63942 204.11515 206.19888 208.03661
 209.65834 210.79907 211.02380 211.24753 211.18026 210.88099 210.50972 210.13545
 209.74818 209.45391 209.25764 209.11737 209.04109 209.36782 209.74955 210.13428
 210.92301 212.09674 213.34247 215.12120 217.04493 219.08366 221.17439 223.25312
 225.30885 227.38858 229.48131 231.58304 233.70777 235.87549 238.12722 240.49295
 243.10968 245.35641 247.35414 249.11487 250.52760 251.64633 252.46406 252.77579
 252.80852 252.57825 251.93398 250.87771 249.47944 247.63617 245.54089 243.36962
 241.15635 238.95608 236.77181 234.60654 232.46227 230.32500 228.34673 226.49946
 224.77819 223.24592 221.87165 220.63938 219.51711 218.47284 217.57257 216.70930
 215.94702 215.12275 214.21648 213.57621 213.02194 213.05830 213.14420 214.14807
 215.55141 216.77316 217.95575 219.45821 221.32797 223.59497 228.12653 232.33742
 235.76848 239.44514 242.79404 245.58095 247.98657 250.67259 253.79828 256.97522
 259.98648 262.81876 265.54102 268.22955 270.77539 273.09387 275.04144 276.78006
 278.49658 280.07614 281.49399 282.69012 283.85950 284.91144 285.87363 286.75769
 287.57321 288.30496 288.92209 289.74963
 366.78100 356.33159 345.76017 334.62276 323.02234 311.21293 299.07952 286.87910
 274.58769 262.48127 250.48686 239.78444 229.90303 221.00362 213.18220 206.18079
 200.01137 194.94596 191.52455 189.56313 188.59672 188.65730 189.48889 190.79348
 192.51506 194.60665 196.86623 199.22182 201.66341 204.13999 206.22458 208.06316
 209.68575 210.82733 211.05292 211.27751 211.21109 210.91268 210.54226 210.16885
 209.78244 209.48902 209.29361 209.15419 209.07878 209.40637 209.78895 210.17454
 210.96412 212.13871 213.38529 215.16488 217.08947 219.12905 221.22064 223.30022
 225.35681 227.43740 229.53098 231.63357 233.75915 235.92774 238.18033 240.54691
 243.16450 245.41208 247.41067 249.17226 250.58584 251.70543 252.52401 252.83660
 252.87018 252.64077 251.99736 250.94194 249.54453 247.70211 245.60770 243.43729
 241.22487 239.02546 236.84204 234.67763 232.53422 230.39780 228.42039 226.57397
 224.85356 223.32214 221.94873 220.71732 219.59590 218.55249 217.65307 216.79066
 216.02925 215.20583 214.30042 213.66100 213.10759 213.13000 213.18298 214.17088
 215.62941 216.89708 218.02066 219.54286 221.53139 223.85185 228.20590 232.37498
 235.77132 239.38487 242.60904 245.25772 247.62408 250.33862 253.50439 256.73178
 259.82132 262.73660 265.51987 268.23926 270.78113 273.07999 275.02429 276.77289
 278.49420 280.07343 281.47971 282.66486 283.83249 284.88010 285.83774 286.71875
 287.53180 288.25519 288.87061 289.69443
 366.78100 356.33279 345.76258 334.62636 323.02715 311.21894 299.08673 286.88751
 274.59730 262.49209 250.49888 239.79766 229.91745 221.01924 213.19903 206.19881
 200.03060 194.96639 191.54618 189.58596 188.62075 188.68254 189.51533 190.82111
 192.54390 194.63669 196.89748 199.25426 201.69705 204.17484 206.26063 208.10041
 209.72420 210.86699 211.09378 211.31956 211.25435 210.95714 210.58793 210.21571
 209.83050 209.53829 209.34408 209.20586 209.13165 209.46044 209.84423 210.23101
 211.02180 212.19759 213.44538 215.22616 217.15195 219.19274 221.28553 223.36631
 225.42410 227.50589 229.60068 231.70446 233.83125 236.00104 238.25483 240.62261
 243.24140 245.49019 247.48998 249.25276 250.66755 251.78834 252.60813 252.92191
 252.95670 252.72849 252.08628 251.03206 249.63585 247.79464 245.70143 243.53221
 241.32100 239.12279 236.94058 234.77736 232.63515 230.49994 228.52373 226.67851
 224.95930 223.42909 222.05688 220.82666 219.70645 218.66424 217.76603 216.90482
 216.14460 215.32239 214.41818 213.77997 213.22775 213.21773 213.19403 214.24217
 215.69113 216.95985 218.14996 219.67281 221.69328 224.08690 228.26733 232.39520
 235.76025 239.30966 242.40378 244.92094 247.26709 250.02461 253.23654 256.51535
 259.67874 262.67120 265.50577 268.24628 270.77939 273.05719 274.99445 276.74612
 278.46936 280.04614 281.44223 282.64240 283.81161 284.86084 285.81653 286.69955
 287.51456 288.23050 288.84238 289.66562
 366.78100 356.33392 345.76485 334.62977 323.03170 311.22462 299.09355 286.89547
 274.60640 262.50232 250.51025 239.81017 229.93110 221.03402 213.21494 206.21587
 200.04879 194.98572 191.56664 189.60757 188.64349 188.70642 189.54034 190.84727
 192.57119 194.66512 196.92704 199.28496 201.72889 204.20781 206.29474 208.13566
 209.76059 210.90451 211.13244 211.35936 211.29529 210.99921 210.63114 210.26006
 209.87598 209.58491 209.39183 209.25476 209.18168 209.51161 209.89653 210.28446
 211.07638 212.25331 213.50223 215.28416 217.21108 219.25300 221.34693 223.42885
 225.48778 227.57070 229.66663 231.77155 233.89948 236.07040 238.32533 240.69425
 243.31418 245.56410 247.56502 249.32895 250.74487 251.86680 252.68772 253.00265
 253.03857 252.81150 252.17042 251.11735 249.72227 247.88220 245.79012 243.62204
 241.41197 239.21489 237.03382 234.87174 232.73067 230.59659 228.62152 226.77744
 225.05937 223.53029 222.15922 220.93014 219.81106 218.76999 217.87291 217.01284
 216.25376 215.43269 214.52961 213.89254 213.34146 213.30057 213.20392 214.32202
 215.76897 216.97861 218.28706 219.84383 221.82957 224.27036 228.31212 232.40706
 235.75279 239.23433 242.19940 244.60037 246.94301 249.74017 252.98802 256.30530
 259.53726 262.60181 265.48584 268.24966 270.77505 273.03284 274.96616 276.72372
 278.44565 280.01895 281.42950 282.61499 283.77295 284.81577 285.76489 286.64490
 287.46194 288.16849 288.78101 289.60135
 366.78100 356.33484 345.76667 334.63251 323.03535 311.22919 299.09902 286.90186
 274.61370 262.51054 250.51937 239.82021 229.94205 221.04589 213.22772 206.22956
 200.06340 195.00124 191.58307 189.62491 188.66175 188.72559 189.56042 190.86826
 192.59310 194.68793 196.95077 199.30961 201.75445 204.23428 206.32212 208.16396
 209.78980 210.93463 211.16347 211.39131 211.32815 211.03298 210.66582 210.29566
 209.91250 209.62233 209.43017 209.29401 209.22185 209.55268 209.93852 210.32736
 211.12019 212.29803 213.54787 215.33071 217.25854 219.30138 221.39622 223.47906
 225.53889 227.62273 229.71957 231.82541 233.95424 236.12608 238.38192 240.75176
 243.37259 245.62343 247.62527 249.39011 250.80694 251.92978 252.75162 253.06745
 253.10429 252.87813 252.23797 251.18580 249.79164 247.95248 245.86132 243.69415
 241.48499 239.28883 237.10867 234.94750 232.80734 230.67418 228.70002 226.85685
 225.13969 223.61153 222.24137 221.01320 219.89504 218.85488 217.95871 217.09955
 216.34139 215.52123 214.61906 213.98290 213.43274 213.37212 213.22888 214.38626
 215.85674 217.01212 218.39786 219.99669 221.95509 224.43822 228.37329 232.43636
 235.75423 239.16579 242.01141 244.29387 246.62238 249.45638 252.73505 256.09015
 259.39297 262.53391 265.46820 268.25427 270.77524 273.01285 274.94235 276.69791
 278.40677 279.97104 281.38226 282.57281 283.74133 284.78632 285.73618 286.61945
 287.44244 288.13892 288.74893 289.56726
 366.78100 356.33548 345.76796 334.63445 323.03793 311.23241 299.10289 286.90637
 274.61885 262.51634 250.52582 239.82730 229.94978 221.05426 213.23674 206.23923
 200.07371 195.01219 191.59467 189.63715 188.67464 188.73912 189.57460 190.88308
 192.60856 194.70404 196.96753 199.32701 201.77249 204.25297 206.34145 208.18393
 209.81042 210.95590 211.18538 211.41386 211.35134 211.05683 210.69031 210.32079
 209.93827 209.64875 209.45723 209.32172 209.25020 209.58168 209.96816 210.35764
 211.15113 212.32961 213.58009 215.36357 217.29205 219.33553 221.43102 223.51450
 225.57498 227.65946 229.75694 231.86342 233.99291 236.16539 238.42187 240.79235
 243.41383 245.66532 247.66780 249.43328 250.85076 251.97424 252.79672 253.11321
 253.15069 252.92517 252.28565 251.23413 249.84061 248.00210 245.91158 243.74506
 241.53654 239.34102 237.16151 235.00099 232.86147 230.72895 228.75543 226.91291
 225.19640 223.66888 222.29936 221.07184 219.95432 218.91480 218.01929 217.16077
 216.40325 215.58373 214.68221 214.04670 213.49718 213.43204 213.27811 214.43143
 215.93080 217.09485 218.50192 220.08937 222.03712 224.58029 228.46187 232.49760
 235.75569 239.07329 241.80194 243.99380 246.31754 249.17491 252.48225 255.89200
 259.27795 262.48569 265.45993 268.26199 270.77307 272.99393 274.91888 276.66693
 278.36163 279.91446 281.31970 282.55008 283.71948 284.77502 285.75345 286.63373
 287.41525 288.10370 288.70889 289.52573
 366.78100 356.33607 345.76913 334.63620 323.04027 311.23534 299.10640 286.91047
 274.62354 262.52160 250.53167 239.83374 229.95681 221.06187 213.24494 206.24801
 200.08307 195.02214 191.60521 189.64827 188.68634 188.75141 189.58748 190.89654
 192.62261 194.71868 196.98274 199.34281 201.78888 204.26995 206.35901 208.20208
 209.82915 210.97521 211.20528 211.43435 211.37242 211.07848 210.71255 210.34362
 209.96168 209.67275 209.48182 209.34689 209.27595 209.60802 209.99509 210.38515
 211.17922 212.35829 213.60935 215.39342 217.32249 219.36656 221.46262 223.54669
 225.60776 227.69282 229.79089 231.89796 234.02803 236.20109 238.45816 240.82923
 243.45129 245.70336 247.70643 249.47250 250.89056 252.01463 252.83770 253.15476
 253.19283 252.96790 252.32897 251.27803 249.88510 248.04717 245.95723 243.79130
 241.58337 239.38843 237.20950 235.04957 232.91064 230.77870 228.80577 226.96384
 225.24790 223.72097 222.35204 221.12511 220.00817 218.96924 218.07431 217.21637
 216.45944 215.64051 214.73958 214.10464 213.55571 213.49561 213.35381 214.41187
 216.01062 217.10201 218.50945 220.18509 222.14105 224.69814 228.52812 232.57605
 235.77657 239.03996 241.64600 243.70039 246.00034 248.88901 252.25037 255.72229
 259.18198 262.44287 265.42496 268.24005 270.76074 272.96832 274.90512 276.66980
 278.33957 279.88773 281.27185 282.52145 283.70367 284.76669 285.74973 286.64062
 287.43121 288.13260 288.76462 289.57281
 366.78100 356.33797 345.77294 334.64191 323.04788 311.24485 299.11782 286.92380
 274.63877 262.53874 250.55071 239.85468 229.97965 221.08662 213.27159 206.27656
 200.11353 195.05450 191.63947 189.68444 188.72442 188.79139 189.62936 190.94033
 192.66830 194.76627 197.03224 199.39421 201.84218 204.32515 206.41612 208.26109
 209.89007 211.03804 211.27001 211.50098 211.44095 211.14892 210.78489 210.41786
 210.03783 209.75080 209.56177 209.42874 209.35971 209.69369 210.08266 210.47463
 211.27060 212.45157 213.70454 215.49051 217.42148 219.46745 221.56542 223.65139
 225.71436 227.80133 229.90131 232.01028 234.14225 236.31722 238.57619 240.94916
 243.57313 245.82710 247.83207 249.60004 251.02001 252.14598 252.97095 253.28993
 253.32990 253.10687 252.46984 251.42081 250.02978 248.19375 246.10572 243.94169
 241.73566 239.54263 237.36560 235.20758 233.07055 230.94052 228.96949 227.12946
 225.41543 223.89040 222.52337 221.29834 220.18331 219.14628 218.25325 217.39722
 216.64220 215.82517 214.92614 214.29311 213.74608 213.63594 213.40431 214.44313
 215.98421 216.96861 218.62552 220.48106 222.40099 224.86296 228.60391 232.62312
 235.73244 238.94391 241.47549 243.42188 245.70105 248.63689 252.03613 255.57092
 259.03909 262.30212 265.31277 268.10681 270.63037 272.87143 274.89182 276.73959
 278.42719 279.92072 281.27573 282.63864 283.83038 284.90002 285.89709 286.80463
 287.63297 288.38129 289.03503 289.86810
 366.78100 356.33721 345.77143 334.63964 323.04485 311.24107 299.11328 286.91849
 274.63271 262.53192 250.54313 239.84635 229.97056 221.07677 213.26098 206.26520
 200.10141 195.04162 191.62584 189.67005 188.70926 188.77548 189.61269 190.92290
 192.65012 194.74733 197.01254 199.37376 201.82097 204.30318 206.39340 208.23761
 209.86582 211.01304 211.24425 211.47446 211.41367 211.12089 210.75610 210.38831
 210.00753 209.71974 209.52995 209.39617 209.32638 209.65959 210.04781 210.43902
 211.23423 212.41445 213.66666 215.45187 217.38209 219.42730 221.52451 223.60973
 225.67194 227.75815 229.85736 231.96558 234.09679 236.27100 238.52922 240.90143
 243.52464 245.77786 247.78207 249.54928 250.96850 252.09371 252.91792 253.23614
 253.27535 253.05156 252.41378 251.36399 249.97220 248.13542 246.04663 243.88184
 241.67505 239.48127 237.30348 235.14469 233.00691 230.87612 228.90433 227.06355
 225.34876 223.82297 222.45519 221.22940 220.11361 219.07583 218.18204 217.32525
 216.56947 215.75168 214.85189 214.21811 213.67032 213.63957 213.59750 214.47644
 215.80161 217.08775 218.85599 220.64687 222.53261 225.01845 228.83522 232.56612
 235.70979 238.78511 241.26096 243.21761 245.45915 248.39703 251.82281 255.38657
 258.87238 262.14413 265.16391 267.93402 270.41888 272.63138 274.63773 276.52676
 278.32706 279.99673 281.52295 282.88962 284.08054 285.14841 286.14114 287.05246
 287.88998 288.63580 289.28732 290.11761
 366.78100 356.33479 345.76658 334.63237 323.03516 311.22896 299.09875 286.90154
 274.61333 262.51012 250.51891 239.81970 229.94149 221.04529 213.22708 206.22887
 200.06266 195.00045 191.58224 189.62403 188.66082 188.72461 189.55941 190.86720
 192.59199 194.68678 196.94957 199.30836 201.75315 204.23294 206.32073 208.16253
 209.78832 210.93311 211.16190 211.38969 211.32648 211.03127 210.66406 210.29386
 209.91065 209.62044 209.42823 209.29202 209.21981 209.55060 209.93639 210.32518
 211.11798 212.29577 213.54556 215.32835 217.25614 219.29893 221.39372 223.47651
 225.53630 227.62010 229.71689 231.82268 233.95147 236.12326 238.37905 240.74884
 243.36963 245.62043 247.62222 249.38701 250.80380 251.92659 252.74838 253.06417
 253.10096 252.87475 252.23455 251.18234 249.78813 247.94892 245.85771 243.69050
 241.48129 239.28508 237.10487 234.94367 232.80346 230.67025 228.69604 226.85283
 225.13562 223.60741 222.23720 221.00900 219.89079 218.85058 217.95437 217.09516
 216.33695 215.51674 214.61453 213.97832 213.42812 213.52756 213.79042 214.69858
 215.76199 217.14233 218.84117 220.62381 222.55545 225.14937 229.00343 232.48129
 235.63977 238.56689 240.99930 242.97740 245.21916 248.17848 251.68044 255.31268
 258.83148 262.13162 265.15335 267.88052 270.29974 272.46158 274.45380 276.37207
 278.17892 279.81473 281.30148 282.65289 283.83328 284.89130 285.87610 286.78723
 287.61285 288.34808 288.99033 289.80884
 366.78100 356.33369 345.76438 334.62907 323.03076 311.22345 299.09214 286.89383
 274.60452 262.50021 250.50790 239.80759 229.92828 221.03097 213.21166 206.21235
 200.04504 194.98173 191.56242 189.60311 188.63880 188.70149 189.53518 190.84186
 192.56555 194.65924 196.92093 199.27862 201.72231 204.20100 206.28769 208.12838
 209.75307 210.89676 211.12445 211.35114 211.28683 210.99052 210.62221 210.25090
 209.86659 209.57528 209.38197 209.24466 209.17135 209.50104 209.88573 210.27342
 211.06511 212.24180 213.49049 215.27218 217.19887 219.24056 221.33425 223.41594
 225.47463 227.55732 229.65301 231.75770 233.88539 236.05608 238.31077 240.67946
 243.29915 245.54884 247.54953 249.31322 250.72890 251.85059 252.67128 252.98597
 253.02166 252.79435 252.15304 251.09973 249.70442 247.86411 245.77180 243.60349
 241.39318 239.19587 237.01456 234.85225 232.71094 230.57663 228.60132 226.75701
 225.03870 223.50939 222.13808 220.90877 219.78946 218.74815 217.85084 216.99053
 216.23122 215.40991 214.50660 213.86929 213.31798 213.47804 213.90799 214.89742
 215.82150 217.29048 218.92329 220.68565 222.62460 225.24416 228.95876 232.43396
 235.49405 238.32047 240.62274 242.54144 244.82339 247.90555 251.52188 255.19568
 258.73886 262.04953 265.08578 267.89886 270.43381 272.69333 274.73419 276.54407
 278.06528 279.41608 280.89215 282.26395 283.47415 284.59436 285.68213 286.66757
 287.55389 288.34314 289.03262 289.91129
 366.78100 356.33786 345.77271 334.64157 323.04742 311.24428 299.11713 286.92299
 274.63784 262.53770 250.54956 239.85341 229.97827 221.08512 213.26998 206.27483
 200.11169 195.05254 191.63740 189.68226 188.72211 188.78897 189.62682 190.93768
 192.66553 194.76339 197.02925 199.39110 201.83896 204.32181 206.41267 208.25752
 209.88638 211.03423 211.26609 211.49695 211.43680 211.14466 210.78051 210.41337
 210.03322 209.74608 209.55693 209.42379 209.35465 209.68850 210.07736 210.46921
 211.26507 212.44592 213.69878 215.48463 217.41549 219.46135 221.55920 223.64506
 225.70791 227.79477 229.89462 232.00348 234.13533 236.31019 238.56905 240.94190
 243.56576 245.81961 247.82447 249.59232 251.01218 252.13804 252.96289 253.28175
 253.32160 253.09846 252.46131 251.41217 250.02102 248.18488 246.09674 243.93259
 241.72645 239.53330 237.35616 235.19801 233.06087 230.93072 228.95958 227.11944
 225.40529 223.88015 222.51300 221.28786 220.17271 219.13557 218.24242 217.38628
 216.63114 215.81399 214.91485 214.28170 213.73456 213.71718 213.79208 214.92642
 216.14857 217.57256 219.34108 221.05147 222.83714 225.29742 228.83821 232.31299
 235.17442 237.92108 240.15851 242.10535 244.49231 247.74403 251.44911 255.14558
 258.73874 262.06744 265.11774 267.95773 270.48798 272.66745 274.51590 276.07751
 277.44165 278.79956 280.34497 281.76392 283.16296 284.46704 285.65680 286.73465
 287.70407 288.56732 289.32144 290.28250
 366.78100 356.34020 345.77739 334.64859 323.05679 311.25599 299.13118 286.93938
 274.65658 262.55877 250.57297 239.87917 230.00636 221.11556 213.30276 206.30996
 200.14915 195.09235 191.67955 189.72674 188.76894 188.83814 189.67833 190.99153
 192.72173 194.82193 197.09012 199.45432 201.90452 204.38971 206.48291 208.33011
 209.96131 211.11150 211.34570 211.57890 211.52109 211.23129 210.86949 210.50468
 210.12688 209.84208 209.65528 209.52447 209.45767 209.79387 210.18506 210.57926
 211.37746 212.56066 213.81585 215.60405 217.53725 219.58544 221.68564 223.77384
 225.83903 227.92823 230.03043 232.14163 234.27582 236.45302 238.71422 241.08941
 243.71561 245.97181 247.97900 249.74920 251.17140 252.29960 253.12679 253.44799
 253.49019 253.26938 252.63458 251.58778 250.19898 248.36517 246.27937 244.11757
 241.91376 239.72296 237.54816 235.39235 233.25755 231.12975 229.16095 227.32314
 225.61134 224.08854 222.72373 221.50093 220.38813 219.35332 218.46252 217.60872
 216.85592 216.04111 215.14431 214.51351 213.96870 213.87314 213.74619 214.85869
 216.40089 217.52832 219.51006 221.37538 223.09897 225.35023 228.80455 232.24927
 234.95102 237.58664 239.79732 241.83734 244.37462 247.72319 251.44302 255.16484
 258.74774 262.03745 265.05322 267.82343 270.24484 272.29755 274.04831 275.56378
 276.95340 278.38513 279.89624 281.29034 282.53302 283.76569 284.90250 285.93234
 286.85861 287.68344 288.40399 289.32227
 366.78100 356.34061 345.77823 334.64984 323.05845 311.25806 299.13368 286.94229
 274.65990 262.56251 250.57713 239.88374 230.01135 221.12096 213.30858 206.31619
 200.15580 195.09941 191.68703 189.73464 188.77725 188.84686 189.68748 191.00109
 192.73170 194.83231 197.10093 199.46554 201.91615 204.40176 206.49538 208.34299
 209.97460 211.12521 211.35983 211.59344 211.53605 211.24666 210.88528 210.52089
 210.14350 209.85911 209.67273 209.54234 209.47595 209.81256 210.20418 210.59879
 211.39740 212.58101 213.83663 215.62524 217.55885 219.60746 221.70808 223.79669
 225.86230 227.95191 230.05453 232.16614 234.30075 236.47836 238.73998 241.11559
 243.74220 245.99882 248.00643 249.77704 251.19965 252.32827 253.15588 253.47749
 253.52010 253.29972 252.66533 251.61894 250.23055 248.39717 246.31178 244.15039
 241.94700 239.75662 237.58223 235.42684 233.29245 231.16507 229.19668 227.35929
 225.64790 224.12552 222.76113 221.53874 220.42635 219.39197 218.50158 217.64819
 216.89580 216.08142 215.18503 214.55464 214.01025 213.92282 213.77521 214.81439
 216.69458 217.49812 219.40024 221.39742 223.18520 225.34402 228.71286 232.23206
 234.89655 237.43271 239.48946 241.47272 244.06999 247.57585 251.41524 255.17439
 258.73828 261.98029 264.93097 267.63611 270.00519 271.99979 273.73248 275.29001
 276.72742 278.16312 279.63647 281.01660 282.22375 283.30988 284.35736 285.34079
 286.22528 287.01294 287.70102 288.57791
 366.78100 356.34087 345.77874 334.65061 323.05948 311.25935 299.13522 286.94409
 274.66196 262.56483 250.57970 239.88657 230.01444 221.12431 213.31218 206.32005
 200.15992 195.10379 191.69166 189.73953 188.78241 188.85228 189.69315 191.00702
 192.73789 194.83876 197.10763 199.47250 201.92337 204.40924 206.50311 208.35098
 209.98285 211.13372 211.36859 211.60246 211.54533 211.25620 210.89507 210.53094
 210.15381 209.86968 209.68355 209.55342 209.48729 209.82416 210.21603 210.61090
 211.40977 212.59364 213.84951 215.63838 217.57225 219.62112 221.72199 223.81086
 225.87673 227.96660 230.06948 232.18135 234.31622 236.49409 238.75596 241.13183
 243.75870 246.01557 248.02344 249.79431 251.21718 252.34605 253.17392 253.49579
 253.53866 253.31853 252.68440 251.63827 250.25014 248.41701 246.33188 244.17075
 241.96762 239.77749 237.60336 235.44823 233.31410 231.18697 229.21884 227.38171
 225.67058 224.14845 222.78432 221.56219 220.45006 219.41593 218.52580 217.67267
 216.92054 216.10642 215.21029 214.58016 214.03603 213.96872 213.84442 214.71951
 216.89323 217.90773 219.47830 221.33769 223.15657 225.32573 228.65233 232.24011
 234.87959 237.31413 239.20508 241.11334 243.78107 247.44746 251.41879 255.19135
 258.74368 261.95663 264.84863 267.50500 269.81512 271.76123 273.44287 275.03897
 276.54214 278.07666 279.61343 280.99207 282.18991 283.25882 284.25183 285.19516
 286.05704 286.82458 287.49509 288.34955
 366.78100 356.33947 345.77594 334.64641 323.05388 311.25235 299.12682 286.93428
 274.65075 262.55222 250.56569 239.87116 229.99763 221.10610 213.29257 206.29904
 200.13751 195.07998 191.66645 189.71291 188.75438 188.82285 189.66232 190.97479
 192.70426 194.80373 197.07120 199.43467 201.88414 204.36861 206.46108 208.30755
 209.93801 211.08748 211.32095 211.55342 211.49489 211.20436 210.84183 210.47630
 210.09777 209.81224 209.62471 209.49318 209.42564 209.76111 210.15158 210.54505
 211.34252 212.52499 213.77946 215.56693 217.49940 219.54687 221.64634 223.73381
 225.79828 227.88674 229.98821 232.09868 234.23215 236.40862 238.66909 241.04356
 243.66903 245.92450 247.93097 249.70044 251.12191 252.24937 253.07584 253.39631
 253.43778 253.21625 252.58072 251.53319 250.14366 248.30913 246.22260 244.06007
 241.85554 239.66401 237.48847 235.33194 233.19641 231.06788 229.09835 227.25982
 225.54729 224.02376 222.65823 221.43470 220.32117 219.28564 218.39410 217.53957
 216.78604 215.97051 215.07298 214.44145 213.89592 213.92839 214.02510 214.74998
 216.74709 218.09264 219.62599 221.43852 223.28729 225.48076 228.72321 232.29907
 234.85146 237.11621 238.89667 240.83507 243.68524 247.40182 251.39134 255.16420
 258.72311 261.91165 264.76709 267.37924 269.62457 271.53268 273.24579 274.87048
 276.45258 278.07275 279.60382 280.97031 282.16302 283.23013 284.21744 285.14490
 286.00424 286.76950 287.43802 288.28998
 366.78100 356.33716 345.77132 334.63949 323.04465 311.24081 299.11297 286.91813
 274.63229 262.53146 250.54262 239.84578 229.96994 221.07610 213.26026 206.26443
 200.10059 195.04075 191.62491 189.66907 188.70824 188.77440 189.61156 190.92172
 192.64888 194.74604 197.01121 199.37237 201.81953 204.30169 206.39185 208.23601
 209.86418 211.01134 211.24250 211.47266 211.41182 211.11899 210.75415 210.38631
 210.00547 209.71763 209.52779 209.39396 209.32412 209.65728 210.04544 210.43660
 211.23176 212.41193 213.66409 215.44925 217.37941 219.42457 221.52174 223.60690
 225.66906 227.75522 229.85438 231.96254 234.09371 236.26787 238.52603 240.89819
 243.52135 245.77451 247.77868 249.54584 250.96500 252.09016 252.91432 253.23249
 253.27165 253.04781 252.40997 251.36013 249.96829 248.13146 246.04262 243.87778
 241.67094 239.47710 237.29926 235.14043 233.00259 230.87175 228.89991 227.05907
 225.34424 223.81840 222.45056 221.22472 220.10888 219.07104 218.17721 217.32037
 216.56453 215.74669 214.84685 214.21301 213.66518 213.82318 214.21094 215.02991
 216.52618 217.99330 219.78529 221.63698 223.46245 225.62675 228.84779 232.33423
 234.78680 236.87422 238.56573 240.55257 243.50854 247.29506 251.22066 255.01845
 258.58627 261.76855 264.63812 267.29892 269.60742 271.56104 273.28339 274.87808
 276.39481 277.91196 279.41415 280.78418 281.97900 283.04272 284.02365 284.93475
 285.80017 286.57083 287.24405 288.10199
 366.78100 356.33656 345.77013 334.63769 323.04226 311.23782 299.10939 286.91395
 274.62752 262.52608 250.53664 239.83921 229.96277 221.06834 213.25190 206.25547
 200.09103 195.03059 191.61416 189.65772 188.69629 188.76185 189.59842 190.90798
 192.63455 194.73111 196.99567 199.35624 201.80280 204.28437 206.37393 208.21750
 209.84506 210.99162 211.22219 211.45175 211.39032 211.09688 210.73145 210.36301
 209.98158 209.69314 209.50270 209.36827 209.29783 209.63040 210.01796 210.40853
 211.20309 212.38265 213.63422 215.41878 217.34835 219.39291 221.48948 223.57404
 225.63561 227.72117 229.81973 231.92730 234.05786 236.23143 238.48899 240.86056
 243.48312 245.73568 247.73925 249.50581 250.92438 252.04894 252.87251 253.19007
 253.22864 253.00420 252.36576 251.31533 249.92289 248.08546 245.99602 243.83059
 241.62315 239.42871 237.25028 235.09084 232.95241 230.82097 228.84854 227.00710
 225.29167 223.76523 222.39679 221.17036 220.05392 219.01549 218.12105 217.26362
 216.50718 215.68875 214.78831 214.15387 213.60544 213.80051 214.26141 215.22470
 216.67711 218.09837 219.96193 221.79382 223.56299 225.73672 228.96454 232.20485
 234.53520 236.48047 238.20512 240.32353 243.34621 247.14917 251.07484 254.91745
 258.51416 261.71890 264.57129 267.29053 269.61481 271.51413 273.15317 274.69592
 276.22461 277.75693 279.25882 280.62704 281.81647 282.87244 283.84216 284.73016
 285.54285 286.27463 286.92072 287.74411
 366.78100 356.33622 345.76944 334.63665 323.04087 311.23609 299.10731 286.91152
 274.62474 262.52296 250.53318 239.83539 229.95861 221.06383 213.24705 206.25026
 200.08548 195.02470 191.60792 189.65113 188.68935 188.75457 189.59079 190.90000
 192.62622 194.72244 196.98666 199.34687 201.79309 204.27431 206.36353 208.20674
 209.83396 210.98018 211.21040 211.43961 211.37783 211.08405 210.71827 210.34948
 209.96770 209.67892 209.48814 209.35335 209.28257 209.61479 210.00201 210.39222
 211.18644 212.36566 213.61688 215.40110 217.33031 219.37453 221.47075 223.55497
 225.61618 227.70140 229.79962 231.90684 234.03705 236.21027 238.46749 240.83871
 243.46092 245.71314 247.71636 249.48258 250.90079 252.02501 252.84823 253.16545
 253.20366 252.97888 252.34010 251.28932 249.89653 248.05875 245.96897 243.80319
 241.59540 239.40062 237.22184 235.06206 232.92327 230.79149 228.81871 226.97693
 225.26114 223.73436 222.36558 221.13880 220.02201 218.98323 218.08845 217.23067
 216.47388 215.65510 214.75432 214.11954 213.57076 213.80399 214.35501 215.30119
 216.80464 218.27528 220.12851 221.93593 223.67693 225.84517 228.99374 232.11008
 234.33411 236.12573 237.82048 240.06725 243.23448 247.06337 251.04030 254.90172
 258.49030 261.67859 264.52820 267.22937 269.51654 271.39395 273.03680 274.59946
 276.13910 277.64255 279.12173 280.48209 281.66788 282.72000 283.68344 284.56305
 285.36642 286.08527 286.69922 287.50046
 366.78100 356.33495 345.76690 334.63285 323.03580 311.22975 299.09970 286.90265
 274.61460 262.51155 250.52050 239.82146 229.94341 221.04736 213.22931 206.23126
 200.06521 195.00316 191.58511 189.62706 188.66401 188.72796 189.56291 190.87086
 192.59581 194.69076 196.95371 199.31266 201.75761 204.23756 206.32551 208.16746
 209.79341 210.93837 211.16732 211.39527 211.33222 211.03717 210.67012 210.30007
 209.91702 209.62697 209.43492 209.29887 209.22682 209.55777 209.94372 210.33267
 211.12562 212.30357 213.55352 215.33647 217.26442 219.30737 221.40232 223.48528
 225.54523 227.62918 229.72613 231.83208 233.96103 236.13298 238.38893 240.75888
 243.37983 245.63078 247.63273 249.39768 250.81463 251.93758 252.75953 253.07548
 253.11243 252.88638 252.24633 251.19428 249.80023 247.96119 245.87014 243.70309
 241.49404 239.29799 237.11794 234.95689 232.81684 230.68379 228.70974 226.86669
 225.14964 223.62159 222.25154 221.02349 219.90544 218.86539 217.96934 217.11029
 216.35224 215.53219 214.63015 213.99410 213.44405 213.76256 214.51506 215.41510
 216.79659 218.30965 220.24763 222.04704 223.77278 225.94435 229.02254 232.06934
 234.18443 235.83060 237.48557 239.82809 243.12785 247.01175 251.02065 254.89195
 258.47476 261.65158 264.48730 267.15833 269.41779 271.28943 272.92712 274.48047
 276.01666 277.51440 279.01590 280.38019 281.56665 282.62045 283.58313 284.46188
 285.26096 285.97699 286.59763 287.39551
 366.78100 356.33399 345.76497 334.62996 323.03194 311.22493 299.09391 286.89590
 274.60688 262.50287 250.51085 239.81084 229.93182 221.03481 213.21579 206.21678
 200.04976 194.98675 191.56773 189.60872 188.64470 188.70769 189.54167 190.84866
 192.57264 194.66663 196.92861 199.28660 201.73058 204.20957 206.29655 208.13754
 209.76252 210.90651 211.13449 211.36148 211.29746 211.00145 210.63343 210.26242
 209.87840 209.58739 209.39437 209.25736 209.18434 209.51433 209.89931 210.28730
 211.07928 212.25627 213.50525 215.28724 217.21422 219.25621 221.35019 223.43218
 225.49116 227.57415 229.67013 231.77512 233.90310 236.07409 238.32907 240.69806
 243.31804 245.56803 247.56901 249.33300 250.74898 251.87097 252.69195 253.00694
 253.04292 252.81591 252.17489 251.12188 249.72686 247.88685 245.79483 243.62682
 241.41680 239.21979 237.03877 234.87676 232.73574 230.60173 228.62671 226.78270
 225.06468 223.53567 222.16465 220.93564 219.81662 218.77561 217.87859 217.01858
 216.25956 215.43855 214.53553 213.89852 213.34750 213.73711 214.65758 215.56366
 216.82367 218.31041 220.32771 222.11000 223.80374 225.96759 228.99840 232.02744
 233.98740 235.48613 237.11743 239.56537 242.99397 246.93889 250.98090 254.87263
 258.46509 261.64130 264.45026 267.11002 269.37790 271.21225 272.72632 274.29669
 275.83441 277.35889 278.87994 280.24985 281.43817 282.49261 283.45694 284.33786
 285.13516 285.85120 286.49722 287.32047
 366.78100 356.33380 345.76460 334.62940 323.03120 311.22400 299.09280 286.89460
 274.60540 262.50120 250.50900 239.80880 229.92960 221.03240 213.21320 206.21400
 200.04680 194.98360 191.56440 189.60520 188.64100 188.70380 189.53760 190.84440
 192.56820 194.66200 196.92380 199.28160 201.72540 204.20420 206.29100 208.13180
 209.75660 210.90040 211.12820 211.35500 211.29080 210.99460 210.62640 210.25520
 209.87100 209.57980 209.38660 209.24940 209.17620 209.50600 209.89080 210.27860
 211.07040 212.24720 213.49601 215.27781 217.20461 219.24641 221.34021 223.42201
 225.48081 227.56361 229.65941 231.76421 233.89201 236.06281 238.31761 240.68641
 243.30621 245.55601 247.55681 249.32061 250.73641 251.85821 252.67901 252.99381
 253.02961 252.80241 252.16121 251.10801 249.71281 247.87261 245.78041 243.61221
 241.40201 239.20481 237.02361 234.86141 232.72021 230.58601 228.61081 226.76661
 225.04841 223.51921 222.14801 220.91881 219.79961 218.75841 217.86121 217.00101
 216.24181 215.42061 214.51741 213.88021 213.32901 213.75081 214.74998 215.67903
 216.90117 218.31206 220.36763 222.15370 223.80684 225.92747 228.91187 231.99774
 233.77309 235.13147 236.72104 239.26649 242.78195 246.87851 250.96545 254.87251
 258.44983 261.61966 264.44611 267.06552 269.31055 271.09396 272.60281 274.15027
 275.69571 277.19513 278.66095 279.99518 281.17560 282.22699 283.18808 284.06406
 284.87946 285.62833 286.28253 287.11621
 366.78100 356.33361 345.76421 334.62882 323.03042 311.22303 299.09164 286.89324
 274.60385 262.49945 250.50706 239.80666 229.92727 221.02988 213.21048 206.21109
 200.04369 194.98030 191.56091 189.60151 188.63712 188.69972 189.53333 190.83993
 192.56354 194.65715 196.91875 199.27636 201.71996 204.19857 206.28518 208.12578
 209.75039 210.89399 211.12160 211.34820 211.28381 210.98742 210.61902 210.24763
 209.86323 209.57184 209.37845 209.24105 209.16766 209.49726 209.88187 210.26948
 211.06108 212.23769 213.48629 215.26790 217.19450 219.23611 221.32972 223.41132
 225.46993 227.55253 229.64814 231.75275 233.88035 236.05096 238.30556 240.67417
 243.29377 245.54338 247.54399 249.30759 250.72320 251.84480 252.66541 252.98002
 253.01562 252.78823 252.14683 251.09344 249.69805 247.85765 245.76526 243.59686
 241.38647 239.18907 237.00768 234.84529 232.70389 230.56950 228.59410 226.74971
 225.03132 223.50192 222.13053 220.90113 219.78174 218.74034 217.84295 216.98256
 216.22316 215.40177 214.49837 213.86098 213.30959 213.76686 214.85225 215.78281
 216.93903 218.30507 220.36481 222.20497 223.86211 225.91582 228.82394 231.92972
 233.51527 234.82159 236.46640 239.13336 242.72107 246.89693 251.01665 254.90602
 258.45572 261.60941 264.45685 267.01465 269.22665 270.88901 272.43680 274.03656
 275.62033 277.15411 278.61838 279.81763 280.99347 282.05731 283.05167 284.03040
 284.91428 285.70139 286.38898 287.26523
 366.78100 356.33373 345.76446 334.62919 323.03092 311.22364 299.09237 286.89410
 274.60483 262.50056 250.50829 239.80802 229.92875 221.03147 213.21220 206.21293
 200.04566 194.98239 191.56312 189.60385 188.63958 188.70231 189.53603 190.84276
 192.56649 194.66022 196.92195 199.27968 201.72341 204.20214 206.28887 208.12959
 209.75432 210.89805 211.12578 211.35251 211.28824 210.99197 210.62370 210.25242
 209.86815 209.57688 209.38361 209.24634 209.17307 209.50280 209.88753 210.27526
 211.06698 212.24371 213.49244 215.27417 217.20090 219.24263 221.33636 223.41809
 225.47682 227.55954 229.65527 231.76000 233.88773 236.05846 238.31319 240.68192
 243.30165 245.55137 247.55210 249.31583 250.73156 251.85329 252.67402 252.98875
 253.02448 252.79721 252.15593 251.10266 249.70739 247.86712 245.77485 243.60658
 241.39631 239.19904 237.01777 234.85549 232.71422 230.57995 228.60468 226.76041
 225.04214 223.51287 222.14160 220.91232 219.79305 218.75178 217.85451 216.99424
 216.23497 215.41370 214.51043 213.87316 213.32188 213.80884 214.96307 215.89110
 217.03560 218.42877 220.45599 222.31586 223.99680 225.96890 228.84685 231.68478
 233.15942 234.55305 236.39200 239.17050 242.77965 246.87593 251.02438 254.93253
 258.46759 261.59717 264.42816 266.94846 269.04166 270.72571 272.35046 273.99368
 275.60715 277.17889 278.44141 279.78937 281.06036 282.33154 283.49130 284.54196
 285.48691 286.32840 287.06351 288.00034
 366.78100 356.33409 345.76518 334.63027 323.03236 311.22545 299.09454 286.89663
 274.60773 262.50382 250.51191 239.81200 229.93309 221.03618 213.21727 206.21836
 200.05145 194.98854 191.56963 189.61072 188.64681 188.70990 189.54399 190.85108
 192.57518 194.66927 196.93136 199.28945 201.73354 204.21263 206.29972 208.14081
 209.76590 210.90999 211.13808 211.36517 211.30126 211.00535 210.63744 210.26653
 209.88263 209.59172 209.39881 209.26190 209.18899 209.51908 209.90417 210.29226
 211.08435 212.26144 213.51053 215.29262 217.21971 219.26180 221.35589 223.43798
 225.49708 227.58017 229.67626 231.78135 233.90944 236.08053 238.33562 240.70471
 243.32480 245.57489 247.57598 249.34007 250.75616 251.87825 252.69934 253.01443
 253.05053 252.82362 252.18271 251.12980 249.73489 247.89498 245.80307 243.63516
 241.42525 239.22834 237.04743 234.88552 232.74461 230.61070 228.63579 226.79188
 225.07398 223.54507 222.17416 220.94525 219.82634 218.78543 217.88852 217.02861
 216.26970 215.44879 214.54588 213.90897 213.35806 213.84760 215.01096 215.97679
 217.13289 218.52722 220.57870 222.45056 224.10683 225.99547 228.84239 231.54944
 232.96089 234.35846 236.28160 239.14912 242.75931 246.87334 251.04317 254.95773
 258.47931 261.59943 264.43439 266.95862 268.98917 270.70142 272.36713 273.99341
 275.60553 277.08636 278.46582 279.88898 281.32275 282.62274 283.80878 284.88324
 285.84958 286.71014 287.46188 288.41992
 366.78100 356.33353 345.76407 334.62860 323.03013 311.22267 299.09120 286.89273
 274.60327 262.49880 250.50633 239.80587 229.92640 221.02893 213.20947 206.21000
 200.04253 194.97906 191.55960 189.60013 188.63566 188.69820 189.53173 190.83826
 192.56180 194.65533 196.91686 199.27440 201.71793 204.19646 206.28300 208.12353
 209.74806 210.89160 211.11913 211.34566 211.28120 210.98473 210.61626 210.24480
 209.86033 209.56886 209.37540 209.23793 209.16446 209.49400 209.87853 210.26606
 211.05759 212.23413 213.48266 215.26419 217.19073 219.23226 221.32579 223.40733
 225.46586 227.54839 229.64393 231.74846 233.87599 236.04653 238.30106 240.66959
 243.28913 245.53866 247.53919 249.30273 250.71826 251.83979 252.66033 252.97486
 253.01039 252.78293 252.14146 251.08799 249.69253 247.85206 245.75959 243.59112
 241.38066 239.18319 237.00172 234.83926 232.69779 230.56332 228.58786 226.74339
 225.02492 223.49546 222.12399 220.89452 219.77506 218.73359 217.83612 216.97566
 216.21619 215.39472 214.49126 213.85379 213.30232 213.83276 215.08727 216.05566
 217.19479 218.54622 220.65280 222.51534 224.12773 225.97081 228.72063 231.46939
 232.80399 234.16112 236.09583 239.04880 242.80545 246.92728 251.07658 254.99983
 258.53839 261.64737 264.47729 266.99915 269.08136 270.82401 272.44180 274.04071
 275.65533 277.06207 278.41171 279.78592 281.04053 282.27228 283.39609 284.41418
 285.32983 286.14523 286.85754 287.76532
 366.78100 356.33358 345.76417 334.62875 323.03034 311.22292 299.09151 286.89309
 274.60368 262.49926 250.50685 239.80643 229.92702 221.02960 213.21019 206.21077
 200.04336 194.97994 191.56053 189.60111 188.63670 188.69928 189.53287 190.83945
 192.56304 194.65662 196.91820 199.27579 201.71937 204.19796 206.28454 208.12513
 209.74971 210.89330 211.12088 211.34747 211.28305 210.98664 210.61822 210.24681
 209.86239 209.57098 209.37756 209.24015 209.16673 209.49632 209.88090 210.26849
 211.06007 212.23666 213.48524 215.26682 217.19341 219.23499 221.32858 223.41016
 225.46875 227.55133 229.64692 231.75150 233.87909 236.04967 238.30426 240.67284
 243.29243 245.54201 247.54260 249.30618 250.72177 251.84335 252.66394 252.97852
 253.01411 252.78669 252.14528 251.09186 249.69644 247.85603 245.76361 243.59520
 241.38478 239.18737 237.00595 234.84354 232.70212 230.56771 228.59229 226.74788
 225.02946 223.50005 222.12863 220.89922 219.77980 218.73839 217.84097 216.98056
 216.22114 215.39973 214.49631 213.85890 213.30748 213.85254 215.14812 216.20749
 217.25026 218.55789 220.73221 222.58897 224.14156 225.94524 228.65729 231.27818
 232.54260 233.89281 235.86763 238.91779 242.77756 246.96277 251.12143 255.04980
 258.59198 261.70566 264.55856 267.15567 269.24649 270.92838 272.51422 274.04910
 275.64603 277.09824 278.41772 279.77417 280.98868 282.15436 283.28299 284.30545
 285.22504 286.04395 286.75931 287.67096
 366.78100 356.33361 345.76421 334.62882 323.03042 311.22303 299.09164 286.89324
 274.60385 262.49946 250.50706 239.80667 229.92727 221.02988 213.21049 206.21109
 200.04370 194.98030 191.56091 189.60152 188.63712 188.69973 189.53334 190.83994
 192.56355 194.65715 196.91876 199.27637 201.71997 204.19858 206.28518 208.12579
 209.75040 210.89400 211.12161 211.34822 211.28382 210.98743 210.61903 210.24764
 209.86325 209.57185 209.37846 209.24106 209.16767 209.49728 209.88188 210.26949
 211.06110 212.23770 213.48631 215.26791 217.19452 219.23613 221.32973 223.41134
 225.46995 227.55255 229.64816 231.75276 233.88037 236.05098 238.30558 240.67419
 243.29379 245.54340 247.54401 249.30761 250.72322 251.84483 252.66543 252.98004
 253.01564 252.78825 252.14686 251.09346 249.69807 247.85767 245.76528 243.59689
 241.38649 239.18910 237.00771 234.84531 232.70392 230.56952 228.59413 226.74974
 225.03134 223.50195 222.13055 220.90116 219.78177 218.74037 217.84298 216.98259
 216.22319 215.40180 214.49840 213.86101 213.30962 213.86864 215.19711 216.28769
 217.33922 218.66510 220.85858 222.67899 224.16057 225.95506 228.63976 231.04478
 232.24707 233.55823 235.64539 238.80867 242.73634 246.98746 251.16292 255.07832
 258.61066 261.76663 264.63971 267.25830 269.35977 271.09204 272.68576 274.21127
 275.72565 277.19327 278.47943 279.74738 280.93985 282.05963 283.22067 284.27246
 285.21848 286.06088 286.79678 287.73462
 366.78100 356.33214 345.76129 334.62443 323.02457 311.21572 299.08286 286.88300
 274.59215 262.48629 250.49243 239.79057 229.90972 221.01086 213.19000 206.18915
 200.02029 194.95543 191.53458 189.57372 188.60786 188.66901 189.50115 190.80629
 192.52844 194.62058 196.88072 199.23687 201.67901 204.15615 206.24129 208.08044
 209.70358 210.84572 211.07187 211.29701 211.23115 210.93330 210.56344 210.19058
 209.80473 209.51187 209.31701 209.17816 209.10330 209.43144 209.81458 210.20073
 210.99087 212.16601 213.41316 215.19330 217.11844 219.15859 221.25073 223.33087
 225.38802 227.46916 229.56330 231.66645 233.79259 235.96173 238.21488 240.58202
 243.20016 245.44830 247.44745 249.20959 250.62373 251.74388 252.56302 252.87616
 252.91031 252.68145 252.03859 250.98374 249.58688 247.74502 245.65117 243.48131
 241.26945 239.07060 236.88774 234.72388 232.58102 230.44517 228.46831 226.62245
 224.90260 223.37174 221.99888 220.76803 219.64717 218.60431 217.70546 216.84360
 216.08274 215.25989 214.35503 213.71617 213.16331 213.80809 215.32866 216.36443
 217.37086 218.81250 221.02016 222.77135 224.18802 225.94386 228.61218 230.72656
 231.91016 233.27391 235.37958 238.66618 242.66113 246.92267 251.10271 255.00189
 258.53091 261.70435 264.59213 267.19925 269.38373 271.17694 272.76938 274.31262
 275.86890 277.30627 278.56342 279.74130 280.88657 281.96991 282.99411 284.02612
 284.95502 285.78223 286.50482 287.42572
 366.78100 356.33185 345.76070 334.62356 323.02341 311.21426 299.08111 286.88096
 274.58982 262.48367 250.48952 239.78737 229.90622 221.00708 213.18593 206.18478
 200.01563 194.95048 191.52934 189.56819 188.60204 188.66289 189.49474 190.79960
 192.52145 194.61330 196.87315 199.22900 201.67086 204.14771 206.23256 208.07141
 209.69426 210.83612 211.06197 211.28682 211.22067 210.92252 210.55238 210.17923
 209.79308 209.49993 209.30478 209.16564 209.09049 209.41834 209.80119 210.18704
 210.97690 212.15175 213.39860 215.17845 217.10330 219.14316 221.23501 223.31486
 225.37171 227.45256 229.54642 231.64927 233.77512 235.94397 238.19682 240.56368
 243.18153 245.42938 247.42823 249.19008 250.60394 251.72379 252.54264 252.85549
 252.88934 252.66020 252.01705 250.96190 249.56475 247.72260 245.62846 243.45831
 241.24616 239.04701 236.86386 234.69972 232.55657 230.42042 228.44327 226.59712
 224.87698 223.34583 221.97268 220.74153 219.62038 218.57724 217.67809 216.81594
 216.05479 215.23165 214.32650 213.68735 213.13420 213.80441 215.38698 216.48482
 217.54440 218.99907 221.15077 222.85150 224.20660 225.92854 228.57133 230.29808
 231.54837 232.97504 235.11458 238.52913 242.61211 246.88913 251.08060 254.97231
 258.48776 261.66910 264.58157 267.19919 269.40250 271.18414 272.75330 274.28925
 275.85077 277.32495 278.60165 279.76794 280.89920 281.94797 282.91095 283.80057
 284.68896 285.49130 286.19220 287.08542
 366.78100 356.33176 345.76051 334.62327 323.02303 311.21378 299.08054 286.88030
 274.58906 262.48281 250.48857 239.78633 229.90508 221.00584 213.18460 206.18335
 200.01411 194.94887 191.52763 189.56638 188.60014 188.66090 189.49265 190.79741
 192.51917 194.61092 196.87068 199.22644 201.66819 204.14495 206.22971 208.06847
 209.69122 210.83298 211.05874 211.28349 211.21725 210.91901 210.54876 210.17552
 209.78928 209.49603 209.30079 209.16155 209.08631 209.41406 209.79682 210.18258
 210.97233 212.14709 213.39385 215.17360 217.09836 219.13812 221.22988 223.30963
 225.36639 227.44715 229.54090 231.64366 233.76942 235.93817 238.19093 240.55769
 243.17544 245.42320 247.42196 249.18372 250.59747 251.71723 252.53599 252.84874
 252.88250 252.65326 252.01001 250.95477 249.55753 247.71529 245.62104 243.45080
 241.23856 239.03931 236.85607 234.69183 232.54858 230.41234 228.43510 226.58885
 224.86861 223.33737 221.96413 220.73288 219.61164 218.56840 217.66915 216.80691
 216.04567 215.22242 214.31718 213.67794 213.12469 213.81818 215.45294 216.56583
 217.54559 219.09329 221.23647 222.89247 224.25003 225.93236 228.40770 230.03352
 231.15050 232.76018 235.05177 238.54260 242.65938 246.95570 251.14487 255.02583
 258.52734 261.70718 264.63715 267.26370 269.46155 271.28784 272.88519 274.41092
 275.92111 277.31473 278.61029 279.94342 281.15195 282.25812 283.37985 284.44348
 285.40009 286.25195 286.99612 287.94449
 366.78100 356.33190 345.76079 334.62369 323.02359 311.21449 299.08138 286.88128
 274.59018 262.48407 250.48997 239.78787 229.90676 221.00766 213.18656 206.18546
 200.01635 194.95125 191.53015 189.56904 188.60294 188.66384 189.49573 190.80063
 192.52253 194.61443 196.87432 199.23022 201.67212 204.14901 206.23391 208.07281
 209.69570 210.83760 211.06350 211.28840 211.22229 210.92419 210.55409 210.18098
 209.79488 209.50178 209.30668 209.16757 209.09247 209.42037 209.80326 210.18916
 210.97906 212.15395 213.40085 215.18075 217.10565 219.14554 221.23744 223.31734
 225.37423 227.45513 229.54903 231.65192 233.77782 235.94672 238.19962 240.56651
 243.18441 245.43231 247.43120 249.19310 250.60700 251.72689 252.54579 252.85869
 252.89259 252.66348 252.02038 250.96528 249.56817 247.72607 245.63197 243.46186
 241.24976 239.05066 236.86756 234.70345 232.56035 230.42425 228.44714 226.60104
 224.88094 223.34984 221.97673 220.74563 219.62453 218.58142 217.68232 216.82022
 216.05911 215.23601 214.33091 213.69181 213.13870 213.84335 215.50455 216.67599
 217.80473 219.55588 221.49704 223.03249 224.39993 226.05374 228.25923 229.74188
 230.85529 232.47252 234.94792 238.50932 242.66687 246.98463 251.18784 255.07654
 258.58035 261.75830 264.68649 267.29611 269.47330 271.21964 272.78009 274.28110
 275.90054 277.68387 279.28262 280.86774 282.40063 283.75684 284.99420 286.11514
 287.12332 288.02109 288.80539 289.80487
 366.78100 356.32996 345.75692 334.61788 323.01584 311.20480 299.06975 286.86771
 274.57467 262.46663 250.47059 239.76655 229.88351 220.98247 213.15943 206.15639
 199.98535 194.91831 191.49526 189.53222 188.56418 188.62314 189.45310 190.75606
 192.47602 194.56598 196.82394 199.17790 201.61786 204.09282 206.17577 208.01273
 209.63369 210.77365 210.99761 211.22057 211.15253 210.85249 210.48045 210.10541
 209.71737 209.42233 209.22528 209.08424 209.00720 209.33316 209.71412 210.09808
 210.88604 212.05900 213.30396 215.08192 217.00488 219.04284 221.13279 223.21075
 225.26571 227.34467 229.43663 231.53759 233.66155 235.82851 238.07947 240.44443
 243.06039 245.30635 247.30330 249.06326 250.47522 251.59318 252.41014 252.72110
 252.75306 252.52202 251.87698 250.81994 249.42090 247.57686 245.48081 243.30877
 241.09473 238.89369 236.70865 234.54261 232.39757 230.25953 228.28049 226.43245
 224.71041 223.17737 221.80232 220.56928 219.44624 218.40120 217.50016 216.63612
 215.87308 215.04804 214.14100 213.49996 212.94492 213.76183 215.64935 216.80984
 217.99951 219.73941 221.59355 223.19362 224.54469 225.97112 228.42101 229.50375
 230.55722 232.15125 234.67648 238.39474 242.64267 246.97868 251.18703 255.08620
 258.56281 261.68027 264.55881 267.15115 269.11398 270.77155 272.15936 274.14102
 276.22742 278.22498 280.09045 281.72849 283.14606 284.40024 285.54449 286.58112
 287.51346 288.34369 289.06897 289.99326
 366.78100 356.32721 345.75142 334.60963 323.00484 311.19105 299.05326 286.84847
 274.55268 262.44189 250.44310 239.73631 229.85053 220.94674 213.12095 206.11516
 199.94137 194.87158 191.44579 189.48000 188.50921 188.56542 189.39263 190.69284
 192.41005 194.49726 196.75247 199.10368 201.54089 204.01310 206.09331 207.92752
 209.54573 210.68294 210.90415 211.12437 211.05358 210.75079 210.37600 209.99821
 209.60742 209.30963 209.10984 208.96605 208.88626 209.20947 209.58768 209.96889
 210.75410 211.92431 213.16652 214.94173 216.86194 218.89715 220.98436 223.05957
 225.11178 227.18800 229.27721 231.37542 233.49663 235.66084 237.90905 240.27126
 242.88447 245.12768 247.12189 248.87910 250.28831 251.40352 252.21773 252.52594
 252.55515 252.32136 251.67357 250.61378 249.21199 247.36520 245.26641 243.09162
 240.87484 238.67105 236.48326 234.31447 232.16668 230.02589 228.04410 226.19331
 224.46852 222.93273 221.55494 220.31915 219.19336 218.14557 217.24178 216.37499
 215.60920 214.78141 213.87162 213.22783 212.67004 213.63838 215.80666 216.92731
 218.01227 219.67709 221.55489 223.26819 224.58528 225.73466 228.34593 229.39143
 230.46408 232.18913 234.87448 238.54997 242.73631 247.05145 251.24629 255.10800
 258.50101 261.55997 264.39578 266.92984 268.79559 270.23679 272.43036 274.22021
 276.71063 278.93948 280.86816 282.56171 284.02731 285.32401 286.50705 287.57880
 288.54269 289.40106 290.15091 291.10654
 366.78100 356.32978 345.75655 334.61733 323.01511 311.20388 299.06866 286.86644
 274.57321 262.46499 250.46877 239.76454 229.88132 220.98010 213.15687 206.15365
 199.98243 194.91520 191.49198 189.52876 188.56053 188.61931 189.44909 190.75186
 192.47164 194.56142 196.81919 199.17297 201.61275 204.08752 206.17030 208.00708
 209.62785 210.76763 210.99141 211.21418 211.14596 210.84574 210.47351 210.09829
 209.71007 209.41484 209.21762 209.07640 208.99917 209.32495 209.70573 210.08950
 210.87728 212.05006 213.29483 215.07261 216.99539 219.03316 221.12294 223.20072
 225.25549 227.33427 229.42605 231.52682 233.65060 235.81738 238.06815 240.43293
 243.04871 245.29448 247.29126 249.05104 250.46281 251.58059 252.39737 252.70814
 252.73992 252.50870 251.86347 250.80625 249.40703 247.56280 245.46658 243.29436
 241.08013 238.87891 236.69369 234.52746 232.38224 230.24402 228.26479 226.41657
 224.69435 223.16112 221.78590 220.55268 219.42945 218.38423 217.48301 216.61878
 215.85556 215.03034 214.12311 213.48189 212.92667 213.73788 215.68405 217.15254
 218.22844 219.70813 221.52840 223.13716 224.42163 225.74074 228.09712 229.13184
 230.18303 232.06924 234.94650 238.72380 242.92657 247.22850 251.43013 255.33522
 258.80734 261.82898 264.65723 267.23367 269.34967 270.95761 272.48370 274.02609
 276.05554 278.33511 280.45523 282.31686 283.92792 285.35330 286.65375 287.83188
 288.89148 289.83502 290.65930 291.70978
 366.78100 356.33489 345.76678 334.63267 323.03556 311.22946 299.09935 286.90224
 274.61413 262.51102 250.51991 239.82080 229.94269 221.04658 213.22848 206.23037
 200.06426 195.00215 191.58404 189.62593 188.66282 188.72671 189.56160 190.86950
 192.59439 194.68928 196.95217 199.31106 201.75595 204.23584 206.32373 208.16562
 209.79152 210.93641 211.16530 211.39319 211.33008 211.03497 210.66786 210.29775
 209.91464 209.62454 209.43243 209.29632 209.22421 209.55510 209.94099 210.32988
 211.12277 212.30066 213.55056 215.33345 217.26134 219.30423 221.39912 223.48201
 225.54190 227.62579 229.72268 231.82858 233.95747 236.12936 238.38525 240.75514
 243.37603 245.62692 247.62881 249.39370 250.81060 251.93349 252.75538 253.07127
 253.10816 252.88205 252.24194 251.18983 249.79572 247.95661 245.86551 243.69840
 241.48929 239.29318 237.11307 234.95196 232.81185 230.67874 228.70463 226.86153
 225.14442 223.61631 222.24620 221.01809 219.89998 218.85987 217.96376 217.10465
 216.34655 215.52644 214.62433 213.98822 213.43811 213.97113 215.35216 217.30022
 218.73611 219.98341 221.64531 223.04129 224.18860 225.56310 227.39760 228.59013
 229.66537 231.67609 234.74388 238.66177 242.93968 247.29707 251.53841 255.48723
 258.99786 262.06946 264.90527 267.52280 269.79913 271.52942 272.72977 274.37036
 275.87540 277.40698 279.01151 280.58023 282.12000 283.48233 284.72522 285.85123
 286.86392 287.76572 288.55353 289.55750
 366.78100 356.33797 345.77295 334.64192 323.04790 311.24487 299.11784 286.92382
 274.63879 262.53877 250.55074 239.85472 229.97969 221.08666 213.27164 206.27661
 200.11359 195.05456 191.63953 189.68451 188.72448 188.79146 189.62943 190.94041
 192.66838 194.76635 197.03233 199.39430 201.84228 204.32525 206.41622 208.26120
 209.89017 211.03815 211.27012 211.50109 211.44107 211.14904 210.78502 210.41799
 210.03797 209.75094 209.56191 209.42889 209.35986 209.69384 210.08281 210.47478
 211.27076 212.45173 213.70471 215.49068 217.42166 219.46763 221.56560 223.65158
 225.71455 227.80153 229.90150 232.01047 234.14245 236.31742 238.57640 240.94937
 243.57335 245.82732 247.83229 249.60027 251.02024 252.14622 252.97119 253.29016
 253.33014 253.10711 252.47009 251.42106 250.03003 248.19401 246.10598 243.94196
 241.73593 239.54291 237.36588 235.20785 233.07083 230.94080 228.96978 227.12975
 225.41572 223.89070 222.52367 221.29865 220.18362 219.14660 218.25357 217.39754
 216.64252 215.82549 214.92647 214.29344 213.74641 214.14487 215.20490 217.15393
 219.06595 220.48553 222.05505 223.27855 224.26100 225.52573 227.19269 228.09514
 229.07631 231.10686 234.32773 238.41594 242.81111 247.23389 251.50037 255.44551
 258.93008 262.02042 264.91272 267.53625 269.82346 271.51257 272.43634 274.19360
 275.85205 277.43085 279.00455 280.45734 282.00238 283.45291 284.77631 285.97519
 287.05347 288.01370 288.85251 289.92151
 366.78100 356.33680 345.77061 334.63841 323.04322 311.23902 299.11083 286.91563
 274.62944 262.52824 250.53905 239.84185 229.96566 221.07146 213.25527 206.25907
 200.09488 195.03468 191.61848 189.66229 188.70109 188.76690 189.60370 190.91351
 192.64031 194.73712 197.00192 199.36273 201.80953 204.29134 206.38114 208.22495
 209.85275 210.99956 211.23036 211.46016 211.39897 211.10577 210.74058 210.37238
 209.99119 209.70299 209.51280 209.37860 209.30841 209.64121 210.02902 210.41982
 211.21463 212.39443 213.64624 215.43104 217.36084 219.40565 221.50245 223.58726
 225.64906 227.73487 229.83367 231.94148 234.07228 236.24609 238.50389 240.87570
 243.49850 245.75131 247.75511 249.52192 250.94072 252.06552 252.88933 253.20713
 253.24594 253.02174 252.38355 251.33335 249.94116 248.10396 246.01477 243.84957
 241.64238 239.44818 237.26999 235.11079 232.97260 230.84140 228.86920 227.02801
 225.31281 223.78662 222.41842 221.19223 220.07603 219.03784 218.14364 217.28645
 216.53025 215.71206 214.81186 214.17767 213.62947 214.11116 215.32066 216.99489
 218.99962 220.75908 222.33165 223.47841 224.45668 225.73369 227.29710 227.98830
 228.85797 230.79579 234.08070 238.25012 242.69519 247.12569 251.37523 255.29147
 258.77213 261.90228 264.80389 267.44351 269.73642 271.38858 272.49393 274.21063
 276.03546 277.72632 279.29300 280.71774 282.08057 283.33102 284.47186 285.50540
 286.43497 287.26273 287.98584 288.90738
 366.78100 356.33557 345.76814 334.63471 323.03828 311.23285 299.10342 286.90699
 274.61956 262.51713 250.52670 239.82827 229.95084 221.05541 213.23798 206.24054
 200.07511 195.01368 191.59625 189.63882 188.67639 188.74096 189.57653 190.88510
 192.61067 194.70624 196.96981 199.32938 201.77495 204.25552 206.34409 208.18666
 209.81323 210.95880 211.18837 211.41694 211.35451 211.06008 210.69365 210.32422
 209.94179 209.65236 209.46093 209.32550 209.25407 209.58563 209.97220 210.36177
 211.15534 212.33391 213.58448 215.36805 217.29662 219.34019 221.43576 223.51933
 225.57990 227.66447 229.76204 231.86861 233.99818 236.17075 238.42732 240.79789
 243.41946 245.67103 247.67360 249.43917 250.85674 251.98031 252.80288 253.11945
 253.15702 252.93159 252.29215 251.24072 249.84729 248.00886 245.91843 243.75200
 241.54357 239.34814 237.16871 235.00828 232.86885 230.73642 228.76299 226.92056
 225.20413 223.67670 222.30727 221.07984 219.96241 218.92298 218.02755 217.16912
 216.41169 215.59226 214.69083 214.05540 213.50597 214.05379 215.40067 217.04478
 218.94014 220.78729 222.39456 223.54477 224.50053 225.78291 227.36629 227.87036
 228.73514 230.59386 233.93900 238.17168 242.65100 247.08247 251.32504 255.23959
 258.73145 261.85678 264.71048 267.31699 269.59323 271.37674 272.68091 274.25443
 276.20740 277.95966 279.51834 280.91022 282.16028 283.38013 284.49304 285.50128
 286.40808 287.21558 287.92099 288.81998
 366.78100 356.33677 345.77055 334.63832 323.04309 311.23886 299.11064 286.91541
 274.62918 262.52795 250.53873 239.84150 229.96527 221.07104 213.25482 206.25859
 200.09436 195.03414 191.61791 189.66168 188.70045 188.76623 189.60300 190.91277
 192.63954 194.73632 197.00109 199.36186 201.80863 204.29041 206.38018 208.22395
 209.85173 210.99850 211.22927 211.45904 211.39782 211.10459 210.73936 210.37113
 209.98991 209.70168 209.51145 209.37722 209.30700 209.63977 210.02754 210.41832
 211.21309 212.39286 213.64463 215.42941 217.35918 219.40395 221.50072 223.58550
 225.64727 227.73304 229.83181 231.93959 234.07036 236.24413 238.50191 240.87368
 243.49645 245.74922 247.75300 249.51977 250.93854 252.06331 252.88709 253.20486
 253.24363 253.01940 252.38118 251.33095 249.93872 248.10150 246.01227 243.84704
 241.63981 239.44559 237.26736 235.10813 232.96990 230.83868 228.86645 227.02522
 225.30999 223.78377 222.41554 221.18931 220.07309 219.03486 218.14063 217.28340
 216.52718 215.70895 214.80872 214.17449 213.62627 214.12183 215.36877 217.10764
 219.12483 220.93558 222.55067 223.66736 224.51819 225.72487 227.17976 227.67557
 228.46399 230.36664 233.83069 238.13583 242.65269 247.10899 251.36905 255.30638
 258.80081 261.87952 264.70148 267.27197 269.53326 271.34555 272.69861 274.22284
 276.25424 278.05090 279.62335 281.03519 282.38019 283.61697 284.74536 285.76761
 286.68701 287.50574 288.22095 289.13245
 366.78100 356.33808 345.77316 334.64224 323.04832 311.24539 299.11847 286.92455
 274.63963 262.53971 250.55179 239.85587 229.98095 221.08803 213.27311 206.27818
 200.11526 195.05634 191.64142 189.68650 188.72658 188.79366 189.63174 190.94282
 192.67090 194.76897 197.03505 199.39713 201.84521 204.32829 206.41937 208.26445
 209.89353 211.04161 211.27368 211.50476 211.44484 211.15292 210.78900 210.42208
 210.04216 209.75524 209.56632 209.43340 209.36447 209.69855 210.08763 210.47971
 211.27579 212.45687 213.70995 215.49603 217.42711 219.47319 221.57126 223.65734
 225.72042 227.80750 229.90758 232.01666 234.14874 236.32382 238.58290 240.95598
 243.58005 245.83413 247.83921 249.60729 251.02737 252.15345 252.97853 253.29761
 253.33769 253.11476 252.47784 251.42892 250.03800 248.20208 246.11416 243.95024
 241.74432 239.55140 237.37448 235.21655 233.07963 230.94971 228.97879 227.13887
 225.42495 223.90003 222.53311 221.30819 220.19327 219.15634 218.26342 217.40750
 216.65258 215.83566 214.93674 214.30382 213.75690 214.20952 215.36790 217.05528
 219.29559 221.25479 222.84911 223.83517 224.58218 225.74603 227.02734 227.56467
 228.11726 230.06915 233.66539 238.05801 242.61702 247.10823 251.38391 255.31976
 258.80380 261.91095 264.74268 267.32974 269.58850 271.39432 272.80389 274.41553
 276.44696 278.26065 279.87912 281.46939 282.89758 284.16113 285.31396 286.35834
 287.29761 288.13406 288.86478 289.79596
 366.78100 356.33802 345.77304 334.64206 323.04808 311.24510 299.11811 286.92413
 274.63915 262.53917 250.55119 239.85521 229.98023 221.08725 213.27227 206.27729
 200.11431 195.05533 191.64034 189.68536 188.72538 188.79240 189.63042 190.94144
 192.66946 194.76748 197.03350 199.39552 201.84354 204.32656 206.41757 208.26259
 209.89161 211.03963 211.27165 211.50267 211.44269 211.15071 210.78673 210.41975
 210.03977 209.75279 209.56380 209.43082 209.36184 209.69586 210.08488 210.47690
 211.27292 212.45394 213.70696 215.49298 217.42400 219.47002 221.56803 223.65405
 225.71707 227.80409 229.90411 232.01313 234.14515 236.32017 238.57919 240.95221
 243.57623 245.83025 247.83526 249.60328 251.02330 252.14932 252.97434 253.29336
 253.33338 253.11040 252.47342 251.42444 250.03346 248.19747 246.10949 243.94551
 241.73953 239.54655 237.36957 235.21159 233.07461 230.94463 228.97365 227.13367
 225.41969 223.89470 222.52772 221.30274 220.18776 219.15078 218.25780 217.40182
 216.64684 215.82986 214.93088 214.29790 213.75092 214.22382 215.40465 216.98370
 219.31592 221.47290 223.04756 223.97678 224.69894 225.82356 227.03004 227.32986
 227.85014 229.81822 233.50667 237.94972 242.53041 247.01949 251.28940 255.21317
 258.70972 261.84787 264.71915 267.33249 269.67770 271.64020 273.21384 274.69843
 276.60471 278.41556 280.01334 281.50839 282.92072 284.17029 285.31030 286.34308
 287.27197 288.09915 288.82175 289.74261
 366.78100 356.33711 345.77123 334.63934 323.04446 311.24057 299.11269 286.91780
 274.63191 262.53103 250.54214 239.84526 229.96937 221.07549 213.25960 206.26371
 200.09983 195.03994 191.62406 189.66817 188.70729 188.77340 189.61051 190.92063
 192.64774 194.74486 197.00997 199.37109 201.81820 204.30031 206.39043 208.23454
 209.86266 211.00977 211.24089 211.47100 211.41012 211.11723 210.75234 210.38446
 210.00357 209.71569 209.52580 209.39192 209.32203 209.65514 210.04326 210.43437
 211.22949 212.40960 213.66172 215.44683 217.37694 219.42206 221.51917 223.60429
 225.66640 227.75252 229.85163 231.95974 234.09086 236.26497 238.52309 240.89520
 243.51832 245.77143 247.77554 249.54266 250.96177 252.08689 252.91100 253.22912
 253.26823 253.04434 252.40646 251.35657 249.96469 248.12780 246.03892 243.87403
 241.66714 239.47326 237.29537 235.13649 232.99860 230.86772 228.89583 227.05494
 225.34006 223.81417 222.44629 221.22040 220.10452 219.06663 218.17275 217.31586
 216.55997 215.74209 214.84220 214.20832 213.66043 214.18669 215.46747 216.97183
 219.22963 221.48990 223.13632 224.10654 224.82697 225.87761 227.08347 227.01852
 227.64532 229.60628 233.37511 237.84097 242.43843 246.91847 251.16856 255.07819
 258.57895 261.71805 264.57507 267.17896 269.52710 271.60910 273.42075 275.00269
 276.65921 278.44443 280.01102 281.40463 282.65683 283.86597 284.97482 285.97937
 286.88284 287.68738 288.39023 289.28592
 366.78100 356.33469 345.76639 334.63208 323.03478 311.22847 299.09817 286.90086
 274.61255 262.50925 250.51794 239.81864 229.94033 221.04403 213.22572 206.22741
 200.06111 194.99880 191.58050 189.62219 188.65889 188.72258 189.55727 190.86497
 192.58966 194.68436 196.94705 199.30575 201.75044 204.23013 206.31783 208.15952
 209.78522 210.92991 211.15861 211.38630 211.32299 211.02769 210.66038 210.29008
 209.90677 209.61646 209.42416 209.28785 209.21555 209.54624 209.93194 210.32063
 211.11332 212.29102 213.54071 215.32341 217.25110 219.29380 221.38849 223.47118
 225.53088 227.61457 229.71127 231.81696 233.94566 236.11735 238.37304 240.74274
 243.36343 245.61413 247.61582 249.38052 250.79721 251.91990 252.74160 253.05729
 253.09399 252.86768 252.22738 251.17507 249.78076 247.94146 245.85015 243.68285
 241.47354 239.27724 237.09693 234.93562 232.79532 230.66201 228.68771 226.84440
 225.12710 223.59879 222.22848 221.00018 219.88187 218.84157 217.94526 217.08596
 216.32765 215.50734 214.60504 213.96873 213.41843 214.06815 215.61615 217.02133
 219.04625 221.39742 223.18010 224.20380 224.96898 226.00412 227.25038 226.81656
 227.44489 229.39915 233.25797 237.74837 242.36655 246.84856 251.09277 254.99373
 258.49338 261.63293 264.47812 267.07208 269.42136 271.52365 273.39127 275.06396
 276.72076 278.44794 280.00571 281.38330 282.60345 283.71875 284.79858 285.77686
 286.65671 287.44019 288.12463 288.99692
 366.78100 356.33292 345.76283 334.62675 323.02767 311.21958 299.08750 286.88842
 274.59833 262.49325 250.50016 239.79908 229.91900 221.02091 213.20083 206.20075
 200.03266 194.96858 191.54850 189.58841 188.62333 188.68525 189.51816 190.82408
 192.54700 194.63991 196.90083 199.25774 201.70066 204.17858 206.26449 208.10441
 209.72833 210.87124 211.09816 211.32408 211.25899 210.96191 210.59283 210.22074
 209.83566 209.54358 209.34949 209.21141 209.13732 209.46624 209.85016 210.23707
 211.02799 212.20391 213.45182 215.23274 217.15866 219.19957 221.29249 223.37341
 225.43132 227.51324 229.60815 231.71207 233.83899 236.00890 238.26282 240.63074
 243.24965 245.49857 247.49849 249.26140 250.67632 251.79724 252.61715 252.93107
 252.96599 252.73790 252.09582 251.04173 249.64565 247.80457 245.71148 243.54240
 241.33132 239.13323 236.95115 234.78807 232.64598 230.51090 228.53482 226.68973
 224.97065 223.44057 222.06848 220.83840 219.71831 218.67623 217.77815 216.91706
 216.15698 215.33490 214.43081 213.79273 213.24065 213.97464 215.71552 217.16696
 218.95439 221.30870 223.18452 224.25415 225.08496 226.13602 227.42438 226.64940
 227.28481 229.23486 233.16690 237.66748 242.29674 246.77393 251.00919 254.90802
 258.41776 261.56714 264.41330 266.99414 269.33853 271.45502 273.34909 275.10870
 276.80731 278.50415 280.05847 281.43262 282.64648 283.73984 284.75528 285.73349
 286.61325 287.39670 288.08112 288.95331
 366.78100 356.33305 345.76310 334.62716 323.02821 311.22026 299.08831 286.88937
 274.59942 262.49447 250.50152 239.80058 229.92063 221.02268 213.20273 206.20279
 200.03484 194.97089 191.55094 189.59100 188.62605 188.68810 189.52115 190.82721
 192.55026 194.64331 196.90436 199.26142 201.70447 204.18252 206.26857 208.10863
 209.73268 210.87573 211.10278 211.32883 211.26389 210.96694 210.59799 210.22604
 209.84110 209.54915 209.35520 209.21725 209.14331 209.47236 209.85641 210.24346
 211.03452 212.21057 213.45862 215.23967 217.16573 219.20678 221.29983 223.38088
 225.43894 227.52099 229.61604 231.72009 233.84715 236.01720 238.27125 240.63930
 243.25835 245.50741 247.50746 249.27051 250.68556 251.80662 252.62667 252.94072
 252.97577 252.74783 252.10588 251.05193 249.65598 247.81504 245.72209 243.55314
 241.34219 239.14425 236.96230 234.79935 232.65740 230.52246 228.54651 226.70156
 224.98261 223.45267 222.08072 220.85077 219.73082 218.68888 217.79093 216.92998
 216.17003 215.34808 214.44414 213.80619 213.25424 213.98560 215.72432 217.28802
 219.02901 221.26958 223.14503 224.28615 225.17804 226.25496 227.42235 226.55258
 227.14124 229.12422 233.10733 237.60924 242.24376 246.72095 250.95276 254.86032
 258.38608 261.54227 264.38168 266.95343 269.28445 271.39352 273.27994 275.06473
 276.83838 278.57034 280.12408 281.49960 282.71368 283.80072 284.79562 285.75220
 286.61548 287.38425 288.05582 288.91165
 366.78100 356.33307 345.76313 334.62720 323.02826 311.22033 299.08840 286.88946
 274.59953 262.49459 250.50166 239.80072 229.92079 221.02286 213.20292 206.20299
 200.03505 194.97112 191.55119 189.59125 188.62632 188.68838 189.52145 190.82751
 192.55058 194.64365 196.90471 199.26178 201.70484 204.18291 206.26898 208.10904
 209.73311 210.87617 211.10324 211.32930 211.26437 210.96744 210.59850 210.22657
 209.84163 209.54970 209.35577 209.21783 209.14390 209.47296 209.85703 210.24409
 211.03516 212.21123 213.45929 215.24036 217.16642 219.20749 221.30056 223.38162
 225.43969 227.52175 229.61682 231.72088 233.84795 236.01802 238.27208 240.64015
 243.25921 245.50828 247.50835 249.27141 250.68648 251.80754 252.62761 252.94168
 252.97674 252.74881 252.10687 251.05294 249.65700 247.81607 245.72314 243.55420
 241.34327 239.14533 236.96340 234.80047 232.65853 230.52360 228.54766 226.70273
 224.98379 223.45386 222.08193 220.85199 219.73206 218.69012 217.79219 216.93126
 216.17132 215.34939 214.44545 213.80752 213.25558 213.99727 215.76567 217.37814
 219.06792 221.16214 223.01389 224.23688 225.21324 226.35809 227.41327 226.72137
 227.09386 229.12193 233.07054 237.56862 242.20222 246.67715 250.90508 254.82263
 258.36636 261.53537 264.37103 266.94565 269.28302 271.38516 273.25821 275.02298
 276.85074 278.62207 280.17926 281.55542 282.76755 283.85666 284.91077 285.89090
 286.77240 287.55740 288.24313 289.11707
 366.78100 356.33423 345.76546 334.63069 323.03292 311.22615 299.09538 286.89761
 274.60884 262.50507 250.51330 239.81353 229.93476 221.03799 213.21922 206.22045
 200.05368 194.99091 191.57214 189.61337 188.64960 188.71284 189.54707 190.85430
 192.57853 194.67276 196.93499 199.29322 201.73745 204.21668 206.30391 208.14514
 209.77037 210.91460 211.14283 211.37006 211.30629 211.01052 210.64275 210.27198
 209.88821 209.59744 209.40467 209.26790 209.19513 209.52536 209.91059 210.29882
 211.09105 212.26828 213.51751 215.29974 217.22697 219.26920 221.36343 223.44566
 225.50489 227.58812 229.68435 231.78958 233.91781 236.08904 238.34428 240.71351
 243.33374 245.58397 247.58520 249.34943 250.76566 251.88789 252.70912 253.02435
 253.06058 252.83381 252.19304 251.14027 249.74550 247.90573 245.81396 243.64619
 241.43642 239.23965 237.05888 234.89711 232.75634 230.62257 228.64780 226.80403
 225.08626 223.55749 222.18672 220.95795 219.83918 218.79841 217.90164 217.04187
 216.28310 215.46233 214.55956 213.92279 213.37202 214.06882 215.75116 217.48022
 219.22987 221.24489 222.98549 224.18137 225.20067 226.36391 227.29842 226.89828
 227.10645 229.17778 233.04608 237.54379 242.17253 246.64209 250.86952 254.80167
 258.36942 261.55579 264.38605 266.95627 269.30978 271.43048 273.29971 275.02817
 276.89056 278.66843 280.23206 281.61728 282.84479 284.00998 285.10666 286.10016
 286.99371 287.78940 288.48453 289.37036
 366.78100 356.33648 345.76995 334.63743 323.04190 311.23738 299.10885 286.91333
 274.62680 262.52528 250.53575 239.83823 229.96170 221.06718 213.25065 206.25413
 200.08960 195.02908 191.61255 189.65603 188.69450 188.75998 189.59645 190.90593
 192.63240 194.72888 196.99335 199.35383 201.80030 204.28178 206.37125 208.21473
 209.84220 210.98868 211.21915 211.44863 211.38710 211.09358 210.72805 210.35953
 209.97800 209.68948 209.49895 209.36443 209.29391 209.62638 210.01386 210.40433
 211.19881 212.37828 213.62976 215.41423 217.34371 219.38818 221.48466 223.56913
 225.63061 227.71608 229.81456 231.92203 234.05251 236.22598 238.48346 240.85493
 243.47741 245.72988 247.73336 249.49983 250.91831 252.04278 252.86626 253.18373
 253.22221 252.99768 252.35916 251.30863 249.91611 248.07858 245.98906 243.82353
 241.61601 239.42148 237.24296 235.08343 232.94491 230.81339 228.84086 226.99934
 225.28381 223.75729 222.38876 221.16224 220.04571 219.00719 218.11266 217.25514
 216.49861 215.68009 214.77956 214.14504 213.59651 214.20055 215.68820 217.49687
 219.38246 221.41780 223.06703 224.17166 225.16203 226.30067 227.17876 226.81551
 227.02217 229.14244 233.01437 237.52499 242.16718 246.64516 250.88219 254.83838
 258.44498 261.65735 264.49310 267.05722 269.41455 271.56467 273.45435 275.16895
 276.95023 278.72156 280.28564 281.67474 282.93146 284.14597 285.25406 286.25787
 287.16074 287.96472 288.66705 289.56210
 366.78100 356.33725 345.77150 334.63975 323.04500 311.24124 299.11349 286.91874
 274.63299 262.53224 250.54349 239.84674 229.97099 221.07724 213.26148 206.26573
 200.10198 195.04223 191.62648 189.67073 188.70998 188.77623 189.61348 190.92372
 192.65097 194.74822 197.01347 199.37472 201.82197 204.30422 206.39447 208.23872
 209.86696 211.01421 211.24546 211.47571 211.41496 211.12221 210.75746 210.38971
 210.00896 209.72120 209.53145 209.39770 209.32795 209.66120 210.04945 210.44070
 211.23595 212.41620 213.66844 215.45369 217.38394 219.42919 221.52644 223.61169
 225.67394 227.76019 229.85944 231.96768 234.09893 236.27318 238.53143 240.90368
 243.52693 245.78018 247.78443 249.55168 250.97092 252.09617 252.92042 253.23867
 253.27792 253.05417 252.41642 251.36667 249.97492 248.13816 246.04941 243.88466
 241.67791 239.48416 237.30641 235.14766 233.00991 230.87916 228.90740 227.06665
 225.35190 223.82615 222.45840 221.23265 220.11690 219.07915 218.18540 217.32864
 216.57289 215.75514 214.85539 214.22164 213.67389 214.25685 215.68042 217.48386
 219.39240 221.41533 223.14325 224.21417 225.14542 226.25887 227.23299 226.54588
 226.81326 228.95271 232.92624 237.46381 242.12645 246.60591 250.84904 254.82582
 258.46704 261.71890 264.58771 267.16010 269.53372 271.73080 273.68497 275.37411
 277.04794 278.75455 280.30957 281.68719 282.89859 284.02069 285.13614 286.14664
 287.05548 287.86484 288.57184 289.47287
 366.78100 356.33673 345.77045 334.63818 323.04290 311.23863 299.11035 286.91508
 274.62881 262.52753 250.53826 239.84098 229.96471 221.07043 213.25416 206.25789
 200.09361 195.03334 191.61706 189.66079 188.69951 188.76524 189.60196 190.91169
 192.63842 194.73514 196.99987 199.36059 201.80732 204.28904 206.37877 208.22250
 209.85022 210.99695 211.22767 211.45740 211.39612 211.10285 210.73758 210.36930
 209.98803 209.69975 209.50948 209.37520 209.30493 209.63766 210.02538 210.41611
 211.21083 212.39056 213.64228 215.42701 217.35673 219.40146 221.49819 223.58291
 225.64464 227.73036 229.82909 231.93681 234.06754 236.24127 238.49899 240.87072
 243.49344 245.74617 247.74989 249.51662 250.93535 252.06007 252.88380 253.20152
 253.24025 253.01597 252.37770 251.32743 249.93515 248.09788 246.00860 243.84333
 241.63605 239.44178 237.26350 235.10423 232.96596 230.83468 228.86241 227.02113
 225.30586 223.77958 222.41131 221.18504 220.06876 219.03049 218.13621 217.27894
 216.52266 215.70439 214.80412 214.16984 213.62157 214.24023 215.71747 217.50999
 219.48819 221.45222 223.21664 224.33643 225.25365 226.30777 227.27708 226.26974
 226.60059 228.76134 232.80821 237.34705 242.02444 246.48755 250.72481 254.71146
 258.36523 261.63351 264.52438 267.13223 269.54178 271.77258 273.76175 275.51968
 277.14600 278.77106 280.30469 281.67059 282.86444 283.93320 284.92181 285.83521
 286.68536 287.44238 288.10373 288.94653
 366.78100 356.33624 345.76948 334.63673 323.04097 311.23621 299.10745 286.91169
 274.62493 262.52318 250.53342 239.83566 229.95890 221.06414 213.24739 206.25063
 200.08587 195.02511 191.60835 189.65159 188.68984 188.75508 189.59132 190.90056
 192.62680 194.72305 196.98729 199.34753 201.79377 204.27501 206.36425 208.20750
 209.83474 210.98098 211.21122 211.44046 211.37871 211.08495 210.71919 210.35043
 209.96867 209.67991 209.48916 209.35440 209.28364 209.61588 210.00312 210.39337
 211.18761 212.36685 213.61809 215.40233 217.33157 219.37582 221.47206 223.55630
 225.61754 227.70278 229.80103 231.90827 234.03851 236.21175 238.46899 240.84023
 243.46248 245.71472 247.71796 249.48420 250.90244 252.02668 252.84993 253.16717
 253.20541 252.98065 252.34189 251.29114 249.89838 248.06062 245.97086 243.80510
 241.59734 239.40259 237.22383 235.06407 232.92531 230.79355 228.82080 226.97904
 225.26328 223.73652 222.36776 221.14100 220.02425 218.98549 218.09073 217.23297
 216.47621 215.65746 214.75670 214.12194 213.57318 214.22188 215.75450 217.57848
 219.59564 221.50961 223.17488 224.39990 225.38875 226.42319 227.26828 226.35568
 226.56215 228.80606 232.76863 237.27960 241.91321 246.35948 250.59468 254.59705
 258.27014 261.55066 264.43982 267.06204 269.50281 271.77069 273.77780 275.54736
 277.19318 278.76328 280.25677 281.61633 282.80313 283.86096 284.83752 285.71097
 286.46988 287.16165 287.77615 288.55923
 366.78100 356.33631 345.76962 334.63692 323.04123 311.23654 299.10785 286.91216
 274.62546 262.52377 250.53408 239.83639 229.95969 221.06500 213.24831 206.25162
 200.08693 195.02623 191.60954 189.65285 188.69116 188.75647 189.59277 190.90208
 192.62839 194.72470 196.98900 199.34931 201.79562 204.27693 206.36624 208.20954
 209.83685 210.98316 211.21347 211.44278 211.38108 211.08739 210.72170 210.35301
 209.97132 209.68262 209.49193 209.35724 209.28655 209.61885 210.00616 210.39647
 211.19078 212.37009 213.62139 215.40570 217.33501 219.37932 221.47563 223.55993
 225.62124 227.70655 229.80486 231.91217 234.04247 236.21578 238.47309 240.84440
 243.46670 245.71901 247.72232 249.48863 250.90694 252.03124 252.85455 253.17186
 253.21017 252.98548 252.34678 251.29609 249.90340 248.06571 245.97601 243.81032
 241.60263 239.40794 237.22925 235.06955 232.93086 230.79917 228.82648 226.98479
 225.26909 223.74240 222.37371 221.14702 220.03033 218.99163 218.09694 217.23925
 216.48256 215.66386 214.76317 214.12848 213.57979 214.23123 215.77036 217.69653
 219.65573 221.50359 223.08875 224.36041 225.42540 226.51363 227.32686 226.50014
 226.53065 228.78647 232.72528 237.23376 241.81984 246.25137 250.48969 254.49507
 258.17691 261.47253 264.38580 267.03159 269.50357 271.80811 273.81479 275.55820
 277.20395 278.75272 280.20068 281.54819 282.73276 283.79129 284.76678 285.62628
 286.29700 286.96454 287.56436 288.35107
 366.78100 356.33698 345.77096 334.63894 323.04392 311.23990 299.11188 286.91686
 274.63084 262.52982 250.54080 239.84378 229.96775 221.07373 213.25771 206.26169
 200.09767 195.03765 191.62163 189.66561 188.70459 188.77057 189.60755 190.91753
 192.64451 194.74149 197.00647 199.36745 201.81443 204.29641 206.38639 208.23037
 209.85835 211.00533 211.23631 211.46629 211.40526 211.11224 210.74722 210.37920
 209.99818 209.71016 209.52014 209.38612 209.31610 209.64908 210.03706 210.42804
 211.22302 212.40300 213.65498 215.43996 217.36994 219.41492 221.51190 223.59688
 225.65886 227.74484 229.84382 231.95179 234.08277 236.25675 238.51473 240.88671
 243.50969 245.76267 247.76665 249.53363 250.95261 252.07759 252.90157 253.21955
 253.25853 253.03451 252.39649 251.34647 249.95445 248.11743 246.02841 243.86339
 241.65637 239.46235 237.28433 235.12530 232.98728 230.85626 228.88424 227.04322
 225.32820 223.80218 222.43416 221.20814 220.09212 219.05410 218.16008 217.30306
 216.54704 215.72902 214.82900 214.19498 213.64696 214.27408 215.75569 217.80585
 219.71960 221.47124 223.00839 224.26933 225.38779 226.55629 227.39752 226.62538
 226.55865 228.75301 232.69691 237.19487 241.73511 246.14804 250.39192 254.40945
 258.11020 261.42459 264.35858 267.02167 269.51151 271.82837 273.82849 275.56912
 277.21793 278.76535 280.16788 281.48941 282.66983 283.72336 284.69501 285.56369
 286.25443 286.87173 287.46243 288.24991
 366.78100 356.33808 345.77317 334.64225 323.04834 311.24542 299.11851 286.92459
 274.63967 262.53976 250.55184 239.85593 229.98101 221.08810 213.27318 206.27826
 200.11535 195.05643 191.64152 189.68660 188.72669 188.79377 189.63185 190.94294
 192.67102 194.76911 197.03519 199.39728 201.84536 204.32844 206.41953 208.26461
 209.89370 211.04178 211.27387 211.50495 211.44504 211.15312 210.78920 210.42229
 210.04237 209.75546 209.56654 209.43363 209.36471 209.69879 210.08788 210.47996
 211.27605 212.45713 213.71022 215.49630 217.42738 219.47347 221.57155 223.65764
 225.72072 227.80781 229.90789 232.01697 234.14906 236.32414 238.58323 240.95631
 243.58040 245.83448 247.83956 249.60765 251.02773 252.15382 252.97890 253.29799
 253.33807 253.11515 252.47824 251.42932 250.03841 248.20249 246.11458 243.95066
 241.74474 239.55183 237.37491 235.21700 233.08008 230.95017 228.97925 227.13933
 225.42542 223.90050 222.53359 221.30867 220.19376 219.15684 218.26393 217.40801
 216.65309 215.83618 214.93726 214.30435 213.75743 214.34122 215.72049 217.88536
 219.83122 221.44322 222.89815 224.15732 225.33598 226.57076 227.46303 226.75745
 226.63501 228.74886 232.67738 237.15927 241.66412 246.05215 250.29832 254.32784
 258.04578 261.38129 264.34082 267.02499 269.53073 271.85730 273.84778 275.57440
 277.22305 278.77490 280.15802 281.44345 282.61639 283.66751 284.63412 285.50281
 286.24640 286.83130 287.42050 288.21106
 366.78100 356.33946 345.77592 334.64639 323.05385 311.25231 299.12677 286.93423
 274.65069 262.55216 250.56562 239.87108 229.99754 221.10600 213.29246 206.29893
 200.13739 195.07985 191.66631 189.71277 188.75423 188.82270 189.66216 190.97462
 192.70408 194.80354 197.07100 199.43447 201.88393 204.36839 206.46085 208.30731
 209.93778 211.08724 211.32070 211.55316 211.49462 211.20408 210.84155 210.47601
 210.09747 209.81193 209.62439 209.49285 209.42532 209.76078 210.15124 210.54470
 211.34216 212.52462 213.77909 215.56655 217.49901 219.54647 221.64593 223.73339
 225.79786 227.88632 229.98778 232.09824 234.23170 236.40816 238.66863 241.04309
 243.66855 245.92401 247.93047 249.69994 251.12140 252.24886 253.07532 253.39578
 253.43724 253.21571 252.58017 251.53263 250.14309 248.30855 246.22201 244.05948
 241.85494 239.66340 237.48786 235.33132 233.19578 231.06725 229.09771 227.25917
 225.54663 224.02309 222.65755 221.43402 220.32048 219.28494 218.39340 217.53886
 216.78533 215.96979 215.07225 214.44071 213.89517 214.42493 215.67653 217.92358
 219.99399 221.46442 222.78876 223.99533 225.20915 226.53229 227.52014 226.92795
 226.73859 228.73312 232.66351 237.14815 241.61287 245.97717 250.22340 254.25833
 257.98407 261.33472 264.31708 267.02914 269.56335 271.90549 273.88828 275.59769
 277.22568 278.75891 280.13211 281.39688 282.56442 283.61267 284.57748 285.44556
 286.20767 286.84262 287.43451 288.22031
 366.78100 356.34022 345.77744 334.64867 323.05689 311.25611 299.13133 286.93955
 274.65678 262.55900 250.57322 239.87944 230.00666 221.11589 213.30311 206.31033
 200.14955 195.09278 191.68000 189.72722 188.76944 188.83866 189.67889 190.99211
 192.72233 194.82255 197.09077 199.45500 201.90522 204.39044 206.48366 208.33088
 209.96211 211.11233 211.34655 211.57977 211.52199 211.23222 210.87044 210.50566
 210.12788 209.84310 209.65633 209.52555 209.45877 209.79499 210.18622 210.58044
 211.37866 212.56188 213.81710 215.60533 217.53855 219.58677 221.68699 223.77521
 225.84044 227.92966 230.03188 232.14310 234.27732 236.45455 238.71577 241.09099
 243.71721 245.97343 247.98066 249.75088 251.17310 252.30132 253.12854 253.44977
 253.49199 253.27121 252.63643 251.58965 250.20088 248.36710 246.28132 244.11954
 241.91577 239.72499 237.55021 235.39443 233.25965 231.13188 229.16310 227.32532
 225.61354 224.09076 222.72599 221.50321 220.39043 219.35565 218.46487 217.61110
 216.85832 216.04354 215.14676 214.51598 213.97121 214.47908 215.67896 217.90437
 220.11177 221.60139 222.74945 223.80698 225.00566 226.42662 227.53740 227.07428
 226.84311 228.72569 232.65718 237.15285 241.58104 245.92284 250.17450 254.22954
 257.98782 261.36768 264.36157 267.06412 269.58429 271.92261 273.88116 275.57971
 277.22827 278.76761 280.13708 281.35779 282.51721 283.56421 284.52698 285.39581
 286.16830 286.84058 287.43430 288.23160
 366.78100 356.33919 345.77539 334.64558 323.05277 311.25097 299.12516 286.93236
 274.64855 262.54974 250.56294 239.86813 229.99432 221.10252 213.28871 206.29490
 200.13310 195.07529 191.66149 189.70768 188.74887 188.81707 189.65626 190.96845
 192.69765 194.79684 197.06403 199.42723 201.87642 204.36062 206.45281 208.29900
 209.92920 211.07839 211.31158 211.54378 211.48497 211.19416 210.83136 210.46555
 210.08674 209.80094 209.61313 209.48133 209.41352 209.74871 210.13891 210.53210
 211.32929 212.51149 213.76568 215.55287 217.48507 219.53226 221.63146 223.71865
 225.78284 227.87104 229.97223 232.08242 234.21562 236.39181 238.65200 241.02620
 243.65139 245.90659 247.91278 249.68197 251.10317 252.23036 253.05655 253.37675
 253.41794 253.19613 252.56033 251.51252 250.12272 248.28791 246.20110 244.03830
 241.83349 239.64168 237.46588 235.30907 233.17326 231.04446 229.07465 227.23585
 225.52304 223.99923 222.63343 221.40962 220.29581 219.26001 218.36820 217.51339
 216.75959 215.94378 215.04598 214.41417 213.86836 214.44188 215.79688 217.81633
 220.15482 221.68413 222.75430 223.80382 224.96465 226.34114 227.44461 227.01456
 226.78622 228.66701 232.64633 237.17950 241.58727 245.91721 250.17935 254.26128
 258.06598 261.50037 264.52444 267.20694 269.66827 271.95468 273.86234 275.49026
 277.11371 278.67178 280.05756 281.29883 282.46957 283.51837 284.48599 285.36343
 286.14575 286.83847 287.44464 288.25009
 366.78100 356.33745 345.77190 334.64035 323.04580 311.24225 299.11470 286.92015
 274.63460 262.53405 250.54550 239.84895 229.97340 221.07985 213.26430 206.26875
 200.10520 195.04565 191.63010 189.67455 188.71400 188.78045 189.61790 190.92835
 192.65580 194.75325 197.01870 199.38015 201.82760 204.31005 206.40050 208.24495
 209.87340 211.02085 211.25230 211.48275 211.42220 211.12965 210.76510 210.39755
 210.01700 209.72945 209.53990 209.40635 209.33680 209.67025 210.05870 210.45015
 211.24560 212.42605 213.67850 215.46395 217.39440 219.43985 221.53730 223.62275
 225.68520 227.77165 229.87110 231.97955 234.11100 236.28545 238.54390 240.91635
 243.53980 245.79325 247.79770 249.56515 250.98460 252.11005 252.93450 253.25295
 253.29240 253.06885 252.43130 251.38175 249.99020 248.15365 246.06510 243.90055
 241.69400 239.50045 237.32290 235.16435 233.02680 230.89625 228.92470 227.08415
 225.36960 223.84405 222.47650 221.25095 220.13540 219.09785 218.20430 217.34775
 216.59220 215.77465 214.87510 214.24155 213.69400 214.35979 215.93274 217.84439
 220.05264 221.50868 222.82965 223.99496 225.07019 226.35709 227.34743 226.87389
 226.65445 228.55806 232.61470 237.18192 241.56360 245.88261 250.16370 254.27057
 258.10068 261.57193 264.64243 267.36221 269.82541 272.07413 273.93387 275.50815
 277.07101 278.58823 279.96658 281.24130 282.41623 283.46341 284.42224 285.29883
 286.09818 286.81000 287.44519 288.26044
 366.78100 356.33928 345.77556 334.64585 323.05313 311.25141 299.12569 286.93298
 274.64926 262.55054 250.56382 239.86911 229.99539 221.10367 213.28995 206.29624
 200.13452 195.07680 191.66308 189.70937 188.75065 188.81893 189.65821 190.97050
 192.69978 194.79906 197.06634 199.42963 201.87891 204.36319 206.45547 208.30176
 209.93204 211.08132 211.31460 211.54689 211.48817 211.19745 210.83473 210.46901
 210.09030 209.80458 209.61686 209.48514 209.41743 209.75271 210.14299 210.53627
 211.33356 212.51584 213.77012 215.55740 217.48969 219.53697 221.63625 223.72353
 225.78782 227.87610 229.97738 232.08766 234.22095 236.39723 238.65751 241.03179
 243.65708 245.91236 247.91864 249.68792 251.10921 252.23649 253.06277 253.38305
 253.42433 253.20262 252.56690 251.51918 250.12946 248.29475 246.20803 244.04531
 241.84059 239.64888 237.47316 235.31644 233.18072 231.05201 229.08229 227.24357
 225.53085 224.00714 222.64142 221.41770 220.30398 219.26827 218.37655 217.52183
 216.76811 215.95240 215.05468 214.42296 213.87724 214.45300 215.81326 218.08287
 219.98752 221.41434 222.88898 223.97856 225.01598 226.34515 227.42514 227.04250
 226.77292 228.55354 232.58052 237.15283 241.46614 245.72778 249.98796 254.06644
 257.87277 261.35663 264.50848 267.35678 269.94464 272.26291 274.17944 275.74484
 277.22269 278.65979 279.99036 281.22720 282.38699 283.42972 284.38519 285.26035
 286.06287 286.77744 287.40878 288.22519
 366.78100 356.34278 345.78255 334.65633 323.06710 311.26888 299.14666 286.95743
 274.67721 262.58199 250.59876 239.90754 230.03731 221.14909 213.33887 206.34864
 200.19042 195.13620 191.72597 189.77575 188.82052 188.89230 189.73508 191.05085
 192.78363 194.88641 197.15718 199.52396 201.97673 204.46451 206.56029 208.41006
 210.04384 211.19662 211.43339 211.66917 211.61394 211.32672 210.96750 210.60527
 210.23005 209.94783 209.76360 209.63538 209.57115 209.90993 210.30371 210.70048
 211.50126 212.68704 213.94481 215.73559 217.67136 219.72214 221.82492 223.91569
 225.98347 228.07525 230.18002 232.29380 234.43057 236.61035 238.87413 241.25190
 243.88068 246.13946 248.14923 249.92201 251.34678 252.47756 253.30734 253.63111
 253.67589 253.45767 252.82544 251.78122 250.39499 248.56377 246.48055 244.32132
 242.12010 239.93188 237.75965 235.60643 233.47420 231.34898 229.38276 227.54753
 225.83831 224.31808 222.95586 221.73564 220.62541 219.59319 218.70497 217.85374
 217.10352 216.29129 215.39707 214.76885 214.22662 214.63835 215.61113 218.24655
 220.09529 221.51604 222.86697 223.73805 224.74442 226.18501 227.52023 227.38101
 227.07687 228.64995 232.59088 237.18300 241.46039 245.62827 249.82509 253.85085
 257.59741 261.05051 264.24048 267.18497 269.88901 272.29160 274.28824 275.92780
 277.40082 278.78439 280.06961 281.24997 282.38110 283.41913 284.37177 285.24329
 286.04031 286.76126 287.37643 288.19049
 366.78100 356.34399 345.78499 334.65998 323.07198 311.27497 299.15397 286.96596
 274.68695 262.59295 250.61094 239.92094 230.05193 221.16493 213.35592 206.36692
 200.20991 195.15690 191.74790 189.79889 188.84489 188.91788 189.76188 191.07887
 192.81286 194.91686 197.18885 199.55685 202.01084 204.49984 206.59683 208.44782
 210.08282 211.23681 211.47481 211.71180 211.65780 211.37179 211.01379 210.65278
 210.27877 209.99777 209.81476 209.68776 209.62475 209.96475 210.35974 210.75773
 211.55973 212.74672 214.00572 215.79771 217.73471 219.78670 221.89069 223.98269
 226.05168 228.14468 230.25067 232.36567 234.50366 236.68466 238.94965 241.32864
 243.95864 246.21863 248.22963 250.00362 251.42962 252.56161 253.39260 253.71760
 253.76359 253.54659 252.91558 251.87258 250.48757 248.65756 246.57556 244.41755
 242.21755 240.03054 237.85954 235.70753 233.57652 231.45252 229.48751 227.65351
 225.94550 224.42650 223.06549 221.84649 220.73748 219.70647 218.81947 217.96946
 217.22046 216.40945 215.51645 214.88944 214.34843 214.71526 215.58191 218.19943
 220.23743 221.65591 222.85655 223.54218 224.47050 225.94247 227.46596 227.54782
 227.27287 228.72762 232.61815 237.25095 241.56181 245.68233 249.84070 253.85109
 257.58414 261.00223 264.13898 267.04492 269.74197 272.15070 274.16727 275.87302
 277.41171 278.81458 280.09573 281.25937 282.38196 283.41971 284.37433 285.24753
 286.04312 286.76221 287.37634 288.19534
 366.78100 356.34300 345.78300 334.65700 323.06800 311.27000 299.14800 286.95900
 274.67900 262.58400 250.60101 239.91001 230.04001 221.15201 213.34201 206.35201
 200.19401 195.14001 191.73001 189.78001 188.82501 188.89701 189.74001 191.05601
 192.78901 194.89201 197.16301 199.53001 201.98302 204.47102 206.56702 208.41702
 210.05102 211.20402 211.44102 211.67702 211.62202 211.33502 210.97602 210.61402
 210.23902 209.95702 209.77302 209.64502 209.58102 209.92002 210.31402 210.71103
 211.51203 212.69803 213.95603 215.74703 217.68303 219.73403 221.83703 223.92803
 225.99603 228.08803 230.19303 232.30703 234.44403 236.62403 238.88803 241.26603
 243.89503 246.15404 248.16404 249.93704 251.36204 252.49304 253.32304 253.64704
 253.69204 253.47404 252.84204 251.79804 250.41204 248.58104 246.49804 244.33904
 242.13804 239.95004 237.77804 235.62504 233.49305 231.36805 229.40205 227.56705
 225.85805 224.33805 222.97605 221.75605 220.64605 219.61405 218.72605 217.87505
 217.12505 216.31305 215.41905 214.79105 214.24905 214.67776 215.69064 218.06799
 220.33957 221.77228 222.85608 223.47354 224.32457 225.73590 227.32715 227.52805
 227.30493 228.74246 232.63266 237.30757 241.65776 245.77747 249.90398 253.91969
 257.67038 261.08347 264.17355 267.01154 269.65533 272.02060 273.99234 275.72229
 277.32944 278.77692 280.07779 281.24686 282.38443 283.42520 284.38208 285.25546
 286.05194 286.77023 287.38879 288.20480
 366.78100 356.34216 345.78133 334.65449 323.06466 311.26582 299.14299 286.95315
 274.67232 262.57648 250.59265 239.90081 230.02998 221.14114 213.33031 206.33947
 200.18063 195.12580 191.71496 189.76413 188.80829 188.87946 189.72162 191.03679
 192.76895 194.87112 197.14128 199.50745 201.95961 204.44678 206.54194 208.39110
 210.02427 211.17643 211.41260 211.64776 211.59193 211.30409 210.94426 210.58142
 210.20559 209.92275 209.73792 209.60908 209.54425 209.88241 210.27557 210.67174
 211.47190 212.65707 213.91423 215.70440 217.63956 219.68973 221.79189 223.88206
 225.94922 228.04039 230.14455 232.25772 234.39388 236.57304 238.83621 241.21337
 243.84154 246.09970 248.10887 249.88103 251.30520 252.43536 253.26453 253.58769
 253.63186 253.41302 252.78019 251.73535 250.34851 248.51668 246.43284 244.27301
 242.07117 239.88234 237.70950 235.55567 233.42283 231.29700 229.33016 227.49433
 225.78449 224.26366 222.90082 221.67998 220.56915 219.53631 218.64748 217.79564
 217.04481 216.23197 215.33714 214.70830 214.16547 214.64658 215.78323 217.98598
 220.38094 221.85564 222.85728 223.46870 224.25702 225.58951 227.19398 227.47211
 227.29456 228.73573 232.64301 237.35274 241.72441 245.83275 249.93790 253.95171
 257.70703 261.11734 264.18765 266.99573 269.61719 271.95724 273.86765 275.57623
 277.22485 278.71323 280.03552 281.23373 282.38861 283.43604 284.39383 285.26962
 286.06616 286.78665 287.40686 288.22394
 366.78100 356.34239 345.78178 334.65517 323.06556 311.26695 299.14433 286.95472
 274.67411 262.57850 250.59489 239.90328 230.03267 221.14406 213.33345 206.34284
 200.18423 195.12962 191.71900 189.76839 188.81278 188.88417 189.72656 191.04195
 192.77434 194.87673 197.14712 199.51351 201.96590 204.45328 206.54867 208.39806
 210.03145 211.18384 211.42023 211.65562 211.60001 211.31240 210.95279 210.59018
 210.21456 209.93195 209.74734 209.61873 209.55412 209.89251 210.28590 210.68229
 211.48268 212.66807 213.92546 215.71585 217.65123 219.70162 221.80401 223.89440
 225.96179 228.05318 230.15757 232.27096 234.40735 236.58674 238.85013 241.22751
 243.85590 246.11429 248.12368 249.89607 251.32046 252.45085 253.28024 253.60363
 253.64802 253.42941 252.79679 251.75218 250.36557 248.53396 246.45035 244.29074
 242.08913 239.90052 237.72791 235.57430 233.44169 231.31608 229.34946 227.51385
 225.80424 224.28363 222.92102 221.70041 220.58980 219.55719 218.66858 217.81697
 217.06636 216.25374 215.35913 214.73052 214.18791 214.67055 215.81085 217.96202
 220.39018 221.92332 222.86192 223.44984 224.17717 225.44476 227.06958 227.45488
 227.33250 228.75827 232.66591 237.40326 241.78999 245.88675 249.95879 253.95729
 257.70007 261.09595 264.15735 266.96646 269.59692 271.94342 273.81189 275.47815
 277.13721 278.65192 279.98999 281.23032 282.39697 283.44479 284.40631 285.28360
 286.08444 286.80801 287.43005 288.25058
 366.78100 356.34310 345.78320 334.65730 323.06840 311.27050 299.14860 286.95970
 274.67980 262.58490 250.60200 239.91110 230.04120 221.15330 213.34340 206.35350
 200.19561 195.14171 191.73181 189.78191 188.82701 188.89911 189.74221 191.05831
 192.79141 194.89451 197.16561 199.53271 201.98581 204.47391 206.57001 208.42011
 210.05421 211.20731 211.44441 211.68051 211.62561 211.33871 210.97981 210.61791
 210.24301 209.96111 209.77721 209.64931 209.58541 209.92451 210.31862 210.71572
 211.51682 212.70292 213.96102 215.75212 217.68822 219.73932 221.84242 223.93352
 226.00162 228.09372 230.19882 232.31292 234.45002 236.63012 238.89422 241.27232
 243.90142 246.16052 248.17062 249.94372 251.36882 252.49992 253.33002 253.65412
 253.69922 253.48132 252.84942 251.80552 250.41963 248.58873 246.50583 244.34693
 242.14603 239.95813 237.78623 235.63333 233.50143 231.37653 229.41063 227.57573
 225.86683 224.34693 222.98503 221.76513 220.65523 219.62333 218.73543 217.88453
 217.13463 216.32273 215.42883 214.80093 214.25903 214.72115 215.81293 217.95145
 220.39035 221.98862 222.89940 223.42033 224.04803 225.25638 226.92113 227.45122
 227.40002 228.80383 232.70406 237.47075 241.88152 245.96071 249.99754 253.97125
 257.68436 261.05399 264.10684 266.92599 269.57516 271.93933 273.78702 275.41675
 277.07156 278.60019 279.94757 281.23572 282.40881 283.45792 284.42114 285.30103
 286.10364 286.82959 287.45715 288.27820
 366.78100 356.34369 345.78439 334.65908 323.07077 311.27347 299.15216 286.96385
 274.68455 262.59024 250.60793 239.91763 230.04832 221.16101 213.35171 206.36240
 200.20510 195.15179 191.74248 189.79318 188.83887 188.91156 189.75526 191.07195
 192.80564 194.90934 197.18103 199.54872 202.00242 204.49111 206.58780 208.43850
 210.07319 211.22688 211.46458 211.70127 211.64696 211.36066 211.00235 210.64104
 210.26674 209.98543 209.80212 209.67482 209.61151 209.95120 210.34590 210.74359
 211.54529 212.73198 213.99067 215.78237 217.71906 219.77075 221.87445 223.96614
 226.03483 228.12753 230.23322 232.34791 234.48561 236.66630 238.93099 241.30969
 243.93938 246.19907 248.20977 249.98346 251.40915 252.54085 253.37154 253.69623
 253.74193 253.52462 252.89331 251.85001 250.46470 248.63439 246.55209 244.39378
 242.19348 240.00617 237.83486 235.68256 233.55125 231.42694 229.46164 227.62733
 225.91902 224.39972 223.03841 221.81910 220.70980 219.67849 218.79118 217.94088
 217.19157 216.38026 215.48696 214.85965 214.31834 214.76634 215.82480 217.93327
 220.38202 222.03831 222.95299 223.41010 223.93082 225.04294 226.73056 227.42276
 227.47467 228.87682 232.75780 237.53886 241.97002 246.05640 250.06248 253.99864
 257.67538 261.01627 264.05716 266.88242 269.54590 271.91885 273.75793 275.36661
 277.01694 278.55261 279.91425 281.24603 282.42731 283.47809 284.44135 285.32452
 286.12939 286.85794 287.49097 288.31158
 366.78100 356.34400 345.78500 334.66000 323.07200 311.27501 299.15401 286.96601
 274.68701 262.59301 250.61101 239.92101 230.05201 221.16501 213.35601 206.36702
 200.21002 195.15702 191.74802 189.79902 188.84502 188.91802 189.76202 191.07902
 192.81303 194.91703 197.18903 199.55703 202.01103 204.50003 206.59703 208.44803
 210.08303 211.23703 211.47504 211.71204 211.65804 211.37204 211.01404 210.65304
 210.27904 209.99804 209.81504 209.68805 209.62505 209.96505 210.36005 210.75805
 211.56005 212.74705 214.00605 215.79805 217.73506 219.78706 221.89106 223.98306
 226.05206 228.14506 230.25106 232.36606 234.50406 236.68506 238.95007 241.32907
 243.95907 246.21907 248.23007 250.00407 251.43007 252.56207 253.39307 253.71808
 253.76408 253.54708 252.91608 251.87308 250.48808 248.65808 246.57608 244.41808
 242.21808 240.03109 237.86009 235.70809 233.57709 231.45309 229.48809 227.65409
 225.94609 224.42709 223.06610 221.84710 220.73810 219.70710 218.82010 217.97010
 217.22110 216.41010 215.51710 214.89010 214.34911 214.79675 215.85435 217.90628
 220.36043 222.07837 223.01109 223.39731 223.80385 224.83934 226.53552 227.38684
 227.52992 228.92375 232.81177 237.62163 242.08577 246.18369 250.15990 254.04436
 257.67627 260.98300 264.00616 266.83109 269.50189 271.87119 273.70279 275.30820
 276.96423 278.50470 279.90692 281.25449 282.44067 283.49475 284.46155 285.34650
 286.15302 286.88239 287.51840 288.34479
 366.78100 356.34412 345.78524 334.66035 323.07247 311.27559 299.15471 286.96683
 274.68795 262.59406 250.61218 239.92230 230.05342 221.16654 213.35766 206.36877
 200.21189 195.15901 191.75013 189.80125 188.84736 188.92048 189.76460 191.08172
 192.81584 194.91996 197.19207 199.56019 202.01431 204.50343 206.60055 208.45167
 210.08678 211.24090 211.47902 211.71614 211.66226 211.37638 211.01849 210.65761
 210.28373 210.00285 209.81997 209.69308 209.63020 209.97032 210.36544 210.76356
 211.56568 212.75279 214.01191 215.80403 217.74115 219.79327 221.89739 223.98950
 226.05862 228.15174 230.25786 232.37298 234.51109 236.69221 238.95733 241.33645
 243.96657 246.22669 248.23780 250.01192 251.43804 252.57016 253.40128 253.72640
 253.77251 253.55563 252.92475 251.88187 250.49699 248.66710 246.58522 244.42734
 242.22746 240.04058 237.86970 235.71781 233.58693 231.46305 229.49817 227.66429
 225.95641 224.43752 223.07664 221.85776 220.74888 219.71800 218.83112 217.98123
 217.23235 216.42147 215.52859 214.90171 214.36082 214.81758 215.89673 217.87848
 220.31908 222.11497 223.08260 223.41328 223.69135 224.56172 226.27457 227.30298
 227.61092 229.08131 232.91118 237.71384 242.21645 246.32735 250.26257 254.09305
 257.67639 260.94308 263.94461 266.76804 269.44229 271.79852 273.62238 275.23807
 276.90768 278.45761 279.91156 281.26846 282.45602 283.51251 284.48114 285.36893
 286.17734 286.90884 287.54395 288.38116
 366.78100 356.34417 345.78533 334.66050 323.07267 311.27583 299.15500 286.96716
 274.68833 262.59450 250.61266 239.92283 230.05400 221.16716 213.35833 206.36949
 200.21266 195.15983 191.75099 189.80216 188.84833 188.92149 189.76566 191.08283
 192.81699 194.92116 197.19332 199.56149 202.01566 204.50482 206.60199 208.45316
 210.08832 211.24249 211.48065 211.71782 211.66399 211.37815 211.02032 210.65949
 210.28565 210.00482 209.82199 209.69515 209.63232 209.97248 210.36765 210.76582
 211.56798 212.75515 214.01432 215.80648 217.74365 219.79581 221.89998 223.99215
 226.06131 228.15448 230.26065 232.37581 234.51398 236.69514 238.96031 241.33948
 243.96964 246.22981 248.24098 250.01514 251.44131 252.57348 253.40464 253.72981
 253.77597 253.55914 252.92831 251.88547 250.50064 248.67081 246.58897 244.43114
 242.23130 240.04447 237.87364 235.72180 233.59097 231.46714 229.50230 227.66847
 225.96064 224.44180 223.08097 221.86213 220.75330 219.72247 218.83563 217.98580
 217.23697 216.42613 215.53330 214.90646 214.36563 214.83446 215.94211 217.85884
 220.25945 222.13522 223.15872 223.45108 223.60669 224.29958 225.99791 227.16757
 227.66534 229.25734 233.02170 237.80882 242.34158 246.46237 250.37051 254.15265
 257.68298 260.90649 263.88544 266.70645 269.37894 271.72153 273.54147 275.16998
 276.85287 278.40512 279.92087 281.28632 282.47507 283.53131 284.50125 285.38879
 286.19745 286.92831 287.56631 288.40005
 366.78100 356.34419 345.78537 334.66056 323.07275 311.27593 299.15512 286.96731
 274.68849 262.59468 250.61287 239.92305 230.05424 221.16743 213.35861 206.36980
 200.21299 195.16017 191.75136 189.80255 188.84874 188.92192 189.76611 191.08330
 192.81748 194.92167 197.19386 199.56204 202.01623 204.50542 206.60260 208.45379
 210.08898 211.24316 211.48135 211.71854 211.66472 211.37891 211.02110 210.66028
 210.28647 210.00566 209.82284 209.69603 209.63322 209.97340 210.36859 210.76678
 211.56896 212.75615 214.01534 215.80752 217.74471 219.79690 221.90108 223.99327
 226.06246 228.15565 230.26183 232.37702 234.51521 236.69639 238.96158 241.34077
 243.97095 246.23114 248.24233 250.01651 251.44270 252.57489 253.40607 253.73126
 253.77745 253.56063 252.92982 251.88701 250.50219 248.67238 246.59057 244.43275
 242.23294 240.04613 237.87531 235.72350 233.59269 231.46887 229.50406 227.67025
 225.96243 224.44362 223.08281 221.86399 220.75518 219.72437 218.83756 217.98774
 217.23893 216.42812 215.53530 214.90849 214.36768 214.84926 215.98703 217.84990
 220.19312 222.13304 223.22266 223.49055 223.54027 224.07649 225.72757 226.98764
 227.68449 229.43307 233.14790 237.90649 242.46983 246.60071 250.48547 254.21808
 257.69583 260.87769 263.83444 266.65091 269.31885 271.64948 273.46817 275.10919
 276.80609 278.38736 279.92249 281.29489 282.48734 283.54919 284.52100 285.41089
 286.22110 286.95450 287.59564 288.44647
 366.78100 356.34418 345.78536 334.66053 323.07271 311.27589 299.15507 286.96725
 274.68842 262.59460 250.61278 239.92296 230.05414 221.16731 213.35849 206.36967
 200.21285 195.16003 191.75121 189.80238 188.84856 188.92174 189.76592 191.08310
 192.81727 194.92145 197.19363 199.56181 202.01599 204.50516 206.60234 208.45352
 210.08870 211.24288 211.48105 211.71823 211.66441 211.37859 211.02077 210.65994
 210.28612 210.00530 209.82248 209.69566 209.63283 209.97301 210.36819 210.76637
 211.56855 212.75572 214.01490 215.80708 217.74426 219.79644 221.90062 223.99279
 226.06197 228.15515 230.26133 232.37651 234.51468 236.69586 238.96104 241.34022
 243.97040 246.23057 248.24175 250.01593 251.44211 252.57429 253.40546 253.73064
 253.77682 253.56000 252.92918 251.88635 250.50153 248.67171 246.58989 244.43207
 242.23224 240.04542 237.87460 235.72278 233.59196 231.46814 229.50331 227.66949
 225.96167 224.44285 223.08203 221.86320 220.75438 219.72356 218.83674 217.98692
 217.23809 216.42727 215.53445 214.90763 214.36681 214.86227 216.03288 217.84700
 220.12732 222.11343 223.26860 223.52048 223.48260 223.89015 225.46935 226.77071
 227.66875 229.60634 233.29085 238.01346 242.60057 246.74574 250.60710 254.28563
 257.71164 260.85272 263.78690 266.59763 269.25778 271.57486 273.39261 275.05038
 276.76587 278.38425 279.92657 281.30356 282.49960 283.56348 284.53772 285.42981
 286.24048 286.97290 287.61392 288.46735
 366.78100 356.34427 345.78554 334.66081 323.07308 311.27635 299.15563 286.96790
 274.68917 262.59544 250.61371 239.92398 230.05525 221.16852 213.35979 206.37106
 200.21433 195.16160 191.75288 189.80415 188.85042 188.92369 189.76796 191.08523
 192.81950 194.92377 197.19604 199.56431 202.01858 204.50785 206.60513 208.45640
 210.09167 211.24594 211.48421 211.72148 211.66775 211.38202 211.02429 210.66356
 210.28983 210.00910 209.82638 209.69965 209.63692 209.97719 210.37246 210.77073
 211.57300 212.76027 214.01954 215.81181 217.74908 219.80135 221.90563 223.99790
 226.06717 228.16044 230.26671 232.38198 234.52025 236.70152 238.96679 241.34606
 243.97633 246.23660 248.24788 250.02215 251.44842 252.58069 253.41196 253.73723
 253.78350 253.56677 252.93604 251.89331 250.50858 248.67885 246.59713 244.43940
 242.23967 240.05294 237.88221 235.73048 233.59975 231.47602 229.51129 227.67756
 225.96983 224.45110 223.09038 221.87165 220.76292 219.73219 218.84546 217.99573
 217.24700 216.43627 215.54354 214.91681 214.37608 214.88106 216.07411 217.84607
 220.06754 222.07849 223.29128 223.53508 223.42816 223.73799 225.23138 226.53450
 227.62512 229.77400 233.44899 238.13171 242.73311 246.88971 250.72728 254.35378
 257.73010 260.83145 263.74277 266.54434 269.19339 271.49442 273.31522 274.99292
 276.73187 278.38144 279.93085 281.30890 282.50809 283.57401 284.55081 285.44174
 286.25067 286.98193 287.62082 288.47455
 366.78100 356.34437 345.78573 334.66110 323.07347 311.27683 299.15620 286.96857
 274.68993 262.59630 250.61467 239.92503 230.05640 221.16976 213.36113 206.37250
 200.21586 195.16323 191.75460 189.80596 188.85233 188.92570 189.77006 191.08743
 192.82180 194.92616 197.19853 199.56690 202.02126 204.51063 206.60800 208.45936
 210.09473 211.24909 211.48746 211.72483 211.67119 211.38556 211.02793 210.66729
 210.29366 210.01303 209.83039 209.70376 209.64113 209.98149 210.37686 210.77523
 211.57759 212.76496 214.02433 215.81669 217.75406 219.80642 221.91079 224.00316
 226.07252 228.16589 230.27226 232.38762 234.52599 236.70736 238.97272 241.35209
 243.98246 246.24282 248.25419 250.02856 251.45492 252.58729 253.41866 253.74402
 253.79039 253.57375 252.94312 251.90049 250.51585 248.68622 246.60459 244.44695
 242.24732 240.06069 237.89005 235.73842 233.60779 231.48415 229.51952 227.68589
 225.97825 224.45962 223.09899 221.88035 220.77172 219.74109 218.85445 218.00482
 217.25618 216.44555 215.55292 214.92628 214.38565 214.90050 216.11688 217.84317
 220.01033 222.03955 223.29590 223.52354 223.36249 223.61072 225.02164 226.30835
 227.57304 229.92900 233.61176 238.25366 242.86195 247.02856 250.84593 254.42735
 257.75754 260.82016 263.70645 266.49530 269.12833 271.41077 273.23343 274.92798
 276.65240 278.39816 279.95343 281.32730 282.52158 283.58441 284.55942 285.44760
 286.25455 286.98209 287.62015 288.47009
 366.78100 356.34400 345.78500 334.66000 323.07200 311.27500 299.15400 286.96600
 274.68700 262.59300 250.61100 239.92099 230.05199 221.16499 213.35599 206.36699
 200.20999 195.15699 191.74799 189.79899 188.84499 188.91799 189.76199 191.07899
 192.81299 194.91699 197.18899 199.55699 202.01099 204.49999 206.59699 208.44799
 210.08299 211.23698 211.47498 211.71198 211.65798 211.37198 211.01398 210.65298
 210.27898 209.99798 209.81498 209.68798 209.62498 209.96498 210.35998 210.75798
 211.55998 212.74698 214.00598 215.79798 217.73498 219.78698 221.89097 223.98297
 226.05197 228.14497 230.25097 232.36597 234.50397 236.68497 238.94997 241.32897
 243.95897 246.21897 248.22997 250.00397 251.42997 252.56197 253.39297 253.71797
 253.76397 253.54697 252.91597 251.87296 250.48796 248.65796 246.57596 244.41796
 242.21796 240.03096 237.85996 235.70796 233.57696 231.45296 229.48796 227.65396
 225.94596 224.42696 223.06596 221.84696 220.73796 219.70696 218.81996 217.96996
 217.22096 216.40995 215.51695 214.88995 214.34895 214.89526 216.18597 217.83279
 219.92648 221.99220 223.29082 223.49982 223.28815 223.49406 224.82922 226.10059
 227.52290 230.05785 233.76292 238.37766 242.99091 247.17136 250.97462 254.51836
 257.80664 260.83060 263.68613 266.45575 269.06924 271.33438 273.15210 274.85965
 276.60870 278.38892 279.95117 281.32666 282.52289 283.58612 284.55927 285.44601
 286.25021 286.97467 287.61493 288.46365
 366.78100 356.34399 345.78498 334.65997 323.07197 311.27496 299.15395 286.96594
 274.68693 262.59292 250.61091 239.92090 230.05190 221.16489 213.35588 206.36687
 200.20986 195.15685 191.74784 189.79883 188.84483 188.91782 189.76181 191.07880
 192.81279 194.91678 197.18877 199.55676 202.01076 204.49975 206.59674 208.44773
 210.08272 211.23671 211.47470 211.71170 211.65769 211.37168 211.01367 210.65266
 210.27865 209.99764 209.81463 209.68763 209.62462 209.96461 210.35960 210.75759
 211.55958 212.74657 214.00556 215.79756 217.73455 219.78654 221.89053 223.98252
 226.05151 228.14450 230.25049 232.36549 234.50348 236.68447 238.94946 241.32845
 243.95844 246.21843 248.22943 250.00342 251.42941 252.56140 253.39239 253.71738
 253.76337 253.54636 252.91536 251.87235 250.48734 248.65733 246.57532 244.41731
 242.21730 240.03029 237.85929 235.70728 233.57627 231.45226 229.48725 227.65324
 225.94523 224.42623 223.06522 221.84621 220.73720 219.70619 218.81918 217.96917
 217.22016 216.40916 215.51615 214.88914 214.34813 214.90811 216.23112 217.85057
 219.82466 221.90489 223.29221 223.49361 223.21570 223.37663 224.64185 225.90295
 227.47633 230.15656 233.89183 238.49657 243.11588 247.31552 251.11604 254.63101
 257.88132 260.86942 263.69135 266.43930 269.03375 271.28278 273.08807 274.79700
 276.58032 278.38382 279.94833 281.32642 282.52335 283.58551 284.55795 285.44498
 286.24939 286.97281 287.62363 288.47552
 366.78100 356.34469 345.78637 334.66206 323.07474 311.27843 299.15811 286.97080
 274.69248 262.59917 250.61785 239.92854 230.06022 221.17391 213.36559 206.37728
 200.22096 195.16865 191.76033 189.81202 188.85870 188.93239 189.77707 191.09476
 192.82944 194.93413 197.20681 199.57550 202.03018 204.51987 206.61755 208.46924
 210.10492 211.25961 211.49829 211.73598 211.68266 211.39735 211.04003 210.67972
 210.30640 210.02609 209.84377 209.71746 209.65514 209.99583 210.39152 210.79020
 211.59289 212.78057 214.04026 215.83294 217.77063 219.82331 221.92800 224.02068
 226.09037 228.18405 230.29074 232.40642 234.54511 236.72679 238.99248 241.37216
 244.00285 246.26353 248.27522 250.04990 251.47659 252.60927 253.44096 253.76664
 253.81333 253.59701 252.96670 251.92438 250.54007 248.71075 246.62944 244.47212
 242.27281 240.08649 237.91618 235.76486 233.63455 231.51123 229.54692 227.71360
 226.00629 224.48797 223.12766 221.90934 220.80103 219.77072 218.88440 218.03509
 217.28677 216.47646 215.58414 214.95783 214.41751 214.95901 216.23839 217.86757
 219.78786 221.84821 223.27357 223.46237 223.13890 223.26801 224.46698 225.73683
 227.43321 230.24199 234.00830 238.60789 243.22885 247.44193 251.24281 254.73492
 257.95233 260.91040 263.70734 266.43304 268.99985 271.23434 273.06412 274.79108
 276.58636 278.37042 279.93533 281.31393 282.50998 283.57120 284.54150 285.42664
 286.23135 286.96014 287.60156 288.44092
 366.78100 356.34519 345.78737 334.66356 323.07674 311.28093 299.16111 286.97430
 274.69648 262.60367 250.62285 239.93404 230.06622 221.18041 213.37259 206.38478
 200.22896 195.17715 191.76934 189.82152 188.86871 188.94289 189.78808 191.10626
 192.84145 194.94663 197.21982 199.58900 202.04419 204.53437 206.63256 208.48474
 210.12093 211.27611 211.51530 211.75349 211.70067 211.41586 211.05904 210.69923
 210.32641 210.04660 209.86478 209.73897 209.67715 210.01834 210.41452 210.81371
 211.61689 212.80508 214.06526 215.85845 217.79664 219.84982 221.95501 224.04819
 226.11838 228.21256 230.31975 232.43593 234.57512 236.75730 239.02349 241.40367
 244.03486 246.29604 248.30823 250.08341 251.51060 252.64379 253.47597 253.80216
 253.84934 253.63353 253.00371 251.96190 250.57808 248.74927 246.66845 244.51164
 242.31282 240.12701 237.95719 235.80638 233.67656 231.55375 229.58994 227.75712
 226.05031 224.53249 223.17268 221.95486 220.84705 219.81723 218.93142 218.08260
 217.33479 216.52497 215.63316 215.00734 214.46753 215.00319 216.26874 217.85339
 219.75224 221.80643 223.24016 223.40477 223.04739 223.16795 224.30466 225.59119
 227.40108 230.31422 234.11473 238.71600 243.33650 247.55682 251.35658 254.82974
 258.01791 260.94797 263.72067 266.42206 268.95602 271.16068 272.99176 274.74344
 276.59048 278.36893 279.93521 281.31378 282.50964 283.57022 284.53845 285.42166
 286.22803 286.95822 287.58694 288.41678
 366.78100 356.34536 345.78771 334.66407 323.07742 311.28178 299.16213 286.97549
 274.69784 262.60520 250.62455 239.93591 230.06826 221.18262 213.37497 206.38733
 200.23168 195.18004 191.77239 189.82475 188.87210 188.94646 189.79181 191.11017
 192.84552 194.95088 197.22423 199.59359 202.04894 204.53930 206.63765 208.49001
 210.12636 211.28172 211.52107 211.75943 211.70678 211.42214 211.06549 210.70585
 210.33320 210.05356 209.87192 209.74627 209.68463 210.02598 210.42234 210.82169
 211.62505 212.81340 214.07376 215.86711 217.80547 219.85882 221.96418 224.05753
 226.12789 228.22224 230.32960 232.44595 234.58531 236.76766 239.03402 241.41437
 244.04573 246.30708 248.31944 250.09479 251.52215 252.65550 253.48786 253.81421
 253.86157 253.64592 253.01628 251.97463 250.59099 248.76234 246.68170 244.52505
 242.32641 240.14076 237.97112 235.82048 233.69083 231.56819 229.60454 227.77190
 226.06525 224.54761 223.18796 221.97032 220.86267 219.83303 218.94738 218.09874
 217.35109 216.54145 215.64980 215.02416 214.48451 215.02965 216.31760 217.83893
 219.68871 221.74107 223.18330 223.32724 222.95833 223.08759 224.15259 225.45032
 227.37503 230.38641 234.23077 238.83630 243.45692 247.68922 251.49275 254.94814
 258.10526 261.00296 263.74484 266.42148 268.92395 271.10538 272.94095 274.71393
 276.57132 278.34927 279.91248 281.28790 282.47940 283.53641 284.49661 285.37827
 286.19049 286.92755 287.54880 288.37677
 366.78100 356.34599 345.78898 334.66597 323.07996 311.28495 299.16595 286.97994
 274.70293 262.61092 250.63091 239.94290 230.07589 221.19088 213.38387 206.39686
 200.24186 195.19085 191.78384 189.83683 188.88482 188.95981 189.80580 191.12479
 192.86078 194.96677 197.24076 199.61076 202.06675 204.55774 206.65673 208.50972
 210.14671 211.30270 211.54269 211.78168 211.72967 211.44567 211.08966 210.73065
 210.35864 210.07963 209.89862 209.77361 209.71260 210.05459 210.45158 210.85157
 211.65557 212.84456 214.10555 215.89954 217.83853 219.89252 221.99851 224.09250
 226.16349 228.25848 230.36648 232.48347 234.62346 236.80645 239.07344 241.45443
 244.08642 246.34841 248.36140 250.13739 251.56539 252.69938 253.53237 253.85936
 253.90735 253.69234 253.06333 252.02232 250.63931 248.81130 246.73129 244.57529
 242.37728 240.19227 238.02326 235.87325 233.74424 231.62223 229.65922 227.82721
 226.12120 224.60420 223.24519 222.02818 220.92117 219.89216 219.00715 218.15914
 217.41213 216.60312 215.71211 215.08710 214.54810 215.07758 216.32851 217.85135
 219.65233 221.63170 223.08318 223.23747 222.87531 223.04054 224.03355 225.32074
 227.33148 230.43205 234.33348 238.94707 243.56371 247.80180 251.61671 255.06711
 258.20978 261.08496 263.79626 266.43842 268.89877 271.04184 272.87033 274.66254
 276.56705 278.35489 279.91922 281.29700 282.49146 283.55377 284.53238 285.42462
 286.22720 286.93112 287.55161 288.37955
 366.78100 356.34680 345.79059 334.66839 323.08318 311.28898 299.17077 286.98557
 274.70936 262.61816 250.63896 239.95175 230.08555 221.20134 213.39514 206.40893
 200.25473 195.20452 191.79832 189.85212 188.90091 188.97671 189.82350 191.14330
 192.88009 194.98689 197.26168 199.63248 202.08928 204.58107 206.68087 208.53466
 210.17246 211.32925 211.57005 211.80984 211.75864 211.47544 211.12023 210.76203
 210.39082 210.11262 209.93241 209.80821 209.74800 210.09080 210.48860 210.88939
 211.69419 212.88398 214.14578 215.94057 217.88037 219.93516 222.04196 224.13676
 226.20855 228.30435 230.41314 232.53094 234.67173 236.85553 239.12332 241.50512
 244.13792 246.40071 248.41451 250.19130 251.62010 252.75489 253.58869 253.91648
 253.96528 253.75108 253.12287 252.08267 250.70046 248.87326 246.79405 244.63885
 242.44164 240.25744 238.08924 235.94003 233.81183 231.69062 229.72842 227.89721
 226.19201 224.67580 223.31760 222.10140 220.99519 219.96699 219.08278 218.23558
 217.48937 216.68117 215.79096 215.16676 214.62856 215.13121 216.31877 217.85654
 219.66190 221.57152 222.95189 223.07649 222.74532 222.97462 223.94183 225.24928
 227.32436 230.49373 234.44183 239.05196 243.64612 247.88718 251.71469 255.17291
 258.31216 261.17465 263.85660 266.46707 268.88251 270.98645 272.80814 274.60406
 276.57617 278.35339 279.90744 281.27811 282.46933 283.53012 284.50955 285.39841
 286.19000 286.88962 287.50064 288.32083
 366.78100 356.34613 345.78927 334.66640 323.08054 311.28567 299.16681 286.98094
 274.70408 262.61221 250.63235 239.94448 230.07762 221.19275 213.38589 206.39902
 200.24416 195.19329 191.78642 189.83956 188.88769 188.96283 189.80896 191.12810
 192.86423 194.97037 197.24450 199.61464 202.07077 204.56191 206.66104 208.51418
 210.15131 211.30744 211.54758 211.78671 211.73485 211.45098 211.09512 210.73625
 210.36439 210.08552 209.90466 209.77979 209.71893 210.06106 210.45820 210.85833
 211.66247 212.85160 214.11273 215.90687 217.84600 219.90014 222.00627 224.10041
 226.17154 228.26668 230.37481 232.49195 234.63208 236.81522 239.08235 241.46349
 244.09562 246.35776 248.37089 250.14702 251.57516 252.70929 253.54243 253.86956
 253.91770 253.70283 253.07397 252.03310 250.65024 248.82237 246.74251 244.58664
 242.38878 240.20391 238.03504 235.88518 233.75631 231.63445 229.67158 227.83972
 226.13385 224.61699 223.25812 222.04126 220.93439 219.90553 219.02066 218.17280
 217.42593 216.61707 215.72620 215.10133 214.56247 215.11356 216.41553 217.75293
 219.61221 221.59346 222.90746 222.89087 222.50412 222.83774 223.75175 225.06694
 227.27675 230.56113 234.58418 239.19012 243.79298 248.05399 251.90955 255.37553
 258.49512 261.30997 263.92664 266.47833 268.83823 270.88214 272.70306 274.51489
 276.57166 278.36200 279.91824 281.28961 282.47821 283.53653 284.51184 285.39136
 286.17010 286.87476 287.52484 288.35620
 366.78100 356.34534 345.78769 334.66403 323.07738 311.28172 299.16206 286.97541
 274.69775 262.60510 250.62444 239.93579 230.06813 221.18247 213.37482 206.38716
 200.23151 195.17985 191.77219 189.82454 188.87188 188.94623 189.79157 191.10992
 192.84526 194.95060 197.22395 199.59329 202.04864 204.53898 206.63732 208.48967
 210.12601 211.28136 211.52070 211.75904 211.70639 211.42173 211.06508 210.70542
 210.33277 210.05311 209.87145 209.74580 209.68414 210.02549 210.42183 210.82117
 211.62452 212.81286 214.07321 215.86655 217.80490 219.85824 221.96358 224.05693
 226.12727 228.22162 230.32896 232.44530 234.58465 236.76699 239.03334 241.41368
 244.04502 246.30637 248.31871 250.09406 251.52140 252.65475 253.48709 253.81343
 253.86078 253.64512 253.01547 251.97381 250.59015 248.76150 246.68084 244.52419
 242.32553 240.13988 237.97022 235.81956 233.68991 231.56725 229.60360 227.77094
 226.06428 224.54663 223.18697 221.96932 220.86166 219.83200 218.94635 218.09769
 217.35004 216.54038 215.64873 215.02307 214.48341 215.09341 216.53532 217.67168
 219.38866 221.44412 222.93321 222.91203 222.39014 222.61766 223.40459 224.90660
 227.16089 230.54735 234.67059 239.30307 243.88094 248.21458 252.16023 255.68622
 258.80573 261.59238 264.14957 266.59085 268.83041 270.75528 272.51788 274.53796
 276.52710 278.26123 279.74612 281.11395 282.28406 283.32562 284.27533 285.11603
 285.81409 286.43332 286.97427 287.66364
 366.78100 356.34607 345.78913 334.66620 323.08026 311.28533 299.16639 286.98046
 274.70353 262.61159 250.63166 239.94372 230.07679 221.19185 213.38492 206.39799
 200.24305 195.19212 191.78518 189.83825 188.88631 188.96138 189.80745 191.12651
 192.86258 194.96864 197.24271 199.61277 202.06884 204.55991 206.65897 208.51204
 210.14910 211.30517 211.54523 211.78430 211.73237 211.44843 211.09250 210.73356
 210.36163 210.08269 209.90176 209.77683 209.71589 210.05796 210.45502 210.85509
 211.65915 212.84822 214.10929 215.90335 217.84242 219.89648 222.00255 224.09661
 226.16768 228.26275 230.37081 232.48788 234.62794 236.81101 239.07807 241.45914
 244.09121 246.35327 248.36634 250.14240 251.57047 252.70454 253.53760 253.86467
 253.91273 253.69780 253.06886 252.02793 250.64500 248.81706 246.73713 244.58119
 242.38326 240.19832 238.02939 235.87946 233.75052 231.62859 229.66565 227.83372
 226.12778 224.61085 223.25192 222.03498 220.92805 219.89911 219.01418 218.16624
 217.41931 216.61038 215.71944 215.09451 214.55557 215.14258 216.53546 217.76015
 219.17882 221.13744 222.84874 223.01178 222.45554 222.52257 223.19934 224.88597
 227.07603 230.56522 234.73148 239.37201 243.94305 248.29442 252.28670 255.85973
 259.00882 261.79382 264.33133 266.72702 268.91800 270.77448 272.45541 274.48923
 276.43759 278.04950 279.35284 280.64169 281.76938 282.80060 283.75415 284.62119
 285.40100 286.09543 286.70209 287.47516
 366.78100 356.34740 345.79181 334.67021 323.08561 311.29202 299.17442 286.98982
 274.71423 262.62363 250.64503 239.95843 230.09284 221.20924 213.40364 206.41805
 200.26445 195.21485 191.80926 189.86366 188.91306 188.98947 189.83687 191.15727
 192.89468 195.00208 197.27748 199.64889 202.10629 204.59869 206.69909 208.55350
 210.19190 211.34930 211.59071 211.83111 211.78051 211.49792 211.14332 210.78572
 210.41513 210.13753 209.95793 209.83434 209.77474 210.11814 210.51655 210.91795
 211.72335 212.91375 214.17616 215.97156 217.91196 219.96737 222.07477 224.17017
 226.24258 228.33898 230.44838 232.56679 234.70819 236.89259 239.16100 241.54340
 244.17680 246.44021 248.45461 250.23201 251.66141 252.79682 253.63122 253.95962
 254.00903 253.79543 253.16783 252.12824 250.74664 248.92004 246.84145 244.68685
 242.49025 240.30666 238.13906 235.99046 233.86287 231.74227 229.78067 227.95007
 226.24548 224.72988 223.37228 222.15669 221.05109 220.02349 219.13990 218.29330
 217.54770 216.74011 215.85051 215.22691 214.68932 215.21872 216.48874 217.86375
 219.11024 220.84634 222.64430 223.05226 222.61061 222.52545 223.14406 224.86247
 227.04118 230.57262 234.79579 239.39671 243.96564 248.29874 252.31227 255.91542
 259.10184 261.91376 264.46484 266.86337 269.04883 270.91046 272.58533 274.49081
 276.36023 277.85843 279.10791 280.37338 281.53656 282.59589 283.60840 284.53369
 285.36591 286.10696 286.75436 287.57938
 366.78100 356.34818 345.79337 334.67255 323.08873 311.29592 299.17910 286.99529
 274.72047 262.63065 250.65284 239.96702 230.10220 221.21939 213.41457 206.42975
 200.27694 195.22812 191.82331 189.87849 188.92867 189.00586 189.85404 191.17522
 192.91341 195.02159 197.29777 199.66996 202.12814 204.62133 206.72251 208.57769
 210.21688 211.37506 211.61724 211.85843 211.80861 211.52679 211.17298 210.81616
 210.44635 210.16953 209.99071 209.86790 209.80908 210.15326 210.55245 210.95463
 211.76081 212.95200 214.21518 216.01137 217.95255 220.00873 222.11692 224.21310
 226.28628 228.38347 230.49365 232.61284 234.75502 236.94020 239.20939 241.59257
 244.22675 246.49094 248.50612 250.28430 251.71449 252.85067 253.68586 254.01504
 254.06522 253.85241 253.22559 252.18677 250.80596 248.98014 246.90232 244.74851
 242.55269 240.36988 238.20306 236.05524 233.92843 231.80861 229.84779 228.01798
 226.31416 224.79934 223.44253 222.22771 221.12290 220.09608 219.21326 218.36745
 217.62263 216.81581 215.92700 215.30418 214.76736 215.26823 216.48361 217.87933
 219.15640 220.74365 222.52922 223.08232 222.70932 222.45462 223.03397 224.79239
 227.04979 230.62195 234.89494 239.44608 243.98535 248.32805 252.36050 255.99345
 259.19016 262.02811 264.60760 267.02209 269.19315 271.06552 272.75443 274.58371
 276.36914 277.82339 279.07031 280.38882 281.58051 282.68494 283.70816 284.63513
 285.46887 286.21130 286.85986 287.68640
 366.78100 356.34824 345.79349 334.67273 323.08897 311.29622 299.17946 286.99570
 274.72095 262.63119 250.65343 239.96768 230.10292 221.22016 213.41541 206.43065
 200.27789 195.22914 191.82438 189.87962 188.92987 189.00711 189.85535 191.17660
 192.91484 195.02308 197.29933 199.67157 202.12981 204.62306 206.72430 208.57954
 210.21879 211.37703 211.61927 211.86052 211.81076 211.52900 211.17525 210.81849
 210.44873 210.17198 209.99322 209.87046 209.81171 210.15595 210.55519 210.95744
 211.76368 212.95492 214.21817 216.01441 217.95565 220.01190 222.12014 224.21638
 226.28963 228.38687 230.49711 232.61636 234.75860 236.94384 239.21309 241.59633
 244.23057 246.49481 248.51006 250.28830 251.71854 252.85479 253.69003 254.01927
 254.06952 253.85676 253.23000 252.19125 250.81049 248.98473 246.90698 244.75322
 242.55746 240.37471 238.20795 236.06019 233.93344 231.81368 229.85292 228.02317
 226.31941 224.80465 223.44790 222.23314 221.12838 220.10163 219.21887 218.37311
 217.62836 216.82160 215.93284 215.31009 214.77333 215.28096 216.51430 217.84540
 219.20354 220.71405 222.43275 222.99712 222.65811 222.36327 222.97444 224.72501
 227.05901 230.67796 235.00864 239.54454 244.04544 248.37415 252.41431 256.05811
 259.24185 262.12378 264.74280 267.16882 269.34601 271.23639 272.91492 274.69467
 276.43872 277.82483 279.22842 280.60168 281.86383 283.02817 284.09048 285.05283
 285.91837 286.68912 287.36246 288.22052
 366.78100 356.34815 345.79331 334.67246 323.08861 311.29576 299.17892 286.99507
 274.72022 262.63037 250.65253 239.96668 230.10183 221.21898 213.41414 206.42929
 200.27644 195.22759 191.82275 189.87790 188.92805 189.00520 189.85336 191.17451
 192.91266 195.02081 197.29697 199.66912 202.12727 204.62042 206.72158 208.57673
 210.21588 211.37403 211.61619 211.85734 211.80749 211.52564 211.17180 210.81495
 210.44510 210.16825 209.98941 209.86656 209.80771 210.15186 210.55102 210.95317
 211.75932 212.95047 214.21363 216.00978 217.95093 220.00708 222.11524 224.21139
 226.28454 228.38169 230.49185 232.61100 234.75315 236.93830 239.20746 241.59061
 244.22476 246.48891 248.50407 250.28222 251.71237 252.84852 253.68368 254.01283
 254.06298 253.85013 253.22329 252.18444 250.80359 248.97774 246.89990 244.74605
 242.55020 240.36735 238.20051 236.05266 233.92581 231.80596 229.84512 228.01527
 226.31142 224.79657 223.43973 222.22488 221.12003 220.09318 219.21034 218.36449
 217.61964 216.81279 215.92395 215.30110 214.76425 215.27866 216.52202 217.83627
 219.19014 220.66096 222.22426 222.71394 222.48067 222.26393 222.95593 224.66550
 227.07069 230.75122 235.15166 239.68611 244.13321 248.42241 252.42917 256.02271
 259.26804 262.20044 264.83081 267.26083 269.42987 271.31833 273.02051 274.79590
 276.49133 277.91437 279.27325 280.63364 281.84668 282.98221 284.01822 284.95679
 285.80090 286.55261 287.20926 288.04611
 366.78100 356.34783 345.79266 334.67149 323.08732 311.29415 299.17698 286.99281
 274.71764 262.62748 250.64931 239.96314 230.09797 221.21480 213.40963 206.42446
 200.27129 195.22212 191.81695 189.87178 188.92161 188.99844 189.84627 191.16710
 192.90493 195.01276 197.28859 199.66043 202.11826 204.61109 206.71192 208.56675
 210.20558 211.36341 211.60524 211.84607 211.79590 211.51373 211.15956 210.80239
 210.43222 210.15505 209.97588 209.85271 209.79354 210.13738 210.53621 210.93804
 211.74387 212.93470 214.19753 215.99336 217.93419 219.99002 222.09785 224.19368
 226.26651 228.36334 230.47317 232.59200 234.73383 236.91866 239.18749 241.57033
 244.20416 246.46799 248.48282 250.26065 251.69048 252.82631 253.66114 253.98997
 254.03980 253.82663 253.19946 252.16029 250.77912 248.95295 246.87478 244.72061
 242.52444 240.34128 238.17411 236.02594 233.89877 231.77860 229.81743 227.98726
 226.28309 224.76792 223.41075 222.19558 221.09041 220.06324 219.18007 218.33390
 217.58873 216.78156 215.89239 215.26923 214.73206 215.26511 216.54703 217.82404
 219.18607 220.62746 222.14088 222.50012 222.22484 222.03871 222.84665 224.59760
 227.09622 230.84071 235.29602 239.84929 244.28758 248.56201 252.56874 256.14273
 259.28278 262.27512 264.88217 267.28293 269.44287 271.33185 273.06299 274.83408
 276.51120 277.93451 279.22882 280.55069 281.75223 282.87704 283.90326 284.83292
 285.66907 286.41367 287.06412 287.89307
 366.78100 356.34727 345.79154 334.66981 323.08508 311.29135 299.17363 286.98890
 274.71317 262.62244 250.64371 239.95698 230.09125 221.20752 213.40179 206.41606
 200.26233 195.21260 191.80688 189.86115 188.91042 188.98669 189.83396 191.15423
 192.89150 194.99877 197.27404 199.64531 202.10258 204.59486 206.69513 208.54940
 210.18767 211.34494 211.58621 211.82648 211.77575 211.49302 211.13829 210.78056
 210.40983 210.13211 209.95238 209.82865 209.76892 210.11219 210.51046 210.91173
 211.71700 212.90727 214.16954 215.96481 217.90508 219.96036 222.06763 224.16290
 226.23517 228.33144 230.44071 232.55898 234.70025 236.88452 239.15279 241.53506
 244.16834 246.43161 248.44588 250.22315 251.65242 252.78769 253.62196 253.95023
 253.99950 253.78577 253.15804 252.11831 250.73659 248.90986 246.83113 244.67640
 242.47967 240.29594 238.12821 235.97948 233.85175 231.73102 229.76929 227.93857
 226.23384 224.71811 223.36038 222.14465 221.03892 220.01119 219.12746 218.28073
 217.53500 216.72727 215.83754 215.21382 214.67609 215.24915 216.61304 217.77647
 219.21196 220.74359 222.24567 222.46498 221.99649 221.80965 222.68883 224.52966
 227.10515 230.92776 235.41713 239.99525 244.45538 248.73325 252.73305 256.29202
 259.43539 262.29166 264.88367 267.30072 269.42285 271.30066 273.09607 274.90726
 276.54575 277.93274 279.45102 280.92496 282.24823 283.41901 284.48715 285.45480
 286.32510 287.10013 287.77716 288.63998
 366.78100 356.34729 345.79159 334.66988 323.08518 311.29147 299.17376 286.98906
 274.71335 262.62265 250.64394 239.95723 230.09153 221.20782 213.40211 206.41641
 200.26270 195.21300 191.80729 189.86158 188.91088 188.98717 189.83447 191.15476
 192.89205 194.99935 197.27464 199.64594 202.10323 204.59552 206.69582 208.55011
 210.18840 211.34570 211.58699 211.82729 211.77658 211.49387 211.13917 210.78146
 210.41076 210.13305 209.95334 209.82964 209.76993 210.11323 210.51152 210.91281
 211.71811 212.90840 214.17070 215.96599 217.90628 219.96158 222.06887 224.16416
 226.23646 228.33275 230.44205 232.56034 234.70163 236.88593 239.15422 241.53652
 244.16981 246.43310 248.44740 250.22469 251.65399 252.78928 253.62357 253.95187
 254.00116 253.78746 253.15975 252.12004 250.73834 248.91163 246.83292 244.67822
 242.48151 240.29781 238.13010 235.98139 233.85369 231.73298 229.77128 227.94057
 226.23586 224.72016 223.36245 222.14675 221.04104 220.01333 219.12963 218.28292
 217.53721 216.72951 215.83980 215.21610 214.67839 215.25864 216.62843 217.75534
 219.21823 220.80588 222.26999 222.40669 221.82718 221.65816 222.52271 224.34563
 227.01297 230.95578 235.53229 240.12845 244.59299 248.84315 252.80272 256.38403
 259.56586 262.35471 264.95670 267.34470 269.45041 271.31656 273.12988 274.95117
 276.52374 278.23883 279.91364 281.46429 282.80627 283.99356 285.07678 286.05814
 286.94073 287.72668 288.41330 289.28827
 366.78100 356.34746 345.79192 334.67038 323.08584 311.29230 299.17476 286.99022
 274.71467 262.62413 250.64559 239.95905 230.09351 221.20997 213.40443 206.41889
 200.26535 195.21581 191.81027 189.86473 188.91419 188.99065 189.83810 191.15856
 192.89602 195.00348 197.27894 199.65040 202.10786 204.60032 206.70078 208.55524
 210.19370 211.35116 211.59262 211.83308 211.78254 211.49999 211.14545 210.78791
 210.41737 210.13983 209.96029 209.83675 209.77721 210.12067 210.51913 210.92059
 211.72605 212.91651 214.17897 215.97442 217.91488 219.97034 222.07780 224.17326
 226.24572 228.34218 230.45164 232.57010 234.71156 236.89602 239.16448 241.54694
 244.18040 246.44386 248.45831 250.23577 251.66523 252.80069 253.63515 253.96361
 254.01307 253.79953 253.17199 252.13245 250.75091 248.92437 246.84583 244.69129
 242.49474 240.31120 238.14366 235.99512 233.86758 231.74704 229.78550 227.95496
 226.25042 224.73488 223.37734 222.16180 221.05626 220.02872 219.14518 218.29863
 217.55309 216.74555 215.85601 215.23247 214.69493 215.27290 216.62895 217.74374
 219.24269 220.82236 222.19452 222.26831 221.64207 221.50237 222.30177 224.18202
 226.93239 231.00723 235.65147 240.25981 244.74203 248.98628 252.90640 256.48184
 259.67163 262.48398 265.06091 267.42197 269.50784 271.34372 273.16748 274.93234
 276.69336 278.51935 280.26553 281.79880 283.12570 284.29968 285.37076 286.34106
 287.21378 287.99091 288.66980 289.53497
 366.78100 356.34719 345.79138 334.66957 323.08476 311.29095 299.17314 286.98833
 274.71252 262.62171 250.64290 239.95609 230.09028 221.20647 213.40066 206.41485
 200.26104 195.21123 191.80542 189.85961 188.90880 188.98499 189.83218 191.15237
 192.88956 194.99675 197.27194 199.64313 202.10032 204.59251 206.69270 208.54689
 210.18508 211.34227 211.58346 211.82365 211.77284 211.49003 211.13522 210.77741
 210.40660 210.12879 209.94898 209.82517 209.76536 210.10855 210.50674 210.90793
 211.71312 212.90331 214.16550 215.96069 217.90088 219.95607 222.06326 224.15845
 226.23064 228.32683 230.43602 232.55421 234.69540 236.87959 239.14778 241.52997
 244.16316 246.42635 248.44054 250.21773 251.64692 252.78211 253.61630 253.94449
 253.99368 253.77987 253.15206 252.11225 250.73044 248.90363 246.82482 244.67001
 242.47320 240.28939 238.12158 235.97277 233.84496 231.72415 229.76234 227.93153
 226.22672 224.71091 223.35310 222.13729 221.03148 220.00367 219.11986 218.27305
 217.52724 216.71943 215.82962 215.20581 214.66800 215.25903 216.63702 217.71045
 219.24199 220.85406 222.08292 222.03246 221.38737 221.33990 222.09525 224.10733
 226.96967 231.10593 235.78748 240.40317 244.89886 249.15582 253.05701 256.59357
 259.77902 262.63480 265.20773 267.56497 269.64581 271.45288 273.22763 274.97507
 276.76996 278.57513 280.24866 281.72363 283.00009 284.12946 285.15979 286.09323
 286.93274 287.68036 288.33344 289.16571
 366.78100 356.34666 345.79031 334.66797 323.08263 311.28829 299.16994 286.98460
 274.70826 262.61692 250.63757 239.95023 230.08389 221.19955 213.39320 206.40686
 200.25252 195.20217 191.79583 189.84949 188.89815 188.97380 189.82046 191.14012
 192.87678 194.98343 197.25809 199.62875 202.08540 204.57706 206.67672 208.53038
 210.16803 211.32469 211.56535 211.80501 211.75366 211.47032 211.11498 210.75664
 210.38529 210.10695 209.92661 209.80226 209.74192 210.08458 210.48224 210.88289
 211.68755 212.87721 214.13887 215.93352 217.87318 219.92784 222.03449 224.12915
 226.20081 228.29647 230.40512 232.52278 234.66344 236.84710 239.11475 241.49641
 244.12907 246.39173 248.40538 250.18204 251.61070 252.74535 253.57901 253.90667
 253.95533 253.74098 253.11264 252.07230 250.68996 248.86261 246.78327 244.62793
 242.43058 240.24624 238.07790 235.92856 233.80021 231.67887 229.71653 227.88519
 226.17984 224.66350 223.30516 222.08882 220.98247 219.95413 219.06979 218.22244
 217.47610 216.66776 215.77742 215.15307 214.61473 215.22479 216.64783 217.68971
 219.18063 220.86871 222.04031 221.87497 221.15857 221.11108 221.89803 224.06680
 227.05772 231.21631 235.90294 240.53247 245.04053 249.30498 253.19595 256.67999
 259.81528 262.66476 265.25018 267.62109 269.72781 271.57797 273.35684 275.04810
 276.68369 278.31708 279.90469 281.36069 282.62076 283.73557 284.75269 285.67410
 286.50284 287.24081 287.88550 288.70709
 366.78100 356.34643 345.78986 334.66729 323.08172 311.28715 299.16858 286.98301
 274.70644 262.61487 250.63530 239.94773 230.08116 221.19659 213.39002 206.40344
 200.24887 195.19830 191.79173 189.84516 188.89359 188.96902 189.81545 191.13488
 192.87131 194.97774 197.25217 199.62260 202.07903 204.57046 206.66989 208.52332
 210.16075 211.31718 211.55761 211.79704 211.74547 211.46190 211.10633 210.74776
 210.37619 210.09762 209.91705 209.79247 209.73190 210.07433 210.47176 210.87219
 211.67662 212.86605 214.12748 215.92191 217.86134 219.91577 222.02220 224.11663
 226.18806 228.28349 230.39192 232.50935 234.64978 236.83321 239.10064 241.48207
 244.11450 246.37693 248.39036 250.16679 251.59522 252.72965 253.56308 253.89050
 253.93893 253.72436 253.09579 252.05522 250.67265 248.84508 246.76551 244.60994
 242.41237 240.22780 238.05923 235.90966 233.78109 231.65952 229.69695 227.86538
 226.15981 224.64324 223.28467 222.06810 220.96153 219.93296 219.04839 218.20082
 217.45425 216.64568 215.75511 215.13054 214.59196 215.21132 216.65300 217.69182
 219.14395 220.87611 222.07175 221.80579 220.93748 220.92772 221.68724 223.87108
 227.00174 231.27328 236.01520 240.65912 245.17137 249.43114 253.30856 256.76782
 259.86346 262.67996 265.25208 267.61911 269.73062 271.61411 273.43643 275.16296
 276.70273 278.32666 279.98267 281.46326 282.74460 283.87823 284.91254 285.84952
 286.69223 287.44269 288.09827 288.93372
 366.78100 356.34647 345.78994 334.66741 323.08188 311.28735 299.16881 286.98328
 274.70675 262.61522 250.63569 239.94816 230.08163 221.19710 213.39057 206.40404
 200.24950 195.19897 191.79244 189.84591 188.89438 188.96985 189.81632 191.13579
 192.87226 194.97873 197.25319 199.62366 202.08013 204.57160 206.67107 208.52454
 210.16201 211.31848 211.55895 211.79842 211.74688 211.46335 211.10782 210.74929
 210.37776 210.09923 209.91870 209.79417 209.73364 210.07611 210.47357 210.87404
 211.67851 212.86798 214.12945 215.92392 217.86339 219.91786 222.02433 224.11880
 226.19026 228.28573 230.39420 232.51167 234.65214 236.83561 239.10308 241.48455
 244.11702 246.37949 248.39295 250.16942 251.59789 252.73236 253.56583 253.89330
 253.94177 253.72724 253.09871 252.05818 250.67565 248.84811 246.76858 244.61305
 242.41552 240.23099 238.06246 235.91293 233.78440 231.66287 229.70034 227.86880
 226.16327 224.64674 223.28821 222.07168 220.96515 219.93662 219.05209 218.20456
 217.45803 216.64949 215.75896 215.13443 214.59590 215.20682 216.63623 217.68909
 219.11400 220.83893 222.00941 221.71342 220.79817 220.68039 221.51306 223.87453
 227.07239 231.38406 236.13702 240.79736 245.31876 249.57144 253.41429 256.83380
 259.91446 262.74072 265.32468 267.69308 269.81619 271.72598 273.57196 275.30334
 276.75317 278.30606 279.89713 281.34491 282.59784 283.70636 284.71771 285.63394
 286.45798 287.19177 287.83282 288.64975
 366.78100 356.34606 345.78913 334.66619 323.08026 311.28532 299.16638 286.98045
 274.70351 262.61158 250.63164 239.94370 230.07677 221.19183 213.38489 206.39796
 200.24302 195.19209 191.78515 189.83821 188.88628 188.96134 189.80741 191.12647
 192.86253 194.96860 197.24266 199.61273 202.06879 204.55985 206.65892 208.51198
 210.14904 211.30511 211.54517 211.78424 211.73230 211.44836 211.09243 210.73349
 210.36156 210.08262 209.90168 209.77675 209.71581 210.05788 210.45494 210.85500
 211.65907 212.84813 214.10919 215.90326 217.84232 219.89639 222.00245 224.09651
 226.16758 228.26264 230.37071 232.48777 234.62783 236.81090 239.07796 241.45903
 244.09109 246.35315 248.36622 250.14228 251.57034 252.70441 253.53747 253.86454
 253.91260 253.69766 253.06873 252.02779 250.64486 248.81692 246.73698 244.58105
 242.38311 240.19818 238.02924 235.87930 233.75037 231.62843 229.66549 227.83356
 226.12762 224.61069 223.25175 222.03481 220.92788 219.89894 219.01401 218.16607
 217.41913 216.61020 215.71926 215.09433 214.55539 215.18121 216.64326 217.68442
 219.07373 220.79886 222.00543 221.69762 220.65158 220.33641 221.23161 223.84872
 227.13779 231.48196 236.24452 240.93690 245.48712 249.75478 253.58453 256.96149
 259.97751 262.76520 265.35074 267.70938 269.83923 271.78369 273.64691 275.32803
 276.66290 278.00708 279.51706 280.97415 282.23514 283.35080 284.36865 285.29077
 286.12012 286.85864 287.50381 288.32602
 366.78100 356.34586 345.78872 334.66557 323.07943 311.28429 299.16515 286.97901
 274.70186 262.60972 250.62958 239.94144 230.07430 221.18915 213.38201 206.39487
 200.23973 195.18859 191.78144 189.83430 188.88216 188.95702 189.80288 191.12174
 192.85759 194.96345 197.23731 199.60717 202.06303 204.55388 206.65274 208.50560
 210.14246 211.29832 211.53817 211.77703 211.72489 211.44075 211.08461 210.72546
 210.35332 210.07418 209.89304 209.76790 209.70675 210.04861 210.44547 210.84533
 211.64919 212.83804 214.09890 215.89276 217.83162 219.88548 221.99133 224.08519
 226.15605 228.25091 230.35877 232.47563 234.61548 236.79834 239.06520 241.44606
 244.07792 246.33977 248.35263 250.12849 251.55635 252.69021 253.52306 253.84992
 253.89778 253.68264 253.05350 252.01235 250.62921 248.80107 246.72093 244.56479
 242.36664 240.18150 238.01236 235.86222 233.73308 231.61093 229.64779 227.81565
 226.10951 224.59237 223.23322 222.01608 220.90894 219.87980 218.99466 218.14652
 217.39937 216.59023 215.69909 215.07395 214.53481 215.16815 216.64394 217.68483
 219.05627 220.74144 221.97183 221.66615 220.54462 220.08450 220.92830 223.77544
 227.15947 231.57993 236.36456 241.07790 245.65320 249.92007 253.74036 257.10556
 260.07675 262.80795 265.37656 267.74863 269.87939 271.79910 273.66174 275.44183
 276.78473 278.02206 279.59698 281.01358 282.23953 283.32416 284.31372 285.21021
 286.01651 286.73450 287.36176 288.16107
 366.78100 356.34539 345.78779 334.66418 323.07758 311.28197 299.16237 286.97576
 274.69816 262.60555 250.62495 239.93634 230.06874 221.18313 213.37553 206.38792
 200.23232 195.18071 191.77311 189.82550 188.87290 188.94729 189.79269 191.11108
 192.84648 194.95187 197.22526 199.59466 202.05005 204.54045 206.63884 208.49124
 210.12763 211.28303 211.52242 211.76082 211.70821 211.42361 211.06700 210.70740
 210.33479 210.05519 209.87358 209.74798 209.68637 210.02777 210.42416 210.82356
 211.62695 212.81535 214.07574 215.86913 217.80753 219.86092 221.96632 224.05971
 226.13011 228.22450 230.33190 232.44829 234.58769 236.77008 239.03648 241.41687
 244.04827 246.30966 248.32206 250.09745 251.52485 252.65824 253.49064 253.81703
 253.86443 253.64882 253.01921 251.97761 250.59400 248.76540 246.68479 244.52819
 242.32958 240.14398 237.97437 235.82377 233.69416 231.57156 229.60795 227.77535
 226.06874 224.55114 223.19153 221.97393 220.86632 219.83672 218.95111 218.10251
 217.35490 216.54530 215.65369 215.02808 214.48848 215.12904 216.63101 217.67453
 218.99005 220.65578 221.67297 221.30350 220.33279 219.98183 220.97949 223.84262
 227.37643 231.73750 236.48903 241.21585 245.79967 250.06937 253.87839 257.23993
 260.20251 262.88516 265.40805 267.77750 269.94537 271.94278 273.85474 275.56418
 276.71762 277.33493 278.07150 279.37717 280.61005 281.70084 282.69604 283.59763
 284.40848 285.13055 285.76135 286.56522
 366.78100 356.34458 345.78615 334.66173 323.07431 311.27788 299.15746 286.97004
 274.69161 262.59819 250.61676 239.92734 230.05892 221.17249 213.36407 206.37565
 200.21922 195.16680 191.75838 189.80995 188.85653 188.93011 189.77468 191.09226
 192.82684 194.93141 197.20399 199.57256 202.02714 204.51672 206.61429 208.46587
 210.10145 211.25602 211.49460 211.73218 211.67875 211.39333 211.03591 210.67548
 210.30206 210.02164 209.83921 209.71279 209.65036 209.99094 210.38652 210.78509
 211.58767 212.77525 214.03482 215.82740 217.76498 219.81755 221.92213 224.01471
 226.08428 228.17786 230.28444 232.40001 234.53859 236.72016 238.98574 241.36532
 243.99589 246.25647 248.26805 250.04262 251.46920 252.60178 253.43335 253.75893
 253.80551 253.58908 252.95866 251.91624 250.53181 248.70239 246.62096 244.46354
 242.26412 240.07769 237.90727 235.75585 233.62542 231.50200 229.53758 227.70415
 225.99673 224.47831 223.11788 221.89946 220.79103 219.76061 218.87419 218.02476
 217.27634 216.46592 215.57349 214.94707 214.40665 215.06418 216.61700 217.72905
 218.79630 220.46799 221.57314 220.95857 219.89432 219.59843 220.98621 223.64526
 227.52583 231.84418 236.60489 241.34315 245.91098 250.16266 253.98117 257.36520
 260.35730 263.02991 265.46558 267.75684 269.93613 271.98044 273.88977 275.57047
 276.76120 277.41702 277.72906 277.98758 278.59543 279.57852 280.59116 281.50854
 282.33362 283.06833 283.71021 284.52817
 366.78100 356.34435 345.78571 334.66106 323.07341 311.27677 299.15612 286.96847
 274.68983 262.59618 250.61454 239.92489 230.05624 221.16960 213.36095 206.37230
 200.21566 195.16301 191.75436 189.80572 188.85207 188.92542 189.76978 191.08713
 192.82148 194.92584 197.19819 199.56655 202.02090 204.51025 206.60761 208.45896
 210.09431 211.24867 211.48702 211.72437 211.67073 211.38508 211.02743 210.66679
 210.29314 210.01249 209.82985 209.70320 209.64056 209.98091 210.37626 210.77462
 211.57697 212.76432 214.02368 215.81603 217.75338 219.80574 221.91009 224.00244
 226.07180 228.16515 230.27151 232.38686 234.52521 236.70657 238.97192 241.35127
 243.98163 246.24198 248.25333 250.02769 251.45404 252.58639 253.41775 253.74310
 253.78945 253.57281 252.94216 251.89952 250.51487 248.68522 246.60358 244.44593
 242.24628 240.05964 237.88899 235.73734 233.60670 231.48305 229.51840 227.68476
 225.97711 224.45846 223.09782 221.87917 220.77053 219.73988 218.85323 218.00359
 217.25494 216.44429 215.55165 214.92500 214.38435 215.03709 216.58089 217.80124
 218.80196 220.38782 221.62743 220.88493 219.60162 219.19023 220.74005 223.46530
 227.60133 231.94588 236.73030 241.47809 246.04843 250.29166 254.09663 257.49185
 260.51544 263.21536 265.63116 267.82950 269.91556 271.94223 273.89362 275.58597
 276.73111 277.35577 277.63596 277.86026 278.27838 278.96909 279.90643 280.80438
 281.62170 282.34955 282.98535 283.79562
 354.97500 345.04800 334.58700 324.11500 313.32600 302.53700 291.65000 280.76700
 269.93100 259.19300 248.62200 238.61700 229.08700 220.35500 212.54000 205.53500
 199.46400 194.49300 191.14300 189.19000 188.08900 188.01400 188.72400 189.90600
 191.46900 193.38200 195.40300 197.55600 199.80700 202.06000 204.28800 206.47900
 208.55200 210.37800 212.02500 213.65900 214.99800 216.11800 217.17200 218.25900
 219.49400 220.64500 221.67900 222.61400 223.54500 224.98200 226.57100 228.19000
 229.79700 231.81100 233.86500 235.97200 238.24200 240.55300 242.89900 245.25300
 247.48800 249.53500 251.36600 252.84800 254.09800 255.16700 256.02700 256.25300
 256.09500 255.54300 253.93500 252.56600 251.38400 250.24500 249.05200 247.70100
 246.01600 243.99600 241.78400 239.39300 236.81300 234.22300 231.65800 229.14400
 226.74000 224.47300 222.33500 220.32500 218.44000 216.67700 214.96200 213.47200
 212.20000 211.10800 210.26000 209.63900 209.24400 209.03100 209.05800 209.33300
 209.78400 210.62600 211.33100 212.39100 213.62500 214.84668 217.72949 219.47640
 220.32566 220.86828 220.88710 220.27371 219.43733 218.84250 219.04934 220.86203
 222.60583 225.72206 229.03064 232.61777 236.12270 239.51333 242.70767 245.68587
 248.41061 250.90679 253.19353 254.91714 256.48655 257.94920 259.39966 260.69384
 261.81714 262.77997 263.71679 264.54570 265.26305 265.89772 266.47676 267.00133
 267.47312 267.89325 268.26027 268.72800
