|-------------------------------------------------------------------------|
|   File Name : in_temp.dat
|   Subject   : temperature profiles used for initial guess atmosphere
|   File Type : input of gmtr
|   Data Type : atmospherical data
|   Author/s  : WRF-Chem
|   Date      : Fri Jul 26 15:39:24 2024
|-------------------------------------------------------------------------|

 WRF-Chem temperature
#
 values of T (K)    (8f10.5)
#
 354.97500 345.04800 334.58700 324.11500 313.32600 302.53700 291.65000 280.76700
 269.93100 259.19300 248.62200 238.61700 229.08700 220.35500 212.54000 205.53500
 199.46400 194.49300 191.14300 189.19000 188.08900 188.01400 188.72400 189.90600
 191.46900 193.38200 195.40300 197.55600 199.80700 202.06000 204.28800 206.47900
 208.55200 210.37800 212.02500 213.65900 214.99800 216.11800 217.17200 218.25900
 219.49400 220.64500 221.67900 222.61400 223.54500 224.98200 226.57100 228.19000
 229.79700 231.81100 233.86500 235.97200 238.24200 240.55300 242.89900 245.25300
 247.48800 249.53500 251.36600 252.84800 254.09800 255.16700 256.02700 256.25300
 256.09500 255.54300 253.93500 252.56600 251.38400 250.24500 249.05200 247.70100
 246.01600 243.99600 241.78400 239.39300 236.81300 234.22300 231.65800 229.14400
 226.74000 224.47300 222.33500 220.32500 218.44000 216.67700 214.96200 213.47200
 212.20000 211.10800 210.26000 209.63900 209.24400 209.03100 209.05800 209.33300
 209.78400 210.62600 211.33100 212.39100 213.62500 214.84668 217.72949 219.47640
 220.32566 220.86828 220.88710 220.27371 219.43733 218.84250 219.04934 220.86203
 222.60583 225.72206 229.03064 232.61777 236.12270 239.51333 242.70767 245.68587
 248.41061 250.90679 253.19353 254.91714 256.48655 257.94920 259.39966 260.69384
 261.81714 262.77997 263.71679 264.54570 265.26305 265.89772 266.47676 267.00133
 267.47312 267.89325 268.26027 268.72800
 366.78100 356.33500 345.76700 334.63300 323.03600 311.23000 299.10000 286.90300
 274.61500 262.51200 250.52100 239.82200 229.94400 221.04800 213.23000 206.23200
 200.06600 195.00400 191.58600 189.62800 188.66500 188.72900 189.56400 190.87200
 192.59700 194.69200 196.95500 199.31400 201.75900 204.23900 206.32700 208.16900
 209.79500 210.94000 211.16900 211.39700 211.33400 211.03900 210.67200 210.30200
 209.91900 209.62900 209.43700 209.30100 209.22900 209.56000 209.94600 210.33500
 211.12800 212.30600 213.55600 215.33900 217.26700 219.31000 221.40500 223.48800
 225.54800 227.63200 229.72900 231.83500 233.96400 236.13600 238.39200 240.76200
 243.38300 245.63400 247.63600 249.40100 250.81800 251.94100 252.76300 253.07900
 253.11600 252.89000 252.25000 251.19800 249.80400 247.96500 245.87400 243.70700
 241.49800 239.30200 237.12200 234.96100 232.82100 230.68800 228.71400 226.87100
 225.15400 223.62600 222.25600 221.02800 219.91000 218.87000 217.97400 217.11500
 216.35700 215.53700 214.63500 213.99900 213.44900 212.85855 212.01316 212.61654
 214.26826 216.08686 218.14273 220.53346 223.40855 226.78828 231.49734 235.90155
 239.42278 243.28576 247.23140 251.11907 254.80144 258.23331 261.38913 264.27520
 266.89312 269.26852 271.44504 273.08845 274.58484 275.98591 277.39845 278.65879
 279.75272 280.69038 281.56708 282.34086 283.01050 283.60295 284.14348 284.63317
 285.07358 285.46577 285.80838 286.24500
 381.81900 372.39900 361.20600 349.77600 337.62200 324.85300 311.81000 298.35300
 284.86000 271.32400 258.56100 246.30400 236.08700 226.79600 218.44800 211.29000
 205.52200 200.89400 197.38100 194.84800 193.01500 192.31500 192.25000 192.43100
 192.91200 193.53700 194.13600 194.71200 195.26200 195.83100 196.39300 196.97600
 197.60400 198.14900 198.58400 199.05700 199.69500 200.37800 201.05400 201.70800
 202.31300 202.85700 203.35500 203.86200 204.56900 205.29700 206.02600 206.98700
 208.19300 209.44100 210.96900 212.57600 214.46200 216.51300 218.63000 220.85300
 223.34100 225.96200 228.73900 231.69700 234.70600 237.70600 240.69200 243.65700
 246.73700 249.69900 252.52100 255.06300 257.29000 259.23300 260.63300 261.68000
 262.46100 262.79800 262.69100 262.22400 261.06900 259.52500 257.70700 255.50700
 253.00100 250.30200 247.39800 244.45200 241.65400 239.05400 236.73300 234.59000
 232.59500 230.72500 228.83400 226.82600 224.66600 222.38700 220.10400 217.71500
 215.45900 213.06600 210.54600 208.09300 205.35400 202.08130 196.05959 200.71215
 209.01611 216.90438 223.84126 229.78593 235.00632 240.20838 245.98943 250.68668
 254.32982 257.93487 261.55666 264.96801 268.15192 271.06452 273.76717 276.25691
 278.57680 280.74479 282.77456 284.60533 286.27232 287.81705 289.31715 290.65561
 291.81734 292.81312 293.70701 294.49387 295.17482 295.77730 296.32696 296.82492
 297.27278 297.67160 298.02000 298.46400
 399.33000 389.90700 379.81300 368.66800 357.52200 345.30100 333.07400 320.22700
 307.21600 293.84800 280.37600 267.29600 254.61000 242.98700 232.15100 221.97700
 212.67200 204.28600 197.66900 192.82100 189.48600 187.45200 186.81400 187.08900
 187.78100 189.05400 190.64800 192.54200 194.63000 196.75200 198.67100 200.15800
 201.53500 202.48700 202.97500 203.34000 203.53900 203.49700 203.38500 203.24700
 203.00500 202.78600 202.60300 202.43700 202.42600 202.88800 203.42000 203.95100
 204.89500 205.99200 207.30100 208.95800 210.73800 213.10000 215.56400 218.18000
 220.96600 223.91800 226.96100 230.09200 233.29300 236.55700 239.95500 243.53700
 246.84500 249.39000 251.54200 253.47400 255.19500 256.48400 257.43100 258.05900
 258.21200 258.04000 257.58200 256.64300 255.23900 253.50700 251.40800 249.05600
 246.57600 243.99400 241.38900 238.83000 236.34400 233.98600 231.96900 230.11800
 228.42300 226.89900 225.54800 224.29700 223.10500 221.96500 220.95800 220.11300
 219.49000 218.92000 218.32500 217.88100 217.42300 216.96366 216.35568 216.80261
 217.73415 218.28582 218.64258 219.10077 220.44626 222.53987 226.38451 230.35736
 233.59734 237.39164 241.29814 245.22796 248.98002 252.51130 255.78595 258.80109
 261.54781 264.05210 266.34239 268.04198 269.58951 271.01303 272.35754 273.55718
 274.59842 275.49092 276.28989 276.99307 277.60161 278.14001 278.63122 279.07623
 279.47646 279.83287 280.14422 280.54100
 399.73800 389.78500 379.66200 368.15100 356.64100 344.35000 331.79200 318.88800
 305.72600 292.49300 279.20900 266.73800 254.69600 244.21100 234.45700 225.43300
 217.56900 210.45100 204.30000 199.30600 195.45800 192.57600 191.02700 190.38600
 190.23900 190.53400 191.16600 191.92500 192.79500 193.76600 194.73200 195.31200
 195.80000 196.05200 196.11500 196.11500 196.03900 195.72300 195.34000 194.98900
 194.75100 194.79200 195.13300 195.59800 196.50600 198.13600 199.85800 201.56600
 204.17900 206.82300 209.89300 213.28400 216.82800 220.60500 224.38700 228.20900
 232.03200 235.82500 239.56000 243.25800 246.84500 250.20100 253.70900 257.46800
 261.53000 264.22100 266.60100 268.68100 270.32900 271.74100 272.83600 273.47400
 273.89800 274.00200 273.75700 273.28800 272.37100 271.10000 269.58900 267.77900
 265.81600 263.72100 261.39300 258.91600 256.29800 253.42300 250.33100 247.11400
 243.83700 240.52900 237.24900 233.99900 230.72800 227.51500 224.25400 220.95200
 217.62700 213.65600 210.12100 206.78900 204.01000 201.99491 199.07309 198.76551
 199.40006 200.48994 201.46112 202.31912 203.45100 204.96110 207.47502 210.85391
 213.70530 217.29629 220.99574 224.72316 228.28753 231.64854 234.68024 237.40893
 239.70644 241.60899 243.46854 245.67368 247.68154 249.52395 251.24767 252.78566
 254.12057 255.26479 256.23740 257.09036 257.82852 258.48160 259.07744 259.61723
 260.10271 260.53504 260.91270 261.39400
 399.73800 389.78500 379.66200 368.15100 356.64100 344.35000 331.79200 318.88800
 305.72600 292.49300 279.20900 266.73800 254.69600 244.21100 234.45700 225.43300
 217.56900 210.45100 204.30000 199.30600 195.45800 192.57600 191.02700 190.38600
 190.23900 190.53400 191.16600 191.92500 192.79500 193.76600 194.73200 195.31200
 195.80000 196.05200 196.11500 196.11500 196.03900 195.72300 195.34000 194.98900
 194.75100 194.79200 195.13300 195.59800 196.50600 198.13600 199.85800 201.56600
 204.17900 206.82300 209.89300 213.28400 216.82800 220.60500 224.38700 228.20900
 232.03200 235.82500 239.56000 243.25800 246.84500 250.20100 253.70900 257.46800
 261.53000 264.22100 266.60100 268.68100 270.32900 271.74100 272.83600 273.47400
 273.89800 274.00200 273.75700 273.28800 272.37100 271.10000 269.58900 267.77900
 265.81600 263.72100 261.39300 258.91600 256.29800 253.42300 250.33100 247.11400
 243.83700 240.52900 237.24900 233.99900 230.72800 227.51500 224.25400 220.95200
 217.62700 213.65600 210.12100 206.78900 204.01000 201.99491 199.07309 198.76551
 199.40006 200.48994 201.46112 202.31912 203.45100 204.96110 207.47502 210.85391
 213.70530 217.29629 220.99574 224.72316 228.28753 231.64854 234.68024 237.40893
 239.70644 241.60899 243.46854 245.67368 247.68154 249.52395 251.24767 252.78566
 254.12057 255.26479 256.23740 257.09036 257.82852 258.48160 259.07744 259.61723
 260.10271 260.53504 260.91270 261.39400
 399.33000 389.90700 379.81300 368.66800 357.52200 345.30100 333.07400 320.22700
 307.21600 293.84800 280.37600 267.29600 254.61000 242.98700 232.15100 221.97700
 212.67200 204.28600 197.66900 192.82100 189.48600 187.45200 186.81400 187.08900
 187.78100 189.05400 190.64800 192.54200 194.63000 196.75200 198.67100 200.15800
 201.53500 202.48700 202.97500 203.34000 203.53900 203.49700 203.38500 203.24700
 203.00500 202.78600 202.60300 202.43700 202.42600 202.88800 203.42000 203.95100
 204.89500 205.99200 207.30100 208.95800 210.73800 213.10000 215.56400 218.18000
 220.96600 223.91800 226.96100 230.09200 233.29300 236.55700 239.95500 243.53700
 246.84500 249.39000 251.54200 253.47400 255.19500 256.48400 257.43100 258.05900
 258.21200 258.04000 257.58200 256.64300 255.23900 253.50700 251.40800 249.05600
 246.57600 243.99400 241.38900 238.83000 236.34400 233.98600 231.96900 230.11800
 228.42300 226.89900 225.54800 224.29700 223.10500 221.96500 220.95800 220.11300
 219.49000 218.92000 218.32500 217.88100 217.42300 216.96366 216.35568 216.80261
 217.73415 218.28582 218.64258 219.10077 220.44626 222.53987 226.38451 230.35736
 233.59734 237.39164 241.29814 245.22796 248.98002 252.51130 255.78595 258.80109
 261.54781 264.05210 266.34239 268.04198 269.58951 271.01303 272.35754 273.55718
 274.59842 275.49092 276.28989 276.99307 277.60161 278.14001 278.63122 279.07623
 279.47646 279.83287 280.14422 280.54100
 381.81900 372.39900 361.20600 349.77600 337.62200 324.85300 311.81000 298.35300
 284.86000 271.32400 258.56100 246.30400 236.08700 226.79600 218.44800 211.29000
 205.52200 200.89400 197.38100 194.84800 193.01500 192.31500 192.25000 192.43100
 192.91200 193.53700 194.13600 194.71200 195.26200 195.83100 196.39300 196.97600
 197.60400 198.14900 198.58400 199.05700 199.69500 200.37800 201.05400 201.70800
 202.31300 202.85700 203.35500 203.86200 204.56900 205.29700 206.02600 206.98700
 208.19300 209.44100 210.96900 212.57600 214.46200 216.51300 218.63000 220.85300
 223.34100 225.96200 228.73900 231.69700 234.70600 237.70600 240.69200 243.65700
 246.73700 249.69900 252.52100 255.06300 257.29000 259.23300 260.63300 261.68000
 262.46100 262.79800 262.69100 262.22400 261.06900 259.52500 257.70700 255.50700
 253.00100 250.30200 247.39800 244.45200 241.65400 239.05400 236.73300 234.59000
 232.59500 230.72500 228.83400 226.82600 224.66600 222.38700 220.10400 217.71500
 215.45900 213.06600 210.54600 208.09300 205.35400 202.08130 196.05959 200.71215
 209.01611 216.90438 223.84126 229.78593 235.00632 240.20838 245.98943 250.68668
 254.32982 257.93487 261.55666 264.96801 268.15192 271.06452 273.76717 276.25691
 278.57680 280.74479 282.77456 284.60533 286.27232 287.81705 289.31715 290.65561
 291.81734 292.81312 293.70701 294.49387 295.17482 295.77730 296.32696 296.82492
 297.27278 297.67160 298.02000 298.46400
 366.78100 356.34573 345.78846 334.66519 323.07892 311.28365 299.16438 286.97811
 274.70084 262.60857 250.62830 239.94003 230.07276 221.18749 213.38022 206.39295
 200.23768 195.18641 191.77914 189.83186 188.87959 188.95432 189.80005 191.11878
 192.85451 194.96024 197.23397 199.60370 202.05943 204.55016 206.64889 208.50162
 210.13835 211.29408 211.53381 211.77254 211.72027 211.43600 211.07973 210.72046
 210.34819 210.06892 209.88765 209.76238 209.70111 210.04284 210.43957 210.83930
 211.64303 212.83176 214.09249 215.88622 217.82495 219.87868 221.98441 224.07813
 226.14886 228.24359 230.35132 232.46805 234.60778 236.79051 239.05724 241.43797
 244.06970 246.33143 248.34416 250.11989 251.54762 252.68135 253.51408 253.84081
 253.88854 253.67327 253.04400 252.00273 250.61946 248.79119 246.71092 244.55465
 242.35638 240.17111 238.00184 235.85157 233.72230 231.60003 229.63676 227.80449
 226.09822 224.58095 223.22168 222.00441 220.89713 219.86786 218.98259 218.13432
 217.38705 216.57778 215.68651 215.06124 214.52197 213.58408 211.37082 210.58151
 211.57225 213.41121 215.48875 216.99084 219.21738 223.25578 229.08922 234.18454
 238.02773 241.75333 245.44646 249.28102 253.32866 256.67865 259.31009 261.62024
 264.48706 267.24908 269.59518 271.59073 273.37625 275.07355 276.70166 278.38092
 280.12036 281.75079 283.23630 284.58948 285.76981 286.81479 287.77405 288.64590
 289.43698 290.14655 290.77231 291.60324
 366.78100 356.34477 345.78655 334.66232 323.07510 311.27887 299.15865 286.97142
 274.69320 262.59997 250.61875 239.92952 230.06129 221.17507 213.36684 206.37862
 200.22239 195.17017 191.76194 189.81372 188.86049 188.93427 189.77904 191.09681
 192.83159 194.93636 197.20914 199.57791 202.03269 204.52246 206.62024 208.47201
 210.10778 211.26256 211.50133 211.73911 211.68588 211.40066 211.04343 210.68321
 210.30998 210.02976 209.84753 209.72130 209.65908 209.99985 210.39563 210.79440
 211.59718 212.78495 214.04473 215.83750 217.77528 219.82805 221.93282 224.02560
 226.09537 228.18915 230.29592 232.41170 234.55047 236.73225 238.99802 241.37780
 244.00857 246.26934 248.28112 250.05589 251.48267 252.61544 253.44722 253.77299
 253.81977 253.60354 252.97331 251.93109 250.54686 248.71764 246.63641 244.47919
 242.27996 240.09374 237.92351 235.77229 233.64206 231.51883 229.55461 227.72138
 226.01416 224.49593 223.13571 221.91748 220.80926 219.77903 218.89281 218.04358
 217.29535 216.48513 215.59290 214.96668 214.42645 213.54413 211.46182 210.75803
 211.64005 213.51624 215.61589 217.00098 219.11823 223.15991 229.01877 234.09213
 237.92242 241.65034 245.36240 249.22607 253.30728 256.60388 259.17508 261.50360
 264.37384 267.15375 269.52435 271.51062 273.25903 274.92603 276.57016 278.27066
 280.01178 281.64462 283.13373 284.48862 285.66803 286.71606 287.67404 288.54788
 289.33881 290.04828 290.67569 291.50623
 366.78100 356.34336 345.78372 334.65808 323.06944 311.27180 299.15016 286.96151
 274.68187 262.58723 250.60459 239.91395 230.04431 221.15667 213.34703 206.35739
 200.19975 195.14611 191.73647 189.78683 188.83219 188.90454 189.74790 191.06426
 192.79762 194.90098 197.17234 199.53970 201.99306 204.48142 206.57778 208.42814
 210.06250 211.21586 211.45322 211.68957 211.63493 211.34829 210.98965 210.62801
 210.25337 209.97173 209.78809 209.66045 209.59681 209.93617 210.33053 210.72789
 211.52925 212.71560 213.97396 215.76532 217.70168 219.75304 221.85640 223.94776
 226.01612 228.10848 230.21384 232.32820 234.46556 236.64592 238.91027 241.28863
 243.91799 246.17735 248.18771 249.96107 251.38643 252.51779 253.34815 253.67251
 253.71787 253.50023 252.86859 251.82495 250.43930 248.60866 246.52602 244.36738
 242.16674 239.97910 237.80746 235.65482 233.52318 231.39854 229.43290 227.59826
 225.88962 224.36998 223.00833 221.78869 220.67905 219.64741 218.75977 217.90913
 217.15949 216.34785 215.45421 214.82657 214.28493 213.47900 211.57669 210.91801
 211.70724 213.61783 215.71071 217.06050 219.04485 223.07561 228.95367 234.00221
 237.81766 241.54384 245.27348 249.16565 253.27510 256.51718 259.03223 261.38342
 264.25549 267.05371 269.45264 271.43259 273.14761 274.78531 276.44397 278.16373
 279.90878 281.54114 283.03455 284.39105 285.57086 286.61874 287.57727 288.45288
 289.24179 289.95477 290.58115 291.41406
 366.78100 356.34168 345.78036 334.65303 323.06271 311.26339 299.14007 286.94975
 274.66842 262.57210 250.58778 239.89546 230.02413 221.13481 213.32349 206.33217
 200.17285 195.11752 191.70620 189.75488 188.79856 188.86924 189.71091 191.02559
 192.75727 194.85895 197.12863 199.49430 201.94598 204.43266 206.52734 208.37602
 210.00869 211.16037 211.39605 211.63073 211.57440 211.28608 210.92576 210.56244
 210.18612 209.90279 209.71747 209.58815 209.52283 209.86051 210.25318 210.64886
 211.44854 212.63322 213.88990 215.67957 217.61425 219.66393 221.76561 223.85528
 225.92196 228.01264 230.11632 232.22900 234.36467 236.54335 238.80603 241.18271
 243.81039 246.06806 248.07674 249.84842 251.27210 252.40178 253.23045 253.55313
 253.59681 253.37749 252.74417 251.69884 250.31152 248.47920 246.39488 244.23455
 242.03223 239.84291 237.66959 235.51527 233.38194 231.25562 229.28830 227.45198
 225.74166 224.22033 222.85701 221.63569 220.52437 219.49105 218.60172 217.74940
 216.99808 216.18476 215.28943 214.66011 214.11679 213.39946 211.70586 211.05450
 211.78642 213.72473 215.78398 217.13287 218.99695 223.00101 228.89648 233.91470
 237.71207 241.43362 245.18227 249.10486 253.23273 256.42233 258.88675 261.26196
 264.13297 266.94754 269.37521 271.35104 273.03906 274.65161 276.32526 278.06326
 279.81039 281.44241 282.94040 284.29639 285.47806 286.52628 287.48590 288.35992
 289.15335 289.86169 290.48987 291.32645
 366.78100 356.34015 345.77730 334.64845 323.05659 311.25574 299.13089 286.93904
 274.65619 262.55834 250.57249 239.87864 230.00578 221.11493 213.30208 206.30923
 200.14838 195.09153 191.67868 189.72582 188.76797 188.83712 189.67727 190.99042
 192.72057 194.82072 197.08887 199.45301 201.90316 204.38831 206.48146 208.32861
 209.95976 211.10991 211.34405 211.57720 211.51935 211.22950 210.86765 210.50280
 210.12495 209.84010 209.65324 209.52239 209.45554 209.79169 210.18284 210.57699
 211.37514 212.55828 213.81343 215.60158 217.53473 219.58288 221.68303 223.77118
 225.83633 227.92547 230.02762 232.13877 234.27292 236.45007 238.71122 241.08637
 243.71251 245.96866 247.97581 249.74596 251.16811 252.29626 253.12341 253.44456
 253.48670 253.26585 252.63100 251.58415 250.19530 248.36145 246.27560 244.11375
 241.90989 239.71904 237.54419 235.38834 233.25349 231.12564 229.15679 227.31893
 225.60708 224.08423 222.71938 221.49653 220.38368 219.34883 218.45798 217.60412
 216.85127 216.03642 215.13957 214.50872 213.96387 213.32704 211.82318 211.18300
 211.87929 213.83647 215.85297 217.19389 218.96556 222.93587 228.84425 233.82755
 237.60751 241.32640 245.09721 249.04793 253.18195 256.32236 258.74057 261.13873
 264.00479 266.83130 269.28519 271.26071 272.93036 274.52676 276.21558 277.97110
 279.71777 281.35089 282.85162 284.20874 285.38934 286.43817 287.39960 288.27368
 289.06552 289.77792 290.40540 291.24017
 366.78100 356.33891 345.77483 334.64474 323.05165 311.24957 299.12348 286.93040
 274.64631 262.54722 250.56014 239.86505 229.99096 221.09888 213.28479 206.29070
 200.12862 195.07053 191.65645 189.70236 188.74327 188.81119 189.65010 190.96201
 192.69093 194.78984 197.05675 199.41967 201.86858 204.35250 206.44441 208.29032
 209.92024 211.06915 211.30206 211.53398 211.47489 211.18380 210.82072 210.45463
 210.07555 209.78946 209.60137 209.46929 209.40120 209.73611 210.12603 210.51894
 211.31585 212.49777 213.75168 215.53859 217.47051 219.51742 221.61634 223.70325
 225.76716 227.85508 229.95599 232.06590 234.19882 236.37473 238.63464 241.00856
 243.63347 245.88839 247.89430 249.66321 251.08413 252.21104 253.03695 253.35687
 253.39778 253.17569 252.53961 251.49152 250.10144 248.26635 246.17926 244.01618
 241.81109 239.61900 237.44292 235.28583 233.14974 231.02066 229.05057 227.21149
 225.49840 223.97431 222.60823 221.38414 220.27005 219.23397 218.34188 217.48679
 216.73271 215.91662 215.01854 214.38645 213.84036 213.26920 211.92021 211.30988
 211.98518 213.94702 215.92383 217.24736 218.94214 222.88257 228.79437 233.73947
 237.50446 241.22607 245.02092 248.99435 253.12373 256.21707 258.59549 261.01303
 263.86874 266.70160 269.17926 271.15829 272.82184 274.41321 276.11636 277.88632
 279.63058 281.26254 282.76727 284.12540 285.30710 286.35660 287.31500 288.19077
 288.98438 289.69879 290.32495 291.16611
 366.78100 356.33797 345.77294 334.64192 323.04789 311.24486 299.11783 286.92381
 274.63878 262.53875 250.55072 239.85469 229.97967 221.08664 213.27161 206.27658
 200.11355 195.05453 191.63950 189.68447 188.72444 188.79142 189.62939 190.94036
 192.66833 194.76630 197.03228 199.39425 201.84222 204.32519 206.41616 208.26114
 209.89011 211.03808 211.27005 211.50103 211.44100 211.14897 210.78494 210.41791
 210.03789 209.75086 209.56183 209.42880 209.35977 209.69375 210.08272 210.47469
 211.27066 212.45164 213.70461 215.49058 217.42155 219.46752 221.56550 223.65147
 225.71444 227.80141 229.90139 232.01036 234.14233 236.31730 238.57627 240.94925
 243.57322 245.82719 247.83216 249.60013 251.02011 252.14608 252.97105 253.29002
 253.33000 253.10697 252.46994 251.42091 250.02988 248.19386 246.10583 243.94180
 241.73577 239.54274 237.36572 235.20769 233.07066 230.94063 228.96961 227.12958
 225.41555 223.89052 222.52349 221.29847 220.18344 219.14641 218.25338 217.39736
 216.64233 215.82530 214.92627 214.29324 213.74622 213.22633 211.99834 211.43777
 212.09906 214.05295 216.00185 217.29630 218.93105 222.83971 228.74150 233.65221
 237.40604 241.13466 244.95328 248.94305 253.05679 256.10654 258.45334 260.88834
 263.72720 266.55826 269.05347 271.03943 272.71063 274.31207 276.03024 277.80823
 279.54849 281.17917 282.68890 284.04681 285.22852 286.27869 287.23764 288.11435
 288.90732 289.62216 290.24969 291.08835
 366.78100 356.33722 345.77143 334.63965 323.04486 311.24108 299.11329 286.91851
 274.63272 262.53194 250.54315 239.84637 229.97058 221.07680 213.26101 206.26523
 200.10144 195.04166 191.62587 189.67009 188.70930 188.77552 189.61273 190.92295
 192.65016 194.74738 197.01259 199.37381 201.82102 204.30324 206.39345 208.23767
 209.86588 211.01310 211.24431 211.47453 211.41374 211.12096 210.75617 210.38839
 210.00760 209.71982 209.53003 209.39625 209.32646 209.65968 210.04789 210.43911
 211.23432 212.41454 213.66675 215.45197 217.38218 219.42740 221.52461 223.60983
 225.67204 227.75826 229.85747 231.96569 234.09690 236.27112 238.52933 240.90155
 243.52476 245.77798 247.78219 249.54941 250.96862 252.09384 252.91805 253.23627
 253.27548 253.05170 252.41391 251.36413 249.97234 248.13556 246.04677 243.88199
 241.67520 239.48142 237.30363 235.14485 233.00706 230.87628 228.90449 227.06371
 225.34892 223.82314 222.45535 221.22957 220.11378 219.07600 218.18221 217.32543
 216.56964 215.75186 214.85207 214.21829 213.67050 213.19333 212.06607 211.55919
 212.21971 214.15550 216.08809 217.34755 218.92468 222.80969 228.68993 233.56613
 237.30798 241.04657 244.89070 248.89296 252.98097 255.99234 258.31720 260.76840
 263.58240 266.40225 268.90775 270.90314 272.59433 274.21960 275.95377 277.73755
 279.47446 281.10123 282.61401 283.97357 285.15616 286.20532 287.16675 288.04285
 288.83731 289.55075 290.17981 291.02036
 366.78100 356.33666 345.77032 334.63798 323.04264 311.23830 299.10996 286.91462
 274.62829 262.52695 250.53761 239.84027 229.96393 221.06959 213.25325 206.25691
 200.09257 195.03223 191.61589 189.65955 188.69821 188.76387 189.60053 190.91020
 192.63686 194.73352 196.99818 199.35884 201.80550 204.28716 206.37682 208.22048
 209.84814 210.99480 211.22546 211.45512 211.39378 211.10044 210.73511 210.36677
 209.98543 209.69709 209.50675 209.37241 209.30207 209.63473 210.02239 210.41305
 211.20771 212.38737 213.63903 215.42369 217.35335 219.39802 221.49468 223.57934
 225.64100 227.72666 229.82532 231.93298 234.06364 236.23730 238.49496 240.86662
 243.48928 245.74194 247.74560 249.51226 250.93093 252.05559 252.87925 253.19691
 253.23557 253.01123 252.37289 251.32255 249.93021 248.09287 246.00353 243.83819
 241.63085 239.43651 237.25817 235.09884 232.96050 230.82916 228.85682 227.01548
 225.30014 223.77380 222.40546 221.17912 220.06278 219.02444 218.13010 217.27276
 216.51642 215.69808 214.79775 214.16341 213.61507 213.17172 212.12428 211.67123
 212.33777 214.27017 216.17900 217.38930 218.94572 222.78561 228.63133 233.47937
 237.21364 240.96523 244.83511 248.84616 252.89551 255.87152 258.18356 260.65146
 263.43414 266.23419 268.74487 270.75137 272.47562 274.13766 275.88757 277.67154
 279.40469 281.02747 282.54489 283.90564 285.08844 286.13855 287.10031 287.97729
 288.77039 289.48593 290.11554 290.95801
 366.78100 356.33637 345.76973 334.63710 323.04147 311.23684 299.10820 286.91257
 274.62594 262.52431 250.53467 239.83704 229.96041 221.06578 213.24914 206.25251
 200.08788 195.02725 191.61061 189.65398 188.69235 188.75772 189.59408 190.90345
 192.62982 194.72618 196.99055 199.35092 201.79729 204.27865 206.36802 208.21139
 209.83876 210.98512 211.21549 211.44486 211.38323 211.08959 210.72396 210.35533
 209.97370 209.68506 209.49443 209.35980 209.28917 209.62153 210.00890 210.39927
 211.19363 212.37300 213.62437 215.40874 217.33810 219.38247 221.47884 223.56321
 225.62457 227.70994 229.80831 231.91568 234.04604 236.21941 238.47678 240.84815
 243.47051 245.72288 247.72625 249.49262 250.91098 252.03535 252.85872 253.17608
 253.21445 252.98982 252.35119 251.30055 249.90792 248.07029 245.98066 243.81502
 241.60739 239.41276 237.23413 235.07449 232.93586 230.80423 228.83160 226.98996
 225.27433 223.74770 222.37907 221.15243 220.03580 218.99717 218.10253 217.24490
 216.48827 215.66964 214.76900 214.13437 213.58574 213.16521 212.17165 211.77367
 212.45569 214.37823 216.29124 217.44411 218.95731 222.77794 228.58243 233.40038
 237.12225 240.88538 244.78162 248.79839 252.79759 255.74077 258.05096 260.53665
 263.28284 266.05566 268.56573 270.58899 272.35645 274.06424 275.82919 277.61072
 279.33975 280.95724 282.47964 283.84207 285.02542 286.07669 287.03842 287.91443
 288.70944 289.42654 290.05624 290.90033
 366.78100 356.33630 345.76960 334.63690 323.04120 311.23650 299.10780 286.91210
 274.62540 262.52370 250.53400 239.83630 229.95960 221.06490 213.24820 206.25150
 200.08680 195.02610 191.60940 189.65270 188.69100 188.75630 189.59260 190.90190
 192.62820 194.72450 196.98880 199.34910 201.79540 204.27670 206.36600 208.20930
 209.83660 210.98290 211.21320 211.44250 211.38080 211.08710 210.72140 210.35270
 209.97100 209.68230 209.49160 209.35690 209.28620 209.61850 210.00580 210.39610
 211.19040 212.36970 213.62101 215.40531 217.33461 219.37891 221.47521 223.55951
 225.62081 227.70611 229.80441 231.91171 234.04201 236.21531 238.47261 240.84391
 243.46621 245.71851 247.72181 249.48811 250.90641 252.03071 252.85401 253.17131
 253.20961 252.98491 252.34621 251.29551 249.90281 248.06511 245.97541 243.80971
 241.60201 239.40731 237.22861 235.06891 232.93021 230.79851 228.82581 226.98411
 225.26841 223.74171 222.37301 221.14631 220.02961 218.99091 218.09621 217.23851
 216.48181 215.66311 214.76241 214.12771 213.57901 213.17282 212.21317 211.85039
 212.58243 214.52945 216.38115 217.49275 219.02251 222.76437 228.51863 233.30563
 237.02153 240.80212 244.73117 248.75313 252.69283 255.60748 257.92474 260.42719
 263.13165 265.86960 268.37558 270.41861 272.23926 273.99969 275.77774 277.55103
 279.27682 280.89178 282.42029 283.78320 284.96774 286.01831 286.98111 287.85840
 288.65369 289.36966 289.99942 290.85043
 366.78100 356.33700 345.77099 334.63899 323.04398 311.23998 299.11198 286.91697
 274.63097 262.52997 250.54096 239.84396 229.96795 221.07395 213.25795 206.26194
 200.09794 195.03794 191.62193 189.66593 188.70492 188.77092 189.60792 190.91791
 192.64491 194.74191 197.00690 199.36790 201.81489 204.29689 206.38689 208.23088
 209.85888 211.00587 211.23687 211.46687 211.40586 211.11286 210.74786 210.37985
 209.99885 209.71084 209.52084 209.38684 209.31683 209.64983 210.03783 210.42882
 211.22382 212.40381 213.65581 215.44081 217.37080 219.41580 221.51280 223.59779
 225.65979 227.74578 229.84478 231.95278 234.08377 236.25777 238.51576 240.88776
 243.51076 245.76375 247.76775 249.53475 250.95374 252.07874 252.90273 253.22073
 253.25973 253.03572 252.39772 251.34772 249.95571 248.11871 246.02970 243.86470
 241.65770 239.46369 237.28569 235.12669 232.98868 230.85768 228.88567 227.04467
 225.32967 223.80366 222.43566 221.20965 220.09365 219.05565 218.16164 217.30464
 216.54864 215.73063 214.83063 214.19662 213.64862 213.22308 212.21771 211.90379
 212.75482 214.69597 216.51018 217.49983 218.99162 222.76898 228.46985 233.22112
 236.93219 240.73248 244.69392 248.71597 252.58411 255.46936 257.80081 260.31998
 262.98059 265.67880 268.17709 270.24463 272.12491 273.94608 275.73575 277.49597
 279.21619 280.83102 282.36212 283.72604 284.91000 285.96210 286.92554 287.80545
 288.60052 289.31586 289.94690 290.79361
 366.78100 356.33426 345.76552 334.63077 323.03303 311.22629 299.09555 286.89781
 274.60907 262.50532 250.51358 239.81384 229.93510 221.03836 213.21962 206.22087
 200.05413 194.99139 191.57265 189.61391 188.65017 188.71342 189.54768 190.85494
 192.57920 194.67346 196.93572 199.29397 201.73823 204.21749 206.30475 208.14601
 209.77127 210.91552 211.14378 211.37104 211.30730 211.01156 210.64382 210.27307
 209.88933 209.59859 209.40585 209.26911 209.19637 209.52662 209.91188 210.30014
 211.09240 212.26966 213.51892 215.30117 217.22843 219.27069 221.36495 223.44721
 225.50647 227.58972 229.68598 231.79124 233.91950 236.09076 238.34602 240.71527
 243.33553 245.58579 247.58705 249.35131 250.76757 251.88982 252.71108 253.02634
 253.06260 252.83586 252.19512 251.14237 249.74763 247.90789 245.81615 243.64841
 241.43867 239.24192 237.06118 234.89944 232.75870 230.62496 228.65022 226.80647
 225.08873 223.55999 222.18925 220.96051 219.84177 218.80102 217.90428 217.04454
 216.28580 215.46506 214.56232 213.92557 213.37483 213.10144 212.45557 211.94543
 212.70882 214.81660 216.68039 217.61548 219.06076 222.73911 228.41901 233.13435
 236.83517 240.65820 244.65366 248.67473 252.46263 255.32196 257.67807 260.21805
 262.83539 265.48944 267.97574 270.06711 272.00888 273.89267 275.69391 277.43970
 279.14883 280.77484 282.31006 283.67368 284.85968 285.91211 286.87622 287.75494
 288.55161 289.26871 289.89789 290.75241
 366.78100 356.33314 345.76327 334.62741 323.02855 311.22069 299.08882 286.88996
 274.60010 262.49523 250.50237 239.80151 229.92165 221.02378 213.20392 206.20406
 200.03619 194.97233 191.55247 189.59261 188.62774 188.68988 189.52302 190.82915
 192.55229 194.64543 196.90656 199.26370 201.70684 204.18498 206.27111 208.11125
 209.73539 210.87852 211.10566 211.33180 211.26694 210.97007 210.60121 210.22935
 209.84448 209.55262 209.35876 209.22090 209.14703 209.47617 209.86031 210.24744
 211.03858 212.21472 213.46286 215.24399 217.17013 219.21127 221.30440 223.38554
 225.44368 227.52582 229.62095 231.72509 233.85223 236.02236 238.27650 240.64464
 243.26377 245.51291 247.51305 249.27619 250.69132 251.81246 252.63260 252.94673
 252.98187 252.75401 252.11215 251.05828 249.66242 247.82156 245.72869 243.55983
 241.34897 239.15111 236.96924 234.80638 232.66452 230.52965 228.55379 226.70893
 224.99007 223.46020 222.08834 220.85848 219.73861 218.69675 217.79889 216.93803
 216.17816 215.35630 214.45244 213.81457 213.26271 213.05858 212.57632 212.01189
 212.73801 214.93393 216.83380 217.73454 219.13084 222.71262 228.36020 233.04124
 236.73659 240.58626 244.61836 248.63712 252.34248 255.17867 257.56482 260.12387
 262.69696 265.30090 267.76825 269.88388 271.88867 273.83878 275.65189 277.38147
 279.07898 280.72159 282.26025 283.62552 284.81049 285.86511 286.82944 287.70877
 288.50687 289.22168 289.85339 290.71011
 366.78100 356.33265 345.76230 334.62594 323.02659 311.21824 299.08589 286.88653
 274.59618 262.49083 250.49748 239.79612 229.91577 221.01742 213.19707 206.19671
 200.02836 194.96401 191.54366 189.58330 188.61795 188.67960 189.51225 190.81789
 192.54054 194.63319 196.89384 199.25049 201.69313 204.17078 206.25643 208.09608
 209.71972 210.86237 211.08902 211.31467 211.24931 210.95196 210.58261 210.21026
 209.82490 209.53255 209.33820 209.19985 209.12549 209.45414 209.83779 210.22444
 211.01508 212.19073 213.43838 215.21903 217.14468 219.18532 221.27797 223.35862
 225.41627 227.49791 229.59256 231.69621 233.82286 235.99250 238.24615 240.61380
 243.23245 245.48109 247.48074 249.24339 250.65804 251.77868 252.59833 252.91198
 252.94663 252.71828 252.07592 251.02157 249.62522 247.78387 245.69051 243.52116
 241.30981 239.11146 236.92910 234.76575 232.62340 230.48805 228.51169 226.66634
 224.94699 223.41664 222.04428 220.81393 219.69358 218.65123 217.75287 216.89152
 216.13117 215.30882 214.40447 213.76611 213.21376 213.05005 212.66327 212.06673
 212.81517 215.05334 216.96384 217.83485 219.18475 222.69675 228.30379 232.95377
 236.64885 240.52614 244.59348 248.60699 252.22520 255.03568 257.44922 260.02335
 262.55380 265.10657 267.55383 269.69690 271.77063 273.79089 275.61584 277.32858
 279.01465 280.66885 282.21063 283.57568 284.76233 285.81659 286.78217 287.66293
 288.46088 289.17438 289.80792 290.66388
 366.78100 356.33224 345.76149 334.62473 323.02497 311.21621 299.08346 286.88370
 274.59294 262.48719 250.49343 239.79167 229.91091 221.01216 213.19140 206.19064
 200.02188 194.95713 191.53637 189.57561 188.60986 188.67110 189.50334 190.80858
 192.53083 194.62307 196.88331 199.23956 201.68180 204.15904 206.24428 208.08353
 209.70677 210.84901 211.07525 211.30050 211.23474 210.93698 210.56723 210.19447
 209.80871 209.51595 209.32120 209.18244 209.10768 209.43593 209.81917 210.20541
 210.99565 212.17090 213.41814 215.19838 217.12362 219.16387 221.25611 223.33635
 225.39360 227.47484 229.56908 231.67232 233.79857 235.96781 238.22105 240.58830
 243.20654 245.45478 247.45402 249.21627 250.63051 251.75075 252.57000 252.88324
 252.91748 252.68872 252.04597 250.99121 249.59445 247.75269 245.65894 243.48918
 241.27742 239.07867 236.89591 234.73215 232.58939 230.45364 228.47688 226.63112
 224.91137 223.38061 222.00785 220.77709 219.65634 218.61358 217.71482 216.85306
 216.09231 215.26955 214.36479 213.72604 213.17328 213.04668 212.74760 212.11502
 212.90924 215.17201 217.05704 217.92603 219.26151 222.69266 228.25800 232.87643
 236.57045 240.47588 244.57326 248.57602 252.09796 254.87639 257.31726 259.90927
 262.40485 264.91183 267.34302 269.52045 271.66443 273.75296 275.58881 277.28476
 278.95624 280.61627 282.15918 283.52609 284.71323 285.76816 286.73355 287.61603
 288.41434 289.12952 289.76117 290.62277
 366.78100 356.33195 345.76089 334.62384 323.02378 311.21473 299.08167 286.88162
 274.59057 262.48451 250.49046 239.78840 229.90735 221.00829 213.18724 206.18619
 200.01713 194.95208 191.53102 189.56997 188.60391 188.66486 189.49681 190.80175
 192.52370 194.61564 196.87559 199.23153 201.67348 204.15043 206.23537 208.07432
 209.69726 210.83921 211.06515 211.29010 211.22405 210.92599 210.55594 210.18288
 209.79683 209.50377 209.30872 209.16967 209.09461 209.42256 209.80550 210.19145
 210.98139 212.15634 213.40328 215.18323 217.10818 219.14812 221.24007 223.32001
 225.37696 227.45790 229.55185 231.65480 233.78074 235.94969 238.20263 240.56958
 243.18752 245.43547 247.43442 249.19636 250.61031 251.73025 252.54920 252.86214
 252.89609 252.66704 252.02398 250.96893 249.57187 247.72982 245.63576 243.46571
 241.25366 239.05460 236.87155 234.70749 232.56444 230.42838 228.45133 226.60528
 224.88522 223.35417 221.98111 220.75006 219.62900 218.58595 217.68690 216.82484
 216.06379 215.24073 214.33568 213.69662 213.14357 213.04967 212.82784 212.15942
 213.01587 215.29517 217.11580 218.01241 219.36920 222.69746 228.22005 232.80750
 236.50040 240.43071 244.54965 248.53238 251.95142 254.69383 257.16824 259.78574
 262.25848 264.72760 267.14792 269.36368 271.57184 273.72260 275.56796 277.24921
 278.90182 280.56451 282.10983 283.47589 284.66544 285.72116 286.68643 287.56778
 288.36615 289.08344 289.71570 290.57855
 366.78100 356.33166 345.76032 334.62299 323.02265 311.21331 299.07997 286.87963
 274.58830 262.48196 250.48762 239.78528 229.90394 221.00461 213.18327 206.18193
 200.01259 194.94725 191.52592 189.56458 188.59824 188.65890 189.49056 190.79523
 192.51689 194.60855 196.86821 199.22388 201.66554 204.14220 206.22686 208.06552
 209.68819 210.82985 211.05551 211.28017 211.21383 210.91550 210.54516 210.17182
 209.78548 209.49214 209.29681 209.15747 209.08213 209.40979 209.79245 210.17812
 210.96778 212.14244 213.38910 215.16876 217.09343 219.13309 221.22475 223.30441
 225.36107 227.44174 229.53540 231.63806 233.76372 235.93238 238.18505 240.55171
 243.16937 245.41703 247.41569 249.17736 250.59102 251.71068 252.52934 252.84200
 252.87567 252.64633 252.00299 250.94765 249.55031 247.70798 245.61364 243.44330
 241.23096 239.03163 236.84829 234.68395 232.54061 230.40427 228.42694 226.58060
 224.86026 223.32892 221.95558 220.72425 219.60291 218.55957 217.66023 216.79789
 216.03656 215.21322 214.30788 213.66854 213.11520 213.05396 212.90923 212.19989
 213.12361 215.42096 217.16595 218.10258 219.48936 222.70720 228.18629 232.74680
 236.43633 240.38588 244.51807 248.47139 251.78616 254.49474 257.00815 259.65829
 262.11896 264.55789 266.97171 269.22473 271.49112 273.69611 275.55011 277.21884
 278.85739 280.51334 282.05847 283.42642 284.61530 285.67163 286.63898 287.51880
 288.31879 289.03583 289.67117 290.53311
 366.78100 356.33134 345.75968 334.62202 323.02137 311.21171 299.07805 286.87739
 274.58573 262.47907 250.48441 239.78176 229.90010 221.00044 213.17878 206.17712
 200.00746 194.94180 191.52015 189.55849 188.59183 188.65217 189.48351 190.78785
 192.50919 194.60054 196.85988 199.21522 201.65656 204.13290 206.21724 208.05558
 209.67793 210.81927 211.04461 211.26895 211.20229 210.90363 210.53298 210.15932
 209.77266 209.47900 209.28334 209.14368 209.06802 209.39537 209.77771 210.16305
 210.95239 212.12673 213.37307 215.15241 217.07676 219.11610 221.20744 223.28678
 225.34312 227.42346 229.51680 231.61915 233.74449 235.91283 238.16517 240.53151
 243.14885 245.39619 247.39454 249.15588 250.56922 251.68856 252.50690 252.81924
 252.85258 252.62293 251.97927 250.92361 249.52595 247.68329 245.58863 243.41797
 241.20532 239.00566 236.82200 234.65734 232.51368 230.37702 228.39936 226.55271
 224.83205 223.30039 221.92673 220.69507 219.57341 218.52975 217.63010 216.76744
 216.00578 215.18212 214.27646 213.63680 213.08315 213.05659 212.99388 212.24075
 213.22417 215.54361 217.22466 218.20619 219.61058 222.71814 228.15631 232.69298
 236.37424 240.33783 244.47536 248.39349 251.60791 254.28662 256.84070 259.52469
 261.98242 264.40024 266.81210 269.10434 271.42358 273.67441 275.53174 277.18515
 278.80557 280.46686 282.01208 283.38071 284.57001 285.62680 286.59518 287.47577
 288.27512 288.99130 289.62543 290.49164
 366.78100 356.33098 345.75896 334.62094 323.01992 311.20990 299.07588 286.87486
 274.58284 262.47582 250.48080 239.77778 229.89576 220.99574 213.17372 206.17170
 200.00168 194.93566 191.51364 189.55163 188.58461 188.64459 189.47557 190.77955
 192.50053 194.59151 196.85049 199.20547 201.64645 204.12243 206.20641 208.04439
 209.66637 210.80735 211.03233 211.25631 211.18929 210.89027 210.51925 210.14523
 209.75821 209.46419 209.26817 209.12815 209.05213 209.37911 209.76109 210.14607
 210.93505 212.10903 213.35501 215.13399 217.05797 219.09695 221.18793 223.26692
 225.32290 227.40288 229.49586 231.59784 233.72282 235.89080 238.14278 240.50876
 243.12574 245.37272 247.37070 249.13168 250.54466 251.66364 252.48162 252.79360
 252.82658 252.59656 251.95254 250.89652 249.49850 247.65548 245.56046 243.38944
 241.17642 238.97640 236.79238 234.62736 232.48334 230.34632 228.36830 226.52128
 224.80026 223.26824 221.89422 220.66221 219.54019 218.49617 217.59615 216.73313
 215.97111 215.14709 214.24107 213.60105 213.04703 213.05705 213.08073 212.28741
 213.31653 215.65742 217.28935 218.32309 219.73764 222.73097 228.13268 232.64447
 236.31361 240.28743 244.42387 248.30234 251.42232 254.07158 256.66275 259.37860
 261.84183 264.25031 266.66870 269.00244 271.36835 273.65753 275.52243 277.16599
 278.78482 280.41641 281.96005 283.32886 284.51874 285.57541 286.54410 287.42569
 288.22452 288.94312 289.57635 290.44016
 366.78100 356.33054 345.75808 334.61961 323.01815 311.20769 299.07323 286.87176
 274.57930 262.47184 250.47638 239.77292 229.89045 220.98999 213.16753 206.16507
 199.99460 194.92814 191.50568 189.54322 188.57576 188.63529 189.46583 190.76937
 192.48991 194.58044 196.83898 199.19352 201.63406 204.10960 206.19313 208.03067
 209.65221 210.79275 211.01728 211.24082 211.17336 210.87390 210.50244 210.12797
 209.74051 209.44605 209.24959 209.10912 209.03266 209.35920 209.74074 210.12528
 210.91381 212.08735 213.33289 215.11143 217.03496 219.07350 221.16404 223.24258
 225.29812 227.37765 229.47019 231.57173 233.69627 235.86380 238.11534 240.48088
 243.09742 245.34396 247.34149 249.10203 250.51457 251.63311 252.45064 252.76218
 252.79472 252.56426 251.91980 250.86333 249.46487 247.62141 245.52595 243.35448
 241.14102 238.94056 236.75610 234.59063 232.44617 230.30871 228.33025 226.48279
 224.76132 223.22886 221.85440 220.62194 219.49947 218.45501 217.55455 216.69109
 215.92863 215.10416 214.19770 213.55724 213.00278 213.05258 213.17024 212.34181
 213.40523 215.75839 217.34555 218.44443 219.87527 222.75105 228.11739 232.60187
 236.25963 240.24228 244.36932 248.20042 251.22795 253.84549 256.46851 259.21426
 261.69351 264.10739 266.54343 268.92203 271.32922 273.64655 275.51633 277.15152
 278.77493 280.37027 281.91214 283.28067 284.47211 285.52914 286.49750 287.37912
 288.17865 288.89648 289.53171 290.39734
 366.78100 356.33001 345.75701 334.61802 323.01603 311.20504 299.07004 286.86805
 274.57506 262.46707 250.47107 239.76708 229.88409 220.98309 213.16010 206.15711
 199.98612 194.91912 191.49613 189.53314 188.56514 188.62415 189.45416 190.75717
 192.47717 194.56718 196.82519 199.17920 201.61920 204.09421 206.17722 208.01422
 209.63523 210.77524 210.99925 211.22225 211.15426 210.85427 210.48227 210.10728
 209.71929 209.42430 209.22730 209.08631 209.00932 209.33533 209.71633 210.10034
 210.88835 212.06135 213.30636 215.08437 217.00738 219.04538 221.13539 223.21340
 225.26840 227.34741 229.43942 231.54043 233.66443 235.83144 238.08245 240.44746
 243.06346 245.30947 247.30648 249.06648 250.47849 251.59650 252.41351 252.72451
 252.75652 252.52553 251.88053 250.82354 249.42455 247.58056 245.48456 243.31257
 241.09858 238.89759 236.71259 234.54660 232.40161 230.26361 228.28462 226.43663
 224.71464 223.18164 221.80665 220.57366 219.45066 218.40567 217.50468 216.64069
 215.87769 215.05270 214.14571 213.50472 212.94972 213.04234 213.26118 212.40814
 213.49478 215.84381 217.38136 218.55960 220.02721 222.78015 228.11092 232.56670
 236.21619 240.20776 244.31607 248.08916 251.02422 253.60805 256.25766 259.03134
 261.53778 263.97284 266.43811 268.86340 271.30508 273.64026 275.50439 277.12714
 278.74310 280.33920 281.88196 283.25174 284.44281 285.50101 286.46948 287.35138
 288.15164 288.86868 289.50223 290.36920
 366.78100 356.32934 345.75569 334.61603 323.01338 311.20172 299.06607 286.86341
 274.56976 262.46110 250.46445 239.75979 229.87614 220.97448 213.15083 206.14717
 199.97552 194.90786 191.48421 189.52055 188.55190 188.61024 189.43959 190.74193
 192.46128 194.55062 196.80797 199.16131 201.60066 204.07500 206.15735 207.99369
 209.61403 210.75338 210.97672 211.19907 211.13041 210.82976 210.45710 210.08145
 209.69279 209.39714 209.19948 209.05783 208.98017 209.30552 209.68586 210.06921
 210.85655 212.02890 213.27324 215.05059 216.97293 219.01028 221.09962 223.17697
 225.23131 227.30966 229.40100 231.50135 233.62469 235.79104 238.04138 240.40572
 243.02107 245.26641 247.26276 249.02210 250.43345 251.55079 252.36714 252.67748
 252.70883 252.47717 251.83152 250.77386 249.37421 247.52955 245.43290 243.26024
 241.04559 238.84393 236.65828 234.49162 232.34597 230.20731 228.22766 226.37900
 224.65635 223.12269 221.74704 220.51338 219.38973 218.34407 217.44241 216.57776
 215.81410 214.98845 214.08079 213.43914 212.88348 213.02365 213.35481 212.48799
 213.58643 215.92134 217.39825 218.65244 220.17146 222.82318 228.11116 232.54312
 236.18761 240.18739 244.26694 247.96989 250.81264 253.36220 256.03329 258.83286
 261.37650 263.84778 266.35220 268.82599 271.29556 273.63898 275.49417 277.10336
 278.70590 280.31610 281.85843 283.22867 284.41943 285.47766 286.44656 287.32715
 288.12665 288.84256 289.47769 290.34473
 366.78100 356.32854 345.75407 334.61361 323.01015 311.19769 299.06122 286.85776
 274.56330 262.45384 250.45637 239.75091 229.86645 220.96399 213.13952 206.13506
 199.96260 194.89413 191.46967 189.50521 188.53575 188.59328 189.42182 190.72336
 192.44190 194.53043 196.78697 199.13951 201.57805 204.05158 206.13312 207.96866
 209.58819 210.72673 210.94927 211.17081 211.10134 210.79988 210.42642 210.04996
 209.66049 209.36403 209.16557 209.02311 208.94464 209.26918 209.64872 210.03126
 210.81779 211.98933 213.23287 215.00940 216.93094 218.96748 221.05602 223.13255
 225.18609 227.26363 229.35417 231.45370 233.57624 235.74178 237.99132 240.35485
 242.96939 245.21393 247.20946 248.96800 250.37854 251.49508 252.31061 252.62015
 252.65069 252.41823 251.77176 250.71330 249.31284 247.46738 245.36991 243.19645
 240.98099 238.77852 236.59206 234.42460 232.27814 230.13867 228.15821 226.30875
 224.58529 223.05082 221.67436 220.43990 219.31544 218.26897 217.36651 216.50105
 215.73658 214.91012 214.00166 213.35920 212.80273 212.99567 213.45149 212.58096
 213.69463 215.98215 217.37471 218.73653 220.33229 222.87111 228.11385 232.53383
 236.17096 240.17702 244.21619 247.83739 250.59087 253.11034 255.79970 258.62439
 261.21481 263.73541 266.28738 268.80676 271.29840 273.64337 275.48880 277.08725
 278.68188 280.29532 281.83914 283.20868 284.40079 285.45834 286.42755 287.30978
 288.11011 288.82828 289.46127 290.32367
 366.78100 356.32772 345.75244 334.61116 323.00688 311.19360 299.05632 286.85204
 274.55676 262.44648 250.44820 239.74192 229.85664 220.95336 213.12808 206.12280
 199.94952 194.88024 191.45496 189.48968 188.51940 188.57612 189.40384 190.70456
 192.42228 194.51000 196.76572 199.11744 201.55516 204.02788 206.10860 207.94332
 209.56204 210.69976 210.92148 211.14220 211.07192 210.76964 210.39536 210.01808
 209.62780 209.33052 209.13124 208.98796 208.90868 209.23240 209.61112 209.99284
 210.77856 211.94928 213.19200 214.96772 216.88844 218.92416 221.01188 223.08760
 225.14032 227.21704 229.30676 231.40548 233.52720 235.69192 237.94064 240.30336
 242.91708 245.16080 247.15552 248.91324 250.32296 251.43868 252.25340 252.56212
 252.59183 252.35855 251.71127 250.65199 249.25071 247.40443 245.30615 243.13187
 240.91559 238.71231 236.52503 234.35675 232.20947 230.06919 228.08791 226.23763
 224.51335 222.97807 221.60079 220.36551 219.24023 218.19295 217.28967 216.42339
 215.65811 214.83083 213.92155 213.27827 212.72099 212.96529 213.54247 212.68954
 213.79787 216.07433 217.37491 218.75676 220.41550 222.92453 228.11070 232.53114
 236.16603 240.17920 244.17145 247.70537 250.37968 252.87083 255.57068 258.41476
 261.05389 263.63174 266.23352 268.79510 271.30606 273.64975 275.48407 277.07291
 278.66934 280.27228 281.81552 283.18777 284.37943 285.43784 286.40652 287.28796
 288.08896 288.80734 289.43976 290.30170
 366.78100 356.32763 345.75226 334.61089 323.00652 311.19315 299.05579 286.85142
 274.55605 262.44568 250.44731 239.74094 229.85557 220.95220 213.12683 206.12146
 199.94810 194.87873 191.45336 189.48799 188.51762 188.57425 189.40188 190.70251
 192.42014 194.50777 196.76341 199.11504 201.55267 204.02530 206.10593 207.94056
 209.55919 210.69682 210.91845 211.13908 211.06871 210.76635 210.39198 210.01461
 209.62424 209.32687 209.12750 208.98413 208.90476 209.22839 209.60702 209.98866
 210.77429 211.94492 213.18755 214.96318 216.88381 218.91944 221.00707 223.08270
 225.13533 227.21197 229.30160 231.40023 233.52186 235.68649 237.93512 240.29775
 242.91138 245.15501 247.14964 248.90728 250.31691 251.43254 252.24717 252.55580
 252.58543 252.35206 251.70469 250.64532 249.24395 247.39758 245.29922 243.12485
 240.90848 238.70511 236.51774 234.34937 232.20200 230.06163 228.08026 226.22989
 224.50553 222.97016 221.59279 220.35742 219.23205 218.18468 217.28131 216.41494
 215.64957 214.82220 213.91284 213.26947 212.71210 212.96837 213.57385 212.87787
 213.94795 216.07646 217.24182 218.77228 220.56609 222.97737 228.12814 232.57291
 236.19133 240.20490 244.14290 247.58154 250.17821 252.63235 255.33128 258.18839
 260.87891 263.52219 266.17932 268.78488 271.31448 273.65137 275.46970 277.05008
 278.64932 280.25119 281.79480 283.16614 284.35873 285.41672 286.38562 287.26569
 288.06735 288.78314 289.41776 290.27457
 366.78100 356.33090 345.75879 334.62069 323.01958 311.20948 299.07537 286.87427
 274.58216 262.47506 250.47996 239.77685 229.89475 220.99464 213.17254 206.17043
 200.00033 194.93423 191.51212 189.55002 188.58291 188.64281 189.47370 190.77760
 192.49849 194.58939 196.84829 199.20318 201.64408 204.11997 206.20387 208.04176
 209.66366 210.80455 211.02945 211.25335 211.18624 210.88714 210.51603 210.14193
 209.75482 209.46072 209.26461 209.12451 209.04841 209.37530 209.75720 210.14209
 210.93099 212.10488 213.35078 215.12968 217.05357 219.09247 221.18336 223.26226
 225.31815 227.39805 229.49094 231.59284 233.71774 235.88563 238.13753 240.50342
 243.12032 245.36721 247.36511 249.12600 250.53890 251.65780 252.47569 252.78759
 252.82048 252.59038 251.94627 250.89017 249.49206 247.64896 245.55386 243.38275
 241.16965 238.96954 236.78544 234.62033 232.47623 230.33913 228.36102 226.51392
 224.79281 223.26071 221.88660 220.65450 219.53239 218.48829 217.58819 216.72508
 215.96298 215.13887 214.23277 213.59266 213.03856 213.13548 213.36449 213.27844
 214.21872 215.80925 217.02203 218.80582 220.76892 223.17409 228.16425 232.61880
 236.22757 240.23528 244.10971 247.43805 249.95135 252.36702 255.06781 257.94199
 260.69528 263.41589 266.13550 268.78479 271.32855 273.65433 275.45236 277.02283
 278.60425 280.24588 281.78323 283.14993 284.33960 285.39655 286.36438 287.24530
 288.04434 288.76208 289.39288 290.24734
 366.78100 356.33204 345.76107 334.62411 323.02415 311.21518 299.08222 286.88226
 274.59129 262.48533 250.49137 239.78940 229.90844 221.00948 213.18851 206.18755
 200.01859 194.95362 191.53266 189.57170 188.60573 188.66677 189.49881 190.80384
 192.52588 194.61792 196.87795 199.23399 201.67603 204.15306 206.23810 208.07714
 209.70017 210.84221 211.06825 211.29328 211.22732 210.92936 210.55939 210.18643
 209.80047 209.50750 209.31254 209.17358 209.09861 209.42665 209.80969 210.19572
 210.98576 212.16080 213.40783 215.18787 217.11291 219.15294 221.24498 223.32502
 225.38205 227.46309 229.55713 231.66016 233.78620 235.95524 238.20827 240.57531
 243.19335 245.44138 247.44042 249.20246 250.61649 251.73653 252.55556 252.86860
 252.90264 252.67367 252.03071 250.97575 249.57878 247.73682 245.64286 243.47289
 241.26093 239.06197 236.87900 234.71504 232.57208 230.43611 228.45915 226.61319
 224.89322 223.36226 221.98930 220.75833 219.63737 218.59441 217.69544 216.83348
 216.07252 215.24955 214.34459 213.70563 213.15266 213.20323 213.32268 213.47508
 214.40929 215.68477 216.96173 218.84418 220.91042 223.36943 228.19514 232.64886
 236.25873 240.25822 244.06291 247.27173 249.70343 252.09010 254.80136 257.70084
 260.52637 263.32870 266.10947 268.79681 271.34787 273.65784 275.43607 276.99854
 278.57123 280.22836 281.76657 283.13177 284.32050 285.37735 286.34235 287.22363
 288.02042 288.73917 289.36996 290.21942
 366.78100 356.33262 345.76223 334.62585 323.02646 311.21808 299.08570 286.88631
 274.59593 262.49055 250.49716 239.79578 229.91539 221.01701 213.19663 206.19624
 200.02786 194.96347 191.54309 189.58271 188.61732 188.67894 189.51156 190.81717
 192.53979 194.63240 196.89302 199.24964 201.69225 204.16987 206.25549 208.09510
 209.71872 210.86133 211.08795 211.31357 211.24818 210.95080 210.58141 210.20903
 209.82365 209.53126 209.33688 209.19850 209.12411 209.45273 209.83634 210.22296
 211.01358 212.18919 213.43681 215.21742 217.14304 219.18366 221.27627 223.35689
 225.41451 227.49612 229.59074 231.69435 233.82097 235.99059 238.24420 240.61182
 243.23043 245.47905 247.47867 249.24128 250.65590 251.77652 252.59613 252.90975
 252.94436 252.71598 252.07360 251.01921 249.62283 247.78145 245.68806 243.51868
 241.30729 239.10891 236.92653 234.76314 232.62076 230.48537 228.50899 226.66361
 224.94422 223.41384 222.04146 220.81107 219.69069 218.64830 217.74992 216.88854
 216.12815 215.30577 214.40138 213.76300 213.21062 213.24283 213.31894 213.64107
 214.56494 215.63226 216.95888 218.85721 220.98753 223.52802 228.22223 232.66843
 236.28831 240.27937 244.01279 247.10301 249.46043 251.82683 254.55254 257.47873
 260.37543 263.25540 266.08945 268.80591 271.36020 273.65161 275.40903 276.96616
 278.52246 280.21237 281.75162 283.11530 284.30203 285.35767 286.32138 287.20105
 287.99750 288.71344 289.34436 290.18985
 366.78100 356.33312 345.76324 334.62737 323.02849 311.22061 299.08873 286.88985
 274.59998 262.49510 250.50222 239.80134 229.92146 221.02359 213.20371 206.20383
 200.03595 194.97207 191.55220 189.59232 188.62744 188.68956 189.52268 190.82881
 192.55193 194.64505 196.90617 199.26329 201.70642 204.18454 206.27066 208.11078
 209.73490 210.87803 211.10515 211.33127 211.26639 210.96951 210.60064 210.22876
 209.84388 209.55200 209.35812 209.22025 209.14637 209.47549 209.85961 210.24673
 211.03786 212.21398 213.46210 215.24322 217.16934 219.21047 221.30359 223.38471
 225.44283 227.52495 229.62008 231.72420 233.85132 236.02144 238.27556 240.64369
 243.26281 245.51193 247.51205 249.27517 250.69030 251.81142 252.63154 252.94566
 252.98078 252.75291 252.11103 251.05715 249.66127 247.82039 245.72752 243.55864
 241.34776 239.14988 236.96800 234.80513 232.66325 230.52837 228.55249 226.70761
 224.98874 223.45886 222.08698 220.85710 219.73722 218.69535 217.79747 216.93659
 216.17671 215.35483 214.45096 213.81308 213.26120 213.27940 213.32242 213.82428
 214.69890 215.58846 216.94684 218.86751 221.04871 223.66269 228.25067 232.68523
 236.31792 240.30156 243.96391 246.94028 249.23032 251.57924 254.31866 257.26996
 260.23303 263.18320 266.06299 268.80557 271.36264 273.63776 275.37643 276.93369
 278.50806 280.18124 281.71948 283.08441 284.27258 285.32629 286.29175 287.17023
 287.96573 288.68045 289.31131 290.15738
 366.78100 356.33323 345.76345 334.62768 323.02891 311.22114 299.08936 286.89059
 274.60082 262.49605 250.50327 239.80250 229.92273 221.02495 213.20518 206.20541
 200.03764 194.97386 191.55409 189.59432 188.62955 188.69177 189.52500 190.83123
 192.55445 194.64768 196.90891 199.26614 201.70936 204.18759 206.27382 208.11405
 209.73827 210.88150 211.10873 211.33495 211.27018 210.97341 210.60464 210.23286
 209.84809 209.55632 209.36255 209.22477 209.15100 209.48023 209.86446 210.25168
 211.04291 212.21914 213.46736 215.24859 217.17482 219.21605 221.30927 223.39050
 225.44873 227.53096 229.62618 231.73041 233.85764 236.02786 238.28209 240.65032
 243.26955 245.51877 247.51900 249.28223 250.69746 251.81868 252.63891 252.95314
 252.98836 252.76059 252.11882 251.06505 249.66927 247.82850 245.73573 243.56696
 241.35618 239.15841 236.97664 234.81386 232.67209 230.53732 228.56155 226.71677
 224.99800 223.46823 222.09646 220.86668 219.74691 218.70514 217.80736 216.94659
 216.18682 215.36505 214.46127 213.82350 213.27173 213.29706 213.35687 213.99336
 214.82437 215.57565 216.92461 218.87675 221.09532 223.77261 228.27518 232.69804
 236.34375 240.32039 243.91360 246.77953 249.00369 251.33597 254.08957 257.06564
 260.09186 263.10733 266.03073 268.80051 271.36597 273.62784 275.35034 276.90598
 278.49988 280.14032 281.68106 283.05042 284.23944 285.29572 286.25891 287.13666
 287.93338 288.64798 289.27780 290.11337
 366.78100 356.33307 345.76314 334.62721 323.02828 311.22035 299.08842 286.88949
 274.59955 262.49462 250.50169 239.80076 229.92083 221.02290 213.20297 206.20304
 200.03511 194.97118 191.55125 189.59132 188.62639 188.68846 189.52153 190.82760
 192.55066 194.64373 196.90480 199.26187 201.70494 204.18301 206.26908 208.10915
 209.73322 210.87629 211.10336 211.32943 211.26450 210.96757 210.59864 210.22670
 209.84177 209.54984 209.35591 209.21798 209.14405 209.47312 209.85719 210.24426
 211.03533 212.21140 213.45947 215.24054 217.16661 219.20768 221.30075 223.38181
 225.43988 227.52195 229.61702 231.72109 233.84816 236.01823 238.27230 240.64037
 243.25944 245.50851 247.50858 249.27165 250.68672 251.80779 252.62785 252.94192
 252.97699 252.74906 252.10713 251.05320 249.65727 247.81634 245.72341 243.55448
 241.34355 239.14562 236.96369 234.80076 232.65883 230.52390 228.54796 226.70303
 224.98410 223.45417 222.08224 220.85231 219.73238 218.69045 217.79252 216.93159
 216.17166 215.34973 214.44580 213.80787 213.25594 213.30321 213.41490 214.13911
 214.95604 215.60489 216.90625 218.87065 221.11714 223.86507 228.29755 232.71141
 236.36609 240.33168 243.85320 246.60773 248.76700 251.08841 253.86296 256.86993
 259.96030 263.03793 266.00305 268.79971 271.37103 273.62085 275.33389 276.88422
 278.47809 280.09875 281.64182 283.01248 284.20166 285.25793 286.22174 287.09964
 287.89465 288.60870 289.23758 290.07159
 366.78100 356.33292 345.76284 334.62675 323.02767 311.21959 299.08751 286.88843
 274.59835 262.49326 250.50018 239.79910 229.91902 221.02094 213.20085 206.20077
 200.03269 194.96861 191.54853 189.58844 188.62336 188.68528 189.51820 190.82412
 192.54704 194.63995 196.90087 199.25779 201.70071 204.17863 206.26454 208.10446
 209.72838 210.87130 211.09822 211.32413 211.25905 210.96197 210.59289 210.22081
 209.83573 209.54364 209.34956 209.21148 209.13740 209.46632 209.85023 210.23715
 211.02807 212.20399 213.45191 215.23283 217.15874 219.19966 221.29258 223.37350
 225.43142 227.51333 229.60825 231.71217 233.83909 236.00901 238.26292 240.63084
 243.24976 245.49868 247.49860 249.26152 250.67643 251.79735 252.61727 252.93119
 252.96611 252.73802 252.09594 251.04186 249.64578 247.80470 245.71162 243.54253
 241.33145 239.13337 236.95129 234.78821 232.64612 230.51104 228.53496 226.68988
 224.97080 223.44071 222.06863 220.83855 219.71847 218.67639 217.77831 216.91722
 216.15714 215.33506 214.43098 213.79290 213.24081 213.31166 213.47905 214.27328
 215.09135 215.65985 216.90477 218.85789 221.12688 223.94630 228.31810 232.72327
 236.37962 240.32220 243.76259 246.40630 248.51141 250.83879 253.64857 256.69626
 259.85223 262.98752 265.98608 268.80109 271.37250 273.60880 275.31616 276.86481
 278.45303 280.05389 281.59576 282.96591 284.15598 285.21112 286.17471 287.05042
 287.84689 288.55804 289.18680 290.01871
 366.78100 356.33286 345.76273 334.62659 323.02746 311.21932 299.08718 286.88805
 274.59791 262.49277 250.49964 239.79850 229.91837 221.02023 213.20009 206.19996
 200.03182 194.96768 191.54755 189.58741 188.62228 188.68414 189.51700 190.82287
 192.54573 194.63860 196.89946 199.25632 201.69919 204.17705 206.26291 208.10278
 209.72664 210.86951 211.09637 211.32223 211.25710 210.95996 210.59083 210.21869
 209.83355 209.54142 209.34728 209.20914 209.13501 209.46387 209.84774 210.23460
 211.02546 212.20133 213.44919 215.23005 217.15592 219.19678 221.28965 223.37051
 225.42837 227.51024 229.60510 231.70897 233.83583 236.00569 238.25956 240.62742
 243.24628 245.49515 247.49501 249.25788 250.67274 251.79360 252.61347 252.92733
 252.96220 252.73406 252.09192 251.03779 249.64165 247.80051 245.70738 243.53824
 241.32711 239.12897 236.94683 234.78370 232.64156 230.50642 228.53029 226.68515
 224.96602 223.43588 222.06374 220.83361 219.71347 218.67134 217.77320 216.91206
 216.15193 215.32979 214.42565 213.78752 213.23538 213.32742 213.54489 214.40216
 215.22691 215.72145 216.93468 218.87054 221.14030 224.00862 228.33182 232.72527
 236.37643 240.28038 243.63069 246.16978 248.23991 250.59435 253.45403 256.55078
 259.76825 262.95114 265.97086 268.79703 271.37109 273.59958 275.30240 276.83893
 278.41690 280.00391 281.54489 282.91476 284.10602 285.16187 286.12646 287.00415
 287.80231 288.52115 289.15442 289.98074
 366.78100 356.33299 345.76299 334.62698 323.02797 311.21997 299.08796 286.88895
 274.59895 262.49394 250.50094 239.79993 229.91992 221.02192 213.20191 206.20190
 200.03390 194.96989 191.54988 189.58988 188.62487 188.68686 189.51986 190.82585
 192.54884 194.64184 196.90283 199.25983 201.70282 204.18081 206.26681 208.10680
 209.73079 210.87379 211.10078 211.32677 211.26177 210.96476 210.59575 210.22375
 209.83874 209.54673 209.35273 209.21472 209.14071 209.46971 209.85370 210.24070
 211.03169 212.20768 213.45568 215.23667 217.16266 219.20366 221.29665 223.37764
 225.43564 227.51763 229.61262 231.71662 233.84361 236.01360 238.26760 240.63559
 243.25459 245.50358 247.50357 249.26657 250.68156 251.80255 252.62255 252.93654
 252.97153 252.74353 252.10152 251.04751 249.65151 247.81050 245.71749 243.54849
 241.33748 239.13948 236.95747 234.79446 232.65246 230.51745 228.54144 226.69644
 224.97743 223.44742 222.07542 220.84541 219.72540 218.68340 217.78539 216.92438
 216.16438 215.34237 214.43837 213.80036 213.24835 213.35434 213.60475 214.52826
 215.36421 215.78297 216.98619 218.92288 221.16258 224.04659 228.33548 232.71919
 236.35721 240.20889 243.46342 245.90831 247.96326 250.36079 253.27823 256.42685
 259.69846 262.91434 265.94601 268.78503 271.37079 273.60770 275.31448 276.82553
 278.36484 279.93701 281.47598 282.84540 284.03546 285.09140 286.05582 286.93497
 287.73434 288.45535 289.08414 289.91925
 366.78100 356.33320 345.76341 334.62761 323.02882 311.22102 299.08923 286.89043
 274.60064 262.49584 250.50305 239.80225 229.92246 221.02466 213.20487 206.20507
 200.03728 194.97348 191.55369 189.59389 188.62910 188.69130 189.52451 190.83071
 192.55392 194.64712 196.90833 199.26553 201.70874 204.18694 206.27315 208.11335
 209.73756 210.88076 211.10797 211.33417 211.26937 210.97258 210.60378 210.23199
 209.84719 209.55540 209.36160 209.22381 209.15001 209.47922 209.86342 210.25063
 211.04183 212.21804 213.46624 215.24745 217.17365 219.21486 221.30806 223.38927
 225.44747 227.52968 229.62488 231.72909 233.85629 236.02650 238.28070 240.64891
 243.26811 245.51732 247.51752 249.28073 250.69593 251.81713 252.63734 252.95154
 252.98675 252.75895 252.11716 251.06336 249.66757 247.82677 245.73398 243.56518
 241.35439 239.15659 236.97480 234.81200 232.67021 230.53541 228.55962 226.71482
 224.99603 223.46623 222.09444 220.86464 219.74485 218.70305 217.80526 216.94446
 216.18467 215.36287 214.45908 213.82128 213.26949 213.38686 213.66417 214.64653
 215.50298 215.84901 217.05214 218.99129 221.18254 224.07475 228.34244 232.71844
 236.33141 240.11568 243.27092 245.63150 247.68272 250.12955 253.10844 256.31314
 259.63342 262.87131 265.91202 268.76599 271.36746 273.62366 275.35336 276.85504
 278.34711 279.85046 281.38080 282.75003 283.94095 284.99530 285.96051 286.84012
 287.64139 288.36050 288.99188 289.82852
 366.78100 356.33303 345.76305 334.62708 323.02811 311.22013 299.08816 286.88918
 274.59921 262.49424 250.50126 239.80029 229.92032 221.02234 213.20237 206.20239
 200.03442 194.97045 191.55047 189.59050 188.62553 188.68755 189.52058 190.82661
 192.54963 194.64266 196.90368 199.26071 201.70374 204.18176 206.26779 208.10782
 209.73184 210.87487 211.10190 211.32792 211.26295 210.96597 210.59700 210.22503
 209.84005 209.54808 209.35411 209.21613 209.14216 209.47118 209.85521 210.24224
 211.03326 212.20929 213.45732 215.23834 217.16437 219.20540 221.29842 223.37945
 225.43747 227.51950 229.61453 231.71855 233.84558 236.01561 238.26963 240.63766
 243.25668 245.50571 247.50574 249.26876 250.68379 251.80482 252.62484 252.93887
 252.97390 252.74592 252.10395 251.04997 249.65400 247.81303 245.72005 243.55108
 241.34011 239.14213 236.96016 234.79719 232.65521 230.52024 228.54426 226.69929
 224.98032 223.45034 222.07837 220.84840 219.72842 218.68645 217.78847 216.92750
 216.16753 215.34555 214.44158 213.80361 213.25163 213.40170 213.75626 214.73885
 215.63945 215.93658 217.12082 219.05460 221.21269 224.10622 228.36458 232.72633
 236.29686 239.99536 243.04686 245.33409 247.39133 249.89194 252.93944 256.20914
 259.57660 262.83240 265.87946 268.74362 271.36087 273.63480 275.39273 276.90686
 278.37457 279.77393 281.28226 282.64661 283.83450 284.88910 285.85327 286.73206
 287.53638 288.25513 288.88968 289.72031
 366.78100 356.33362 345.76423 334.62885 323.03047 311.22309 299.09170 286.89332
 274.60394 262.49955 250.50717 239.80679 229.92741 221.03002 213.21064 206.21126
 200.04387 194.98049 191.56111 189.60173 188.63734 188.69996 189.53358 190.84019
 192.56381 194.65743 196.91905 199.27666 201.72028 204.19890 206.28551 208.12613
 209.75075 210.89437 211.12198 211.34860 211.28422 210.98783 210.61945 210.24807
 209.86369 209.57230 209.37892 209.24154 209.16815 209.49777 209.88239 210.27001
 211.06162 212.23824 213.48686 215.26847 217.19509 219.23671 221.33033 223.41194
 225.47056 227.55318 229.64879 231.75341 233.88103 236.05165 238.30626 240.67488
 243.29450 245.54411 247.54473 249.30835 250.72397 251.84558 252.66620 252.98082
 253.01643 252.78905 252.14767 251.09429 249.69890 247.85852 245.76614 243.59775
 241.38737 239.18999 237.00861 234.84622 232.70484 230.57046 228.59507 226.75069
 225.03231 223.50293 222.13154 220.90216 219.78278 218.74139 217.84401 216.98363
 216.22425 215.40286 214.49948 213.86210 213.31071 213.45644 213.80070 214.88609
 215.75671 215.99690 217.20625 219.12225 221.25409 224.13841 228.40207 232.72710
 236.24489 239.84975 242.78990 245.01109 247.08682 249.65402 252.78331 256.12881
 259.54172 262.81125 265.85452 268.72220 271.34946 273.63641 275.41339 276.94354
 278.40372 279.78000 281.18134 282.53717 283.72446 284.78073 285.74625 286.62778
 287.43005 288.15253 288.78873 289.62122
 366.78100 356.33334 345.76369 334.62803 323.02938 311.22172 299.09007 286.89141
 274.60176 262.49710 250.50445 239.80379 229.92414 221.02648 213.20683 206.20717
 200.03952 194.97586 191.55621 189.59655 188.63190 188.69424 189.52759 190.83393
 192.55727 194.65062 196.91196 199.26931 201.71265 204.19100 206.27734 208.11769
 209.74203 210.88538 211.11272 211.33907 211.27441 210.97776 210.60910 210.23745
 209.85279 209.56114 209.36748 209.22983 209.15617 209.48552 209.86986 210.25720
 211.04855 212.22489 213.47324 215.25458 217.18093 219.22227 221.31562 223.39696
 225.45531 227.53765 229.63300 231.73734 233.86469 236.03503 238.28938 240.65772
 243.27707 245.52641 247.52676 249.29010 250.70544 251.82679 252.64713 252.96148
 252.99682 252.76917 252.12751 251.07386 249.67820 247.83755 245.74489 243.57624
 241.36558 239.16793 236.98627 234.82362 232.68196 230.54731 228.57165 226.72700
 225.00834 223.47869 222.10703 220.87737 219.75772 218.71606 217.81841 216.95775
 216.19810 215.37644 214.47279 213.83513 213.28348 213.46634 213.89836 215.02078
 215.86899 216.03841 217.29494 219.22401 221.31145 224.15833 228.43027 232.68028
 236.17030 239.68068 242.50879 244.67209 246.78564 249.43748 252.65912 256.08356
 259.53616 262.81091 265.84143 268.70502 271.33804 273.63391 275.41977 276.94965
 278.38367 279.74908 281.09097 282.44226 283.63177 284.68878 285.65549 286.53683
 287.34137 288.06467 288.70145 289.53647
 366.78100 356.33280 345.76261 334.62641 323.02721 311.21901 299.08682 286.88762
 274.59742 262.49222 250.49903 239.79783 229.91763 221.01943 213.19924 206.19904
 200.03084 194.96664 191.54645 189.58625 188.62105 188.68286 189.51566 190.82146
 192.54426 194.63707 196.89787 199.25467 201.69747 204.17528 206.26108 208.10088
 209.72468 210.86749 211.09429 211.32009 211.25489 210.95770 210.58850 210.21630
 209.83111 209.53891 209.34471 209.20651 209.13232 209.46112 209.84492 210.23172
 211.02253 212.19833 213.44613 215.22693 217.15274 219.19354 221.28634 223.36714
 225.42495 227.50675 229.60155 231.70536 233.83216 236.00196 238.25576 240.62357
 243.24237 245.49117 247.49097 249.25378 250.66858 251.78938 252.60918 252.92299
 252.95779 252.72959 252.08739 251.03320 249.63700 247.79580 245.70261 243.53341
 241.32221 239.12401 236.94182 234.77862 232.63642 230.50122 228.52503 226.67983
 224.96063 223.43043 222.05824 220.82804 219.70784 218.66564 217.76745 216.90625
 216.14605 215.32386 214.41966 213.78146 213.22926 213.46484 214.02144 215.08653
 216.10646 216.11978 217.24582 219.25464 221.36644 224.19774 228.46216 232.60278
 236.08986 239.50333 242.22925 244.34392 246.50464 249.24660 252.55885 256.05914
 259.54391 262.81772 265.83603 268.69577 271.33890 273.65073 275.44333 276.94110
 278.31076 279.61557 280.98242 282.33551 283.52405 284.58096 285.54828 286.42923
 287.23380 287.95712 288.59381 289.43073
 366.78100 356.33264 345.76229 334.62593 323.02658 311.21822 299.08587 286.88651
 274.59616 262.49080 250.49745 239.79609 229.91573 221.01738 213.19702 206.19667
 200.02831 194.96396 191.54360 189.58325 188.61789 188.67954 189.51218 190.81782
 192.54047 194.63311 196.89376 199.25040 201.69305 204.17069 206.25634 208.09598
 209.71963 210.86227 211.08891 211.31456 211.24920 210.95185 210.58249 210.21014
 209.82478 209.53243 209.33807 209.19972 209.12536 209.45400 209.83765 210.22429
 211.01494 212.19058 213.43823 215.21887 217.14452 219.18516 221.27781 223.35845
 225.41609 227.49774 229.59238 231.69603 233.82267 235.99232 238.24596 240.61361
 243.23225 245.48090 247.48054 249.24318 250.65783 251.77847 252.59812 252.91176
 252.94641 252.71805 252.07570 251.02134 249.62499 247.78363 245.69028 243.52092
 241.30956 239.11121 236.92885 234.76550 232.62314 230.48779 228.51143 226.66608
 224.94672 223.41637 222.04401 220.81365 219.69330 218.65094 217.75259 216.89123
 216.13088 215.30852 214.40417 213.76581 213.21346 213.48416 214.12370 215.19017
 216.22302 216.15985 217.29605 219.38304 221.40819 224.22929 228.50174 232.53929
 236.00157 239.31523 241.95126 244.02025 246.22351 249.05505 252.45598 256.03128
 259.54279 262.81586 265.83127 268.69473 271.35422 273.68982 275.49600 276.97287
 278.30133 279.56314 280.82227 282.16299 283.35147 284.40912 285.37531 286.25885
 287.06375 287.78708 288.42740 289.26944
 366.78100 356.33323 345.76345 334.62768 323.02890 311.22113 299.08936 286.89058
 274.60081 262.49604 250.50326 239.80249 229.92271 221.02494 213.20517 206.20539
 200.03762 194.97385 191.55407 189.59430 188.62952 188.69175 189.52498 190.83120
 192.55443 194.64766 196.90888 199.26611 201.70933 204.18756 206.27379 208.11401
 209.73824 210.88147 211.10869 211.33492 211.27014 210.97337 210.60460 210.23282
 209.84805 209.55627 209.36250 209.22473 209.15095 209.48018 209.86441 210.25163
 211.04286 212.21908 213.46731 215.24854 217.17476 219.21599 221.30922 223.39044
 225.44867 227.53089 229.62612 231.73035 233.85757 236.02780 238.28203 240.65025
 243.26948 245.51870 247.51893 249.28216 250.69738 251.81861 252.63884 252.95306
 252.98829 252.76051 252.11874 251.06497 249.66919 247.82842 245.73564 243.56687
 241.35610 239.15832 236.97655 234.81378 232.67200 230.53723 228.56145 226.71668
 224.99791 223.46813 222.09636 220.86659 219.74681 218.70504 217.80726 216.94649
 216.18672 215.36494 214.46117 213.82340 213.27162 213.54004 214.17421 215.37065
 216.26749 216.23460 217.41354 219.43806 221.42009 224.27167 228.55273 232.50560
 235.90141 239.11295 241.66270 243.69226 245.93315 248.85370 252.34523 255.99513
 259.53391 262.81223 265.83432 268.70343 271.37531 273.73001 275.55490 277.03629
 278.34805 279.57962 280.75360 281.98666 283.16086 284.21432 285.18094 286.06525
 286.87115 287.60272 288.24442 289.09955
 366.78100 356.33326 345.76351 334.62777 323.02903 311.22129 299.08954 286.89080
 274.60106 262.49631 250.50357 239.80283 229.92309 221.02534 213.20560 206.20586
 200.03812 194.97437 191.55463 189.59489 188.63014 188.69240 189.52566 190.83192
 192.55517 194.64843 196.90969 199.26694 201.71020 204.18846 206.27472 208.11497
 209.73923 210.88249 211.10974 211.33600 211.27126 210.97452 210.60577 210.23403
 209.84929 209.55754 209.36380 209.22606 209.15232 209.48157 209.86583 210.25309
 211.04435 212.22060 213.46886 215.25012 217.17637 219.21763 221.31089 223.39215
 225.45040 227.53266 229.62792 231.73217 233.85943 236.02969 238.28395 240.65220
 243.27146 245.52072 247.52097 249.28423 250.69949 251.82075 252.64100 252.95526
 252.99052 252.76278 252.12103 251.06729 249.67155 247.83080 245.73806 243.56932
 241.35858 239.16083 236.97909 234.81635 232.67460 230.53986 228.56412 226.71938
 225.00063 223.47089 222.09915 220.86940 219.74966 218.70792 217.81018 216.94943
 216.18969 215.36795 214.46420 213.82646 213.27472 213.56616 214.25475 215.56696
 216.28276 216.33464 217.49045 219.41946 221.47002 224.34898 228.61147 232.47224
 235.78764 238.89436 241.35991 243.36588 245.64780 248.65553 252.24005 255.96646
 259.53928 262.83084 265.85886 268.71960 271.38882 273.75497 275.61279 277.12500
 278.42279 279.59445 280.69849 281.84082 283.00650 284.06265 285.03299 285.91937
 286.72998 287.46075 288.10867 288.96527
 366.78100 356.33175 345.76049 334.62324 323.02299 311.21373 299.08048 286.88022
 274.58897 262.48272 250.48846 239.78621 229.90496 221.00570 213.18445 206.18320
 200.01394 194.94869 191.52744 189.56618 188.59993 188.66067 189.49242 190.79717
 192.51891 194.61066 196.87041 199.22615 201.66790 204.14465 206.22939 208.06814
 209.69089 210.83263 211.05838 211.28312 211.21687 210.91862 210.54836 210.17511
 209.78886 209.49560 209.30035 209.16110 209.08584 209.41359 209.79634 210.18208
 210.97183 212.14657 213.39332 215.17307 217.09781 219.13756 221.22931 223.30905
 225.36580 227.44655 229.54029 231.64304 233.76879 235.93753 238.19028 240.55702
 243.17477 245.42252 247.42126 249.18301 250.59676 251.71650 252.53525 252.84800
 252.88174 252.65249 252.00924 250.95398 249.55673 247.71447 245.62022 243.44997
 241.23771 239.03846 236.85521 234.69095 232.54770 230.41145 228.43419 226.58794
 224.86768 223.33643 221.96318 220.73192 219.61067 218.56742 217.66816 216.80591
 216.04466 215.22140 214.31615 213.67690 213.12364 213.51154 214.42796 215.73938
 216.26477 216.43629 217.53423 219.40033 221.54327 224.42728 228.65024 232.42691
 235.66710 238.65871 241.04457 243.05193 245.39752 248.49150 252.16255 255.95915
 259.56320 262.86252 265.88492 268.73251 271.39966 273.78757 275.69180 277.23300
 278.50302 279.62283 280.67288 281.71802 282.87274 283.93048 284.90073 285.78900
 286.60410 287.33792 287.98914 288.85300
 366.78100 356.33037 345.75774 334.61911 323.01748 311.20684 299.07221 286.87058
 274.57795 262.47032 250.47469 239.77106 229.88843 220.98780 213.16516 206.16253
 199.99190 194.92527 191.50264 189.54001 188.57238 188.63175 189.46211 190.76548
 192.48585 194.57622 196.83459 199.18896 201.62933 204.10470 206.18807 208.02543
 209.64680 210.78717 211.01154 211.23491 211.16728 210.86765 210.49602 210.12139
 209.73375 209.43912 209.24249 209.10186 209.02523 209.35160 209.73297 210.11734
 210.90571 212.07907 213.32444 215.10281 217.02618 219.06455 221.15492 223.23329
 225.28866 227.36802 229.46039 231.56176 233.68613 235.85350 238.10487 240.47024
 243.08661 245.33298 247.33034 249.09071 250.50308 251.62145 252.43882 252.75019
 252.78256 252.55193 251.90730 250.85066 249.45203 247.60840 245.51277 243.34114
 241.12751 238.92688 236.74225 234.57662 232.43198 230.29435 228.31572 226.46809
 224.74646 223.21383 221.83920 220.60657 219.48393 218.43930 217.53867 216.67504
 215.91241 215.08778 214.18115 213.54052 212.98589 213.46614 214.60080 215.83725
 216.30829 216.60818 217.61383 219.38403 221.56381 224.46278 228.66333 232.38814
 235.54712 238.42023 240.72064 242.72649 245.14510 248.33463 252.09315 255.95612
 259.58292 262.88153 265.89828 268.74313 271.42328 273.84177 275.78726 277.34836
 278.60172 279.68747 280.69519 281.63174 282.77365 283.82840 284.79724 285.68613
 286.49921 287.23456 287.88840 288.75815
 366.78100 356.33173 345.76046 334.62319 323.02292 311.21365 299.08039 286.88012
 274.58885 262.48258 250.48831 239.78604 229.90477 221.00550 213.18423 206.18296
 200.01369 194.94842 191.52716 189.56589 188.59962 188.66035 189.49208 190.79681
 192.51854 194.61027 196.87000 199.22573 201.66746 204.14419 206.22893 208.06766
 209.69039 210.83212 211.05785 211.28258 211.21631 210.91804 210.54777 210.17450
 209.78823 209.49497 209.29970 209.16043 209.08516 209.41289 209.79562 210.18135
 210.97108 212.14581 213.39254 215.17227 217.09700 219.13674 221.22847 223.30820
 225.36493 227.44566 229.53939 231.64212 233.76785 235.93658 238.18931 240.55604
 243.17377 245.42151 247.42024 249.18197 250.59570 251.71543 252.53416 252.84689
 252.88062 252.65135 252.00808 250.95281 249.55555 247.71328 245.61901 243.44874
 241.23647 239.03720 236.85393 234.68966 232.54639 230.41012 228.43285 226.58658
 224.86632 223.33505 221.96178 220.73051 219.60924 218.56597 217.66670 216.80443
 216.04316 215.21989 214.31462 213.67535 213.12209 213.57104 214.63177 215.82248
 216.47496 216.90964 217.74588 219.38521 221.57274 224.47752 228.64709 232.35126
 235.41946 238.14853 240.33237 242.31123 244.81873 248.13086 251.99739 255.93416
 259.58582 262.88904 265.90601 268.75827 271.45700 273.90262 275.88782 277.47351
 278.72409 279.79965 280.74887 281.69604 282.81165 283.86655 284.84097 285.73914
 286.56918 287.32812 288.07120 289.06100
 366.78100 356.33641 345.76981 334.63722 323.04163 311.23703 299.10844 286.91285
 274.62625 262.52466 250.53507 239.83747 229.96088 221.06629 213.24969 206.25310
 200.08851 195.02791 191.61132 189.65473 188.69313 188.75854 189.59495 190.90435
 192.63076 194.72717 196.99157 199.35198 201.79838 204.27979 206.36920 208.21260
 209.84001 210.98642 211.21682 211.44623 211.38464 211.09104 210.72545 210.35686
 209.97526 209.68667 209.49608 209.36148 209.29089 209.62330 210.01070 210.40111
 211.19552 212.37492 213.62633 215.41074 217.34014 219.38455 221.48096 223.56536
 225.62677 227.71218 229.81058 231.91799 234.04840 236.22180 238.47921 240.85062
 243.47302 245.72543 247.72884 249.49524 250.91365 252.03806 252.86146 253.17887
 253.21728 252.99268 252.35409 251.30350 249.91090 248.07331 245.98372 243.81812
 241.61053 239.41594 237.23734 235.07775 232.93915 230.80756 228.83497 226.99337
 225.27778 223.75119 222.38259 221.15600 220.03941 219.00081 218.10622 217.24863
 216.49203 215.67344 214.77285 214.13825 213.58966 213.85680 214.48921 215.76074
 216.71985 217.17746 217.93581 219.52477 221.69705 224.53915 228.61098 232.31815
 235.27118 237.83641 239.90718 241.89001 244.50815 247.93811 251.89781 255.89655
 259.56357 262.86688 265.89792 268.77304 271.48187 273.93030 275.95551 277.57724
 278.87595 279.98520 280.96942 281.90488 282.93167 283.98071 284.95474 285.85635
 286.69238 287.49011 288.26300 289.24799
 366.78100 356.33977 345.77654 334.64731 323.05508 311.25385 299.12862 286.93639
 274.65316 262.55493 250.56870 239.87447 230.00124 221.11002 213.29679 206.30356
 200.14233 195.08510 191.67187 189.71864 188.76041 188.82918 189.66895 190.98172
 192.71149 194.81126 197.07903 199.44280 201.89257 204.37734 206.47011 208.31688
 209.94765 211.09742 211.33119 211.56396 211.50573 211.21551 210.85328 210.48805
 210.10982 209.82459 209.63736 209.50613 209.43890 209.77467 210.16544 210.55921
 211.35698 212.53975 213.79452 215.58229 217.51506 219.56283 221.66260 223.75037
 225.81514 227.90391 230.00568 232.11645 234.25022 236.42699 238.68777 241.06254
 243.68831 245.94408 247.95085 249.72062 251.14239 252.27016 253.09693 253.41770
 253.45947 253.23824 252.60301 251.55578 250.16655 248.33232 246.24609 244.08386
 241.87963 239.68840 237.51317 235.35694 233.22171 231.09348 229.12425 227.28603
 225.57380 224.05057 222.68534 221.46211 220.34888 219.31365 218.42242 217.56819
 216.81496 215.99973 215.10250 214.47127 213.92604 214.06966 214.40898 215.81085
 216.86465 217.28053 218.17015 219.73907 221.84868 224.62029 228.61700 232.27785
 235.08980 237.52417 239.54187 241.58679 244.30389 247.81116 251.82008 255.84489
 259.52777 262.83777 265.88763 268.77652 271.48837 273.93951 275.97940 277.63303
 278.98105 280.13669 281.15936 282.15680 283.20950 284.25998 285.23129 286.12738
 286.94943 287.70132 288.45236 289.41196
 366.78100 356.34024 345.77749 334.64873 323.05698 311.25622 299.13147 286.93971
 274.65695 262.55920 250.57344 239.87969 230.00693 221.11617 213.30342 206.31066
 200.14991 195.09315 191.68040 189.72764 188.76988 188.83913 189.67937 190.99262
 192.72286 194.82310 197.09135 199.45559 201.90584 204.39108 206.48433 208.33157
 209.96281 211.11306 211.34730 211.58055 211.52279 211.23304 210.87128 210.50652
 210.12877 209.84401 209.65726 209.52650 209.45974 209.79599 210.18723 210.58148
 211.37972 212.56297 213.81821 215.60645 217.53970 219.58794 221.68819 223.77643
 225.84167 227.93092 230.03316 232.14441 234.27865 236.45590 238.71714 241.09238
 243.71863 245.97487 247.98212 249.75236 251.17461 252.30285 253.13009 253.45134
 253.49358 253.27283 252.63807 251.59131 250.20256 248.36880 246.28305 244.12129
 241.91754 239.72678 237.55202 235.39627 233.26151 231.13376 229.16500 227.32724
 225.61549 224.09273 222.72798 221.50522 220.39247 219.35771 218.46695 217.61320
 216.86044 216.04569 215.14893 214.51817 213.97342 214.12018 214.46690 215.92780
 216.97331 217.42732 218.37653 219.79973 221.84390 224.62959 228.62692 232.15808
 234.86893 237.20512 239.19232 241.29883 244.10143 247.68454 251.73665 255.78052
 259.48474 262.82211 265.89813 268.78946 271.49341 273.93707 275.97879 277.64438
 278.98944 280.14795 281.20355 282.27780 283.41953 284.46902 285.43924 286.32980
 287.14435 287.88309 288.57721 289.51001
 366.78100 356.34046 345.77791 334.64937 323.05783 311.25728 299.13274 286.94120
 274.65866 262.56111 250.57557 239.88203 230.00948 221.11894 213.30640 206.31385
 200.15331 195.09677 191.68422 189.73168 188.77414 188.84359 189.68405 190.99751
 192.72797 194.82842 197.09688 199.46134 201.91179 204.39725 206.49071 208.33816
 209.96962 211.12008 211.35453 211.58799 211.53045 211.24091 210.87936 210.51482
 210.13728 209.85273 209.66619 209.53565 209.46910 209.80556 210.19702 210.59147
 211.38993 212.57339 213.82884 215.61730 217.55076 219.59922 221.69967 223.78813
 225.85359 227.94304 230.04550 232.15696 234.29141 236.46887 238.73033 241.10578
 243.73224 245.98870 247.99616 249.76661 251.18907 252.31753 253.14498 253.46644
 253.50890 253.28835 252.65381 251.60727 250.21872 248.38518 246.29964 244.13810
 241.93455 239.74401 237.56947 235.41392 233.27938 231.15184 229.18329 227.34575
 225.63421 224.11166 222.74712 221.52458 220.41203 219.37749 218.48695 217.63341
 216.88086 216.06632 215.16978 214.53923 213.99469 214.15712 214.54086 215.93744
 217.11067 217.73111 218.58455 219.78629 221.78459 224.62299 228.63266 231.98383
 234.64931 236.87848 238.82190 240.97012 243.85945 247.52794 251.63524 255.70641
 259.43008 262.78632 265.88156 268.78162 271.48230 273.91949 275.97827 277.66205
 279.01901 280.17102 281.23370 282.32663 283.46555 284.51651 285.48660 286.37936
 287.19547 287.93423 288.64194 289.56186
 366.78100 356.33903 345.77506 334.64509 323.05212 311.25015 299.12418 286.93121
 274.64724 262.54827 250.56130 239.86633 229.99236 221.10039 213.28642 206.29245
 200.13048 195.07251 191.65854 189.70457 188.74559 188.81362 189.65265 190.96468
 192.69371 194.79274 197.05977 199.42280 201.87183 204.35586 206.44789 208.29392
 209.92395 211.07298 211.30601 211.53804 211.47907 211.18810 210.82513 210.45916
 210.08019 209.79422 209.60625 209.47428 209.40631 209.74134 210.13137 210.52440
 211.32143 212.50346 213.75749 215.54452 217.47655 219.52358 221.62261 223.70964
 225.77367 227.86170 229.96273 232.07275 234.20578 236.38181 238.64184 241.01587
 243.64090 245.89593 247.90196 249.67099 251.09202 252.21905 253.04508 253.36511
 253.40614 253.18417 252.54820 251.50023 250.11026 248.27529 246.18832 244.02535
 241.82038 239.62841 237.45244 235.29547 233.15950 231.03053 229.06056 227.22159
 225.50862 223.98465 222.61868 221.39471 220.28074 219.24477 218.35280 217.49783
 216.74386 215.92789 215.02991 214.39794 213.85197 214.11011 214.72049 215.93369
 217.01085 217.90157 218.82594 219.87308 221.85339 224.73401 228.70065 231.85788
 234.51437 236.63106 238.53500 240.70959 243.65944 247.38797 251.53764 255.62607
 259.34970 262.69949 265.80301 268.71246 271.41791 273.85425 275.93588 277.64172
 278.99405 280.11285 281.19168 282.38150 283.55634 284.61465 285.59186 286.48969
 287.30963 288.07071 288.76706 289.65448
 366.78100 356.33416 345.76532 334.63048 323.03264 311.22580 299.09496 286.89712
 274.60828 262.50444 250.51260 239.81276 229.93392 221.03707 213.21823 206.21939
 200.05255 194.98971 191.57087 189.61203 188.64819 188.71135 189.54551 190.85267
 192.57683 194.67099 196.93315 199.29131 201.73547 204.21463 206.30179 208.14295
 209.76811 210.91227 211.14043 211.36759 211.30375 211.00791 210.64006 210.26922
 209.88538 209.59454 209.40170 209.26486 209.19202 209.52218 209.90734 210.29550
 211.08766 212.26482 213.51398 215.29614 217.22330 219.26546 221.35962 223.44178
 225.50094 227.58410 229.68026 231.78542 233.91358 236.08474 238.33990 240.70905
 243.32921 245.57937 247.58053 249.34469 250.76085 251.88301 252.70417 253.01933
 253.05549 252.82865 252.18781 251.13497 249.74013 247.90029 245.80845 243.64061
 241.43077 239.23393 237.05309 234.89125 232.75041 230.61657 228.64173 226.79788
 225.08004 223.55120 222.18036 220.95152 219.83268 218.79184 217.89500 217.03516
 216.27632 215.45548 214.55264 213.91580 213.36496 213.87772 215.08916 215.98473
 216.75591 217.92574 219.02374 220.00970 221.95859 224.87917 228.80681 231.82086
 234.41760 236.46536 238.32640 240.51694 243.51103 247.28372 251.45705 255.54330
 259.25391 262.59390 265.71976 268.65866 271.38675 273.83237 275.90311 277.55298
 278.82819 279.92917 281.09161 282.35172 283.53293 284.58856 285.56027 286.45038
 287.26376 288.01056 288.69498 289.56717
 366.78100 356.33185 345.76070 334.62354 323.02339 311.21424 299.08109 286.88094
 274.58979 262.48363 250.48948 239.78733 229.90618 221.00703 213.18587 206.18472
 200.01557 194.95042 191.52927 189.56812 188.60196 188.66281 189.49466 190.79951
 192.52136 194.61320 196.87305 199.22890 201.67075 204.14760 206.23245 208.07129
 209.69414 210.83599 211.06184 211.28669 211.22054 210.92238 210.55223 210.17908
 209.79293 209.49978 209.30462 209.16547 209.09032 209.41817 209.80102 210.18687
 210.97671 212.15156 213.39841 215.17826 217.10311 219.14295 221.23480 223.31465
 225.37150 227.45235 229.54620 231.64904 233.77489 235.94374 238.19659 240.56344
 243.18128 245.42913 247.42798 249.18983 250.60368 251.72353 252.54237 252.85522
 252.88907 252.65992 252.01677 250.96161 249.56446 247.72231 245.62816 243.45801
 241.24586 239.04670 236.86355 234.69940 232.55625 230.42010 228.44294 226.59679
 224.87664 223.34549 221.97234 220.74119 219.62003 218.57688 217.67773 216.81558
 216.05443 215.23127 214.32612 213.68697 213.13382 213.77328 215.28407 216.08607
 216.63434 218.07837 219.21790 220.07954 222.03859 225.01237 228.86584 231.76857
 234.23575 236.23811 238.05186 240.28009 243.34656 247.17693 251.36522 255.43417
 259.13345 262.50613 265.68332 268.66208 271.40866 273.85538 275.91806 277.54099
 278.74396 279.77707 280.87189 282.08380 283.24799 284.29184 285.24997 286.12469
 286.91833 287.63516 288.26584 289.08878
 366.78100 356.33498 345.76697 334.63295 323.03594 311.22992 299.09991 286.90289
 274.61488 262.51186 250.52084 239.82183 229.94381 221.04780 213.22978 206.23177
 200.06575 195.00374 191.58572 189.62771 188.66469 188.72867 189.56366 190.87164
 192.59663 194.69161 196.95460 199.31358 201.75857 204.23855 206.32653 208.16852
 209.79450 210.93949 211.16847 211.39646 211.33344 211.03843 210.67141 210.30140
 209.91838 209.62836 209.43635 209.30033 209.22832 209.55930 209.94529 210.33427
 211.12726 212.30524 213.55522 215.33821 217.26619 219.30918 221.40416 223.48715
 225.54713 227.63112 229.72810 231.83408 233.96307 236.13505 238.39104 240.76102
 243.38201 245.63299 247.63498 249.39996 250.81695 251.93993 252.76191 253.07790
 253.11488 252.88887 252.24885 251.19684 249.80282 247.96381 245.87279 243.70577
 241.49676 239.30074 237.12073 234.95971 232.81970 230.68668 228.71267 226.86965
 225.15263 223.62462 222.25460 221.02659 219.90857 218.86856 217.97254 217.11353
 216.35551 215.53550 214.63348 213.99746 213.44745 213.95267 215.14630 216.20384
 216.75627 218.17955 219.42914 220.40367 222.22041 225.02998 228.81599 231.61917
 233.97247 235.90903 237.69664 239.99339 243.16241 247.06694 251.28305 255.35310
 259.06265 262.47830 265.69754 268.68604 271.41208 273.82422 275.86578 277.49231
 278.69217 279.72202 280.77191 281.86926 282.98874 284.03030 284.98813 285.86365
 286.66275 287.38330 288.01813 288.84525
 366.78100 356.33889 345.77477 334.64466 323.05154 311.24943 299.12331 286.93020
 274.64608 262.54697 250.55985 239.86474 229.99062 221.09851 213.28440 206.29028
 200.12817 195.07005 191.65594 189.70182 188.74271 188.81059 189.64948 190.96136
 192.69025 194.78913 197.05602 199.41891 201.86779 204.35168 206.44356 208.28945
 209.91933 211.06822 211.30110 211.53299 211.47387 211.18276 210.81965 210.45353
 210.07442 209.78830 209.60019 209.46807 209.39996 209.73484 210.12473 210.51761
 211.31450 212.49638 213.75027 215.53716 217.46904 219.51593 221.61481 223.70170
 225.76558 227.85347 229.95435 232.06424 234.19712 236.37301 238.63289 241.00678
 243.63167 245.88655 247.89244 249.66132 251.08221 252.20909 253.03498 253.35486
 253.39575 253.17363 252.53752 251.48940 250.09929 248.26418 246.17706 244.01395
 241.80883 239.61672 237.44060 235.28349 233.14737 231.01826 229.04814 227.20903
 225.49591 223.97180 222.60569 221.38157 220.26746 219.23134 218.33923 217.48411
 216.73000 215.91388 215.01577 214.38365 213.83754 214.17726 214.97990 216.24130
 216.95187 218.27977 219.66187 220.75917 222.39893 225.02333 228.74529 231.45102
 233.70374 235.55919 237.33711 239.72052 243.00102 246.98003 251.22815 255.31140
 259.04266 262.49835 265.74289 268.72192 271.41891 273.80090 275.82892 277.45700
 278.62473 279.63687 280.66168 281.71417 282.80328 283.84134 284.79941 285.68024
 286.48029 287.20746 287.84872 288.68643
 366.78100 356.34068 345.77836 334.65004 323.05873 311.25841 299.13409 286.94277
 274.66045 262.56313 250.57782 239.88450 230.01218 221.12186 213.30954 206.31722
 200.15691 195.10059 191.68827 189.73595 188.77863 188.84831 189.68900 191.00268
 192.73336 194.83404 197.10272 199.46740 201.91809 204.40377 206.49745 208.34513
 209.97681 211.12749 211.36218 211.59586 211.53854 211.24922 210.88790 210.52358
 210.14627 209.86195 209.67563 209.54531 209.47899 209.81567 210.20736 210.60204
 211.40072 212.58440 213.84008 215.62876 217.56245 219.61113 221.71181 223.80049
 225.86617 227.95585 230.05854 232.17022 234.30490 236.48258 238.74426 241.11994
 243.74663 246.00331 248.01099 249.78167 251.20435 252.33303 253.16072 253.48240
 253.52508 253.30476 252.67044 251.62412 250.23581 248.40249 246.31717 244.15585
 241.95253 239.76221 237.58790 235.43258 233.29826 231.17094 229.20262 227.36530
 225.65399 224.13167 222.76735 221.54503 220.43271 219.39839 218.50808 217.65476
 216.90244 216.08812 215.19180 214.56148 214.01717 214.29279 214.94398 216.22795
 217.11411 218.37656 219.87335 221.06624 222.56081 225.02298 228.67392 231.29823
 233.44183 235.20825 236.98000 239.46062 242.85323 246.90320 251.18335 255.27890
 259.02737 262.51001 265.76804 268.73740 271.41580 273.78510 275.81912 277.45532
 278.58539 279.55548 280.55042 281.58276 282.67044 283.70914 284.66861 285.55026
 286.35541 287.08267 287.72699 288.57394
 366.78100 356.34074 345.77848 334.65022 323.05896 311.25870 299.13444 286.94318
 274.66092 262.56366 250.57840 239.88514 230.01288 221.12262 213.31036 206.31810
 200.15784 195.10158 191.68932 189.73706 188.77980 188.84954 189.69028 191.00402
 192.73476 194.83549 197.10423 199.46897 201.91971 204.40545 206.49919 208.34693
 209.97867 211.12941 211.36415 211.59789 211.54063 211.25137 210.89011 210.52585
 210.14859 209.86433 209.67807 209.54781 209.48155 209.81829 210.21003 210.60477
 211.40351 212.58725 213.84299 215.63173 217.56547 219.61421 221.71495 223.80369
 225.86943 227.95917 230.06191 232.17365 234.30839 236.48613 238.74787 241.12361
 243.75035 246.00709 248.01483 249.78557 251.20831 252.33705 253.16479 253.48653
 253.52927 253.30901 252.67475 251.62848 250.24022 248.40696 246.32170 244.16044
 241.95718 239.76692 237.59266 235.43740 233.30314 231.17588 229.20762 227.37036
 225.65910 224.13684 222.77258 221.55032 220.43806 219.40380 218.51354 217.66028
 216.90802 216.09376 215.19750 214.56724 214.02298 214.31601 215.00832 216.17906
 217.21826 218.48869 220.05894 221.32826 222.74384 225.06242 228.60869 231.17203
 233.20659 234.88327 236.64865 239.22424 242.71960 246.83252 251.13930 255.24051
 258.99805 262.49521 265.76166 268.72696 271.39697 273.76520 275.81393 277.46823
 278.57971 279.50839 280.47116 281.49860 282.59216 283.63181 284.59207 285.47311
 286.28049 287.01163 287.65848 288.50284
 366.78100 356.33969 345.77638 334.64708 323.05477 311.25346 299.12815 286.93584
 274.65253 262.55423 250.56792 239.87361 230.00030 221.10899 213.29569 206.30238
 200.14107 195.08376 191.67045 189.71714 188.75884 188.82753 189.66722 190.97991
 192.70960 194.80930 197.07699 199.44068 201.89037 204.37506 206.46775 208.31445
 209.94514 211.09483 211.32852 211.56121 211.50291 211.21260 210.85029 210.48498
 210.10667 209.82136 209.63406 209.50275 209.43544 209.77113 210.16182 210.55552
 211.35321 212.53590 213.79059 215.57828 217.51097 219.55867 221.65836 223.74605
 225.81074 227.89943 230.00113 232.11182 234.24551 236.42220 238.68289 241.05758
 243.68328 245.93897 247.94566 249.71535 251.13704 252.26474 253.09143 253.41212
 253.45381 253.23250 252.59719 251.54989 250.16058 248.32627 246.23996 244.07765
 241.87335 239.68204 237.50673 235.35042 233.21511 231.08681 229.11750 227.27919
 225.56688 224.04357 222.67826 221.45496 220.34165 219.30634 218.41503 217.56072
 216.80742 215.99211 215.09480 214.46349 213.91818 214.27995 215.13467 216.11105
 217.25191 218.61261 220.23373 221.56078 222.96408 225.16374 228.55829 231.06865
 232.99049 234.57623 236.33636 239.00293 242.59271 246.76329 251.09271 255.19403
 258.95303 262.45898 265.73361 268.69901 271.36673 273.73779 275.80167 277.47772
 278.58765 279.49216 280.43256 281.45435 282.56607 283.60718 284.56741 285.45013
 286.25726 286.98886 287.63321 288.48007
 366.78100 356.33892 345.77483 334.64475 323.05166 311.24958 299.12350 286.93041
 274.64633 262.54724 250.56016 239.86508 229.99099 221.09891 213.28482 206.29074
 200.12865 195.07057 191.65649 189.70240 188.74332 188.81123 189.65015 190.96207
 192.69098 194.78990 197.05681 199.41973 201.86865 204.35256 206.44448 208.29039
 209.92031 211.06923 211.30214 211.53406 211.47497 211.18389 210.82080 210.45472
 210.07564 209.78955 209.60147 209.46938 209.40130 209.73622 210.12613 210.51905
 211.31596 212.49788 213.75180 215.53871 217.47063 219.51754 221.61646 223.70338
 225.76729 227.85521 229.95612 232.06604 234.19895 236.37487 238.63479 241.00870
 243.63362 245.88853 247.89445 249.66337 251.08428 252.21120 253.03711 253.35703
 253.39795 253.17586 252.53978 251.49169 250.10161 248.26653 246.17944 244.01636
 241.81127 239.61919 237.44310 235.28602 233.14994 231.02085 229.05077 227.21168
 225.49860 223.97452 222.60843 221.38435 220.27026 219.23418 218.34210 217.48701
 216.73293 215.91684 215.01876 214.38668 213.84059 214.25473 215.23320 216.08522
 217.25845 218.71988 220.39128 221.77364 223.20912 225.31570 228.52557 230.95840
 232.75871 234.25916 236.02605 238.78969 242.47243 246.69698 251.04369 255.13939
 258.89615 262.41031 265.69553 268.66702 271.33780 273.70877 275.78946 277.49231
 278.61871 279.51947 280.44623 281.48709 282.54626 283.58194 284.54459 285.42249
 286.22141 286.93915 287.57614 288.42084
 366.78100 356.33945 345.77590 334.64635 323.05381 311.25226 299.12671 286.93416
 274.65061 262.55206 250.56552 239.87097 229.99742 221.10587 213.29232 206.29877
 200.13723 195.07968 191.66613 189.71258 188.75403 188.82248 189.66194 190.97439
 192.70384 194.80329 197.07074 199.43419 201.88365 204.36810 206.46055 208.30700
 209.93745 211.08690 211.32036 211.55281 211.49426 211.20371 210.84116 210.47561
 210.09707 209.81152 209.62397 209.49242 209.42487 209.76032 210.15078 210.54423
 211.34168 212.52413 213.77858 215.56603 217.49849 219.54594 221.64539 223.73284
 225.79729 227.88574 229.98720 232.09765 234.23110 236.40755 238.66800 241.04245
 243.66791 245.92336 247.92981 249.69926 251.12071 252.24816 253.07462 253.39507
 253.43652 253.21497 252.57942 251.53187 250.14233 248.30778 246.22123 244.05868
 241.85413 239.66258 237.48704 235.33049 233.19494 231.06639 229.09684 227.25829
 225.54575 224.02220 222.65665 221.43310 220.31955 219.28400 218.39246 217.53791
 216.78436 215.96881 215.07126 214.43971 213.89417 214.29395 215.23848 216.12842
 217.31171 218.79312 220.50436 221.96683 223.43518 225.46588 228.49562 230.82222
 232.50635 233.94305 235.73665 238.60768 242.37634 246.64441 250.99953 255.08575
 258.83841 262.36191 265.65991 268.63809 271.30869 273.67783 275.76874 277.49103
 278.63376 279.54343 280.47519 281.53751 282.56619 283.59955 284.56036 285.44031
 286.23785 286.95813 287.59232 288.43802
 366.78100 356.34026 345.77751 334.64877 323.05703 311.25628 299.13154 286.93979
 274.65705 262.55931 250.57356 239.87982 230.00708 221.11633 213.30359 206.31085
 200.15010 195.09336 191.68062 189.72787 188.77013 188.83938 189.67964 190.99290
 192.72315 194.82341 197.09167 199.45592 201.90618 204.39144 206.48469 208.33195
 209.96320 211.11346 211.34772 211.58097 211.52323 211.23349 210.87174 210.50700
 210.12926 209.84451 209.65777 209.52703 209.46028 209.79654 210.18779 210.58205
 211.38031 212.56356 213.81882 215.60708 217.54033 219.58859 221.68885 223.77710
 225.84236 227.93161 230.03387 232.14513 234.27938 236.45664 238.71790 241.09315
 243.71941 245.97567 247.98292 249.75318 251.17544 252.30369 253.13095 253.45220
 253.49446 253.27372 252.63897 251.59223 250.20349 248.36974 246.28400 244.12226
 241.91851 239.72777 237.55302 235.39728 233.26254 231.13479 229.16605 227.32831
 225.61656 224.09382 222.72908 221.50633 220.39359 219.35885 218.46810 217.61436
 216.86161 216.04687 215.15013 214.51938 213.97464 214.34503 215.22012 216.18199
 217.41646 218.86276 220.58635 222.12231 223.58926 225.57458 228.46593 230.67278
 232.25592 233.65251 235.49039 238.46748 242.31068 246.60898 250.96495 255.04076
 258.79022 262.32141 265.63046 268.61163 271.27698 273.64056 275.73447 277.46402
 278.61600 279.54568 280.50351 281.59366 282.59811 283.63043 284.59167 285.46854
 286.26529 286.98245 287.61731 288.45773
 366.78100 356.34034 345.77768 334.64903 323.05737 311.25671 299.13205 286.94040
 274.65774 262.56008 250.57442 239.88076 230.00811 221.11745 213.30479 206.31213
 200.15147 195.09482 191.68216 189.72950 188.77184 188.84119 189.68153 190.99487
 192.72521 194.82555 197.09390 199.45824 201.90858 204.39392 206.48726 208.33461
 209.96595 211.11629 211.35063 211.58398 211.52632 211.23666 210.87500 210.51034
 210.13269 209.84803 209.66137 209.53071 209.46405 209.80040 210.19174 210.58608
 211.38442 212.56777 213.82311 215.61145 217.54479 219.59313 221.69348 223.78182
 225.84716 227.93650 230.03884 232.15019 234.28453 236.46187 238.72321 241.09856
 243.72490 245.98124 247.98858 249.75892 251.18127 252.30961 253.13695 253.45829
 253.50064 253.27998 252.64532 251.59866 250.21000 248.37635 246.29069 244.12903
 241.92537 239.73471 237.56006 235.40440 233.26974 231.14208 229.17343 227.33577
 225.62411 224.10145 222.73679 221.51414 220.40148 219.36682 218.47616 217.62250
 216.86985 216.05519 215.15853 214.52787 213.98322 214.35815 215.24402 216.21503
 217.50764 218.95464 220.68970 222.22725 223.67101 225.66037 228.45372 230.53276
 232.02234 233.38284 235.27255 238.36090 242.26158 246.57849 250.93161 254.99976
 258.74841 262.28458 265.60037 268.58093 271.23938 273.59558 275.68585 277.41138
 278.56699 279.52600 280.52780 281.64685 282.67068 283.70490 284.66641 285.54861
 286.35480 287.08331 287.72729 288.57117
 366.78100 356.34031 345.77762 334.64892 323.05723 311.25654 299.13185 286.94015
 274.65746 262.55977 250.57408 239.88038 230.00769 221.11700 213.30431 206.31161
 200.15092 195.09423 191.68154 189.72884 188.77115 188.84046 189.68077 190.99407
 192.72438 194.82469 197.09300 199.45730 201.90761 204.39292 206.48623 208.33353
 209.96484 211.11515 211.34946 211.58276 211.52507 211.23538 210.87369 210.50899
 210.13130 209.84661 209.65992 209.52922 209.46253 209.79884 210.19015 210.58445
 211.38276 212.56607 213.82138 215.60968 217.54299 219.59130 221.69161 223.77991
 225.84522 227.93453 230.03684 232.14814 234.28245 236.45976 238.72107 241.09637
 243.72268 245.97899 247.98630 249.75660 251.17891 252.30722 253.13453 253.45583
 253.49814 253.27745 252.64276 251.59606 250.20737 248.37368 246.28799 244.12629
 241.92260 239.73191 237.55722 235.40152 233.26683 231.13914 229.17045 227.33275
 225.62106 224.09837 222.73368 221.51098 220.39829 219.36360 218.47291 217.61921
 216.86652 216.05183 215.15514 214.52444 213.97975 214.36320 215.26918 216.27519
 217.54353 219.05074 220.83165 222.28851 223.70253 225.74820 228.48289 230.41548
 231.80128 233.12132 235.06645 238.27399 242.21581 246.54518 250.89297 254.95407
 258.70264 262.24005 265.55765 268.53754 271.19571 273.55188 275.63785 277.35934
 278.52322 279.50717 280.54468 281.64011 282.77042 283.81146 284.77176 285.65265
 286.45737 287.18524 287.82840 288.66476
 366.78100 356.34075 345.77850 334.65026 323.05901 311.25876 299.13451 286.94326
 274.66101 262.56377 250.57852 239.88527 230.01302 221.12277 213.31052 206.31828
 200.15803 195.10178 191.68953 189.73728 188.78003 188.84979 189.69054 191.00429
 192.73504 194.83579 197.10454 199.46930 201.92005 204.40580 206.49955 208.34730
 209.97905 211.12981 211.36456 211.59831 211.54106 211.25181 210.89056 210.52632
 210.14907 209.86482 209.67857 209.54832 209.48207 209.81883 210.21058 210.60533
 211.40408 212.58783 213.84358 215.63234 217.56609 219.61484 221.71559 223.80434
 225.87010 227.95985 230.06260 232.17435 234.30910 236.48685 238.74861 241.12436
 243.75111 246.00786 248.01561 249.78636 251.20912 252.33787 253.16562 253.48737
 253.53012 253.30987 252.67563 251.62938 250.24113 248.40788 246.32263 244.16138
 241.95814 239.76789 237.59364 235.43839 233.30414 231.17689 229.20865 227.37140
 225.66015 224.13790 222.77365 221.55140 220.43916 219.40491 218.51466 217.66141
 216.90916 216.09491 215.19867 214.56842 214.02417 214.39130 215.25867 216.38208
 217.55559 219.13290 220.96609 222.31845 223.74710 225.84602 228.51114 230.30090
 231.60114 232.88580 234.87999 238.20253 242.17334 246.50740 250.84903 254.90274
 258.64746 262.18164 265.49625 268.47964 271.14542 273.51163 275.59665 277.31476
 278.49243 279.49268 280.55164 281.69208 282.85202 283.90204 284.86475 285.74619
 286.55136 287.27896 287.91855 288.74777
 366.78100 356.34093 345.77887 334.65080 323.05973 311.25967 299.13560 286.94453
 274.66247 262.56540 250.58033 239.88727 230.01520 221.12513 213.31307 206.32100
 200.16093 195.10487 191.69280 189.74073 188.78367 188.85360 189.69453 191.00847
 192.73940 194.84033 197.10927 199.47420 201.92513 204.41107 206.50500 208.35293
 209.98486 211.13580 211.37073 211.60466 211.54760 211.25853 210.89746 210.53340
 210.15633 209.87226 209.68620 209.55613 209.49006 209.82700 210.21893 210.61386
 211.41280 212.59673 213.85266 215.64160 217.57553 219.62446 221.72540 223.81433
 225.88026 227.97020 230.07313 232.18506 234.32000 236.49793 238.75986 241.13580
 243.76273 246.01966 248.02760 249.79853 251.22146 252.35040 253.17833 253.50026
 253.54320 253.32313 252.68906 251.64300 250.25493 248.42186 246.33680 244.17573
 241.97266 239.78260 237.60853 235.45346 233.31940 231.19233 229.22426 227.38720
 225.67613 224.15406 222.79000 221.56793 220.45586 219.42179 218.53173 217.67866
 216.92659 216.11253 215.21646 214.58639 214.04233 214.40625 215.26607 216.46970
 217.58415 219.21220 221.09299 222.35204 223.76622 225.92836 228.55141 230.19139
 231.40027 232.65616 234.71100 238.14490 242.14345 246.47530 250.80460 254.84790
 258.58478 262.11267 265.42407 268.41302 271.09192 273.47012 275.54889 277.25864
 278.45569 279.47714 280.55228 281.76425 282.93405 283.98389 284.94833 285.83081
 286.63452 287.36047 287.99570 288.82993
 366.78100 356.34012 345.77724 334.64835 323.05647 311.25559 299.13071 286.93883
 274.65595 262.55806 250.57218 239.87830 230.00542 221.11454 213.30166 206.30877
 200.14789 195.09101 191.67813 189.72525 188.76737 188.83648 189.67660 190.98972
 192.71984 194.81996 197.08808 199.45219 201.90231 204.38743 206.48055 208.32767
 209.95879 211.10890 211.34302 211.57614 211.51826 211.22838 210.86650 210.50161
 210.12373 209.83885 209.65197 209.52109 209.45421 209.79032 210.18144 210.57556
 211.37368 212.55680 213.81192 215.60003 217.53315 219.58127 221.68139 223.76951
 225.83463 227.92374 230.02586 232.13698 234.27110 236.44822 238.70934 241.08445
 243.71057 245.96669 247.97381 249.74393 251.16604 252.29416 253.12128 253.44240
 253.48452 253.26364 252.62875 251.58187 250.19299 248.35911 246.27323 244.11135
 241.90746 239.71658 237.54170 235.38582 233.25094 231.12306 229.15417 227.31629
 225.60441 224.08153 222.71665 221.49377 220.38088 219.34600 218.45512 217.60124
 216.84836 216.03348 215.13659 214.50571 213.96083 214.37106 215.34027 216.50911
 217.63214 219.28510 221.16814 222.41388 223.83743 225.98688 228.53526 230.07263
 231.23146 232.47644 234.57965 238.09796 242.14214 246.44678 250.75403 254.78416
 258.51108 262.03271 265.34174 268.33826 271.02930 273.41611 275.48212 277.17499
 278.39914 279.46100 280.55405 281.83908 283.01456 284.06363 285.02588 285.90637
 286.70810 287.42957 288.06516 288.89279
 366.78100 356.33883 345.77466 334.64449 323.05132 311.24915 299.12298 286.92981
 274.64564 262.54647 250.55930 239.86414 229.98997 221.09780 213.28363 206.28946
 200.12729 195.06912 191.65495 189.70078 188.74161 188.80944 189.64827 190.96010
 192.68893 194.78776 197.05459 199.41742 201.86625 204.35008 206.44191 208.28774
 209.91757 211.06641 211.29924 211.53107 211.47190 211.18073 210.81756 210.45139
 210.07222 209.78605 209.59788 209.46571 209.39754 209.73237 210.12220 210.51503
 211.31186 212.49369 213.74752 215.53435 217.46618 219.51301 221.61185 223.69868
 225.76251 227.85034 229.95117 232.06100 234.19383 236.36966 238.62949 241.00332
 243.62815 245.88298 247.88881 249.65764 251.07847 252.20530 253.03113 253.35096
 253.39179 253.16962 252.53345 251.48528 250.09512 248.25995 246.17278 244.00961
 241.80444 239.61227 237.43610 235.27893 233.14276 231.01359 229.04342 227.20425
 225.49108 223.96691 222.60074 221.37657 220.26240 219.22623 218.33406 217.47889
 216.72472 215.90856 215.01039 214.37822 213.83205 214.31113 215.44302 216.54886
 217.68768 219.37869 221.24637 222.40247 223.80144 226.03912 228.58241 230.02788
 231.09448 232.29309 234.44685 238.05795 242.14815 246.41727 250.69922 254.71609
 258.43762 261.95905 265.26617 268.26608 270.96494 273.34827 275.38400 277.05032
 278.29648 279.41638 280.57544 281.90002 283.08087 284.13150 285.09491 285.97665
 286.77719 287.49667 288.13019 288.95493
 366.78100 356.33747 345.77194 334.64040 323.04587 311.24234 299.11481 286.92028
 274.63475 262.53421 250.54568 239.84915 229.97362 221.08009 213.26456 206.26902
 200.10549 195.04596 191.63043 189.67490 188.71437 188.78083 189.61830 190.92877
 192.65624 194.75371 197.01918 199.38064 201.82811 204.31058 206.40105 208.24552
 209.87399 211.02145 211.25292 211.48339 211.42286 211.13033 210.76580 210.39826
 210.01773 209.73020 209.54067 209.40714 209.33761 209.67107 210.05954 210.45101
 211.24648 212.42695 213.67942 215.46488 217.39535 219.44082 221.53829 223.62376
 225.68623 227.77269 229.87216 231.98063 234.11210 236.28657 238.54504 240.91750
 243.54097 245.79444 247.79891 249.56638 250.98585 252.11131 252.93578 253.25425
 253.29372 253.07019 252.43266 251.38312 249.99159 248.15506 246.06653 243.90200
 241.69547 239.50193 237.32440 235.16587 233.02834 230.89781 228.92627 227.08574
 225.37121 223.84568 222.47815 221.25262 220.13708 219.09955 218.20602 217.34949
 216.59396 215.77643 214.87689 214.24336 213.69583 214.25217 215.56654 216.55298
 217.71976 219.42900 221.31972 222.40079 223.70294 226.00955 228.54001 230.00240
 230.91681 232.03313 234.26535 238.01004 242.17709 246.40181 250.66435 254.69339
 258.41635 261.92813 265.22693 268.23041 270.92654 273.30008 275.30078 276.92056
 278.20386 279.36978 280.59827 281.89630 283.07947 284.12827 285.09256 285.97546
 286.77689 287.51279 288.16852 289.00418
 366.78100 356.33576 345.76852 334.63528 323.03905 311.23381 299.10457 286.90833
 274.62109 262.51885 250.52862 239.83038 229.95314 221.05790 213.24066 206.24342
 200.07819 195.01695 191.59971 189.64247 188.68023 188.74499 189.58076 190.88952
 192.61528 194.71104 196.97480 199.33456 201.78033 204.26109 206.34985 208.19261
 209.81937 210.96513 211.19489 211.42366 211.36142 211.06718 210.70094 210.33170
 209.94946 209.66023 209.46899 209.33375 209.26251 209.59427 209.98103 210.37080
 211.16456 212.34332 213.59408 215.37784 217.30660 219.35037 221.44613 223.52989
 225.59065 227.67541 229.77317 231.87994 234.00970 236.18246 238.43922 240.80998
 243.43174 245.68351 247.68627 249.45203 250.86979 251.99355 252.81631 253.13307
 253.17084 252.94560 252.30636 251.25512 249.86188 248.02364 245.93341 243.76717
 241.55893 239.36369 237.18445 235.02421 232.88498 230.75274 228.77950 226.93726
 225.22102 223.69378 222.32455 221.09731 219.98007 218.94083 218.04559 217.18735
 216.43012 215.61088 214.70964 214.07440 213.52516 214.17920 215.71458 216.57866
 217.68185 219.31219 221.22755 222.39159 223.60498 225.93358 228.44673 230.12215
 230.75740 231.90422 234.23276 238.02388 242.24718 246.47061 250.67485 254.69502
 258.43686 261.94620 265.22955 268.23178 270.93225 273.29907 275.28262 276.84732
 278.12985 279.33035 280.58749 281.92667 283.11145 284.17099 285.15259 286.10471
 286.96741 287.73563 288.40674 289.26199
 366.78100 356.33586 345.76873 334.63559 323.03946 311.23432 299.10518 286.90905
 274.62191 262.51977 250.52964 239.83150 229.95437 221.05923 213.24209 206.24496
 200.07982 195.01869 191.60155 189.64441 188.68228 188.74714 189.58300 190.89187
 192.61773 194.71360 196.97746 199.33732 201.78319 204.26405 206.35292 208.19578
 209.82264 210.96851 211.19837 211.42723 211.36510 211.07096 210.70483 210.33569
 209.95355 209.66442 209.47328 209.33815 209.26701 209.59887 209.98574 210.37560
 211.16946 212.34833 213.59919 215.38306 217.31192 219.35578 221.45165 223.53551
 225.59638 227.68124 229.77910 231.88597 234.01583 236.18869 238.44556 240.81642
 243.43829 245.69015 247.69301 249.45888 250.87674 252.00061 252.82347 253.14033
 253.17820 252.95306 252.31392 251.26279 249.86965 248.03152 245.94138 243.77524
 241.56711 239.37197 237.19284 235.03270 232.89356 230.76143 228.78829 226.94616
 225.23002 223.70288 222.33375 221.10661 219.98947 218.95034 218.05520 217.19707
 216.43993 215.62079 214.71966 214.08452 213.53539 214.19052 215.73116 216.74234
 217.72939 219.23822 221.14137 222.43939 223.67424 225.86447 228.37337 230.08615
 230.67960 231.88275 234.27953 238.06267 242.30147 246.51601 250.68996 254.70699
 258.45819 261.97110 265.25693 268.26483 270.97653 273.35587 275.33823 276.92267
 278.18753 279.35907 280.66605 282.02692 283.22855 284.33707 285.42548 286.41150
 287.29831 288.08801 288.77789 289.65707
 366.78100 356.33763 345.77227 334.64090 323.04653 311.24317 299.11580 286.92143
 274.63607 262.53570 250.54733 239.85097 229.97560 221.08223 213.26687 206.27150
 200.10813 195.04877 191.63340 189.67803 188.71767 188.78430 189.62193 190.93256
 192.66020 194.75783 197.02346 199.38510 201.83273 204.31536 206.40600 208.25063
 209.87926 211.02690 211.25853 211.48916 211.42880 211.13643 210.77206 210.40470
 210.02433 209.73696 209.54760 209.41423 209.34486 209.67850 210.06713 210.45876
 211.25440 212.43503 213.68766 215.47330 217.40393 219.44956 221.54720 223.63283
 225.69546 227.78210 229.88173 231.99036 234.12200 236.29663 238.55526 240.92790
 243.55153 245.80516 247.80980 249.57743 250.99706 252.12269 252.94733 253.26596
 253.30559 253.08223 252.44486 251.39549 250.00413 248.16776 246.07939 243.91503
 241.70866 239.51529 237.33793 235.17956 233.04219 230.91183 228.94046 227.10009
 225.38573 223.86036 222.49299 221.26763 220.15226 219.11489 218.22153 217.36516
 216.60979 215.79243 214.89306 214.25969 213.71233 214.28113 215.64299 216.89668
 217.86879 219.29724 221.16052 222.47467 223.65027 225.77057 228.31282 229.92184
 230.49646 231.69560 234.14912 238.04184 242.32440 246.51727 250.67030 254.69141
 258.45212 261.97250 265.26593 268.28992 271.02759 273.44989 275.47906 277.11417
 278.41394 279.55603 280.76169 282.11124 283.31100 284.40604 285.48618 286.46472
 287.34479 288.12851 288.81314 289.68564
 366.78100 356.33858 345.77416 334.64374 323.05031 311.24789 299.12147 286.92805
 274.64363 262.54421 250.55679 239.86137 229.98694 221.09452 213.28010 206.28568
 200.12326 195.06484 191.65042 189.69600 188.73657 188.80415 189.64273 190.95431
 192.68289 194.78147 197.04805 199.41062 201.85920 204.34278 206.43436 208.27994
 209.90952 211.05810 211.29068 211.52225 211.46283 211.17141 210.80799 210.44157
 210.06215 209.77573 209.58731 209.45488 209.38646 209.72104 210.11062 210.50320
 211.29978 212.48136 213.73493 215.52151 217.45309 219.49967 221.59825 223.68483
 225.74841 227.83599 229.93656 232.04614 234.17872 236.35430 238.61388 240.98746
 243.61204 245.86662 247.87219 249.64077 251.06135 252.18793 253.01351 253.33309
 253.37367 253.15124 252.51482 251.46640 250.07598 248.24056 246.15314 243.98972
 241.78430 239.59187 237.41545 235.25803 233.12161 230.99219 229.02177 227.18235
 225.46893 223.94450 222.57808 221.35366 220.23924 219.20282 218.31040 217.45498
 216.70055 215.88413 214.98571 214.35329 213.80687 214.33167 215.59320 216.98195
 217.98335 219.39955 221.24001 222.53934 223.64691 225.70160 228.29485 229.69063
 230.26109 231.43428 233.94511 237.99475 242.32700 246.48334 250.60851 254.63658
 258.40375 261.92923 265.22760 268.26257 271.02274 273.49496 275.55838 277.23468
 278.61591 279.80951 280.92416 282.17847 283.36530 284.42825 285.44189 286.42249
 287.30444 288.08981 288.77588 289.65021
 366.78100 356.33865 345.77430 334.64395 323.05060 311.24825 299.12190 286.92855
 274.64420 262.54485 250.55750 239.86215 229.98780 221.09545 213.28110 206.28674
 200.12439 195.06604 191.65169 189.69734 188.73799 188.80564 189.64429 190.95594
 192.68459 194.78324 197.04989 199.41254 201.86119 204.34484 206.43649 208.28214
 209.91179 211.06044 211.29309 211.52474 211.46539 211.17404 210.81069 210.44434
 210.06499 209.77864 209.59029 209.45793 209.38958 209.72423 210.11388 210.50653
 211.30318 212.48483 213.73848 215.52513 217.45678 219.50343 221.60208 223.68873
 225.75238 227.84003 229.94068 232.05033 234.18298 236.35863 238.61828 240.99193
 243.61658 245.87123 247.87688 249.64553 251.06618 252.19283 253.01848 253.33813
 253.37877 253.15642 252.52007 251.47172 250.08137 248.24602 246.15867 243.99532
 241.78997 239.59762 237.42127 235.26392 233.12757 230.99822 229.02787 227.18852
 225.47517 223.95082 222.58447 221.36012 220.24577 219.20942 218.31707 217.46172
 216.70737 215.89102 214.99267 214.36032 213.81396 214.33572 215.57753 217.06082
 218.11119 219.56447 221.36786 222.64085 223.77718 225.73805 228.31824 229.44760
 230.09354 231.21799 233.75781 237.95686 242.32053 246.41721 250.51007 254.54059
 258.30258 261.82373 265.12131 268.16779 270.94467 273.42084 275.50464 277.21976
 278.67557 279.95786 281.10730 282.25421 283.41006 284.45847 285.42490 286.31488
 287.15167 287.90814 288.56900 289.41116
 366.78100 356.33825 345.77350 334.64275 323.04899 311.24624 299.11949 286.92574
 274.64099 262.54124 250.55348 239.85773 229.98298 221.09023 213.27548 206.28073
 200.11797 195.05922 191.64447 189.68972 188.72997 188.79722 189.63546 190.94671
 192.67496 194.77321 197.03946 199.40171 201.84995 204.33320 206.42445 208.26970
 209.89895 211.04720 211.27944 211.51069 211.45094 211.15919 210.79544 210.42869
 210.04893 209.76218 209.57343 209.44068 209.37193 209.70618 210.09542 210.48767
 211.28392 212.46517 213.71842 215.50467 217.43591 219.48216 221.58041 223.66666
 225.72991 227.81716 229.91740 232.02665 234.15890 236.33415 238.59340 240.96665
 243.59089 245.84514 247.85039 249.61864 251.03889 252.16514 252.99038 253.30963
 253.34988 253.12713 252.49038 251.44163 250.05087 248.21512 246.12737 243.96362
 241.75787 239.56512 237.38836 235.23061 233.09386 230.96411 228.99336 227.15361
 225.43985 223.91510 222.54835 221.32360 220.20885 219.17210 218.27934 217.42359
 216.66884 215.85209 214.95334 214.32059 213.77383 214.31262 215.58559 217.15417
 218.26482 219.72917 221.40886 222.67982 223.90308 225.78174 228.26956 229.29497
 229.97594 231.19080 233.82193 237.97141 242.30713 246.36398 250.42368 254.44804
 258.19910 261.71207 265.00204 268.05392 270.84003 273.31793 275.39713 277.10739
 278.60812 279.96097 281.19058 282.32864 283.41409 284.45862 285.41443 286.28610
 287.07538 287.78186 288.40802 289.20691
 366.78100 356.33765 345.77230 334.64094 323.04659 311.24324 299.11589 286.92154
 274.63618 262.53583 250.54748 239.85113 229.97578 221.08242 213.26707 206.27172
 200.10837 195.04902 191.63367 189.67831 188.71796 188.78461 189.62226 190.93291
 192.66055 194.75820 197.02385 199.38550 201.83315 204.31579 206.40644 208.25109
 209.87974 211.02739 211.25903 211.48968 211.42933 211.13698 210.77263 210.40527
 210.02492 209.73757 209.54822 209.41487 209.34551 209.67916 210.06781 210.45946
 211.25511 212.43576 213.68840 215.47405 217.40470 219.45035 221.54800 223.63364
 225.69629 227.78294 229.88259 231.99124 234.12288 236.29753 238.55618 240.92883
 243.55248 245.80612 247.81077 249.57842 250.99807 252.12372 252.94836 253.26701
 253.30666 253.08331 252.44596 251.39660 250.00525 248.16890 246.08055 243.91620
 241.70984 239.51649 237.33914 235.18079 233.04344 230.91309 228.94173 227.10138
 225.38703 223.86168 222.49433 221.26897 220.15362 219.11627 218.22292 217.36657
 216.61121 215.79386 214.89451 214.26116 213.71381 214.27942 215.61571 217.23544
 218.40506 219.82787 221.38838 222.63831 223.90660 225.76053 228.18938 229.19545
 229.85748 231.13316 233.82213 238.00175 242.34438 246.37616 250.39830 254.39761
 258.14685 261.65433 264.93445 267.98279 270.76965 273.23447 275.27060 276.96063
 278.47668 279.87073 281.15482 282.33414 283.41763 284.45602 285.41272 286.28482
 287.07416 287.78235 288.39188 289.19809
 366.78100 356.33730 345.77161 334.63991 323.04521 311.24151 299.11382 286.91912
 274.63342 262.53272 250.54403 239.84733 229.97163 221.07794 213.26224 206.26654
 200.10284 195.04315 191.62745 189.67175 188.71106 188.77736 189.61466 190.92496
 192.65227 194.74957 197.01487 199.37617 201.82348 204.30578 206.39608 208.24039
 209.86869 211.01599 211.24729 211.47760 211.41690 211.12420 210.75950 210.39181
 210.01111 209.72341 209.53372 209.40002 209.33032 209.66362 210.05193 210.44323
 211.23853 212.41884 213.67114 215.45644 217.38674 219.43205 221.52935 223.61465
 225.67695 227.76326 229.86256 231.97086 234.10217 236.27647 238.53477 240.90707
 243.53038 245.78368 247.78798 249.55528 250.97459 252.09989 252.92419 253.24250
 253.28180 253.05810 252.42040 251.37071 249.97901 248.14231 246.05361 243.88892
 241.68222 239.48852 237.31083 235.15213 233.01443 230.88373 228.91204 227.07134
 225.35664 223.83095 222.46325 221.23755 220.12185 219.08416 218.19046 217.33376
 216.57806 215.76037 214.86067 214.22697 213.67928 214.26022 215.63277 217.29745
 218.53650 219.89449 221.34793 222.56393 223.84962 225.70552 228.10670 229.10780
 229.77742 231.08192 233.81827 238.04893 242.40158 246.41589 250.39500 254.37178
 258.12735 261.63397 264.90137 267.94110 270.72504 273.18930 275.19025 276.85498
 278.37173 279.78329 281.09946 282.31235 283.40204 284.44092 285.39743 286.27106
 287.06049 287.76413 288.37823 289.18054
 366.78100 356.33772 345.77245 334.64117 323.04689 311.24361 299.11634 286.92206
 274.63678 262.53650 250.54823 239.85195 229.97667 221.08339 213.26812 206.27284
 200.10956 195.05028 191.63501 189.67973 188.71945 188.78617 189.62390 190.93462
 192.66234 194.76006 197.02579 199.38751 201.83523 204.31795 206.40868 208.25340
 209.88212 211.02984 211.26157 211.49229 211.43201 211.13973 210.77546 210.40818
 210.02790 209.74062 209.55135 209.41807 209.34879 209.68251 210.07124 210.46296
 211.25868 212.43940 213.69213 215.47785 217.40857 219.45429 221.55202 223.63774
 225.70046 227.78718 229.88691 231.99563 234.12735 236.30207 238.56080 240.93352
 243.55724 245.81096 247.81569 249.58341 251.00313 252.12885 252.95358 253.27230
 253.31202 253.08874 252.45147 251.40219 250.01091 248.17463 246.08636 243.92208
 241.71580 239.52252 237.34525 235.18697 233.04969 230.91941 228.94814 227.10786
 225.39358 223.86830 222.50103 221.27575 220.16047 219.12319 218.22992 217.37364
 216.61836 215.80108 214.90181 214.26853 213.72125 214.28055 215.60196 217.35959
 218.70694 219.98848 221.32118 222.48956 223.77261 225.62299 228.00601 229.01082
 229.70155 231.04010 233.81920 238.09677 242.45901 246.43733 250.38023 254.34268
 258.10684 261.61252 264.86700 267.89664 270.67816 273.14151 275.12155 276.77676
 278.29871 279.72113 281.05630 282.29507 283.37405 284.40964 285.36728 286.24036
 287.02786 287.73367 288.34976 289.15088
 366.78100 356.33873 345.77447 334.64420 323.05093 311.24867 299.12240 286.92913
 274.64486 262.54560 250.55833 239.86306 229.98880 221.09653 213.28226 206.28800
 200.12573 195.06746 191.65320 189.69893 188.73966 188.80740 189.64613 190.95786
 192.68659 194.78533 197.05206 199.41479 201.86353 204.34726 206.43899 208.28473
 209.91446 211.06319 211.29593 211.52766 211.46839 211.17713 210.81386 210.44759
 210.06832 209.78206 209.59379 209.46152 209.39326 209.72799 210.11772 210.51046
 211.30719 212.48892 213.74266 215.52939 217.46112 219.50786 221.60659 223.69332
 225.75705 227.84479 229.94552 232.05525 234.18799 236.36372 238.62345 240.99719
 243.62192 245.87665 247.88239 249.65112 251.07185 252.19858 253.02432 253.34405
 253.38478 253.16252 252.52625 251.47798 250.08772 248.25245 246.16518 244.00192
 241.79665 239.60438 237.42812 235.27085 233.13458 231.00531 229.03505 227.19578
 225.48251 223.95825 222.59198 221.36771 220.25345 219.21718 218.32491 217.46965
 216.71538 215.89911 215.00085 214.36858 213.82231 214.33284 215.53905 217.40312
 218.89143 220.12717 221.34311 222.43109 223.67566 225.51671 227.88216 228.88725
 229.60707 230.99084 233.81865 238.13951 242.50751 246.44872 250.36299 254.31490
 258.08487 261.58908 264.83130 267.84866 270.62598 273.08435 275.05380 276.70792
 278.23566 279.66245 281.00931 282.26779 283.33823 284.37222 285.32968 286.20361
 286.99207 287.70197 288.31583 289.12195
 366.78100 356.33985 345.77671 334.64756 323.05541 311.25426 299.12912 286.93697
 274.65382 262.55568 250.56953 239.87538 230.00223 221.11109 213.29794 206.30479
 200.14364 195.08650 191.67335 189.72020 188.76206 188.83091 189.67076 190.98361
 192.71347 194.81332 197.08117 199.44503 201.89488 204.37973 206.47258 208.31944
 209.95029 211.10014 211.33400 211.56685 211.50870 211.21855 210.85641 210.49126
 210.11311 209.82796 209.64082 209.50967 209.44252 209.77838 210.16923 210.56308
 211.36093 212.54379 213.79864 215.58649 217.51935 219.56720 221.66705 223.75490
 225.81976 227.90861 230.01046 232.12132 234.25517 236.43202 238.69287 241.06773
 243.69358 245.94943 247.95629 249.72614 251.14799 252.27584 253.10270 253.42355
 253.46540 253.24425 252.60911 251.56196 250.17281 248.33867 246.25252 244.09037
 241.88622 239.69508 237.51993 235.36378 233.22864 231.10049 229.13134 227.29319
 225.58105 224.05790 222.69275 221.46961 220.35646 219.32131 218.43016 217.57602
 216.82287 216.00772 215.11057 214.47943 213.93428 214.39186 215.47296 217.42978
 219.05717 220.27873 221.39392 222.39162 223.58150 225.39171 227.74730 228.76688
 229.52368 230.95625 233.82758 238.18118 242.55200 246.47015 250.35255 254.29456
 258.06876 261.56924 264.79907 267.80228 270.57181 273.02155 274.98389 276.64255
 278.17273 279.60223 280.95547 282.22659 283.29935 284.33463 285.29333 286.16882
 286.96075 287.67093 288.29132 289.09622
 366.78100 356.34089 345.77879 334.65068 323.05958 311.25947 299.13537 286.94426
 274.66215 262.56505 250.57994 239.88684 230.01473 221.12463 213.31252 206.32042
 200.16031 195.10420 191.69210 189.73999 188.78289 188.85278 189.69368 191.00757
 192.73846 194.83936 197.10825 199.47315 201.92404 204.40994 206.50383 208.35173
 209.98362 211.13451 211.36941 211.60330 211.54620 211.25709 210.89599 210.53188
 210.15477 209.87067 209.68456 209.55446 209.48835 209.82525 210.21714 210.61204
 211.41093 212.59482 213.85072 215.63961 217.57351 219.62240 221.72330 223.81219
 225.87808 227.96798 230.07087 232.18277 234.31766 236.49556 238.75745 241.13335
 243.76024 246.01713 248.02503 249.79592 251.21882 252.34771 253.17561 253.49750
 253.54039 253.32029 252.68618 251.64008 250.25197 248.41887 246.33376 244.17266
 241.96955 239.77944 237.60534 235.45023 233.31613 231.18902 229.22092 227.38381
 225.67270 224.15060 222.78649 221.56439 220.45228 219.41818 218.52807 217.67497
 216.92286 216.10875 215.21265 214.58254 214.03844 214.44653 215.41074 217.44792
 219.21494 220.42780 221.44626 222.33910 223.46442 225.27061 227.61890 228.65257
 229.45375 230.93942 233.84872 238.22134 242.58722 246.49391 250.35654 254.28838
 258.05386 261.54865 264.76495 267.75275 270.51328 272.95230 274.91193 276.57733
 278.10657 279.53418 280.89322 282.16998 283.25784 284.29611 285.25858 286.13419
 286.93143 287.64618 288.27069 289.07755
 366.78100 356.34185 345.78071 334.65356 323.06341 311.26426 299.14112 286.95097
 274.66982 262.57368 250.58953 239.89738 230.02624 221.13709 213.32594 206.33479
 200.17565 195.12050 191.70935 189.75821 188.80206 188.87291 189.71476 191.02962
 192.76147 194.86332 197.13318 199.49903 201.95088 204.43773 206.53259 208.38144
 210.01429 211.16615 211.40200 211.63685 211.58071 211.29256 210.93241 210.56926
 210.19312 209.90997 209.72482 209.59568 209.53053 209.86838 210.26123 210.65709
 211.45694 212.64179 213.89865 215.68850 217.62335 219.67321 221.77506 223.86491
 225.93176 228.02262 230.12647 232.23932 234.37518 236.55403 238.81688 241.19373
 243.82159 246.07944 248.08829 249.86015 251.28400 252.41385 253.24270 253.56556
 253.60941 253.39026 252.75712 251.71197 250.32482 248.49268 246.40853 244.24838
 242.04623 239.85709 237.68394 235.52979 233.39665 231.27050 229.30335 227.46720
 225.75706 224.23591 222.87276 221.65162 220.54047 219.50732 218.61818 217.76603
 217.01488 216.20173 215.30659 214.67744 214.13429 214.49670 215.35295 217.45216
 219.37225 220.57547 221.50682 222.30424 223.35478 225.10278 227.47163 228.55141
 229.40114 230.94089 233.88464 238.26720 242.62839 246.52579 250.36034 254.27388
 258.03760 261.52600 264.72733 267.69974 270.45026 272.87759 274.83978 276.51508
 278.04214 279.46698 280.82803 282.09433 283.22543 284.26358 285.22318 286.10284
 286.90079 287.61865 288.24713 289.05508
 366.78100 356.34269 345.78239 334.65608 323.06678 311.26847 299.14617 286.95686
 274.67656 262.58125 250.59795 239.90664 230.03634 221.14803 213.33773 206.34742
 200.18912 195.13481 191.72451 189.77420 188.81890 188.89059 189.73329 191.04898
 192.78168 194.88437 197.15507 199.52176 201.97446 204.46215 206.55785 208.40754
 210.04124 211.19393 211.43063 211.66632 211.61102 211.32371 210.96441 210.60210
 210.22680 209.94449 209.76019 209.63188 209.56758 209.90627 210.29997 210.69666
 211.49736 212.68305 213.94075 215.73144 217.66714 219.71783 221.82052 223.91122
 225.97891 228.07061 230.17530 232.28900 234.42569 236.60539 238.86908 241.24678
 243.87547 246.13417 248.14386 249.91656 251.34125 252.47195 253.30164 253.62534
 253.67003 253.45173 252.81942 251.77512 250.38881 248.55751 246.47420 244.31490
 242.11359 239.92529 237.75298 235.59968 233.46737 231.34207 229.37576 227.54046
 225.83115 224.31085 222.94854 221.72824 220.61793 219.58563 218.69732 217.84602
 217.09571 216.28341 215.38910 214.76080 214.21849 214.54109 215.30325 217.44107
 219.51939 220.71484 221.57260 222.28520 223.25725 224.93127 227.31570 228.44557
 229.35077 230.95056 233.93021 238.31671 242.67123 246.56230 250.36514 254.26434
 258.01968 261.49936 264.68500 267.64206 270.38281 272.80182 274.77182 276.45972
 277.98138 279.39966 280.75681 282.01208 283.18329 284.23215 285.19525 286.07721
 286.87805 287.59961 288.23355 289.05124
 366.78100 356.34336 345.78372 334.65807 323.06943 311.27179 299.15015 286.96151
 274.68187 262.58722 250.60458 239.91394 230.04430 221.15666 213.34701 206.35737
 200.19973 195.14609 191.73645 189.78681 188.83216 188.90452 189.74788 191.06424
 192.79760 194.90096 197.17231 199.53967 201.99303 204.48139 206.57775 208.42810
 210.06246 211.21582 211.45318 211.68954 211.63490 211.34825 210.98961 210.62797
 210.25333 209.97169 209.78804 209.66040 209.59676 209.93612 210.33048 210.72784
 211.52919 212.71555 213.97391 215.76527 217.70163 219.75298 221.85634 223.94770
 226.01606 228.10842 230.21378 232.32813 234.46549 236.64585 238.91021 241.28857
 243.91793 246.17728 248.18764 249.96100 251.38636 252.51772 253.34807 253.67243
 253.71779 253.50015 252.86851 251.82487 250.43922 248.60858 246.52594 244.36730
 242.16666 239.97901 237.80737 235.65473 233.52309 231.39845 229.43281 227.59816
 225.88952 224.36988 223.00824 221.78860 220.67895 219.64731 218.75967 217.90903
 217.15939 216.34775 215.45410 214.82646 214.28482 214.57730 215.26834 217.41608
 219.64932 220.85278 221.64838 222.27817 223.16765 224.76685 227.15237 228.32423
 229.28979 230.96017 233.98140 238.37277 242.71660 246.59862 250.37650 254.25276
 258.00214 261.47256 264.64325 267.58661 270.31650 272.72989 274.71194 276.41269
 277.92709 279.33728 280.67020 281.97284 283.14536 284.19257 285.15930 286.04321
 286.84735 287.57199 288.20764 289.02899
 366.78100 356.34380 345.78461 334.65941 323.07122 311.27402 299.15283 286.96463
 274.68544 262.59124 250.60905 239.91885 230.04966 221.16246 213.35327 206.36407
 200.20688 195.15368 191.74449 189.79529 188.84110 188.91390 189.75771 191.07451
 192.80832 194.91212 197.18393 199.55173 202.00554 204.49434 206.59115 208.44195
 210.07676 211.23056 211.46837 211.70517 211.65098 211.36478 211.00659 210.64539
 210.27120 209.99000 209.80681 209.67961 209.61642 209.95622 210.35103 210.74883
 211.55064 212.73744 213.99625 215.78805 217.72486 219.77666 221.88047 223.97227
 226.04108 228.13388 230.23969 232.35449 234.49230 236.67310 238.93791 241.31671
 243.94652 246.20632 248.21713 249.99093 251.41674 252.54854 253.37935 253.70415
 253.74996 253.53276 252.90157 251.85837 250.47318 248.64298 246.56079 244.40259
 242.20240 240.01520 237.84401 235.69181 233.56062 231.43642 229.47123 227.63703
 225.92884 224.40964 223.04845 221.82925 220.72006 219.68886 218.80167 217.95147
 217.20228 216.39108 215.49789 214.87069 214.32950 214.60347 215.25075 217.37778
 219.75954 220.99565 221.73372 222.27580 223.08022 224.61153 226.98776 228.19617
 229.22447 230.96938 234.03221 238.42741 242.76271 246.64227 250.40105 254.24677
 257.98642 261.44510 264.59906 267.52783 270.24768 272.65567 274.65079 276.36646
 277.87427 279.27872 280.58633 281.92639 283.11041 284.16293 285.12943 286.01340
 286.81784 287.54282 288.17773 289.00021
 366.78100 356.34413 345.78526 334.66039 323.07252 311.27565 299.15478 286.96691
 274.68804 262.59417 250.61230 239.92243 230.05356 221.16669 213.35782 206.36895
 200.21208 195.15922 191.75035 189.80148 188.84761 188.92074 189.76487 191.08200
 192.81613 194.92026 197.19239 199.56052 202.01465 204.50378 206.60091 208.45204
 210.08717 211.24130 211.47943 211.71656 211.66269 211.37682 211.01895 210.65808
 210.28421 210.00334 209.82047 209.69360 209.63073 209.97086 210.36599 210.76412
 211.56625 212.75338 214.01252 215.80465 217.74178 219.79391 221.89804 223.99017
 226.05930 228.15243 230.25856 232.37369 234.51182 236.69295 238.95808 241.33721
 243.96734 246.22747 248.23860 250.01273 251.43886 252.57099 253.40212 253.72725
 253.77338 253.55651 252.92564 251.88277 250.49790 248.66803 246.58616 244.42829
 242.22842 240.04155 237.87068 235.71881 233.58795 231.46408 229.49921 227.66534
 225.95747 224.43860 223.07773 221.85886 220.74999 219.71912 218.83225 217.98238
 217.23351 216.42264 215.52977 214.90290 214.36203 214.62418 215.24353 217.33537
 219.85277 221.13875 221.81685 222.26715 222.98730 224.46266 226.82570 228.06998
 229.16551 230.98802 234.08978 238.48923 242.81834 246.69946 250.42709 254.24258
 257.96701 261.41129 264.54953 267.46533 270.17398 272.57825 274.58853 276.31766
 277.82114 279.22110 280.52933 281.87622 283.06543 284.12164 285.09244 285.97733
 286.78232 287.50800 288.14206 288.96600
 366.78100 356.34455 345.78610 334.66165 323.07419 311.27774 299.15729 286.96984
 274.69139 262.59794 250.61649 239.92704 230.05858 221.17213 213.36368 206.37523
 200.21878 195.16633 191.75788 189.80943 188.85597 188.92952 189.77407 191.09162
 192.82617 194.93072 197.20327 199.57181 202.02636 204.51591 206.61346 208.46501
 210.10056 211.25511 211.49366 211.73120 211.67775 211.39230 211.03485 210.67440
 210.30095 210.02050 209.83805 209.71159 209.64914 209.98969 210.38524 210.78379
 211.58634 212.77389 214.03343 215.82598 217.76353 219.81608 221.92063 224.01318
 226.08273 228.17628 230.28282 232.39837 234.53692 236.71847 238.98402 241.36357
 243.99412 246.25467 248.26621 250.04076 251.46731 252.59986 253.43141 253.75696
 253.80351 253.58705 252.95660 251.91415 250.52970 248.70025 246.61880 244.46135
 242.26190 240.07544 237.90499 235.75354 233.62309 231.49964 229.53519 227.70174
 225.99429 224.47583 223.11538 221.89693 220.78848 219.75803 218.87158 218.02213
 217.27367 216.46322 215.57077 214.94432 214.40387 214.64995 215.23135 217.30547
 219.92551 221.26794 221.89386 222.25452 222.89200 224.32071 226.66475 227.94307
 229.10913 231.01335 234.15958 238.56123 242.88379 246.75674 250.45393 254.24245
 257.95023 261.37616 264.49820 267.40067 270.09982 272.50162 274.52667 276.26892
 277.77182 279.16336 280.48163 281.82913 283.01990 284.07791 285.04877 285.93430
 286.73917 287.46198 288.09753 288.92255
 366.78100 356.34514 345.78728 334.66342 323.07656 311.28070 299.16084 286.97397
 274.69611 262.60325 250.62239 239.93353 230.06567 221.17981 213.37195 206.38409
 200.22823 195.17637 191.76851 189.82065 188.86778 188.94192 189.78706 191.10520
 192.84034 194.94548 197.21862 199.58776 202.04290 204.53304 206.63118 208.48332
 210.11945 211.27459 211.51373 211.75187 211.69901 211.41415 211.05729 210.69743
 210.32457 210.04471 209.86285 209.73699 209.67513 210.01626 210.41240 210.81154
 211.61468 212.80282 214.06296 215.85610 217.79424 219.84738 221.95252 224.04566
 226.11580 228.20994 230.31707 232.43321 234.57235 236.75449 239.02063 241.40077
 244.03191 246.29305 248.30519 250.08033 251.50747 252.64061 253.47274 253.79888
 253.84602 253.63016 253.00030 251.95844 250.57458 248.74572 246.66486 244.50800
 242.30914 240.12328 237.95342 235.80255 233.67269 231.54983 229.58597 227.75311
 226.04625 224.52839 223.16853 221.95067 220.84281 219.81295 218.92709 218.07823
 217.33036 216.52050 215.62864 215.00278 214.46292 214.68446 215.20789 217.29741
 219.96762 221.36986 221.97391 222.25615 222.80807 224.19243 226.50700 227.81017
 229.04561 231.03587 234.23009 238.63676 242.95190 246.81204 250.48796 254.24455
 257.93112 261.33658 264.44257 267.33377 270.02460 272.42563 274.46533 276.22089
 277.72388 279.10831 280.43524 281.78354 282.97501 284.03207 285.00345 285.88821
 286.69250 287.41278 288.04758 288.86734
 366.78100 356.34575 345.78851 334.66526 323.07902 311.28377 299.16452 286.97828
 274.70103 262.60879 250.62854 239.94030 230.07305 221.18780 213.38056 206.39331
 200.23807 195.18682 191.77957 189.83233 188.88008 188.95484 189.80059 191.11935
 192.85510 194.96085 197.23461 199.60436 202.06012 204.55087 206.64962 208.50238
 210.13913 211.29489 211.53464 211.77339 211.72115 211.43690 211.08066 210.72141
 210.34917 210.06992 209.88867 209.76343 209.70218 210.04394 210.44069 210.84044
 211.64420 212.83295 214.09371 215.88746 217.82622 219.87997 221.98572 224.07948
 226.15023 228.24499 230.35274 232.46949 234.60925 236.79200 239.05876 241.43951
 244.07127 246.33302 248.34577 250.12153 251.54928 252.68304 253.51579 253.84254
 253.89030 253.67505 253.04581 252.00456 250.62131 248.79307 246.71282 244.55658
 242.35833 240.17309 238.00384 235.85359 233.72435 231.60210 229.63886 227.80661
 226.10036 224.58312 223.22387 222.00663 220.89938 219.87014 218.98489 218.13664
 217.38940 216.58015 215.68891 215.06366 214.52441 214.72075 215.18463 217.30096
 219.97803 221.44463 222.06314 222.28043 222.74353 224.08052 226.35135 227.67046
 228.97310 231.05040 234.29993 238.71458 243.02164 246.86487 250.51877 254.24596
 257.90802 261.29211 264.38385 267.26575 269.95007 272.35199 274.40488 276.17224
 277.67831 279.05960 280.39728 281.74777 282.93839 283.99664 284.96698 285.85107
 286.65344 287.37912 288.01047 288.83707
 366.78100 356.34616 345.78931 334.66647 323.08063 311.28578 299.16694 286.98109
 274.70425 262.61241 250.63256 239.94472 230.07788 221.19303 213.38619 206.39935
 200.24450 195.19366 191.78681 189.83997 188.88813 188.96328 189.80944 191.12860
 192.86475 194.97091 197.24507 199.61522 202.07138 204.56253 206.66169 208.51485
 210.15200 211.30816 211.54832 211.78747 211.73563 211.45179 211.09594 210.73710
 210.36525 210.08641 209.90557 209.78072 209.71988 210.06204 210.45919 210.85935
 211.66351 212.85266 214.11382 215.90797 217.84713 219.90129 222.00744 224.10160
 226.17276 228.26791 230.37607 232.49323 234.63338 236.81654 239.08369 241.46485
 244.09701 246.35916 248.37232 250.14848 251.57663 252.71079 253.54395 253.87110
 253.91926 253.70441 253.07557 252.03473 250.65188 248.82404 246.74420 244.58835
 242.39051 240.20567 238.03682 235.88698 233.75813 231.63629 229.67345 227.84160
 226.13576 224.61892 223.26007 222.04323 220.93639 219.90754 219.02270 218.17485
 217.42801 216.61917 215.72832 215.10348 214.56464 214.74818 215.18181 217.29605
 219.97375 221.49599 222.15732 222.32161 222.69113 223.98091 226.20131 227.52711
 228.89279 231.05916 234.37088 238.79686 243.09000 246.91989 250.55417 254.24953
 257.88275 261.24258 264.32077 267.19479 269.87286 272.27603 274.34015 276.11911
 277.63434 279.01880 280.37109 281.72302 282.91345 283.97101 284.94061 285.82645
 286.63205 287.35556 287.99237 288.81885
 366.78100 356.34618 345.78935 334.66653 323.08070 311.28588 299.16705 286.98123
 274.70441 262.61258 250.63276 239.94493 230.07811 221.19328 213.38646 206.39964
 200.24481 195.19399 191.78716 189.84034 188.88851 188.96369 189.80987 191.12904
 192.86522 194.97139 197.24557 199.61575 202.07192 204.56310 206.66227 208.51545
 210.15262 211.30880 211.54898 211.78815 211.73633 211.45250 211.09668 210.73785
 210.36603 210.08721 209.90638 209.78156 209.72073 210.06291 210.46008 210.86026
 211.66444 212.85361 214.11479 215.90896 217.84814 219.90231 222.00849 224.10267
 226.17384 228.26902 230.37719 232.49437 234.63454 236.81772 239.08490 241.46607
 244.09825 246.36042 248.37360 250.14977 251.57795 252.71213 253.54530 253.87248
 253.92065 253.70583 253.07700 252.03618 250.65336 248.82553 246.74571 244.58988
 242.39206 240.20724 238.03841 235.88859 233.75976 231.63794 229.67511 227.84329
 226.13747 224.62064 223.26182 222.04499 220.93817 219.90934 219.02452 218.17670
 217.42987 216.62105 215.73022 215.10540 214.56657 214.75867 215.21249 217.27010
 219.96532 221.53520 222.23836 222.36023 222.64392 223.89142 226.05315 227.38571
 228.81709 231.07385 234.44727 238.88496 243.16270 246.98613 250.59492 254.25433
 257.85440 261.18896 264.25330 267.12143 269.79517 272.19791 274.26974 276.05713
 277.58447 278.97748 280.35910 281.71445 282.90509 283.96097 284.93130 285.81784
 286.62537 287.35056 287.98932 288.81003
 366.78100 356.34598 345.78896 334.66594 323.07993 311.28491 299.16589 286.97987
 274.70285 262.61083 250.63082 239.94280 230.07578 221.19076 213.38374 206.39672
 200.24171 195.19069 191.78367 189.83665 188.88463 188.95961 189.80560 191.12458
 192.86056 194.96654 197.24052 199.61050 202.06649 204.55747 206.65645 208.50943
 210.14641 211.30239 211.54238 211.78136 211.72934 211.44532 211.08930 210.73028
 210.35827 210.07925 209.89823 209.77321 209.71219 210.05417 210.45116 210.85114
 211.65512 212.84410 214.10508 215.89906 217.83805 219.89203 221.99801 224.09199
 226.16297 228.25795 230.36594 232.48292 234.62290 236.80588 239.07286 241.45384
 244.08583 246.34781 248.36079 250.13677 251.56475 252.69873 253.53172 253.85870
 253.90668 253.69166 253.06264 252.02162 250.63861 248.81059 246.73057 244.57455
 242.37653 240.19151 238.02250 235.87248 233.74346 231.62144 229.65842 227.82640
 226.12039 224.60337 223.24435 222.02733 220.92031 219.89129 219.00628 218.15826
 217.41124 216.60222 215.71120 215.08618 214.54716 214.76042 215.26425 217.24220
 219.94757 221.56123 222.30287 222.38411 222.58575 223.80258 225.91681 227.25682
 228.75078 231.09613 234.52969 238.97704 243.24345 247.05855 250.64244 254.26271
 257.82642 261.13385 264.18454 267.04678 269.71561 272.11768 274.19418 275.99170
 277.53745 278.94492 280.35495 281.71091 282.90198 283.95828 284.92770 285.81488
 286.62393 287.35172 287.98880 288.81842
 366.78100 356.34581 345.78862 334.66542 323.07923 311.28404 299.16485 286.97866
 274.70147 262.60927 250.62908 239.94089 230.07370 221.18851 213.38131 206.39412
 200.23893 195.18774 191.78055 189.83335 188.88116 188.95597 189.80178 191.12059
 192.85640 194.96220 197.23601 199.60582 202.06163 204.55244 206.65124 208.50405
 210.14086 211.29667 211.53648 211.77529 211.72309 211.43890 211.08271 210.72352
 210.35133 210.07213 209.89094 209.76575 209.70456 210.04637 210.44318 210.84298
 211.64679 212.83560 214.09641 215.89022 217.82902 219.88283 221.98864 224.08245
 226.15326 228.24806 230.35587 232.47268 234.61249 236.79530 239.06211 241.44291
 244.07472 246.33653 248.34934 250.12515 251.55295 252.68676 253.51957 253.84638
 253.89419 253.67900 253.04980 252.00861 250.62542 248.79723 246.71704 244.56084
 242.36265 240.17746 238.00827 235.85808 233.72889 231.60669 229.64350 227.81131
 226.10512 224.58793 223.22873 222.01154 220.90435 219.87516 218.98997 218.14177
 217.39458 216.58539 215.69420 215.06901 214.52982 214.76425 215.31810 217.23021
 219.91650 221.57826 222.34196 222.38814 222.52602 223.72610 225.77919 227.12546
 228.69147 231.12961 234.61917 239.07384 243.33311 247.14130 250.70091 254.27730
 257.80023 261.07837 264.11398 266.97031 269.63467 272.03354 274.11044 275.91400
 277.47839 278.87204 280.37268 281.73721 282.92395 283.97754 284.94595 285.82999
 286.63980 287.36877 288.00812 288.83405
 366.78100 356.34560 345.78819 334.66479 323.07838 311.28298 299.16357 286.97717
 274.69976 262.60736 250.62695 239.93855 230.07114 221.18574 213.37833 206.39093
 200.23552 195.18412 191.77671 189.82931 188.87690 188.95150 189.79709 191.11569
 192.85128 194.95688 197.23047 199.60007 202.05566 204.54626 206.64485 208.49745
 210.13404 211.28964 211.52923 211.76783 211.71543 211.43102 211.07462 210.71521
 210.34281 210.06340 209.88200 209.75659 209.69519 210.03678 210.43338 210.83297
 211.63657 212.82516 214.08576 215.87935 217.81795 219.87154 221.97714 224.07073
 226.14133 228.23592 230.34352 232.46011 234.59971 236.78230 239.04890 241.42949
 244.06109 246.32268 248.33528 250.11087 251.53847 252.67206 253.50466 253.83126
 253.87885 253.66345 253.03404 251.99264 250.60923 248.78083 246.70042 244.54402
 242.34561 240.16021 237.99080 235.84040 233.71099 231.58859 229.62518 227.79278
 226.08637 224.56897 223.20956 221.99216 220.88475 219.85535 218.96994 218.12154
 217.37413 216.56473 215.67332 215.04792 214.50851 214.76569 215.37328 217.23250
 219.85443 221.59386 222.38258 222.37994 222.45006 223.63373 225.65363 227.01884
 228.64847 231.17049 234.71286 239.17262 243.42635 247.22906 250.76529 254.29607
 257.77542 261.02341 264.04373 266.89581 269.55594 271.95163 274.02823 275.83737
 277.42203 278.85236 280.36957 281.73901 282.92792 283.98102 284.94733 285.83215
 286.63782 287.36697 287.99954 288.80148
 366.78100 356.34537 345.78773 334.66410 323.07747 311.28183 299.16220 286.97556
 274.69793 262.60530 250.62466 239.93603 230.06840 221.18276 213.37513 206.38749
 200.23186 195.18023 191.77259 189.82496 188.87233 188.94669 189.79206 191.11042
 192.84579 194.95116 197.22452 199.59389 202.04926 204.53962 206.63799 208.49035
 210.12672 211.28209 211.52145 211.75982 211.70719 211.42255 211.06592 210.70628
 210.33365 210.05402 209.87238 209.74675 209.68512 210.02648 210.42285 210.82221
 211.62558 212.81395 214.07431 215.86768 217.80605 219.85941 221.96478 224.05814
 226.12851 228.22288 230.33024 232.44661 234.58598 236.76834 239.03471 241.41507
 244.04644 246.30781 248.32017 250.09554 251.52291 252.65627 253.48864 253.81500
 253.86237 253.64674 253.01710 251.97547 250.59184 248.76320 246.68257 244.52593
 242.32730 240.14167 237.97203 235.82140 233.69177 231.56913 229.60550 227.77286
 226.06623 224.54860 223.18896 221.97133 220.86370 219.83406 218.94843 218.09979
 217.35216 216.54253 215.65089 215.02526 214.48563 214.76578 215.42766 217.24510
 219.76273 221.59239 222.42787 222.36960 222.37785 223.57841 225.52710 226.88586
 228.59271 231.21034 234.80803 239.27165 243.52240 247.32132 250.83678 254.32155
 257.75671 260.97382 263.97903 266.82733 269.48380 271.87405 273.94678 275.75961
 277.36588 278.84558 280.36865 281.73901 282.92874 283.98392 284.94989 285.83148
 286.63992 287.36966 288.00220 288.79871
 366.78100 356.34509 345.78719 334.66328 323.07638 311.28047 299.16056 286.97366
 274.69575 262.60285 250.62194 239.93303 230.06513 221.17922 213.37131 206.38341
 200.22750 195.17560 191.76769 189.81978 188.86688 188.94097 189.78607 191.10416
 192.83925 194.94435 197.21744 199.58654 202.04163 204.53172 206.62982 208.48191
 210.11800 211.27310 211.51219 211.75029 211.69738 211.41247 211.05557 210.69566
 210.32276 210.04285 209.86094 209.73504 209.67313 210.01423 210.41032 210.80941
 211.61251 212.80060 214.06069 215.85379 217.79188 219.84498 221.95007 224.04316
 226.11326 228.20735 230.31445 232.43054 234.56963 236.75173 239.01782 241.39792
 244.02901 246.29010 248.30220 250.07729 251.50438 252.63748 253.46957 253.79567
 253.84276 253.62685 252.99695 251.95504 250.57114 248.74223 246.66132 244.50442
 242.30551 240.11961 237.94970 235.79879 233.66889 231.54598 229.58207 227.74917
 226.04226 224.52436 223.16445 221.94654 220.83864 219.80873 218.92283 218.07392
 217.32601 216.51611 215.62420 214.99830 214.45839 214.76265 215.48148 217.26706
 219.66634 221.55968 222.46758 222.39561 222.33717 223.44638 225.36519 226.77519
 228.55309 231.25594 234.91209 239.37677 243.62738 247.42903 250.92537 254.36183
 257.75043 260.93491 263.92084 266.76358 269.41296 271.79492 273.85898 275.67337
 277.30496 278.83871 280.36938 281.73914 282.92685 283.98087 284.94440 285.82596
 286.63403 287.36383 287.99249 288.78400
 366.78100 356.34457 345.78614 334.66171 323.07428 311.27785 299.15742 286.97000
 274.69157 262.59814 250.61671 239.92728 230.05885 221.17242 213.36399 206.37556
 200.21913 195.16670 191.75827 189.80985 188.85642 188.92999 189.77456 191.09213
 192.82670 194.93127 197.20384 199.57241 202.02698 204.51655 206.61412 208.46570
 210.10127 211.25584 211.49441 211.73198 211.67855 211.39312 211.03569 210.67526
 210.30183 210.02140 209.83897 209.71255 209.65012 209.99069 210.38626 210.78483
 211.58740 212.77497 214.03454 215.82711 217.76468 219.81725 221.92182 224.01440
 226.08397 228.17754 230.28411 232.39968 234.53825 236.71982 238.98539 241.36496
 243.99553 246.25610 248.26767 250.04225 251.46882 252.60139 253.43296 253.75853
 253.80510 253.58867 252.95824 251.91581 250.53138 248.70195 246.62052 244.46309
 242.26367 240.07724 237.90681 235.75538 233.62495 231.50152 229.53709 227.70366
 225.99623 224.47780 223.11737 221.89894 220.79052 219.76009 218.87366 218.02423
 217.27580 216.46537 215.57294 214.94651 214.40608 214.74661 215.55116 217.29404
 219.57033 221.49648 222.48827 222.41704 222.29630 223.29765 225.20107 226.67691
 228.52460 231.30890 235.02290 239.48488 243.73502 247.54219 251.02040 254.40958
 257.74915 260.89899 263.86612 266.70224 269.34418 271.71539 273.77008 275.58652
 277.24466 278.82520 280.35925 281.72818 282.91425 283.96524 284.92728 285.80722
 286.61493 287.34470 287.96729 288.75729
 366.78100 356.34425 345.78550 334.66075 323.07300 311.27625 299.15550 286.96775
 274.68900 262.59525 250.61350 239.92375 230.05500 221.16825 213.35950 206.37075
 200.21400 195.16125 191.75250 189.80375 188.85000 188.92325 189.76750 191.08475
 192.81900 194.92325 197.19550 199.56375 202.01800 204.50725 206.60450 208.45575
 210.09100 211.24525 211.48350 211.72075 211.66700 211.38125 211.02350 210.66275
 210.28900 210.00825 209.82550 209.69875 209.63600 209.97625 210.37150 210.76975
 211.57200 212.75925 214.01850 215.81075 217.74800 219.80025 221.90450 223.99675
 226.06600 228.15925 230.26550 232.38075 234.51900 236.70025 238.96550 241.34475
 243.97500 246.23525 248.24650 250.02075 251.44700 252.57925 253.41050 253.73574
 253.78199 253.56524 252.93449 251.89174 250.50699 248.67724 246.59549 244.43774
 242.23799 240.05124 237.88049 235.72874 233.59799 231.47424 229.50949 227.67574
 225.96799 224.44924 223.08849 221.86974 220.76099 219.73024 218.84349 217.99374
 217.24499 216.43424 215.54149 214.91474 214.37399 214.74506 215.62175 217.32069
 219.49538 221.40680 222.47069 222.40184 222.22693 223.14392 225.04448 226.59137
 228.51117 231.37596 235.14671 239.59978 243.84908 247.66496 251.12561 254.46664
 257.75586 260.87186 263.81735 266.64621 269.28046 271.63922 273.67844 275.49173
 277.17615 278.80035 280.33884 281.70520 282.89023 283.93958 284.89847 285.77823
 286.58524 287.31396 287.92935 288.72076
 366.78100 356.34538 345.78776 334.66415 323.07753 311.28191 299.16229 286.97568
 274.69806 262.60544 250.62482 239.93621 230.06859 221.18297 213.37535 206.38774
 200.23212 195.18050 191.77288 189.82527 188.87265 188.94703 189.79241 191.11080
 192.84618 194.95156 197.22494 199.59433 202.04971 204.54009 206.63847 208.49086
 210.12724 211.28262 211.52200 211.76039 211.70777 211.42315 211.06653 210.70692
 210.33430 210.05468 209.87306 209.74744 209.68583 210.02721 210.42359 210.82297
 211.62636 212.81474 214.07512 215.86850 217.80689 219.86027 221.96565 224.05903
 226.12942 228.22380 230.33118 232.44756 234.58695 236.76933 239.03571 241.41609
 244.04748 246.30886 248.32124 250.09662 251.52401 252.65739 253.48977 253.81615
 253.86354 253.64792 253.01830 251.97668 250.59307 248.76445 246.68383 244.52721
 242.32859 240.14298 237.97336 235.82274 233.69312 231.57051 229.60689 227.77427
 226.06765 224.55004 223.19042 221.97280 220.86518 219.83557 218.94995 218.10133
 217.35371 216.54410 215.65248 215.02686 214.48724 214.82709 215.63000 217.31879
 219.52367 221.36073 222.42165 222.31943 222.08952 222.94489 224.86446 226.49492
 228.50214 231.46461 235.29308 239.73436 243.99020 247.82196 251.27020 254.56039
 257.79324 260.86380 263.77725 266.58835 269.20465 271.54059 273.56818 275.39542
 277.11945 278.75986 280.29541 281.65948 282.83957 283.88663 284.84183 285.71750
 286.52518 287.25595 287.86804 288.65857
 366.78100 356.34649 345.78998 334.66747 323.08196 311.28745 299.16895 286.98344
 274.70693 262.61542 250.63591 239.94840 230.08189 221.19738 213.39087 206.40436
 200.24986 195.19935 191.79284 189.84633 188.89482 188.97031 189.81680 191.13629
 192.87278 194.97927 197.25377 199.62426 202.08075 204.57224 206.67173 208.52522
 210.16271 211.31920 211.55969 211.79918 211.74768 211.46417 211.10866 210.75015
 210.37864 210.10013 209.91962 209.79511 209.73460 210.07709 210.47459 210.87508
 211.67957 212.86906 214.13055 215.92504 217.86453 219.91902 222.02551 224.12000
 226.19150 228.28699 230.39548 232.51297 234.65346 236.83695 239.10444 241.48593
 244.11842 246.38091 248.39441 250.17090 251.59939 252.73388 253.56737 253.89486
 253.94335 253.72884 253.10033 252.05982 250.67732 248.84981 246.77030 244.61479
 242.41728 240.23277 238.06426 235.91475 233.78624 231.66473 229.70222 227.87072
 226.16521 224.64870 223.29019 222.07368 220.96717 219.93866 219.05415 218.20664
 217.46013 216.65163 215.76112 215.13661 214.59810 214.91635 215.66824 217.20793
 219.56920 221.45720 222.44450 222.21379 221.86905 222.67363 224.60837 226.31892
 228.45631 231.53981 235.44823 239.88097 244.14642 248.00381 251.44675 254.68513
 257.85645 260.87851 263.75000 266.53857 269.13385 271.44318 273.43915 275.27133
 277.03156 278.69226 280.23709 281.59384 282.77133 283.81497 284.76840 285.64215
 286.44696 287.17249 287.79059 288.58728
 366.78100 356.34538 345.78776 334.66415 323.07753 311.28191 299.16229 286.97567
 274.69805 262.60544 250.62482 239.93620 230.06858 221.18296 213.37535 206.38773
 200.23211 195.18049 191.77287 189.82525 188.87264 188.94702 189.79240 191.11078
 192.84616 194.95155 197.22493 199.59431 202.04969 204.54007 206.63845 208.49084
 210.12722 211.28260 211.52198 211.76036 211.70775 211.42313 211.06651 210.70689
 210.33427 210.05465 209.87304 209.74742 209.68580 210.02718 210.42356 210.82295
 211.62633 212.81471 214.07509 215.86847 217.80685 219.86024 221.96562 224.05900
 226.12938 228.22376 230.33115 232.44753 234.58691 236.76929 239.03567 241.41606
 244.04744 246.30882 248.32120 250.09658 251.52396 252.65735 253.48973 253.81611
 253.86349 253.64787 253.01826 251.97664 250.59302 248.76440 246.68378 244.52716
 242.32855 240.14293 237.97331 235.82269 233.69307 231.57046 229.60684 227.77422
 226.06760 224.54998 223.19036 221.97275 220.86513 219.83551 218.94989 218.10127
 217.35366 216.54404 215.65242 215.02680 214.48718 214.88712 215.83199 217.11501
 219.33774 221.45622 222.56303 222.27242 221.77586 222.49446 224.35706 226.09006
 228.35318 231.52332 235.53680 239.98682 244.25691 248.13466 251.58301 254.80154
 257.94394 260.94034 263.78143 266.54446 269.11432 271.39111 273.36615 275.19122
 276.96002 278.61887 280.12244 281.46960 282.64444 283.68805 284.64301 285.52591
 286.33051 287.06400 287.70175 288.51453
 366.78100 356.34568 345.78836 334.66504 323.07872 311.28340 299.16408 286.97776
 274.70044 262.60812 250.62780 239.93948 230.07216 221.18684 213.37952 206.39220
 200.23688 195.18556 191.77824 189.83092 188.87860 188.95328 189.79896 191.11764
 192.85332 194.95900 197.23268 199.60236 202.05804 204.54872 206.64739 208.50007
 210.13675 211.29243 211.53211 211.77079 211.71847 211.43415 211.07783 210.71851
 210.34619 210.06687 209.88555 209.76023 209.69891 210.04059 210.43727 210.83695
 211.64063 212.82931 214.08999 215.88367 217.82235 219.87603 221.98171 224.07539
 226.14607 228.24075 230.34843 232.46511 234.60479 236.78747 239.05415 241.43483
 244.06651 246.32819 248.34087 250.11655 251.54423 252.67791 253.51059 253.83727
 253.88495 253.66963 253.04031 251.99899 250.61567 248.78735 246.70703 244.55071
 242.35239 240.16707 237.99775 235.84743 233.71811 231.59579 229.63247 227.80015
 226.09383 224.57650 223.21718 221.99986 220.89254 219.86322 218.97790 218.12958
 217.38226 216.57294 215.68162 215.05630 214.51698 214.92482 215.88840 217.17833
 219.13754 221.29897 222.61424 222.41096 221.85339 222.42982 224.21745 225.94417
 228.26097 231.53943 235.61183 240.03474 244.29182 248.18915 251.65712 254.88036
 258.00958 260.99786 263.83179 266.59113 269.16541 271.45416 273.43954 275.25699
 276.99594 278.58078 280.00217 281.27707 282.42163 283.46088 284.41153 285.29361
 286.10220 286.83017 287.46747 288.27963
 366.78100 356.34678 345.79056 334.66833 323.08311 311.28889 299.17067 286.98545
 274.70923 262.61800 250.63878 239.95156 230.08534 221.20112 213.39489 206.40867
 200.25445 195.20423 191.79801 189.85179 188.90056 188.97634 189.82312 191.14290
 192.87968 194.98645 197.26123 199.63201 202.08879 204.58057 206.68034 208.53412
 210.17190 211.32868 211.56946 211.80924 211.75801 211.47479 211.11957 210.76135
 210.39013 210.11190 209.93168 209.80746 209.74724 210.09002 210.48780 210.88857
 211.69335 212.88313 214.14491 215.93969 217.87946 219.93424 222.04102 224.13580
 226.20758 228.30336 230.41213 232.52991 234.67069 236.85447 239.12225 241.50402
 244.13680 246.39958 248.41336 250.19014 251.61891 252.75369 253.58747 253.91525
 253.96403 253.74981 253.12158 252.08136 250.69914 248.87192 246.79270 244.63747
 242.44025 240.25603 238.08781 235.93859 233.81037 231.68914 229.72692 227.89570
 226.19048 224.67426 223.31603 222.09981 220.99359 219.96537 219.08115 218.23393
 217.48770 216.67948 215.78926 215.16504 214.62682 215.01527 215.93306 217.15392
 219.07759 221.27928 222.57309 222.34981 221.72879 222.25616 224.02457 225.80406
 228.16901 231.55991 235.69554 240.11328 244.37714 248.27534 251.75650 254.98674
 258.10959 261.09006 263.89993 266.63754 269.20468 271.49979 273.48431 275.27405
 276.98325 278.56912 279.93912 281.16940 282.31033 283.35260 284.32144 285.19968
 285.97879 286.68341 287.31299 288.11530
 366.78100 356.34417 345.78534 334.66052 323.07269 311.27586 299.15503 286.96721
 274.68838 262.59455 250.61272 239.92290 230.05407 221.16724 213.35841 206.36959
 200.21276 195.15993 191.75110 189.80228 188.84845 188.92162 189.76579 191.08297
 192.81714 194.92131 197.19348 199.56166 202.01583 204.50500 206.60217 208.45334
 210.08852 211.24269 211.48086 211.71803 211.66421 211.37838 211.02055 210.65972
 210.28590 210.00507 209.82224 209.69541 209.63259 209.97276 210.36793 210.76610
 211.56828 212.75545 214.01462 215.80679 217.74397 219.79614 221.90031 223.99248
 226.06166 228.15483 230.26100 232.37617 234.51434 236.69552 238.96069 241.33986
 243.97003 246.23021 248.24138 250.01555 251.44172 252.57390 253.40507 253.73024
 253.77641 253.55959 252.92876 251.88593 250.50110 248.67128 246.58945 244.43162
 242.23179 240.04497 237.87414 235.72231 233.59148 231.46766 229.50283 227.66900
 225.96117 224.44234 223.08152 221.86269 220.75386 219.72303 218.83621 217.98638
 217.23755 216.42672 215.53390 214.90707 214.36624 214.90921 216.19249 217.16156
 218.68158 220.90497 222.47165 222.39699 221.66595 222.09277 223.74261 225.72809
 228.04262 231.55170 235.73946 240.12305 244.40672 248.41780 252.00861 255.28156
 258.36005 261.28073 264.05304 266.71616 269.21439 271.44830 273.40875 275.21875
 276.87592 278.36664 279.66528 280.79898 281.80066 282.83102 283.81317 284.72086
 285.53720 286.26416 286.89923 287.70856
 366.78100 356.34129 345.77958 334.65186 323.06115 311.26144 299.13773 286.94702
 274.66530 262.56859 250.58388 239.89117 230.01946 221.12974 213.31803 206.32632
 200.16661 195.11090 191.69918 189.74747 188.79076 188.86105 189.70234 191.01663
 192.74791 194.84920 197.11849 199.48378 201.93507 204.42135 206.51564 208.36393
 209.99622 211.14751 211.38279 211.61708 211.56037 211.27166 210.91095 210.54723
 210.17052 209.88681 209.70110 209.57139 209.50567 209.84296 210.23525 210.63054
 211.42983 212.61411 213.87040 215.65969 217.59398 219.64327 221.74455 223.83384
 225.90013 227.99042 230.09371 232.20599 234.34128 236.51957 238.78186 241.15815
 243.78543 246.04272 248.05101 249.82230 251.24559 252.37488 253.20316 253.52545
 253.56874 253.34903 252.71532 251.66960 250.28189 248.44918 246.36447 244.20376
 242.00104 239.81133 237.63762 235.48291 233.34920 231.22248 229.25477 227.41806
 225.70735 224.18564 222.82192 221.60021 220.48850 219.45479 218.56508 217.71236
 216.96065 216.14694 215.25123 214.62152 214.07780 214.77837 216.40649 217.26082
 218.40028 220.65482 222.45128 222.53258 221.92787 222.18692 223.66425 225.75555
 228.05907 231.60680 235.80394 240.15623 244.44643 248.51268 252.19627 255.51869
 258.56717 261.44202 264.16525 266.76007 269.19312 271.36234 273.34210 275.06442
 276.70636 278.12964 279.30850 280.52921 281.75449 282.88535 283.91708 284.85178
 285.69244 286.44104 287.09500 287.92841
 366.78100 356.34253 345.78205 334.65558 323.06611 311.26763 299.14516 286.95569
 274.67521 262.57974 250.59627 239.90479 230.03432 221.14585 213.33537 206.34490
 200.18643 195.13195 191.72148 189.77101 188.81553 188.88706 189.72959 191.04511
 192.77764 194.88017 197.15069 199.51722 201.96974 204.45727 206.55280 208.40232
 210.03585 211.18838 211.42490 211.66043 211.60496 211.31748 210.95801 210.59554
 210.22006 209.93759 209.75312 209.62464 209.56017 209.89870 210.29222 210.68875
 211.48928 212.67480 213.93233 215.72286 217.65838 219.70891 221.81144 223.90196
 225.96949 228.06102 230.16554 232.27907 234.41560 236.59512 238.85865 241.23618
 243.86470 246.12323 248.13276 249.90528 251.32981 252.46034 253.28986 253.61339
 253.65792 253.43944 252.80697 251.76250 250.37602 248.54455 246.46107 244.30160
 242.10013 239.91165 237.73918 235.58571 233.45323 231.32776 229.36129 227.52581
 225.81634 224.29587 222.93339 221.71292 220.60245 219.56997 218.68150 217.83003
 217.07955 216.26708 215.37261 214.74413 214.20166 214.85541 216.38866 217.32457
 218.28069 220.49187 222.29066 222.38896 221.83385 222.10832 223.66486 225.71053
 228.06636 231.66945 235.88644 240.21666 244.49544 248.58751 252.31270 255.65105
 258.69452 261.54349 264.23752 266.78708 269.18387 271.35651 273.31833 275.02762
 276.66165 278.07504 279.26645 280.50143 281.69626 282.81586 283.85236 284.79132
 285.63583 286.38785 287.04483 287.88205
 366.78100 356.34414 345.78528 334.66043 323.07257 311.27571 299.15485 286.96700
 274.68814 262.59428 250.61242 239.92257 230.05371 221.16685 213.35799 206.36914
 200.21228 195.15942 191.75056 189.80170 188.84785 188.92099 189.76513 191.08227
 192.81642 194.92056 197.19270 199.56084 202.01499 204.50413 206.60127 208.45241
 210.08756 211.24170 211.47984 211.71698 211.66312 211.37727 211.01941 210.65855
 210.28469 210.00384 209.82098 209.69412 209.63126 209.97141 210.36655 210.76469
 211.56683 212.75398 214.01312 215.80526 217.74240 219.79454 221.89869 223.99083
 226.05997 228.15311 230.25926 232.37440 234.51254 236.69368 238.95883 241.33797
 243.96811 246.22825 248.23940 250.01354 251.43968 252.57182 253.40296 253.72811
 253.77425 253.55739 252.92653 251.88368 250.49882 248.66896 246.58710 244.42925
 242.22939 240.04253 237.87167 235.71982 233.58896 231.46510 229.50024 227.66638
 225.95853 224.43967 223.07881 221.85995 220.75110 219.72024 218.83338 217.98352
 217.23467 216.42381 215.53095 214.90409 214.36324 214.96072 216.36873 217.31801
 218.26701 220.38930 222.13921 222.24240 221.70195 222.01161 223.62910 225.64555
 228.03871 231.71646 235.94649 240.21606 244.48297 248.61700 252.38812 255.73720
 258.74417 261.56860 264.25079 266.73459 269.13110 271.31543 273.30475 274.97403
 276.61630 278.05679 279.28781 280.39249 281.55588 282.60376 283.54361 284.39505
 285.16083 285.84274 286.43848 287.19763
 366.78100 356.34358 345.78416 334.65875 323.07033 311.27291 299.15149 286.96308
 274.68366 262.58924 250.60682 239.91640 230.04699 221.15957 213.35015 206.36073
 200.20332 195.14990 191.74048 189.79106 188.83664 188.90923 189.75281 191.06939
 192.80297 194.90656 197.17814 199.54572 201.99930 204.48788 206.58447 208.43505
 210.06963 211.22321 211.46079 211.69738 211.64296 211.35654 210.99812 210.63671
 210.26229 209.98087 209.79745 209.67003 209.60662 209.94620 210.34078 210.73836
 211.53995 212.72653 213.98511 215.77669 217.71327 219.76486 221.86844 223.96002
 226.02860 228.12119 230.22677 232.34135 234.47893 236.65951 238.92410 241.30268
 243.93226 246.19184 248.20243 249.97601 251.40159 252.53317 253.36375 253.68834
 253.73392 253.51650 252.88508 251.84167 250.45625 248.62583 246.54341 244.38499
 242.18458 239.99716 237.82574 235.67332 233.54191 231.41749 229.45207 227.61765
 225.90923 224.38982 223.02840 221.80898 220.69956 219.66815 218.78073 217.93031
 217.18089 216.36947 215.47606 214.84864 214.30722 214.96202 216.47998 217.30124
 218.30486 220.32751 222.09813 222.34146 221.87262 222.07539 223.62621 225.65271
 228.07265 231.76076 235.96008 240.20578 244.45505 248.60803 252.40108 255.83525
 258.81992 261.60251 264.25305 266.74493 269.08084 271.24713 273.22437 274.95615
 276.56351 277.96887 279.23022 280.57111 281.81171 282.90985 283.91174 284.81940
 285.63571 286.36267 286.99771 287.80701
 366.78100 356.34406 345.78513 334.66019 323.07226 311.27532 299.15438 286.96645
 274.68751 262.59358 250.61164 239.92170 230.05277 221.16583 213.35689 206.36796
 200.21102 195.15809 191.74915 189.80021 188.84628 188.91934 189.76341 191.08047
 192.81453 194.91860 197.19066 199.55873 202.01279 204.50185 206.59892 208.44998
 210.08505 211.23911 211.47717 211.71424 211.66030 211.37437 211.01643 210.65549
 210.28156 210.00062 209.81768 209.69075 209.62781 209.96788 210.36294 210.76100
 211.56307 212.75013 214.00920 215.80126 217.73832 219.79039 221.89445 223.98652
 226.05558 228.14864 230.25471 232.36977 234.50784 236.68890 238.95396 241.33303
 243.96309 246.22316 248.23422 250.00828 251.43435 252.56641 253.39747 253.72254
 253.76860 253.55167 252.92073 251.87779 250.49286 248.66292 246.58099 244.42305
 242.22311 240.03618 237.86524 235.71331 233.58237 231.45843 229.49350 227.65956
 225.95163 224.43269 223.07175 221.85282 220.74388 219.71294 218.82601 217.97607
 217.22714 216.41620 215.52326 214.89633 214.35539 215.00990 216.51553 217.35498
 218.31326 220.20152 222.01357 222.35799 221.91350 222.05681 223.69966 225.51193
 228.04547 231.80289 236.04327 240.29877 244.55296 248.68520 252.46452 255.88768
 258.93774 261.73053 264.36212 266.82907 269.11746 271.25900 273.18344 274.92093
 276.50549 278.10248 279.76920 281.24411 282.52051 283.64981 284.68011 285.61349
 286.45297 287.20053 287.85358 288.68582
 366.78100 356.34597 345.78893 334.66590 323.07986 311.28483 299.16579 286.97976
 274.70272 262.61069 250.63065 239.94262 230.07558 221.19055 213.38351 206.39648
 200.24145 195.19041 191.78338 189.83634 188.88431 188.95927 189.80524 191.12420
 192.86017 194.96613 197.24010 199.61006 202.06603 204.55699 206.65596 208.50892
 210.14589 211.30186 211.54182 211.78079 211.72875 211.44472 211.08868 210.72965
 210.35761 210.07858 209.89754 209.77251 209.71147 210.05344 210.45040 210.85037
 211.65434 212.84330 214.10427 215.89823 217.83720 219.89116 221.99713 224.09109
 226.16206 228.25702 230.36499 232.48195 234.62192 236.80488 239.07185 241.45282
 244.08478 246.34675 248.35971 250.13568 251.56364 252.69761 253.53057 253.85754
 253.90550 253.69047 253.06143 252.02040 250.63736 248.80933 246.72930 244.57326
 242.37523 240.19019 238.02116 235.87112 233.74209 231.62005 229.65702 227.82498
 226.11895 224.60191 223.24288 222.02584 220.91881 219.88977 219.00474 218.15671
 217.40967 216.60064 215.70960 215.08457 214.54553 215.11919 216.47360 217.42386
 218.34834 220.05196 221.79114 222.15379 221.72330 221.88347 223.70599 225.60213
 228.14703 231.92709 236.20055 240.47342 244.73286 248.85155 252.61414 256.04117
 259.10730 261.88800 264.49350 266.92758 269.20465 271.34384 273.26227 274.99484
 276.75806 278.71524 280.49997 282.06711 283.42331 284.62323 285.71796 286.70972
 287.60168 288.39600 289.08987 289.97415
 366.78100 356.34563 345.78826 334.66489 323.07852 311.28315 299.16377 286.97740
 274.70003 262.60766 250.62729 239.93892 230.07155 221.18618 213.37881 206.39144
 200.23606 195.18469 191.77732 189.82995 188.87758 188.95221 189.79784 191.11647
 192.85210 194.95773 197.23135 199.60098 202.05661 204.54724 206.64587 208.49850
 210.13513 211.29076 211.53039 211.76902 211.71664 211.43227 211.07590 210.71653
 210.34416 210.06479 209.88342 209.75805 209.69668 210.03831 210.43493 210.83456
 211.63819 212.82682 214.08745 215.88108 217.81971 219.87334 221.97897 224.07260
 226.14323 228.23785 230.34548 232.46211 234.60174 236.78437 239.05100 241.43163
 244.06326 246.32489 248.33752 250.11314 251.54077 252.67440 253.50703 253.83366
 253.88129 253.66592 253.03655 251.99518 250.61181 248.78343 246.70306 244.54669
 242.34832 240.16295 237.99358 235.84321 233.71384 231.59147 229.62810 227.79572
 226.08935 224.57198 223.21261 221.99524 220.88787 219.85850 218.97313 218.12476
 217.37739 216.56801 215.67664 215.05127 214.51190 215.12160 216.52614 217.39421
 218.35295 220.05537 221.72704 221.95999 221.44820 221.61742 223.56131 225.60170
 228.23822 232.03351 236.32217 240.60368 244.86681 248.98727 252.75839 256.18582
 259.24823 262.01843 264.58759 266.99411 269.24875 271.39529 273.33594 275.04666
 277.08487 279.16312 280.97192 282.56021 283.93472 285.15082 286.26031 287.26544
 288.16943 288.97446 289.67770 290.57391
 366.78100 356.34495 345.78689 334.66284 323.07579 311.27973 299.15968 286.97263
 274.69458 262.60152 250.62047 239.93142 230.06336 221.17731 213.36926 206.38120
 200.22515 195.17310 191.76505 189.81699 188.86394 188.93789 189.78283 191.10078
 192.83573 194.94067 197.21362 199.58257 202.03751 204.52746 206.62541 208.47736
 210.11330 211.26825 211.50720 211.74514 211.69209 211.40704 211.04998 210.68993
 210.31688 210.03682 209.85477 209.72872 209.66667 210.00761 210.40356 210.80251
 211.60545 212.79340 214.05335 215.84629 217.78424 219.83719 221.94214 224.03508
 226.10503 228.19898 230.30592 232.42187 234.56082 236.74276 239.00871 241.38866
 244.01960 246.28055 248.29250 250.06745 251.49439 252.62734 253.45929 253.78523
 253.83218 253.61613 252.98607 251.94402 250.55997 248.73092 246.64986 244.49281
 242.29376 240.10770 237.93765 235.78660 233.65654 231.53349 229.56944 227.73638
 226.02933 224.51128 223.15123 221.93317 220.82512 219.79507 218.90901 218.05996
 217.31191 216.50185 215.60980 214.98375 214.44370 215.10350 216.58235 217.37308
 218.29601 219.97885 221.70157 221.91002 221.29869 221.43268 223.44540 225.58995
 228.30020 232.10916 236.40572 240.68524 244.95551 249.08307 252.86328 256.30167
 259.37051 262.12720 264.66473 267.03238 269.27191 271.40421 273.31454 275.27759
 277.54208 279.60345 281.38724 282.95355 284.30902 285.50830 286.60245 287.59366
 288.48517 289.27905 289.97256 290.85635
 366.78100 356.34628 345.78957 334.66685 323.08114 311.28642 299.16771 286.98199
 274.70528 262.61356 250.63385 239.94613 230.07941 221.19470 213.38798 206.40127
 200.24655 195.19584 191.78912 189.84241 188.89069 188.96598 189.81226 191.13154
 192.86783 194.97411 197.24840 199.61868 202.07497 204.56625 206.66554 208.51882
 210.15611 211.31239 211.55267 211.79196 211.74024 211.45653 211.10081 210.74210
 210.37038 210.09167 209.91095 209.78624 209.72552 210.06780 210.46509 210.86537
 211.66966 212.85894 214.12023 215.91451 217.85380 219.90808 222.01436 224.10865
 226.17993 228.27522 230.38350 232.50079 234.64107 236.82436 239.09164 241.47293
 244.10521 246.36749 248.38078 250.15706 251.58535 252.71963 253.55292 253.88020
 253.92849 253.71377 253.08506 252.04434 250.66162 248.83391 246.75419 244.59848
 242.40076 240.21605 238.04733 235.89762 233.76890 231.64719 229.68447 227.85275
 226.14704 224.63032 223.27161 222.05489 220.94818 219.91946 219.03475 218.18703
 217.44032 216.63160 215.74088 215.11617 214.57745 215.17249 216.54156 217.42583
 218.29401 219.78645 221.49104 221.79337 221.23787 221.39023 223.36920 225.59131
 228.33864 232.17613 236.49605 240.77383 245.04474 249.18236 252.98541 256.43777
 259.51767 262.28195 264.80771 267.14426 269.36014 271.48465 273.37338 275.53738
 277.83588 279.88593 281.65988 283.21756 284.56561 285.75827 286.84641 287.83218
 288.71878 289.50830 290.19800 291.07693
 366.78100 356.34783 345.79267 334.67150 323.08733 311.29416 299.17700 286.99283
 274.71766 262.62750 250.64933 239.96316 230.09799 221.21483 213.40966 206.42449
 200.27133 195.22216 191.81699 189.87182 188.92166 188.99849 189.84632 191.16716
 192.90499 195.01282 197.28865 199.66049 202.11832 204.61115 206.71199 208.56682
 210.20565 211.36348 211.60532 211.84615 211.79598 211.51382 211.15965 210.80248
 210.43231 210.15515 209.97598 209.85281 209.79365 210.13748 210.53631 210.93814
 211.74398 212.93481 214.19764 215.99348 217.93431 219.99014 222.09797 224.19381
 226.26664 228.36347 230.47331 232.59214 234.73397 236.91880 239.18764 241.57047
 244.20430 246.46813 248.48297 250.26080 251.69063 252.82647 253.66130 253.99013
 254.03996 253.82680 253.19963 252.16046 250.77930 248.95313 246.87496 244.72079
 242.52463 240.34146 238.17429 236.02613 233.89896 231.77879 229.81762 227.98746
 226.28329 224.76812 223.41096 222.19579 221.09062 220.06345 219.18029 218.33412
 217.58895 216.78179 215.89262 215.26945 214.73228 215.24867 216.48518 217.47064
 218.33702 219.66893 221.25926 221.58643 221.10640 221.34348 223.17500 225.53951
 228.34555 232.23706 236.59500 240.88904 245.15747 249.31662 253.16177 256.62387
 259.71240 262.49011 265.02438 267.34442 269.51785 271.61765 273.47733 275.67053
 277.93069 279.97079 281.73615 283.28625 284.62778 285.81464 286.89749 287.87848
 288.76077 289.54645 290.23282 291.10748
 366.78100 356.34843 345.79387 334.67330 323.08973 311.29716 299.18060 286.99703
 274.72246 262.63289 250.65533 239.96976 230.10519 221.22262 213.41806 206.43349
 200.28092 195.23235 191.82779 189.88322 188.93365 189.01108 189.85952 191.18095
 192.91938 195.02781 197.30425 199.67668 202.13511 204.62854 206.72998 208.58541
 210.22484 211.38327 211.62571 211.86714 211.81757 211.53600 211.18244 210.82587
 210.45630 210.17973 210.00117 209.87860 209.82003 210.16446 210.56390 210.96633
 211.77276 212.96419 214.22763 216.02406 217.96549 220.02192 222.13036 224.22679
 226.30022 228.39765 230.50809 232.62752 234.76995 236.95538 239.22482 241.60825
 244.24268 246.50711 248.52255 250.30098 251.73141 252.86784 253.70328 254.03271
 254.08314 253.87057 253.24401 252.20544 250.82487 248.99930 246.92174 244.76817
 242.57260 240.39003 238.22347 236.07590 233.94933 231.82976 229.86920 228.03963
 226.33606 224.82149 223.46493 222.25036 221.14579 220.11922 219.23666 218.39109
 217.64652 216.83995 215.95139 215.32882 214.79225 215.27849 216.45273 217.46529
 218.40627 219.63167 221.03244 221.32899 220.94501 221.30186 222.90237 225.48145
 228.35333 232.31757 236.72009 241.02679 245.28310 249.44818 253.32230 256.77905
 259.86154 262.64789 265.20944 267.53427 269.69708 271.78281 273.66278 275.75742
 277.88702 279.90732 281.65552 283.19061 284.51907 285.69443 286.76675 287.73822
 288.61194 289.38998 290.06967 290.93588
 366.78100 356.34773 345.79246 334.67119 323.08692 311.29365 299.17638 286.99210
 274.71683 262.62656 250.64829 239.96202 230.09675 221.21348 213.40821 206.42294
 200.26967 195.22040 191.81513 189.86986 188.91958 188.99631 189.84404 191.16477
 192.90250 195.01023 197.28596 199.65769 202.11542 204.60815 206.70888 208.56361
 210.20234 211.36006 211.60179 211.84252 211.79225 211.50998 211.15571 210.79844
 210.42817 210.15090 209.97163 209.84836 209.78909 210.13282 210.53154 210.93327
 211.73900 212.92973 214.19246 215.98819 217.92892 219.98465 222.09238 224.18811
 226.26084 228.35757 230.46730 232.58603 234.72775 236.91248 239.18121 241.56394
 244.19767 246.46140 248.47613 250.25386 251.68359 252.81932 253.65405 253.98278
 254.03251 253.81923 253.19196 252.15269 250.77142 248.94515 246.86688 244.71261
 242.51634 240.33307 238.16580 236.01753 233.89026 231.76999 229.80871 227.97844
 226.27417 224.75890 223.40163 222.18636 221.08109 220.05382 219.17055 218.32428
 217.57901 216.77174 215.88247 215.25919 214.72192 215.24223 216.46574 217.40398
 218.46455 219.68045 220.80641 221.00157 220.74924 221.24434 222.71661 225.43660
 228.35078 232.41731 236.87631 241.19093 245.42191 249.57422 253.44411 256.90613
 259.95700 262.72073 265.30338 267.65524 269.81332 271.85028 273.74707 275.62207
 277.45319 279.24716 280.91617 282.38165 283.64993 284.77200 285.79575 286.72318
 287.55731 288.30011 288.94897 289.77591
 366.78100 356.34630 345.78961 334.66691 323.08122 311.28652 299.16783 286.98213
 274.70543 262.61374 250.63404 239.94635 230.07965 221.19495 213.38826 206.40156
 200.24687 195.19617 191.78948 189.84278 188.89108 188.96639 189.81269 191.13200
 192.86830 194.97461 197.24891 199.61921 202.07552 204.56682 206.66613 208.51943
 210.15674 211.31304 211.55334 211.79265 211.74095 211.45726 211.10156 210.74286
 210.37117 210.09247 209.91178 209.78708 209.72639 210.06869 210.46599 210.86630
 211.67060 212.85991 214.12121 215.91552 217.85482 219.90912 222.01543 224.10973
 226.18104 228.27634 230.38464 232.50195 234.64225 236.82556 239.09286 241.47417
 244.10647 246.36877 248.38208 250.15838 251.58669 252.72099 253.55430 253.88160
 253.92990 253.71521 253.08651 252.04582 250.66312 248.83542 246.75573 244.60003
 242.40234 240.21764 238.04895 235.89925 233.77055 231.64886 229.68616 227.85447
 226.14877 224.63208 223.27338 222.05668 220.94999 219.92129 219.03660 218.18890
 217.44221 216.63351 215.74281 215.11812 214.57942 215.16858 216.52461 217.34735
 218.40767 219.74075 220.73419 220.76758 220.48746 221.04694 222.57867 225.36961
 228.38298 232.51292 237.00790 241.31064 245.53796 249.70229 253.61192 257.10712
 260.14832 262.85754 265.39639 267.75784 269.93042 271.97330 273.88593 275.57941
 276.85550 278.13483 279.77493 281.28427 282.59048 283.74615 284.80051 285.75571
 286.61478 287.37979 288.04810 288.89978
 366.78100 356.34560 345.78821 334.66481 323.07842 311.28302 299.16363 286.97723
 274.69984 262.60744 250.62704 239.93865 230.07125 221.18586 213.37846 206.39107
 200.23567 195.18428 191.77688 189.82948 188.87709 188.95169 189.79730 191.11590
 192.85151 194.95711 197.23072 199.60032 202.05592 204.54653 206.64513 208.49774
 210.13434 211.28995 211.52955 211.76816 211.71576 211.43136 211.07497 210.71557
 210.34318 210.06378 209.88239 209.75699 209.69560 210.03720 210.43380 210.83341
 211.63701 212.82562 214.08622 215.87983 217.81843 219.87204 221.97764 224.07124
 226.14185 228.23645 230.34406 232.46066 234.60027 236.78287 239.04948 241.43008
 244.06168 246.32329 248.33589 250.11150 251.53910 252.67271 253.50531 253.83192
 253.87952 253.66412 253.03473 251.99333 250.60994 248.78154 246.70115 244.54475
 242.34636 240.16096 237.99157 235.84117 233.71177 231.58938 229.62598 227.79359
 226.08719 224.56980 223.21040 221.99301 220.88561 219.85621 218.97082 218.12242
 217.37503 216.56563 215.67424 215.04884 214.50945 215.13408 216.56009 217.34009
 218.35780 219.75868 220.75679 220.63748 220.21370 220.78064 222.40758 225.28355
 228.39253 232.58026 237.08568 241.39410 245.64276 249.82259 253.76689 257.31683
 260.38400 263.08295 265.57452 267.89789 270.05878 272.09845 274.02628 275.72366
 276.85730 277.86343 279.54922 281.07983 282.40442 283.57639 284.64560 285.61423
 286.48541 287.26120 287.93893 288.80261
 366.78100 356.34646 345.78991 334.66737 323.08183 311.28728 299.16874 286.98320
 274.70665 262.61511 250.63557 239.94802 230.08148 221.19693 213.39039 206.40385
 200.24930 195.19876 191.79222 189.84567 188.89413 188.96959 189.81604 191.13550
 192.87196 194.97841 197.25287 199.62333 202.07978 204.57124 206.67070 208.52415
 210.16161 211.31806 211.55852 211.79798 211.74643 211.46289 211.10735 210.74880
 210.37726 210.09872 209.91817 209.79363 209.73309 210.07554 210.47300 210.87346
 211.67791 212.86737 214.12883 215.92328 217.86274 219.91719 222.02365 224.11811
 226.18956 228.28502 230.39348 232.51093 234.65139 236.83485 239.10230 241.48376
 244.11622 246.37867 248.39213 250.16859 251.59704 252.73150 253.56496 253.89241
 253.94087 253.72632 253.09778 252.05724 250.67469 248.84715 246.76761 244.61206
 242.41452 240.22998 238.06143 235.91189 233.78335 231.66180 229.69926 227.86772
 226.16217 224.64563 223.28709 222.07054 220.96400 219.93545 219.05091 218.20337
 217.45682 216.64828 215.75774 215.13319 214.59465 215.17233 216.51453 217.37581
 218.36406 219.73386 220.69908 220.48439 219.96671 220.58392 222.30919 225.22122
 228.42006 232.64838 237.16479 241.48940 245.75775 249.93852 253.87978 257.42456
 260.49957 263.22845 265.75027 268.08981 270.26776 272.32910 274.29568 276.04297
 277.13757 278.06766 279.74658 281.27499 282.59772 283.76801 284.83569 285.80295
 286.67288 287.44757 288.12433 288.98679
 366.78100 356.34704 345.79108 334.66911 323.08415 311.29019 299.17223 286.98727
 274.71131 262.62034 250.64138 239.95442 230.08846 221.20450 213.39854 206.41257
 200.25861 195.20865 191.80269 189.85673 188.90577 188.98180 189.82884 191.14888
 192.88592 194.99296 197.26800 199.63903 202.09607 204.58811 206.68815 208.54219
 210.18023 211.33726 211.57830 211.81834 211.76738 211.48442 211.12946 210.77149
 210.40053 210.12257 209.94261 209.81865 209.75869 210.10172 210.49976 210.90080
 211.70584 212.89588 214.15792 215.95295 217.89299 219.94803 222.05507 224.15011
 226.22215 228.31818 230.42722 232.54526 234.68630 236.87034 239.13838 241.52041
 244.15345 246.41649 248.43053 250.20757 251.63661 252.77164 253.60568 253.93372
 253.98276 253.76880 253.14084 252.10087 250.71891 248.89195 246.81299 244.65803
 242.46107 240.27710 238.10914 235.96018 233.83222 231.71126 229.74930 227.91833
 226.21337 224.69741 223.33945 222.12349 221.01753 219.98956 219.10560 218.25864
 217.51268 216.70472 215.81476 215.19079 214.65283 215.19432 216.46985 217.39276
 218.39748 219.71780 220.60045 220.31168 219.77095 220.40475 222.24927 225.19122
 228.50064 232.74001 237.26347 241.60635 245.88429 250.05302 253.96159 257.45309
 260.49615 263.22888 265.77838 268.14359 270.35339 272.44852 274.45749 276.26520
 277.64954 278.45181 279.99286 281.55002 282.89761 284.08990 285.17767 286.16312
 287.04941 287.83865 288.52814 289.40677
 366.78100 356.34656 345.79012 334.66768 323.08224 311.28779 299.16935 286.98391
 274.70747 262.61603 250.63659 239.94915 230.08271 221.19827 213.39182 206.40538
 200.25094 195.20050 191.79406 189.84762 188.89618 188.97174 189.81830 191.13785
 192.87441 194.98097 197.25553 199.62609 202.08265 204.57421 206.67377 208.52733
 210.16488 211.32144 211.56200 211.80156 211.75012 211.46668 211.11124 210.75280
 210.38136 210.10291 209.92247 209.79803 209.73759 210.08015 210.47771 210.87827
 211.68283 212.87239 214.13394 215.92850 217.86806 219.92262 222.02918 224.12374
 226.19530 228.29086 230.39942 232.51697 234.65753 236.84109 239.10865 241.49021
 244.12277 246.38533 248.39889 250.17545 251.60400 252.73856 253.57212 253.89968
 253.94824 253.73380 253.10536 252.06492 250.68248 248.85503 246.77559 244.62015
 242.42271 240.23827 238.06983 235.92039 233.79195 231.67051 229.70806 227.87662
 226.17118 224.65474 223.29630 222.07986 220.97342 219.94498 219.06054 218.21309
 217.46665 216.65821 215.76777 215.14333 214.60489 215.17152 216.48824 217.35706
 218.43185 219.77798 220.66270 220.23070 219.53250 220.19914 222.01106 225.02557
 228.47903 232.79935 237.35793 241.72427 246.01747 250.18091 254.06825 257.53503
 260.56281 263.29184 265.84036 268.19458 270.39545 272.50140 274.51782 276.31909
 277.70331 278.63995 280.23996 281.76022 283.07587 284.23987 285.30185 286.26392
 287.12921 287.89975 288.57288 289.43069
 366.78100 356.34593 345.78885 334.66578 323.07971 311.28463 299.16556 286.97949
 274.70241 262.61034 250.63027 239.94219 230.07512 221.19005 213.38297 206.39590
 200.24083 195.18975 191.78268 189.83560 188.88353 188.95846 189.80438 191.12331
 192.85924 194.96516 197.23909 199.60902 202.06494 204.55587 206.65480 208.50772
 210.14465 211.30058 211.54050 211.77943 211.72736 211.44328 211.08721 210.72814
 210.35606 210.07699 209.89592 209.77084 209.70977 210.05170 210.44862 210.84855
 211.65248 212.84140 214.10233 215.89625 217.83518 219.88911 221.99503 224.08896
 226.15989 228.25481 230.36274 232.47967 234.61959 236.80252 239.06945 241.45037
 244.08230 246.34423 248.35715 250.13308 251.56101 252.69493 253.52786 253.85479
 253.90271 253.68764 253.05857 252.01749 250.63442 248.80635 246.72627 244.57020
 242.37213 240.18705 238.01798 235.86790 233.73883 231.61676 229.65368 227.82161
 226.11554 224.59846 223.23939 222.02232 220.91524 219.88617 219.00110 218.15302
 217.40595 216.59688 215.70580 215.08073 214.54166 215.14130 216.51498 217.31334
 218.42673 219.77933 220.67320 220.20393 219.41351 219.95049 221.72389 224.92906
 228.50099 232.88623 237.47052 241.85353 246.14922 250.29817 254.15096 257.59833
 260.64859 263.42654 266.02176 268.39218 270.59125 272.69073 274.70407 276.50647
 277.86380 278.93903 280.53073 282.01584 283.30112 284.43823 285.47568 286.41553
 287.26083 288.01358 288.67117 289.50916
 366.78100 356.34536 345.78773 334.66409 323.07745 311.28181 299.16218 286.97554
 274.69790 262.60527 250.62463 239.93599 230.06835 221.18272 213.37508 206.38744
 200.23181 195.18017 191.77253 189.82490 188.87226 188.94662 189.79198 191.11035
 192.84571 194.95107 197.22444 199.59380 202.04916 204.53952 206.63789 208.49025
 210.12661 211.28198 211.52134 211.75970 211.70706 211.42243 211.06579 210.70615
 210.33352 210.05388 209.87224 209.74660 209.68497 210.02633 210.42269 210.82206
 211.62542 212.81378 214.07415 215.86751 217.80587 219.85923 221.96460 224.05796
 226.12832 228.22269 230.33005 232.44641 234.58577 236.76814 239.03450 241.41486
 244.04623 246.30759 248.31995 250.09531 251.52268 252.65604 253.48840 253.81477
 253.86213 253.64649 253.01685 251.97522 250.59158 248.76294 246.68231 244.52567
 242.32703 240.14140 237.97176 235.82112 233.69148 231.56885 229.60521 227.77257
 226.06594 224.54830 223.18866 221.97102 220.86339 219.83375 218.94811 218.09948
 217.35184 216.54220 215.65056 215.02493 214.48529 215.10307 216.52966 217.29518
 218.36862 219.70186 220.46207 219.99591 219.26894 219.69553 221.67537 224.90933
 228.63101 232.99831 237.57263 241.99475 246.29195 250.42958 254.25285 257.65088
 260.68359 263.48007 266.10138 268.51895 270.75378 272.89047 274.91605 276.72736
 278.16934 279.15085 279.81610 280.68561 281.88077 282.93820 283.90292 284.77692
 285.56296 286.26294 286.87442 287.65372
 366.78100 356.34467 345.78634 334.66201 323.07468 311.27835 299.15802 286.97069
 274.69236 262.59903 250.61770 239.92837 230.06004 221.17371 213.36538 206.37705
 200.22072 195.16840 191.76007 189.81174 188.85841 188.93208 189.77675 191.09442
 192.82909 194.93376 197.20643 199.57510 202.02977 204.51944 206.61711 208.46878
 210.10445 211.25912 211.49779 211.73546 211.68213 211.39680 211.03947 210.67914
 210.30581 210.02548 209.84315 209.71682 209.65449 209.99516 210.39083 210.78950
 211.59217 212.77985 214.03952 215.83219 217.76986 219.82253 221.92720 224.01987
 226.08954 228.18321 230.28988 232.40555 234.54422 236.72589 238.99156 241.37123
 244.00190 246.26257 248.27424 250.04891 251.47558 252.60825 253.43992 253.76559
 253.81226 253.59593 252.96560 251.92327 250.53894 248.70961 246.62828 244.47095
 242.27162 240.08530 237.91497 235.76364 233.63331 231.50998 229.54565 227.71232
 226.00499 224.48666 223.12633 221.90800 220.79967 219.76934 218.88301 218.03368
 217.28535 216.47502 215.58269 214.95636 214.41603 215.05444 216.54593 217.32539
 218.24942 219.58751 220.33122 219.75600 218.97786 219.33310 221.56241 224.74933
 228.71819 233.08963 237.68620 242.13451 246.43422 250.56400 254.36646 257.75110
 260.76175 263.52972 266.12701 268.54681 270.81265 272.97888 275.01682 276.82373
 278.23764 279.22699 279.79065 280.08917 280.52914 281.44391 282.43347 283.32996
 284.13626 284.85428 285.48151 286.28085
 366.78100 356.34485 345.78671 334.66256 323.07542 311.27927 299.15912 286.97198
 274.69383 262.60069 250.61954 239.93039 230.06225 221.17610 213.36796 206.37981
 200.22366 195.17152 191.76337 189.81523 188.86208 188.93593 189.78079 191.09864
 192.83350 194.93835 197.21120 199.58006 202.03491 204.52477 206.62262 208.47447
 210.11033 211.26518 211.50404 211.74189 211.68874 211.40360 211.04645 210.68631
 210.31316 210.03302 209.85087 209.72472 209.66258 210.00343 210.39929 210.79814
 211.60099 212.78885 214.04870 215.84156 217.77941 219.83226 221.93712 224.02997
 226.09983 228.19368 230.30053 232.41639 234.55524 236.73710 239.00295 241.38280
 244.01366 246.27451 248.28637 250.06122 251.48807 252.62093 253.45278 253.77864
 253.82549 253.60934 252.97920 251.93705 250.55291 248.72376 246.64261 244.48547
 242.28632 240.10018 237.93003 235.77888 233.64874 231.52559 229.56145 227.72830
 226.02115 224.50301 223.14286 221.92472 220.81657 219.78642 218.90028 218.05113
 217.30299 216.49284 215.60069 214.97455 214.43440 215.05283 216.50978 217.42874
 218.19815 219.44717 220.26544 219.65361 218.78084 219.02394 221.34627 224.63345
 228.77730 233.18842 237.80882 242.26593 246.57526 250.70355 254.48631 257.85474
 260.86307 263.62662 266.20950 268.61139 270.87280 273.05249 275.11337 276.91550
 278.30820 279.24191 279.70047 279.85278 280.04144 280.70584 281.67120 282.58856
 283.41364 284.14838 284.79022 285.60818
 366.78100 356.34559 345.78817 334.66476 323.07835 311.28294 299.16352 286.97711
 274.69970 262.60728 250.62687 239.93846 230.07104 221.18563 213.37822 206.39081
 200.23539 195.18398 191.77657 189.82915 188.87674 188.95133 189.79692 191.11550
 192.85109 194.95668 197.23026 199.59985 202.05544 204.54602 206.64461 208.49720
 210.13379 211.28937 211.52896 211.76755 211.71513 211.43072 211.07431 210.71490
 210.34248 210.06307 209.88166 209.75624 209.69483 210.03642 210.43300 210.83259
 211.63618 212.82477 214.08535 215.87894 217.81753 219.87111 221.97670 224.07029
 226.14088 228.23546 230.34305 232.45964 234.59922 236.78181 239.04840 241.42898
 244.06057 246.32216 248.33475 250.11033 251.53792 252.67151 253.50409 253.83068
 253.87827 253.66286 253.03344 251.99203 250.60862 248.78020 246.69979 244.54338
 242.34496 240.15955 237.99014 235.83973 233.71031 231.58790 229.62449 227.79207
 226.08566 224.56825 223.20884 221.99142 220.88401 219.85460 218.96918 218.12077
 217.37336 216.56394 215.67253 215.04712 214.50771 215.08205 216.44112 217.54128
 218.25453 219.34862 220.19374 219.54576 218.61180 218.75455 221.16144 224.55673
 228.83107 233.29161 237.93304 242.39157 246.71031 250.83295 254.59268 257.93979
 260.94913 263.73007 266.32242 268.72607 270.99069 273.17151 275.24600 277.05057
 278.37177 279.18335 279.52042 279.55844 279.73932 280.42075 281.36755 282.26477
 283.07538 283.79721 284.42776 285.23138
 366.78100 356.34509 345.78717 334.66326 323.07634 311.28043 299.16051 286.97360
 274.69569 262.60277 250.62186 239.93294 230.06503 221.17912 213.37120 206.38329
 200.22737 195.17546 191.76754 189.81963 188.86672 188.94080 189.78589 191.10397
 192.83906 194.94415 197.21723 199.58632 202.04140 204.53149 206.62957 208.48166
 210.11775 211.27283 211.51192 211.75000 211.69709 211.41217 211.05526 210.69535
 210.32243 210.04252 209.86060 209.73469 209.67278 210.01386 210.40995 210.80903
 211.61212 212.80020 214.06029 215.85338 217.79146 219.84455 221.94963 224.04272
 226.11281 228.20689 230.31398 232.43006 234.56915 236.75123 239.01732 241.39741
 244.02849 246.28958 248.30166 250.07675 251.50383 252.63692 253.46901 253.79509
 253.84218 253.62626 252.99635 251.95444 250.57052 248.74161 246.66069 244.50378
 242.30486 240.11895 237.94904 235.79812 233.66821 231.54529 229.58138 227.74847
 226.04155 224.52364 223.16372 221.94581 220.83789 219.80798 218.92207 218.07315
 217.32524 216.51532 215.62341 214.99749 214.45758 215.05261 216.45848 217.54143
 218.37695 219.35466 220.03964 219.36163 218.44667 218.57437 221.00125 224.51761
 228.89908 233.40314 238.06215 242.52223 246.85660 250.97400 254.70871 258.03143
 261.04214 263.83725 266.42896 268.82773 271.09454 273.28613 275.35242 277.12662
 278.41571 279.16867 279.37390 279.35492 279.60074 280.22632 281.14780 282.01407
 282.78796 283.47766 284.08017 284.84799
 354.97500 345.04800 334.58700 324.11500 313.32600 302.53700 291.65000 280.76700
 269.93100 259.19300 248.62200 238.61700 229.08700 220.35500 212.54000 205.53500
 199.46400 194.49300 191.14300 189.19000 188.08900 188.01400 188.72400 189.90600
 191.46900 193.38200 195.40300 197.55600 199.80700 202.06000 204.28800 206.47900
 208.55200 210.37800 212.02500 213.65900 214.99800 216.11800 217.17200 218.25900
 219.49400 220.64500 221.67900 222.61400 223.54500 224.98200 226.57100 228.19000
 229.79700 231.81100 233.86500 235.97200 238.24200 240.55300 242.89900 245.25300
 247.48800 249.53500 251.36600 252.84800 254.09800 255.16700 256.02700 256.25300
 256.09500 255.54300 253.93500 252.56600 251.38400 250.24500 249.05200 247.70100
 246.01600 243.99600 241.78400 239.39300 236.81300 234.22300 231.65800 229.14400
 226.74000 224.47300 222.33500 220.32500 218.44000 216.67700 214.96200 213.47200
 212.20000 211.10800 210.26000 209.63900 209.24400 209.03100 209.05800 209.33300
 209.78400 210.62600 211.33100 212.39100 213.62500 214.84668 217.72949 219.47640
 220.32566 220.86828 220.88710 220.27371 219.43733 218.84250 219.04934 220.86203
 222.60583 225.72206 229.03064 232.61777 236.12270 239.51333 242.70767 245.68587
 248.41061 250.90679 253.19353 254.91714 256.48655 257.94920 259.39966 260.69384
 261.81714 262.77997 263.71679 264.54570 265.26305 265.89772 266.47676 267.00133
 267.47312 267.89325 268.26027 268.72800
