|-------------------------------------------------------------------------|
|   File Name : in_temp.dat
|   Subject   : temperature profiles used for initial guess atmosphere
|   File Type : input of gmtr
|   Data Type : atmospherical data
|   Author/s  : WRF-Chem
|   Date      : Fri Jul 26 15:39:24 2024
|-------------------------------------------------------------------------|

 WRF-Chem temperature
#
 values of T (K)    (8f10.5)
#
 354.97500 345.04800 334.58700 324.11500 313.32600 302.53700 291.65000 280.76700
 269.93100 259.19300 248.62200 238.61700 229.08700 220.35500 212.54000 205.53500
 199.46400 194.49300 191.14300 189.19000 188.08900 188.01400 188.72400 189.90600
 191.46900 193.38200 195.40300 197.55600 199.80700 202.06000 204.28800 206.47900
 208.55200 210.37800 212.02500 213.65900 214.99800 216.11800 217.17200 218.25900
 219.49400 220.64500 221.67900 222.61400 223.54500 224.98200 226.57100 228.19000
 229.79700 231.81100 233.86500 235.97200 238.24200 240.55300 242.89900 245.25300
 247.48800 249.53500 251.36600 252.84800 254.09800 255.16700 256.02700 256.25300
 256.09500 255.54300 253.93500 252.56600 251.38400 250.24500 249.05200 247.70100
 246.01600 243.99600 241.78400 239.39300 236.81300 234.22300 231.65800 229.14400
 226.74000 224.47300 222.33500 220.32500 218.44000 216.67700 214.96200 213.47200
 212.20000 211.10800 210.26000 209.63900 209.24400 209.03100 209.05800 209.33300
 209.78400 210.62600 211.33100 212.39100 213.62500 214.84668 217.72949 219.47640
 220.32566 220.86828 220.88710 220.27371 219.43733 218.84250 219.04934 220.86203
 222.60583 225.72206 229.03064 232.61777 236.12270 239.51333 242.70767 245.68587
 248.41061 250.90679 253.19353 254.91714 256.48655 257.94920 259.39966 260.69384
 261.81714 262.77997 263.71679 264.54570 265.26305 265.89772 266.47676 267.00133
 267.47312 267.89325 268.26027 268.72800
 366.78100 356.33500 345.76700 334.63300 323.03600 311.23000 299.10000 286.90300
 274.61500 262.51200 250.52100 239.82200 229.94400 221.04800 213.23000 206.23200
 200.06600 195.00400 191.58600 189.62800 188.66500 188.72900 189.56400 190.87200
 192.59700 194.69200 196.95500 199.31400 201.75900 204.23900 206.32700 208.16900
 209.79500 210.94000 211.16900 211.39700 211.33400 211.03900 210.67200 210.30200
 209.91900 209.62900 209.43700 209.30100 209.22900 209.56000 209.94600 210.33500
 211.12800 212.30600 213.55600 215.33900 217.26700 219.31000 221.40500 223.48800
 225.54800 227.63200 229.72900 231.83500 233.96400 236.13600 238.39200 240.76200
 243.38300 245.63400 247.63600 249.40100 250.81800 251.94100 252.76300 253.07900
 253.11600 252.89000 252.25000 251.19800 249.80400 247.96500 245.87400 243.70700
 241.49800 239.30200 237.12200 234.96100 232.82100 230.68800 228.71400 226.87100
 225.15400 223.62600 222.25600 221.02800 219.91000 218.87000 217.97400 217.11500
 216.35700 215.53700 214.63500 213.99900 213.44900 212.85855 212.01316 212.61654
 214.26826 216.08686 218.14273 220.53346 223.40855 226.78828 231.49734 235.90155
 239.42278 243.28576 247.23140 251.11907 254.80144 258.23331 261.38913 264.27520
 266.89312 269.26852 271.44504 273.08845 274.58484 275.98591 277.39845 278.65879
 279.75272 280.69038 281.56708 282.34086 283.01050 283.60295 284.14348 284.63317
 285.07358 285.46577 285.80838 286.24500
 381.81900 372.39900 361.20600 349.77600 337.62200 324.85300 311.81000 298.35300
 284.86000 271.32400 258.56100 246.30400 236.08700 226.79600 218.44800 211.29000
 205.52200 200.89400 197.38100 194.84800 193.01500 192.31500 192.25000 192.43100
 192.91200 193.53700 194.13600 194.71200 195.26200 195.83100 196.39300 196.97600
 197.60400 198.14900 198.58400 199.05700 199.69500 200.37800 201.05400 201.70800
 202.31300 202.85700 203.35500 203.86200 204.56900 205.29700 206.02600 206.98700
 208.19300 209.44100 210.96900 212.57600 214.46200 216.51300 218.63000 220.85300
 223.34100 225.96200 228.73900 231.69700 234.70600 237.70600 240.69200 243.65700
 246.73700 249.69900 252.52100 255.06300 257.29000 259.23300 260.63300 261.68000
 262.46100 262.79800 262.69100 262.22400 261.06900 259.52500 257.70700 255.50700
 253.00100 250.30200 247.39800 244.45200 241.65400 239.05400 236.73300 234.59000
 232.59500 230.72500 228.83400 226.82600 224.66600 222.38700 220.10400 217.71500
 215.45900 213.06600 210.54600 208.09300 205.35400 202.08130 196.05959 200.71215
 209.01611 216.90438 223.84126 229.78593 235.00632 240.20838 245.98943 250.68668
 254.32982 257.93487 261.55666 264.96801 268.15192 271.06452 273.76717 276.25691
 278.57680 280.74479 282.77456 284.60533 286.27232 287.81705 289.31715 290.65561
 291.81734 292.81312 293.70701 294.49387 295.17482 295.77730 296.32696 296.82492
 297.27278 297.67160 298.02000 298.46400
 399.33000 389.90700 379.81300 368.66800 357.52200 345.30100 333.07400 320.22700
 307.21600 293.84800 280.37600 267.29600 254.61000 242.98700 232.15100 221.97700
 212.67200 204.28600 197.66900 192.82100 189.48600 187.45200 186.81400 187.08900
 187.78100 189.05400 190.64800 192.54200 194.63000 196.75200 198.67100 200.15800
 201.53500 202.48700 202.97500 203.34000 203.53900 203.49700 203.38500 203.24700
 203.00500 202.78600 202.60300 202.43700 202.42600 202.88800 203.42000 203.95100
 204.89500 205.99200 207.30100 208.95800 210.73800 213.10000 215.56400 218.18000
 220.96600 223.91800 226.96100 230.09200 233.29300 236.55700 239.95500 243.53700
 246.84500 249.39000 251.54200 253.47400 255.19500 256.48400 257.43100 258.05900
 258.21200 258.04000 257.58200 256.64300 255.23900 253.50700 251.40800 249.05600
 246.57600 243.99400 241.38900 238.83000 236.34400 233.98600 231.96900 230.11800
 228.42300 226.89900 225.54800 224.29700 223.10500 221.96500 220.95800 220.11300
 219.49000 218.92000 218.32500 217.88100 217.42300 216.96366 216.35568 216.80261
 217.73415 218.28582 218.64258 219.10077 220.44626 222.53987 226.38451 230.35736
 233.59734 237.39164 241.29814 245.22796 248.98002 252.51130 255.78595 258.80109
 261.54781 264.05210 266.34239 268.04198 269.58951 271.01303 272.35754 273.55718
 274.59842 275.49092 276.28989 276.99307 277.60161 278.14001 278.63122 279.07623
 279.47646 279.83287 280.14422 280.54100
 399.73800 389.78500 379.66200 368.15100 356.64100 344.35000 331.79200 318.88800
 305.72600 292.49300 279.20900 266.73800 254.69600 244.21100 234.45700 225.43300
 217.56900 210.45100 204.30000 199.30600 195.45800 192.57600 191.02700 190.38600
 190.23900 190.53400 191.16600 191.92500 192.79500 193.76600 194.73200 195.31200
 195.80000 196.05200 196.11500 196.11500 196.03900 195.72300 195.34000 194.98900
 194.75100 194.79200 195.13300 195.59800 196.50600 198.13600 199.85800 201.56600
 204.17900 206.82300 209.89300 213.28400 216.82800 220.60500 224.38700 228.20900
 232.03200 235.82500 239.56000 243.25800 246.84500 250.20100 253.70900 257.46800
 261.53000 264.22100 266.60100 268.68100 270.32900 271.74100 272.83600 273.47400
 273.89800 274.00200 273.75700 273.28800 272.37100 271.10000 269.58900 267.77900
 265.81600 263.72100 261.39300 258.91600 256.29800 253.42300 250.33100 247.11400
 243.83700 240.52900 237.24900 233.99900 230.72800 227.51500 224.25400 220.95200
 217.62700 213.65600 210.12100 206.78900 204.01000 201.99491 199.07309 198.76551
 199.40006 200.48994 201.46112 202.31912 203.45100 204.96110 207.47502 210.85391
 213.70530 217.29629 220.99574 224.72316 228.28753 231.64854 234.68024 237.40893
 239.70644 241.60899 243.46854 245.67368 247.68154 249.52395 251.24767 252.78566
 254.12057 255.26479 256.23740 257.09036 257.82852 258.48160 259.07744 259.61723
 260.10271 260.53504 260.91270 261.39400
 399.73800 389.78500 379.66200 368.15100 356.64100 344.35000 331.79200 318.88800
 305.72600 292.49300 279.20900 266.73800 254.69600 244.21100 234.45700 225.43300
 217.56900 210.45100 204.30000 199.30600 195.45800 192.57600 191.02700 190.38600
 190.23900 190.53400 191.16600 191.92500 192.79500 193.76600 194.73200 195.31200
 195.80000 196.05200 196.11500 196.11500 196.03900 195.72300 195.34000 194.98900
 194.75100 194.79200 195.13300 195.59800 196.50600 198.13600 199.85800 201.56600
 204.17900 206.82300 209.89300 213.28400 216.82800 220.60500 224.38700 228.20900
 232.03200 235.82500 239.56000 243.25800 246.84500 250.20100 253.70900 257.46800
 261.53000 264.22100 266.60100 268.68100 270.32900 271.74100 272.83600 273.47400
 273.89800 274.00200 273.75700 273.28800 272.37100 271.10000 269.58900 267.77900
 265.81600 263.72100 261.39300 258.91600 256.29800 253.42300 250.33100 247.11400
 243.83700 240.52900 237.24900 233.99900 230.72800 227.51500 224.25400 220.95200
 217.62700 213.65600 210.12100 206.78900 204.01000 201.99491 199.07309 198.76551
 199.40006 200.48994 201.46112 202.31912 203.45100 204.96110 207.47502 210.85391
 213.70530 217.29629 220.99574 224.72316 228.28753 231.64854 234.68024 237.40893
 239.70644 241.60899 243.46854 245.67368 247.68154 249.52395 251.24767 252.78566
 254.12057 255.26479 256.23740 257.09036 257.82852 258.48160 259.07744 259.61723
 260.10271 260.53504 260.91270 261.39400
 399.33000 389.90700 379.81300 368.66800 357.52200 345.30100 333.07400 320.22700
 307.21600 293.84800 280.37600 267.29600 254.61000 242.98700 232.15100 221.97700
 212.67200 204.28600 197.66900 192.82100 189.48600 187.45200 186.81400 187.08900
 187.78100 189.05400 190.64800 192.54200 194.63000 196.75200 198.67100 200.15800
 201.53500 202.48700 202.97500 203.34000 203.53900 203.49700 203.38500 203.24700
 203.00500 202.78600 202.60300 202.43700 202.42600 202.88800 203.42000 203.95100
 204.89500 205.99200 207.30100 208.95800 210.73800 213.10000 215.56400 218.18000
 220.96600 223.91800 226.96100 230.09200 233.29300 236.55700 239.95500 243.53700
 246.84500 249.39000 251.54200 253.47400 255.19500 256.48400 257.43100 258.05900
 258.21200 258.04000 257.58200 256.64300 255.23900 253.50700 251.40800 249.05600
 246.57600 243.99400 241.38900 238.83000 236.34400 233.98600 231.96900 230.11800
 228.42300 226.89900 225.54800 224.29700 223.10500 221.96500 220.95800 220.11300
 219.49000 218.92000 218.32500 217.88100 217.42300 216.96366 216.35568 216.80261
 217.73415 218.28582 218.64258 219.10077 220.44626 222.53987 226.38451 230.35736
 233.59734 237.39164 241.29814 245.22796 248.98002 252.51130 255.78595 258.80109
 261.54781 264.05210 266.34239 268.04198 269.58951 271.01303 272.35754 273.55718
 274.59842 275.49092 276.28989 276.99307 277.60161 278.14001 278.63122 279.07623
 279.47646 279.83287 280.14422 280.54100
 381.81900 372.39900 361.20600 349.77600 337.62200 324.85300 311.81000 298.35300
 284.86000 271.32400 258.56100 246.30400 236.08700 226.79600 218.44800 211.29000
 205.52200 200.89400 197.38100 194.84800 193.01500 192.31500 192.25000 192.43100
 192.91200 193.53700 194.13600 194.71200 195.26200 195.83100 196.39300 196.97600
 197.60400 198.14900 198.58400 199.05700 199.69500 200.37800 201.05400 201.70800
 202.31300 202.85700 203.35500 203.86200 204.56900 205.29700 206.02600 206.98700
 208.19300 209.44100 210.96900 212.57600 214.46200 216.51300 218.63000 220.85300
 223.34100 225.96200 228.73900 231.69700 234.70600 237.70600 240.69200 243.65700
 246.73700 249.69900 252.52100 255.06300 257.29000 259.23300 260.63300 261.68000
 262.46100 262.79800 262.69100 262.22400 261.06900 259.52500 257.70700 255.50700
 253.00100 250.30200 247.39800 244.45200 241.65400 239.05400 236.73300 234.59000
 232.59500 230.72500 228.83400 226.82600 224.66600 222.38700 220.10400 217.71500
 215.45900 213.06600 210.54600 208.09300 205.35400 202.08130 196.05959 200.71215
 209.01611 216.90438 223.84126 229.78593 235.00632 240.20838 245.98943 250.68668
 254.32982 257.93487 261.55666 264.96801 268.15192 271.06452 273.76717 276.25691
 278.57680 280.74479 282.77456 284.60533 286.27232 287.81705 289.31715 290.65561
 291.81734 292.81312 293.70701 294.49387 295.17482 295.77730 296.32696 296.82492
 297.27278 297.67160 298.02000 298.46400
 366.78100 356.34660 345.79020 334.66780 323.08239 311.28799 299.16959 286.98419
 274.70779 262.61639 250.63698 239.94958 230.08318 221.19878 213.39238 206.40598
 200.25157 195.20117 191.79477 189.84837 188.89697 188.97257 189.81917 191.13876
 192.87536 194.98196 197.25656 199.62716 202.08376 204.57535 206.67495 208.52855
 210.16615 211.32275 211.56335 211.80294 211.75154 211.46814 211.11274 210.75434
 210.38294 210.10453 209.92413 209.79973 209.73933 210.08193 210.47953 210.88013
 211.68472 212.87432 214.13592 215.93052 217.87012 219.92472 222.03131 224.12591
 226.19751 228.29311 230.40171 232.51931 234.65990 236.84350 239.11110 241.49270
 244.12530 246.38790 248.40150 250.17809 251.60669 252.74129 253.57489 253.90249
 253.95109 253.73668 253.10828 252.06788 250.68548 248.85808 246.77868 244.62327
 242.42587 240.24147 238.07307 235.92367 233.79527 231.67386 229.71146 227.88006
 226.17466 224.65826 223.29986 222.08346 220.97705 219.94865 219.06425 218.21685
 217.47045 216.66205 215.77164 215.14724 214.60884 213.60587 211.23906 210.36719
 211.29419 213.08763 215.24466 216.95607 219.31740 223.40485 229.19858 234.31459
 238.17159 241.91428 245.61725 249.45479 253.50372 256.95145 259.62637 261.81323
 264.66791 267.44745 269.78424 271.76083 273.54825 275.25784 276.87677 278.54691
 280.28632 281.90744 283.38635 284.73865 285.91864 286.96530 287.92392 288.79782
 289.58682 290.29453 290.92093 291.75095
 366.78100 356.34572 345.78844 334.66517 323.07889 311.28361 299.16433 286.97806
 274.70078 262.60850 250.62822 239.93994 230.07267 221.18739 213.38011 206.39283
 200.23756 195.18628 191.77900 189.83172 188.87944 188.95417 189.79989 191.11861
 192.85433 194.96006 197.23378 199.60350 202.05922 204.54995 206.64867 208.50139
 210.13811 211.29383 211.53356 211.77228 211.72000 211.43572 211.07945 210.72017
 210.34789 210.06861 209.88733 209.76206 209.70078 210.04250 210.43922 210.83895
 211.64267 212.83139 214.09211 215.88583 217.82456 219.87828 221.98400 224.07772
 226.14845 228.24317 230.35089 232.46761 234.60733 236.79006 239.05678 241.43750
 244.06922 246.33095 248.34367 250.11939 251.54711 252.68084 253.51356 253.84028
 253.88800 253.67272 253.04345 252.00217 250.61889 248.79061 246.71034 244.55406
 242.35578 240.17050 238.00122 235.85095 233.72167 231.59939 229.63611 227.80384
 226.09756 224.58028 223.22100 222.00372 220.89645 219.86717 218.98189 218.13361
 217.38634 216.57706 215.68578 215.06050 214.52122 213.57671 211.34738 210.50087
 211.36960 213.19598 215.34819 216.96176 219.25117 223.32301 229.13541 234.22711
 238.06787 241.80666 245.52118 249.38551 253.47945 256.87894 259.49509 261.70358
 264.56638 267.36517 269.72159 271.68445 273.43097 275.10745 276.74606 278.44006
 280.18134 281.80139 283.28366 284.63718 285.81689 286.86453 287.82349 288.69565
 289.48764 290.19714 290.82330 291.65399
 366.78100 356.34502 345.78703 334.66305 323.07606 311.28008 299.16009 286.97311
 274.69512 262.60214 250.62115 239.93217 230.06418 221.17820 213.37021 206.38223
 200.22624 195.17426 191.76628 189.81829 188.86531 188.93932 189.78434 191.10235
 192.83737 194.94238 197.21540 199.58441 202.03943 204.52944 206.62746 208.47947
 210.11549 211.27051 211.50952 211.74754 211.69455 211.40957 211.05258 210.69260
 210.31961 210.03963 209.85764 209.73166 209.66967 210.01069 210.40670 210.80572
 211.60873 212.79675 214.05677 215.84978 217.78780 219.84081 221.94583 224.03884
 226.10886 228.20287 230.30989 232.42590 234.56492 236.74693 239.01295 241.39296
 244.02398 246.28500 248.29701 250.07203 251.49904 252.63206 253.46407 253.79009
 253.83710 253.62112 252.99113 251.94915 250.56516 248.73618 246.65519 244.49821
 242.29922 240.11324 237.94326 235.79227 233.66229 231.53930 229.57532 227.74233
 226.03535 224.51736 223.15738 221.93939 220.83141 219.80142 218.91544 218.06645
 217.31847 216.50849 215.61650 214.99052 214.45053 213.55438 211.43889 210.64008
 211.44876 213.31149 215.45398 216.98346 219.18143 223.24371 229.07097 234.14163
 237.96547 241.70018 245.42535 249.31674 253.45016 256.79684 259.35385 261.58539
 264.45801 267.27753 269.65829 271.61322 273.32199 274.96671 276.62299 278.33807
 280.08051 281.69843 283.18405 284.53937 285.71951 286.76685 287.72693 288.60068
 289.39169 290.10211 290.72833 291.56082
 366.78100 356.34417 345.78535 334.66052 323.07269 311.27587 299.15504 286.96721
 274.68838 262.59456 250.61273 239.92290 230.05408 221.16725 213.35842 206.36960
 200.21277 195.15994 191.75111 189.80229 188.84846 188.92163 189.76581 191.08298
 192.81715 194.92133 197.19350 199.56167 202.01584 204.50502 206.60219 208.45336
 210.08854 211.24271 211.48088 211.71806 211.66423 211.37840 211.02057 210.65975
 210.28592 210.00509 209.82227 209.69544 209.63261 209.97279 210.36796 210.76613
 211.56831 212.75548 214.01465 215.80682 217.74400 219.79617 221.90034 223.99252
 226.06169 228.15486 230.26104 232.37621 234.51438 236.69555 238.96073 241.33990
 243.97007 246.23025 248.24142 250.01559 251.44177 252.57394 253.40511 253.73028
 253.77646 253.55963 252.92880 251.88598 250.50115 248.67132 246.58950 244.43167
 242.23184 240.04502 237.87419 235.72236 233.59153 231.46771 229.50288 227.66905
 225.96123 224.44240 223.08157 221.86275 220.75392 219.72309 218.83626 217.98644
 217.23761 216.42678 215.53396 214.90713 214.36630 213.52362 211.53403 210.76828
 211.53586 213.42973 215.54880 217.03899 219.11794 223.16440 229.00691 234.05342
 237.86031 241.58897 245.32666 249.24777 253.41631 256.70953 259.21091 261.46686
 264.34470 267.18271 269.59009 271.53903 273.21570 274.83322 276.50607 278.24094
 279.98465 281.60089 283.08896 284.44528 285.62643 286.67429 287.63486 288.50836
 289.29913 290.01138 290.63608 291.47208
 366.78100 356.34319 345.78338 334.65757 323.06876 311.27094 299.14913 286.96032
 274.68051 262.58570 250.60289 239.91208 230.04227 221.15446 213.34465 206.35483
 200.19702 195.14321 191.73340 189.78359 188.82878 188.90097 189.74416 191.06035
 192.79354 194.89672 197.16791 199.53510 201.98829 204.47648 206.57267 208.42286
 210.05705 211.21024 211.44743 211.68361 211.62880 211.34199 210.98318 210.62137
 210.24656 209.96475 209.78094 209.65313 209.58932 209.92850 210.32269 210.71988
 211.52107 212.70726 213.96545 215.75664 217.69283 219.74402 221.84721 223.93839
 226.00658 228.09877 230.20396 232.31815 234.45534 236.63553 238.89972 241.27791
 243.90710 246.16628 248.17647 249.94966 251.37485 252.50604 253.33623 253.66042
 253.70561 253.48780 252.85598 251.81217 250.42636 248.59555 246.51274 244.35393
 242.15312 239.96531 237.79350 235.64069 233.50887 231.38406 229.41825 227.58344
 225.87463 224.35482 222.99301 221.77320 220.66339 219.63158 218.74376 217.89295
 217.14314 216.33133 215.43752 214.80971 214.26790 213.48425 211.63373 210.88916
 211.62608 213.54515 215.63730 217.10762 219.07629 223.09105 228.94679 233.96416
 237.75212 241.47403 245.22830 249.17990 253.37555 256.61850 259.06906 261.34872
 264.22632 267.07922 269.50995 271.45667 273.11032 274.70859 276.39883 278.15115
 279.89371 281.50980 283.00061 284.35617 285.53888 286.58636 287.54654 288.42123
 289.21216 289.92313 290.55157 291.38864
 366.78100 356.34220 345.78140 334.65460 323.06479 311.26599 299.14319 286.95339
 274.67259 262.57679 250.59298 239.90118 230.03038 221.14158 213.33078 206.33998
 200.18117 195.12637 191.71557 189.76477 188.80897 188.88017 189.72236 191.03756
 192.76976 194.87196 197.14216 199.50836 201.96055 204.44775 206.54295 208.39215
 210.02535 211.17755 211.41375 211.64894 211.59314 211.30534 210.94554 210.58274
 210.20694 209.92413 209.73933 209.61053 209.54573 209.88393 210.27713 210.67332
 211.47352 212.65872 213.91592 215.70612 217.64132 219.69151 221.79371 223.88391
 225.95111 228.04231 230.14651 232.25970 234.39590 236.57510 238.83830 241.21550
 243.84370 246.10190 248.11109 249.88329 251.30749 252.43769 253.26689 253.59009
 253.63428 253.41548 252.78268 251.73788 250.35108 248.51928 246.43547 244.27567
 242.07387 239.88507 237.71227 235.55847 233.42566 231.29986 229.33306 227.49726
 225.78746 224.26666 222.90385 221.68305 220.57225 219.53945 218.65065 217.79885
 217.04804 216.23524 215.34044 214.71164 214.16884 213.44394 211.73190 211.00583
 211.71964 213.65987 215.72284 217.17537 219.05351 223.02966 228.89224 233.87411
 237.64322 241.36084 245.13496 249.11641 253.32573 256.52151 258.92599 261.22885
 264.10168 266.96341 269.41568 271.36282 273.00616 274.59488 276.30063 278.06882
 279.80844 281.42377 282.91644 284.27402 285.45517 286.50394 287.46445 288.33994
 289.13385 289.84302 290.47385 291.30429
 366.78100 356.34137 345.77974 334.65212 323.06149 311.26186 299.13823 286.94760
 274.66598 262.56935 250.58472 239.89209 230.02046 221.13084 213.31921 206.32758
 200.16795 195.11232 191.70070 189.74907 188.79244 188.86281 189.70418 191.01856
 192.74993 194.85130 197.12067 199.48604 201.93742 204.42379 206.51816 208.36653
 209.99890 211.15027 211.38565 211.62002 211.56339 211.27476 210.91413 210.55051
 210.17388 209.89025 209.70462 209.57499 209.50937 209.84674 210.23911 210.63448
 211.43385 212.61823 213.87460 215.66397 217.59834 219.64771 221.74909 223.83846
 225.90483 227.99520 230.09857 232.21095 234.34632 236.52469 238.78706 241.16343
 243.79081 246.04818 248.05655 249.82792 251.25129 252.38067 253.20904 253.53141
 253.57478 253.35515 252.72153 251.67590 250.28827 248.45564 246.37101 244.21039
 242.00776 239.81813 237.64450 235.48987 233.35625 231.22962 229.26199 227.42536
 225.71473 224.19311 222.82948 221.60785 220.49622 219.46259 218.57297 217.72034
 216.96871 216.15508 215.25945 214.62982 214.08620 213.41188 211.81906 211.12068
 211.81691 213.77391 215.81313 217.23657 219.04547 222.97852 228.83765 233.78421
 237.53845 241.25513 245.05112 249.05699 253.26648 256.41675 258.78159 261.10684
 263.97046 266.83453 269.30453 271.25629 272.90100 274.49460 276.21515 277.99255
 279.72922 281.34204 282.83765 284.19534 285.37747 286.42590 287.38742 288.26416
 289.05588 289.77011 290.39661 291.23441
 366.78100 356.34071 345.77841 334.65012 323.05882 311.25853 299.13424 286.94294
 274.66065 262.56336 250.57806 239.88477 230.01247 221.12218 213.30989 206.31759
 200.15730 195.10101 191.68871 189.73642 188.77912 188.84883 189.68954 191.00324
 192.73395 194.83466 197.10336 199.46807 201.91877 204.40448 206.49819 208.34589
 209.97760 211.12831 211.36301 211.59672 211.53942 211.25013 210.88884 210.52454
 210.14725 209.86296 209.67666 209.54637 209.48007 209.81678 210.20849 210.60319
 211.40190 212.58561 213.84131 215.63002 217.56372 219.61243 221.71314 223.80184
 225.86755 227.95725 230.05996 232.17167 234.30637 236.48408 238.74579 241.12149
 243.74820 246.00490 248.01261 249.78332 251.20602 252.33473 253.16244 253.48414
 253.52685 253.30655 252.67226 251.62597 250.23767 248.40438 246.31909 244.15779
 241.95450 239.76420 237.58991 235.43462 233.30032 231.17303 229.20474 227.36744
 225.65615 224.13385 222.76956 221.54727 220.43497 219.40068 218.51039 217.65709
 216.90480 216.09050 215.19421 214.56392 214.01962 213.38838 211.89716 211.22725
 211.92210 213.88611 215.91011 217.30090 219.03795 222.93849 228.78377 233.69289
 237.43420 241.15456 244.97418 249.00172 253.19958 256.30710 258.64066 260.98734
 263.83398 266.69162 269.17380 271.13309 272.79370 274.40527 276.14151 277.92422
 279.65808 281.26447 282.76361 284.12253 285.30450 286.35556 287.31622 288.19177
 288.98648 289.69803 290.32730 291.16611
 366.78100 356.34020 345.77741 334.64861 323.05682 311.25602 299.13123 286.93943
 274.65663 262.55884 250.57304 239.87925 230.00645 221.11566 213.30286 206.31007
 200.14927 195.09247 191.67968 189.72688 188.76909 188.83829 189.67850 190.99170
 192.72190 194.82211 197.09031 199.45452 201.90472 204.38993 206.48313 208.33034
 209.96154 211.11174 211.34595 211.57915 211.52136 211.23156 210.86977 210.50497
 210.12717 209.84238 209.65558 209.52479 209.45799 209.79420 210.18540 210.57961
 211.37781 212.56101 213.81622 215.60442 217.53763 219.58583 221.68604 223.77424
 225.83944 227.92865 230.03085 232.14206 234.27626 236.45347 238.71467 241.08988
 243.71608 245.97228 247.97949 249.74969 251.17190 252.30010 253.12731 253.44851
 253.49071 253.26992 252.63512 251.58833 250.19953 248.36574 246.27994 244.11814
 241.91435 239.72355 237.54876 235.39296 233.25817 231.13037 229.16158 227.32378
 225.61198 224.08919 222.72439 221.50160 220.38880 219.35401 218.46321 217.60941
 216.85662 216.04182 215.14503 214.51423 213.96944 213.37390 211.96686 211.33214
 212.02774 214.00084 216.01129 217.35887 219.05399 222.90282 228.72345 233.59961
 237.33279 241.06137 244.90802 248.95158 253.12587 256.19196 258.50217 260.87070
 263.69278 266.53455 269.02435 270.99548 272.68555 274.32947 276.07892 277.86154
 279.59109 281.19168 282.69641 284.05563 285.23834 286.28876 287.24994 288.12708
 288.92072 289.63284 290.26300 291.10419
 366.78100 356.33980 345.77660 334.64741 323.05521 311.25401 299.12881 286.93662
 274.65342 262.55522 250.56902 239.87483 230.00163 221.11043 213.29723 206.30404
 200.14284 195.08564 191.67244 189.71925 188.76105 188.82985 189.66965 190.98246
 192.71226 194.81206 197.07986 199.44367 201.89347 204.37827 206.47107 208.31788
 209.94868 211.09848 211.33228 211.56509 211.50689 211.21669 210.85449 210.48930
 210.11110 209.82590 209.63870 209.50751 209.44031 209.77611 210.16691 210.56072
 211.35852 212.54132 213.79612 215.58392 217.51673 219.56453 221.66433 223.75213
 225.81694 227.90574 230.00754 232.11834 234.25215 236.42895 238.68975 241.06455
 243.69036 245.94616 247.95296 249.72276 251.14457 252.27237 253.09917 253.41997
 253.46178 253.24058 252.60538 251.55818 250.16899 248.33479 246.24859 244.08639
 241.88220 239.69100 237.51580 235.35960 233.22441 231.09621 229.12701 227.28881
 225.57662 224.05342 222.68822 221.46502 220.35183 219.31663 218.42543 217.57123
 216.81804 216.00284 215.10564 214.47444 213.92924 213.36482 212.03134 211.43307
 212.13850 214.10834 216.12956 217.42079 219.04799 222.87863 228.66777 233.50917
 237.22932 240.96761 244.84326 248.90193 253.04083 256.06769 258.36682 260.75992
 263.55124 266.37015 268.86267 270.85129 272.58167 274.26727 276.02859 277.80652
 279.53302 281.12347 282.63278 283.99289 285.17587 286.22754 287.18805 288.06595
 288.86050 289.57382 290.20352 291.04678
 366.78100 356.33987 345.77673 334.64760 323.05547 311.25433 299.12920 286.93707
 274.65393 262.55580 250.56967 239.87553 230.00240 221.11126 213.29813 206.30500
 200.14386 195.08673 191.67360 189.72046 188.76233 188.83120 189.67106 190.98393
 192.71380 194.81366 197.08153 199.44540 201.89526 204.38013 206.47300 208.31986
 209.95073 211.10060 211.33446 211.56733 211.50920 211.21906 210.85693 210.49179
 210.11366 209.82853 209.64139 209.51026 209.44313 209.77899 210.16986 210.56373
 211.36159 212.54446 213.79933 215.58719 217.52006 219.56793 221.66779 223.75566
 225.82053 227.90939 230.01126 232.12213 234.25599 236.43286 238.69373 241.06859
 243.69446 245.95032 247.95719 249.72706 251.14892 252.27679 253.10366 253.42452
 253.46639 253.24526 252.61012 251.56299 250.17386 248.33972 246.25359 244.09146
 241.88732 239.69619 237.52106 235.36492 233.22979 231.10166 229.13252 227.29439
 225.58226 224.05912 222.69399 221.47085 220.35772 219.32259 218.43145 217.57732
 216.82419 216.00905 215.11192 214.48079 213.93565 213.38049 212.06885 211.53244
 212.27531 214.24393 216.20641 217.44995 219.08461 222.84741 228.59749 233.40669
 237.11961 240.87503 244.78593 248.85834 252.95515 255.94853 258.24518 260.66141
 263.41333 266.19855 268.69006 270.69830 272.47644 274.21243 275.98297 277.75150
 279.47458 281.05716 282.57373 283.93512 285.11807 286.17041 287.13232 288.00977
 288.80322 289.51944 290.14957 290.99417
 366.78100 356.33895 345.77489 334.64484 323.05179 311.24974 299.12368 286.93063
 274.64658 262.54753 250.56047 239.86542 229.99137 221.09932 213.28526 206.29121
 200.12916 195.07110 191.65705 189.70300 188.74395 188.81189 189.65084 190.96279
 192.69174 194.79068 197.05763 199.42058 201.86953 204.35347 206.44542 208.29137
 209.92132 211.07026 211.30321 211.53516 211.47610 211.18505 210.82200 210.45595
 210.07689 209.79084 209.60279 209.47074 209.40268 209.73763 210.12758 210.52053
 211.31747 212.49942 213.75337 215.54031 217.47226 219.51921 221.61816 223.70510
 225.76905 227.85700 229.95795 232.06789 234.20084 236.37679 238.63674 241.01068
 243.63563 245.89058 247.89652 249.66547 251.08642 252.21337 253.03931 253.35926
 253.40021 253.17816 252.54210 251.49405 250.10400 248.26895 246.18189 244.01884
 241.81379 239.62174 237.44568 235.28863 233.15258 231.02352 229.05347 227.21442
 225.50137 223.97731 222.61126 221.38721 220.27316 219.23710 218.34505 217.49000
 216.73595 215.91989 215.02184 214.38979 213.84373 213.34709 212.17371 211.60306
 212.36464 214.36989 216.33606 217.49103 219.06929 222.83278 228.54239 233.32025
 237.02641 240.79945 244.74466 248.82455 252.86784 255.82739 258.12515 260.56238
 263.27023 266.01535 268.50076 270.52994 272.36533 274.15952 275.94202 277.69855
 279.41522 280.99673 282.51761 283.88049 285.06323 286.11536 287.07797 287.95578
 288.75287 289.46478 290.09793 290.94489
 366.78100 356.33775 345.77250 334.64126 323.04701 311.24376 299.11651 286.92227
 274.63702 262.53677 250.54852 239.85228 229.97703 221.08378 213.26853 206.27329
 200.11004 195.05079 191.63554 189.68030 188.72005 188.78680 189.62455 190.93531
 192.66306 194.76081 197.02656 199.38832 201.83607 204.31882 206.40957 208.25433
 209.88308 211.03083 211.26258 211.49334 211.43309 211.14084 210.77659 210.40934
 210.02910 209.74185 209.55260 209.41935 209.35011 209.68386 210.07261 210.46436
 211.26012 212.44087 213.69362 215.47937 217.41013 219.45588 221.55363 223.63938
 225.70214 227.78889 229.88864 231.99739 234.12915 236.30390 238.56265 240.93540
 243.55916 245.81291 247.81766 249.58541 251.00517 252.13092 252.95567 253.27442
 253.31418 253.09093 252.45368 251.40443 250.01318 248.17694 246.08869 243.92444
 241.71819 239.52495 237.34770 235.18945 233.05220 230.92196 228.95071 227.11046
 225.39621 223.87097 222.50372 221.27847 220.16322 219.12598 218.23273 217.37648
 216.62123 215.80399 214.90474 214.27149 213.72424 213.29944 212.29579 211.67859
 212.40892 214.47310 216.47810 217.58592 219.10869 222.82999 228.48470 233.22493
 236.92564 240.72090 244.70331 248.78934 252.76738 255.69388 258.00153 260.46405
 263.12701 265.82809 268.30426 270.35703 272.25162 274.10779 275.90091 277.64401
 279.35098 280.93951 282.46603 283.83035 285.01428 286.06616 287.02960 287.90735
 288.70312 289.41742 290.05084 290.89584
 366.78100 356.33646 345.76992 334.63737 323.04183 311.23729 299.10875 286.91320
 274.62666 262.52512 250.53558 239.83803 229.96149 221.06695 213.25041 206.25386
 200.08932 195.02878 191.61224 189.65569 188.69415 188.75961 189.59607 190.90552
 192.63198 194.72844 196.99290 199.35335 201.79981 204.28127 206.37073 208.21418
 209.84164 210.98810 211.21856 211.44801 211.38647 211.09293 210.72739 210.35885
 209.97730 209.68876 209.49822 209.36368 209.29313 209.62559 210.01305 210.40351
 211.19796 212.37742 213.62888 215.41334 217.34279 219.38725 221.48371 223.56817
 225.62962 227.71508 229.81354 231.92100 234.05145 236.22491 238.48237 240.85383
 243.47628 245.72874 247.73220 249.49866 250.91711 252.04157 252.86503 253.18249
 253.22095 252.99640 252.35786 251.30732 249.91478 248.07723 245.98769 243.82215
 241.61461 239.42006 237.24152 235.08198 232.94344 230.81189 228.83935 226.99781
 225.28227 223.75572 222.38718 221.16064 220.04410 219.00555 218.11101 217.25347
 216.49693 215.67838 214.77784 214.14330 213.59476 213.24736 212.42662 211.74782
 212.44800 214.61487 216.61902 217.67848 219.15602 222.76599 228.42340 233.13004
 236.82137 240.64366 244.66670 248.75772 252.66548 255.56392 257.89081 260.37741
 262.99286 265.64459 268.10788 270.18225 272.13751 274.05710 275.86176 277.58649
 279.28403 280.88486 282.41843 283.78223 284.96768 286.02094 286.98425 287.86240
 288.65860 289.37320 290.00473 290.86060
 366.78100 356.33562 345.76825 334.63487 323.03850 311.23312 299.10374 286.90737
 274.61999 262.51762 250.52724 239.82886 229.95149 221.05611 213.23874 206.24136
 200.07598 195.01461 191.59723 189.63986 188.67748 188.74210 189.57773 190.88635
 192.61198 194.70760 196.97122 199.33085 201.77647 204.25710 206.34572 208.18834
 209.81497 210.96059 211.19022 211.41884 211.35646 211.06209 210.69571 210.32634
 209.94396 209.65458 209.46321 209.32783 209.25646 209.58808 209.97470 210.36433
 211.15795 212.33658 213.58720 215.37082 217.29945 219.34307 221.43870 223.52232
 225.58294 227.66757 229.76519 231.87182 234.00144 236.17406 238.43069 240.80131
 243.42293 245.67456 247.67718 249.44281 250.86043 251.98405 252.80668 253.12330
 253.16093 252.93555 252.29617 251.24480 249.85142 248.01305 245.92267 243.75629
 241.54792 239.35254 237.17317 235.01279 232.87341 230.74104 228.76766 226.92529
 225.20891 223.68153 222.31216 221.08478 219.96741 218.92803 218.03265 217.17428
 216.41690 215.59753 214.69615 214.06077 213.51140 213.21790 212.52448 211.82364
 212.51852 214.74687 216.73442 217.76369 219.20659 222.71475 228.36057 233.03734
 236.72397 240.57640 244.63953 248.73212 252.56488 255.43651 257.78400 260.29172
 262.85907 265.45901 267.90527 270.00482 272.02432 274.01224 275.82773 277.53403
 279.22028 280.83234 282.36887 283.73315 284.91910 285.97415 286.93799 287.81708
 288.61374 289.32886 289.96036 290.81619
 366.78100 356.33489 345.76677 334.63266 323.03555 311.22943 299.09932 286.90221
 274.61409 262.51098 250.51987 239.82075 229.94264 221.04653 213.22841 206.23030
 200.06419 195.00207 191.58396 189.62585 188.66273 188.72662 189.56151 190.86939
 192.59428 194.68917 196.95205 199.31094 201.75583 204.23571 206.32360 208.16549
 209.79137 210.93626 211.16515 211.39303 211.32992 211.03481 210.66769 210.29758
 209.91447 209.62435 209.43224 209.29613 209.22401 209.55490 209.94079 210.32967
 211.12256 212.30045 213.55033 215.33322 217.26111 219.30399 221.39888 223.48177
 225.54165 227.62554 229.72243 231.82831 233.95720 236.12909 238.38497 240.75486
 243.37575 245.62663 247.62852 249.39341 250.81029 251.93318 252.75507 253.07095
 253.10784 252.88173 252.24161 251.18950 249.79539 247.95627 245.86516 243.69805
 241.48893 239.29282 237.11271 234.95159 232.81148 230.67837 228.70425 226.86114
 225.14403 223.61591 222.24580 221.01769 219.89957 218.85946 217.96335 217.10423
 216.34612 215.52601 214.62389 213.98778 213.43767 213.19458 212.62024 211.89255
 212.60005 214.86987 216.83943 217.84326 219.24922 222.68941 228.30263 232.95073
 236.63702 240.51991 244.62038 248.70961 252.45906 255.29901 257.66702 260.19608
 262.72067 265.27133 267.70325 269.83389 271.91965 273.97601 275.80252 277.48996
 279.16226 280.78000 282.31912 283.68527 284.87222 285.92728 286.89114 287.77106
 288.56860 289.28430 289.91644 290.77457
 366.78100 356.33424 345.76547 334.63071 323.03295 311.22618 299.09542 286.89766
 274.60889 262.50513 250.51337 239.81360 229.93484 221.03808 213.21932 206.22055
 200.05379 194.99103 191.57226 189.61350 188.64974 188.71297 189.54721 190.85445
 192.57868 194.67292 196.93516 199.29339 201.73763 204.21687 206.30410 208.14534
 209.77058 210.91481 211.14305 211.37029 211.30653 211.01076 210.64300 210.27224
 209.88847 209.59771 209.40495 209.26818 209.19542 209.52566 209.91089 210.29913
 211.09137 212.26860 213.51784 215.30008 217.22731 219.26955 221.36379 223.44602
 225.50526 227.58850 229.68473 231.78997 233.91821 236.08945 238.34468 240.71392
 243.33416 245.58439 247.58563 249.34987 250.76610 251.88834 252.70958 253.02481
 253.06105 252.83429 252.19352 251.14076 249.74600 247.90623 245.81447 243.64671
 241.43694 239.24018 237.05942 234.89765 232.75689 230.62313 228.64837 226.80460
 225.08684 223.55808 222.18731 220.95855 219.83979 218.79902 217.90226 217.04250
 216.28373 215.46297 214.56021 213.92344 213.37268 213.17633 212.71246 211.95883
 212.68822 214.99231 216.92854 217.91501 219.30226 222.67494 228.25171 232.87022
 236.55843 240.47028 244.60283 248.68333 252.34145 255.14445 257.53464 260.08990
 262.58160 265.08981 267.51288 269.67746 271.82727 273.94571 275.78149 277.45117
 279.10593 280.72974 282.27106 283.63693 284.82581 285.88062 286.84625 287.72733
 288.52347 289.23840 289.87259 290.73315
 366.78100 356.33358 345.76417 334.62875 323.03033 311.22291 299.09150 286.89308
 274.60366 262.49925 250.50683 239.80641 229.92700 221.02958 213.21016 206.21074
 200.04333 194.97991 191.56049 189.60108 188.63666 188.69924 189.53283 190.83941
 192.56299 194.65657 196.91816 199.27574 201.71932 204.19791 206.28449 208.12507
 209.74965 210.89324 211.12082 211.34740 211.28299 210.98657 210.61815 210.24674
 209.86232 209.57090 209.37748 209.24007 209.16665 209.49623 209.88082 210.26840
 211.05998 212.23657 213.48515 215.26673 217.19331 219.23490 221.32848 223.41006
 225.46865 227.55123 229.64681 231.75140 233.87898 236.04956 238.30414 240.67273
 243.29231 245.54189 247.54248 249.30606 250.72164 251.84322 252.66381 252.97839
 253.01397 252.78656 252.14514 251.09172 249.69631 247.85589 245.76347 243.59505
 241.38464 239.18722 237.00580 234.84339 232.70197 230.56755 228.59214 226.74772
 225.02930 223.49988 222.12847 220.89905 219.77963 218.73822 217.84080 216.98038
 216.22096 215.39955 214.49613 213.85871 213.30730 213.15833 212.80632 212.02126
 212.78291 215.11652 216.99400 217.98448 219.38048 222.66626 228.20634 232.79430
 236.48471 240.42413 244.58220 248.64696 252.20842 254.97403 257.39169 259.97830
 262.44913 264.92188 267.33896 269.53909 271.74475 273.91693 275.75955 277.41483
 279.05417 280.67902 282.22137 283.58911 284.77783 285.83316 286.80081 287.68036
 288.47812 289.19431 289.82916 290.68994
 366.78100 356.33282 345.76264 334.62646 323.02728 311.21910 299.08691 286.88773
 274.59755 262.49237 250.49919 239.79801 229.91783 221.01965 213.19947 206.19929
 200.03111 194.96692 191.54674 189.58656 188.62138 188.68320 189.51602 190.82184
 192.54466 194.63748 196.89830 199.25512 201.69794 204.17575 206.26157 208.10139
 209.72521 210.86803 211.09485 211.32067 211.25549 210.95831 210.58913 210.21695
 209.83176 209.53958 209.34540 209.20722 209.13304 209.46186 209.84568 210.23250
 211.02332 212.19914 213.44696 215.22777 217.15359 219.19441 221.28723 223.36805
 225.42587 227.50769 229.60251 231.70633 233.83315 236.00297 238.25678 240.62460
 243.24342 245.49224 247.49206 249.25488 250.66970 251.79052 252.61034 252.92416
 252.95898 252.73080 252.08861 251.03443 249.63825 247.79707 245.70389 243.53471
 241.32353 239.12535 236.94317 234.77999 232.63781 230.50262 228.52644 226.68126
 224.96208 223.43190 222.05972 220.82954 219.70936 218.66718 217.76900 216.90782
 216.14763 215.32545 214.42127 213.78309 213.23091 213.13493 212.90817 212.08020
 212.87869 215.23882 217.04369 218.05873 219.47633 222.66386 228.16446 232.72444
 236.41661 240.37895 244.55508 248.59650 252.06033 254.79161 257.24182 259.86343
 262.32187 264.76620 267.18204 269.41772 271.67279 273.89050 275.73724 277.37857
 279.00385 280.63022 282.17474 283.54214 284.73199 285.78735 286.75610 287.63519
 288.43399 289.15063 289.78357 290.64877
 366.78100 356.33198 345.76096 334.62394 323.02393 311.21491 299.08189 286.88187
 274.59085 262.48483 250.49081 239.78879 229.90778 221.00876 213.18774 206.18672
 200.01770 194.95268 191.53166 189.57064 188.60463 188.66561 189.49759 190.80257
 192.52455 194.61653 196.87651 199.23249 201.67448 204.15146 206.23644 208.07542
 209.69840 210.84038 211.06636 211.29134 211.22533 210.92731 210.55729 210.18427
 209.79825 209.50523 209.31021 209.17119 209.09618 209.42416 209.80714 210.19312
 210.98310 212.15808 213.40506 215.18504 217.11003 219.15001 221.24199 223.32197
 225.37895 227.45993 229.55391 231.65689 233.78288 235.95186 238.20484 240.57182
 243.18980 245.43778 247.43676 249.19874 250.61273 251.73271 252.55169 252.86467
 252.89865 252.66963 252.02661 250.97159 249.57458 247.73256 245.63854 243.46852
 241.25650 239.05748 236.87446 234.71044 232.56743 230.43141 228.45439 226.60837
 224.88835 223.35733 221.98431 220.75329 219.63228 218.58926 217.69024 216.82822
 216.06720 215.24418 214.33916 213.70014 213.14713 213.10745 213.01373 212.14586
 212.96948 215.34933 217.08708 218.13914 219.57715 222.66566 228.12837 232.66483
 236.35399 240.33524 244.52133 248.53267 251.90166 254.60187 257.08478 259.74075
 262.19583 264.62195 267.03992 269.31259 271.61230 273.86774 275.71790 277.34528
 278.95477 280.58337 282.12753 283.49640 284.68576 285.74258 286.71011 287.59149
 288.38919 289.10681 289.73859 290.60880
 366.78100 356.33111 345.75922 334.62134 323.02045 311.21056 299.07667 286.87578
 274.58390 262.47701 250.48212 239.77923 229.89734 220.99746 213.17557 206.17368
 200.00379 194.93790 191.51602 189.55413 188.58724 188.64735 189.47846 190.78258
 192.50369 194.59480 196.85391 199.20902 201.65013 204.12625 206.21036 208.04847
 209.67058 210.81169 211.03681 211.26092 211.19403 210.89514 210.52425 210.15037
 209.76348 209.46959 209.27370 209.13381 209.05793 209.38504 209.76715 210.15226
 210.94137 212.11549 213.36160 215.14071 217.06482 219.10393 221.19505 223.27416
 225.33027 227.41038 229.50349 231.60561 233.73072 235.89883 238.15094 240.51705
 243.13417 245.38128 247.37939 249.14050 250.55361 251.67273 252.49084 252.80295
 252.83606 252.60617 251.96228 250.90640 249.50851 247.66562 245.57073 243.39984
 241.18696 238.98707 236.80318 234.63829 232.49440 230.35752 228.37963 226.53274
 224.81185 223.27996 221.90608 220.67419 219.55230 218.50841 217.60852 216.74564
 215.98375 215.15986 214.25397 213.61408 213.06020 213.07748 213.11836 212.22433
 213.05914 215.44229 217.11705 218.22221 219.67908 222.67339 228.10147 232.61693
 236.30078 240.29649 244.48524 248.46071 251.73750 254.40483 256.91583 259.60239
 262.06396 264.48441 266.91501 269.22751 271.56693 273.85159 275.70435 277.32126
 278.92996 280.53607 282.07843 283.44931 284.63809 285.69629 286.66263 287.54526
 288.34332 289.05920 289.69223 290.55997
 366.78100 356.33022 345.75743 334.61865 323.01687 311.20608 299.07130 286.86951
 274.57673 262.46895 250.47316 239.76938 229.88660 220.98581 213.16303 206.16025
 199.98946 194.92268 191.49990 189.53711 188.56933 188.62854 189.45876 190.76198
 192.48219 194.57241 196.83063 199.18484 201.62506 204.10028 206.18349 208.02071
 209.64193 210.78214 211.00636 211.22957 211.16179 210.86201 210.49022 210.11544
 209.72766 209.43287 209.23609 209.09531 209.01852 209.34474 209.72596 210.11017
 210.89839 212.07160 213.31682 215.09504 217.01825 219.05647 221.14669 223.22490
 225.28012 227.35934 229.45155 231.55277 233.67699 235.84420 238.09542 240.46063
 243.07685 245.32307 247.32028 249.08050 250.49272 251.61093 252.42815 252.73937
 252.77158 252.54080 251.89602 250.83923 249.44045 247.59666 245.50088 243.32910
 241.11531 238.91453 236.72975 234.56396 232.41918 230.28140 228.30261 226.45483
 224.73305 223.20026 221.82548 220.59269 219.46991 218.42513 217.52434 216.66056
 215.89778 215.07299 214.16621 213.52543 212.97064 213.04532 213.22173 212.31604
 213.15213 215.51978 217.13066 218.29819 219.78239 222.68123 228.08296 232.57922
 236.25728 240.26738 244.45207 248.38562 251.57019 254.20151 256.73441 259.44711
 261.92477 264.35483 266.80734 269.16306 271.53748 273.84171 275.69208 277.29819
 278.90775 280.49350 282.03513 283.40567 284.59705 285.65363 286.62128 287.50232
 288.30206 289.01886 289.65298 290.51965
 366.78100 356.32925 345.75549 334.61574 323.01299 311.20123 299.06548 286.86272
 274.56897 262.46022 250.46346 239.75871 229.87496 220.97320 213.14945 206.14570
 199.97394 194.90619 191.48244 189.51868 188.54993 188.60817 189.43742 190.73967
 192.45891 194.54816 196.80541 199.15865 201.59790 204.07215 206.15439 207.99064
 209.61089 210.75013 210.97338 211.19562 211.12687 210.82612 210.45336 210.07761
 209.68886 209.39310 209.19535 209.05360 208.97584 209.30109 209.68134 210.06458
 210.85183 212.02407 213.26832 215.04557 216.96781 219.00506 221.09431 223.17155
 225.22580 227.30405 229.39529 231.49554 233.61879 235.78503 238.03528 240.39952
 243.01477 245.26002 247.25626 249.01551 250.42676 251.54400 252.36025 252.67050
 252.70174 252.46999 251.82424 250.76648 249.36673 247.52197 245.42522 243.25247
 241.03771 238.83596 236.65021 234.48345 232.33770 230.19895 228.21919 226.37044
 224.64768 223.11393 221.73818 220.50442 219.38067 218.33492 217.43316 216.56841
 215.80466 214.97890 214.07115 213.42940 212.87364 213.00858 213.32735 212.41753
 213.25018 215.58836 217.11784 218.35414 219.88461 222.70177 228.07452 232.55122
 236.22743 240.25220 244.42508 248.30591 251.39594 253.98679 256.53711 259.27234
 261.77689 264.23248 266.71814 269.12122 271.52527 273.84158 275.68396 277.27530
 278.87811 280.45779 281.99921 283.37039 284.55994 285.61823 286.58618 287.46701
 288.26596 288.98386 289.61716 290.48431
 366.78100 356.32837 345.75374 334.61310 323.00947 311.19684 299.06021 286.85658
 274.56194 262.45231 250.45468 239.74905 229.86442 220.96178 213.13715 206.13252
 199.95989 194.89126 191.46662 189.50199 188.53236 188.58973 189.41810 190.71946
 192.43783 194.52620 196.78257 199.13494 201.57330 204.04667 206.12804 207.96341
 209.58278 210.72114 210.94351 211.16488 211.09525 210.79361 210.41998 210.04335
 209.65372 209.35709 209.15845 209.01582 208.93719 209.26156 209.64093 210.02329
 210.80966 211.98103 213.22440 215.00077 216.92213 218.95850 221.04687 223.12324
 225.17661 227.25397 229.34434 231.44371 233.56608 235.73145 237.98081 240.34418
 242.95855 245.20292 247.19829 248.95665 250.36702 251.48339 252.29876 252.60813
 252.63849 252.40586 251.75923 250.70060 249.29997 247.45433 245.35670 243.18307
 240.96744 238.76481 236.57817 234.41054 232.26391 230.12428 228.14365 226.29401
 224.57038 223.03575 221.65912 220.42449 219.29985 218.25322 217.35059 216.48496
 215.72033 214.89369 213.98506 213.34243 212.78580 212.97580 213.42470 212.53568
 213.35977 215.64198 217.08105 218.39749 219.98936 222.71475 228.06816 232.52919
 236.20729 240.24709 244.40085 248.21899 251.21490 253.76694 256.33252 259.08890
 261.62912 264.12201 266.64941 269.09845 271.52673 273.84482 275.67557 277.24954
 278.84268 280.42703 281.96945 283.34061 284.53128 285.58865 286.55661 287.43759
 288.23636 288.95398 289.58740 290.45438
 366.78100 356.32691 345.75082 334.60872 323.00363 311.18954 299.05145 286.84635
 274.55026 262.43917 250.44008 239.73298 229.84689 220.94280 213.11671 206.11062
 199.93652 194.86643 191.44034 189.47425 188.50315 188.55906 189.38597 190.68588
 192.40278 194.48969 196.74460 199.09551 201.53242 204.00432 206.08423 207.91814
 209.53605 210.67295 210.89386 211.11377 211.04268 210.73959 210.36449 209.98640
 209.59531 209.29722 209.09712 208.95303 208.87294 209.19585 209.57375 209.95466
 210.73957 211.90948 213.15139 214.92629 216.84620 218.88111 220.96802 223.04292
 225.09483 227.17074 229.25965 231.35755 233.47846 235.64237 237.89028 240.25219
 242.86509 245.10800 247.10191 248.85882 250.26772 251.38263 252.19654 252.50445
 252.53335 252.29926 251.65117 250.59108 249.18899 247.34189 245.24280 243.06771
 240.85062 238.64652 236.45843 234.28934 232.14125 230.00015 228.01806 226.16697
 224.44188 222.90579 221.52769 220.29160 219.16551 218.11742 217.21332 216.34623
 215.58014 214.75205 213.84196 213.19786 212.63977 212.91331 213.55960 212.63589
 213.47543 215.71298 217.02353 218.39148 220.05351 222.74483 228.06499 232.51691
 236.20297 240.26004 244.38774 248.13751 251.04436 253.55840 256.13168 258.90121
 261.47852 264.01477 266.58676 269.07904 271.52725 273.84238 275.65579 277.21671
 278.80472 280.40085 281.94455 283.31540 284.50671 285.56421 286.53204 287.41248
 288.21039 288.92801 289.56317 290.42407
 366.78100 356.32603 345.74906 334.60608 323.00011 311.18514 299.04617 286.84019
 274.54322 262.43125 250.43128 239.72331 229.83633 220.93136 213.10439 206.09742
 199.92244 194.85147 191.42450 189.45753 188.48555 188.54058 189.36661 190.66564
 192.38167 194.46769 196.72172 199.07175 201.50778 203.97880 206.05783 207.89086
 209.50789 210.64392 210.86394 211.08297 211.01100 210.70703 210.33105 209.95208
 209.56011 209.26114 209.06016 208.91519 208.83422 209.15625 209.53328 209.91330
 210.69733 211.86636 213.10739 214.88141 216.80044 218.83447 220.92050 222.99453
 225.04555 227.12058 229.20861 231.30564 233.42566 235.58869 237.83572 240.19675
 242.80877 245.05080 247.04383 248.79986 250.20789 251.32191 252.13494 252.44197
 252.47000 252.23502 251.58605 250.52508 249.12211 247.27414 245.17416 242.99819
 240.78022 238.57525 236.38627 234.21630 232.06733 229.92536 227.94238 226.09041
 224.36444 222.82747 221.44850 220.21152 219.08455 218.03558 217.13061 216.26263
 215.49566 214.66669 213.75572 213.11075 212.55177 212.87657 213.64397 212.85414
 213.54373 215.69627 216.91536 218.39391 220.16550 222.77237 228.08023 232.54089
 236.22394 240.29533 244.38742 248.05997 250.87720 253.34726 255.91818 258.69382
 261.31009 263.89926 266.52228 269.05899 271.52817 273.83878 275.63559 277.18558
 278.76984 280.37674 281.92139 283.29245 284.48248 285.53925 286.50784 287.38815
 288.18591 288.90234 289.53598 290.39679
 366.78100 356.32956 345.75612 334.61668 323.01424 311.20280 299.06737 286.86493
 274.57149 262.46305 250.46661 239.76217 229.87873 220.97729 213.15385 206.15041
 199.97897 194.91154 191.48810 189.52466 188.55622 188.61478 189.44434 190.74690
 192.46646 194.55602 196.81358 199.16714 201.60671 204.08127 206.16383 208.00039
 209.62095 210.76051 210.98407 211.20663 211.13819 210.83775 210.46531 210.08988
 209.70144 209.40600 209.20856 209.06712 208.98968 209.31524 209.69580 210.07936
 210.86692 212.03948 213.28405 215.06161 216.98417 219.02173 221.11129 223.18885
 225.24341 227.32197 229.41353 231.51409 233.63765 235.80422 238.05478 240.41934
 243.03490 245.28046 247.27702 249.03658 250.44814 251.56570 252.38226 252.69282
 252.72439 252.49295 251.84751 250.79007 249.39063 247.54619 245.44975 243.27731
 241.06287 238.86143 236.67599 234.50955 232.36412 230.22568 228.24624 226.39780
 224.67536 223.14192 221.76648 220.53304 219.40960 218.36416 217.46272 216.59829
 215.83485 215.00941 214.10197 213.46053 212.90509 213.05711 213.41629 213.29924
 213.79128 215.44012 216.67255 218.39839 220.33919 222.92122 228.10486 232.57117
 236.25284 240.33418 244.38138 247.96288 250.68527 253.11020 255.68007 258.46606
 261.13132 263.78723 266.46960 269.05292 271.54181 273.84509 275.62564 277.16260
 278.73410 280.36090 281.90140 283.27127 284.45972 285.51587 286.48422 287.36194
 288.16068 288.87668 289.51138 290.36572
 366.78100 356.33021 345.75741 334.61862 323.01683 311.20603 299.07124 286.86944
 274.57665 262.46886 250.47306 239.76927 229.88648 220.98568 213.16289 206.16010
 199.98930 194.92251 191.49971 189.53692 188.56913 188.62833 189.45854 190.76175
 192.48195 194.57216 196.83037 199.18457 201.62478 204.09998 206.18319 208.02040
 209.64160 210.78181 211.00602 211.22922 211.16143 210.86163 210.48984 210.11505
 209.72725 209.43246 209.23567 209.09487 209.01808 209.34429 209.72549 210.10970
 210.89790 212.07111 213.31632 215.09452 217.01773 219.05594 221.14614 223.22435
 225.27956 227.35876 229.45097 231.55217 233.67638 235.84359 238.09479 240.46000
 243.07621 245.32241 247.31962 249.07983 250.49203 251.61024 252.42744 252.73865
 252.77086 252.54006 251.89527 250.83848 249.43968 247.59589 245.50010 243.32830
 241.11451 238.91371 236.72892 234.56313 232.41833 230.28054 228.30175 226.45395
 224.73216 223.19937 221.82457 220.59178 219.46898 218.42419 217.52340 216.65960
 215.89681 215.07202 214.16522 213.52443 212.96964 213.10042 213.40942 213.50206
 214.00027 215.29561 216.54004 218.42268 220.48915 223.08226 228.11832 232.59166
 236.27707 240.36551 244.36263 247.84526 250.47522 252.86151 255.43681 258.23883
 260.96347 263.69290 266.43524 269.06155 271.56268 273.85248 275.61279 277.13773
 278.69742 280.34384 281.88293 283.24829 284.43863 285.49371 286.45825 287.33838
 288.13535 288.85248 289.48477 290.33759
 366.78100 356.32981 345.75663 334.61744 323.01526 311.20407 299.06889 286.86670
 274.57352 262.46533 250.46915 239.76496 229.88178 220.98059 213.15741 206.15422
 199.98304 194.91585 191.49267 189.52948 188.56130 188.62011 189.44993 190.75274
 192.47256 194.56237 196.82019 199.17400 201.61382 204.08863 206.17145 208.00826
 209.62908 210.76889 210.99271 211.21552 211.14734 210.84715 210.47497 210.09978
 209.71160 209.41641 209.21923 209.07804 209.00086 209.32667 209.70749 210.09130
 210.87912 212.05193 213.29675 215.07456 216.99738 219.03519 221.12501 223.20282
 225.25764 227.33645 229.42827 231.52908 233.65290 235.81971 238.07053 240.43534
 243.05116 245.29697 247.29379 249.05360 250.46542 251.58323 252.40005 252.71086
 252.74268 252.51149 251.86631 250.80912 249.40994 247.56575 245.46957 243.29738
 241.08320 238.88201 236.69683 234.53064 232.38546 230.24727 228.26809 226.41990
 224.69772 223.16453 221.78935 220.55616 219.43298 218.38779 217.48661 216.62242
 215.85924 215.03405 214.12687 213.48568 212.93050 213.09230 213.47461 213.63423
 214.16258 215.26341 216.49596 218.40968 220.55797 223.21082 228.12256 232.60599
 236.30109 240.39629 244.34090 247.72121 250.26685 252.62097 255.20540 258.02457
 260.81018 263.61243 266.40973 269.07153 271.57809 273.85034 275.58774 277.10278
 278.63474 280.33417 281.87170 283.23203 284.41714 285.47186 286.43600 287.31479
 288.11099 288.82584 289.45874 290.30981
 366.78100 356.32986 345.75673 334.61759 323.01545 311.20432 299.06918 286.86704
 274.57391 262.46577 250.46963 239.76550 229.88236 220.98122 213.15809 206.15495
 199.98381 194.91668 191.49354 189.53040 188.56227 188.62113 189.45099 190.75386
 192.47372 194.56358 196.82145 199.17531 201.61517 204.09004 206.17290 208.00976
 209.63063 210.77049 210.99435 211.21722 211.14908 210.84894 210.47681 210.10167
 209.71353 209.41840 209.22126 209.08012 209.00299 209.32885 209.70971 210.09358
 210.88144 212.05430 213.29917 215.07703 216.99989 219.03776 221.12762 223.20548
 225.26035 227.33921 229.43107 231.53194 233.65580 235.82266 238.07353 240.43839
 243.05425 245.30012 247.29698 249.05684 250.46871 251.58657 252.40343 252.71430
 252.74616 252.51502 251.86989 250.81275 249.41361 247.56948 245.47334 243.30120
 241.08707 238.88593 236.70079 234.53466 232.38952 230.25138 228.27225 226.42411
 224.70197 223.16884 221.79370 220.56056 219.43743 218.39229 217.49115 216.62702
 215.86388 215.03874 214.13161 213.49047 212.93533 213.10718 213.51320 213.79469
 214.29999 215.25589 216.48294 218.37593 220.57863 223.31442 228.12730 232.61896
 236.32880 240.42734 244.31706 247.59451 250.06174 252.38959 254.98459 257.82068
 260.66571 263.53622 266.38306 269.07376 271.58578 273.84076 275.55725 277.06747
 278.60425 280.30389 281.84500 283.20950 284.39523 285.44833 286.41278 287.28940
 288.08545 288.80075 289.43396 290.27960
 366.78100 356.33021 345.75743 334.61864 323.01686 311.20607 299.07129 286.86950
 274.57672 262.46893 250.47315 239.76936 229.88658 220.98579 213.16301 206.16022
 199.98944 194.92265 191.49987 189.53708 188.56930 188.62851 189.45873 190.76194
 192.48216 194.57237 196.83059 199.18480 201.62502 204.10023 206.18345 208.02066
 209.64188 210.78209 211.00631 211.22952 211.16174 210.86195 210.49017 210.11538
 209.72760 209.43281 209.23603 209.09524 209.01846 209.34467 209.72589 210.11010
 210.89831 212.07153 213.31674 215.09496 217.01817 219.05639 221.14660 223.22482
 225.28003 227.35925 229.45146 231.55268 233.67689 235.84411 238.09532 240.46054
 243.07675 245.32297 247.32018 249.08040 250.49261 251.61083 252.42804 252.73926
 252.77147 252.54069 251.89590 250.83912 249.44033 247.59655 245.50076 243.32898
 241.11519 238.91441 236.72962 234.56384 232.41905 230.28127 228.30248 226.45470
 224.73291 223.20013 221.82534 220.59256 219.46977 218.42499 217.52420 216.66042
 215.89763 215.07284 214.16606 213.52527 212.97049 213.13922 213.53787 213.96747
 214.43864 215.24821 216.47865 218.35243 220.58717 223.39664 228.13194 232.62726
 236.35484 240.45454 244.28607 247.46065 249.85384 252.16016 254.76849 257.62210
 260.52472 263.46014 266.35178 269.07050 271.58994 273.83148 275.53204 277.04022
 278.60257 280.26904 281.81000 283.17487 284.36432 285.41776 286.38156 287.25812
 288.05569 288.77139 289.40094 290.24310
 366.78100 356.33061 345.75822 334.61983 323.01844 311.20805 299.07365 286.87226
 274.57987 262.47248 250.47709 239.77370 229.89131 220.99092 213.16853 206.16614
 199.99574 194.92935 191.50696 189.54457 188.57718 188.63679 189.46740 190.77101
 192.49162 194.58223 196.84083 199.19544 201.63605 204.11166 206.19527 208.03288
 209.65449 210.79510 211.01971 211.24332 211.17593 210.87653 210.50514 210.13075
 209.74336 209.44897 209.25258 209.11219 209.03580 209.36241 209.74402 210.12862
 210.91723 212.09084 213.33645 215.11506 217.03867 219.07728 221.16789 223.24650
 225.30211 227.38171 229.47432 231.57593 233.70054 235.86815 238.11976 240.48537
 243.10198 245.34859 247.34620 249.10680 250.51941 251.63802 252.45563 252.76724
 252.79985 252.56946 251.92507 250.86868 249.47029 247.62690 245.53150 243.36011
 241.14672 238.94633 236.76194 234.59655 232.45216 230.31477 228.33638 226.48899
 224.76759 223.23520 221.86081 220.62842 219.50603 218.46164 217.56125 216.69786
 215.93547 215.11108 214.20468 213.56429 213.00990 213.17563 213.56715 214.12662
 214.59258 215.25427 216.46924 218.33917 220.59457 223.46196 228.13568 232.63036
 236.37646 240.47444 244.24438 247.31477 249.63602 251.92586 254.55348 257.42978
 260.38989 263.38739 266.32047 269.06558 271.59378 273.82431 275.51068 277.01593
 278.59412 280.22888 281.77267 283.14282 284.33105 285.38663 286.35004 287.22852
 288.02393 288.73859 289.36877 290.20947
 366.78100 356.33093 345.75887 334.62080 323.01974 311.20967 299.07561 286.87454
 274.58248 262.47541 250.48035 239.77728 229.89522 220.99515 213.17309 206.17102
 200.00095 194.93489 191.51282 189.55076 188.58369 188.64363 189.47456 190.77850
 192.49943 194.59037 196.84930 199.20424 201.64517 204.12110 206.20504 208.04297
 209.66491 210.80584 211.03078 211.25471 211.18765 210.88858 210.51752 210.14345
 209.75639 209.46232 209.26626 209.12619 209.05012 209.37706 209.75899 210.14393
 210.93286 212.10680 213.35273 215.13167 217.05560 219.09454 221.18547 223.26441
 225.32034 227.40028 229.49321 231.59514 233.72008 235.88801 238.13995 240.50588
 243.12282 245.36975 247.36769 249.12862 250.54156 251.66049 252.47843 252.79036
 252.82329 252.59323 251.94916 250.89310 249.49503 247.65197 245.55690 243.38584
 241.17277 238.97271 236.78864 234.62358 232.47951 230.34245 228.36438 226.51731
 224.79625 223.26418 221.89012 220.65805 219.53599 218.49192 217.59186 216.72879
 215.96673 215.14266 214.23660 213.59653 213.04247 213.21043 213.60728 214.26683
 214.75378 215.28975 216.45787 218.32883 220.60355 223.52034 228.13951 232.63155
 236.39211 240.48198 244.18327 247.14636 249.39792 251.68118 254.33986 257.24826
 260.26883 263.32404 266.29251 269.06082 271.59634 273.81784 275.49680 277.00311
 278.57895 280.18936 281.73181 283.10193 284.29056 285.34668 286.30807 287.18710
 287.98117 288.69583 289.32678 290.16214
 366.78100 356.33118 345.75935 334.62153 323.02071 311.21088 299.07706 286.87623
 274.58441 262.47759 250.48276 239.77994 229.89812 220.99829 213.17647 206.17465
 200.00482 194.93900 191.51717 189.55535 188.58853 188.64870 189.47988 190.78406
 192.50523 194.59641 196.85559 199.21076 201.65194 204.12811 206.21229 208.05047
 209.67264 210.81382 211.03900 211.26317 211.19635 210.89752 210.52670 210.15288
 209.76605 209.47223 209.27641 209.13658 209.06076 209.38794 209.77011 210.15529
 210.94446 212.11864 213.36482 215.14399 217.06817 219.10735 221.19852 223.27770
 225.33388 227.41405 229.50723 231.60940 233.73458 235.90276 238.15493 240.52111
 243.13829 245.38546 247.38364 249.14482 250.55799 251.67717 252.49534 252.80752
 252.84070 252.61087 251.96705 250.91123 249.51340 247.67058 245.57576 243.40493
 241.19211 238.99228 236.80846 234.64364 232.49981 230.36299 228.38517 226.53834
 224.81752 223.28570 221.91187 220.68005 219.55822 218.51440 217.61458 216.75175
 215.98993 215.16611 214.26028 213.62046 213.06664 213.24251 213.65804 214.39371
 214.90855 215.35199 216.46219 218.32613 220.61520 223.57556 228.14238 232.62910
 236.39632 240.46782 244.09155 246.94598 249.13788 251.43094 254.13559 257.08762
 260.16785 263.27280 266.26706 269.05167 271.58978 273.79956 275.47083 276.98145
 278.55215 280.15848 281.70111 283.07257 284.26236 285.31866 286.28439 287.16248
 287.96432 288.68515 289.31699 290.15762
 366.78100 356.33141 345.75982 334.62222 323.02163 311.21204 299.07845 286.87786
 274.58627 262.47967 250.48508 239.78249 229.90090 221.00131 213.17972 206.17812
 200.00853 194.94294 191.52135 189.55976 188.59317 188.65357 189.48498 190.78939
 192.51080 194.60221 196.86162 199.21702 201.65843 204.13484 206.21925 208.05766
 209.68007 210.82147 211.04688 211.27129 211.20470 210.90611 210.53551 210.16192
 209.77533 209.48174 209.28615 209.14656 209.07096 209.39837 209.78078 210.16619
 210.95560 212.13001 213.37641 215.15582 217.08023 219.11964 221.21105 223.29046
 225.34686 227.42727 229.52068 231.62309 233.74850 235.91691 238.16931 240.53572
 243.15313 245.40054 247.39895 249.16036 250.57376 251.69317 252.51158 252.82399
 252.85740 252.62780 251.98421 250.92862 249.53103 247.68844 245.59385 243.42325
 241.21066 239.01107 236.82748 234.66289 232.51930 230.38270 228.40511 226.55852
 224.83793 223.30634 221.93275 220.70115 219.57956 218.53597 217.63638 216.77379
 216.01220 215.18860 214.28301 213.64342 213.08983 213.27559 213.71446 214.52052
 215.04942 215.42171 216.49573 218.34424 220.63002 223.61984 228.14178 232.62209
 236.38893 240.42824 243.96663 246.71667 248.86507 251.18442 253.94560 256.94852
 260.08643 263.23032 266.24121 269.03580 271.58020 273.78226 275.44864 276.95490
 278.51575 280.11935 281.66125 283.03250 284.22375 285.28015 286.24493 287.12579
 287.92728 288.64703 289.28073 290.11584
 366.78100 356.33153 345.76006 334.62259 323.02212 311.21265 299.07917 286.87870
 274.58723 262.48076 250.48629 239.78382 229.90235 221.00288 213.18141 206.17994
 200.01047 194.94500 191.52352 189.56205 188.59558 188.65611 189.48764 190.79217
 192.51370 194.60523 196.86476 199.22029 201.66182 204.13834 206.22287 208.06140
 209.68393 210.82546 211.05099 211.27552 211.20905 210.91058 210.54011 210.16664
 209.78017 209.48669 209.29122 209.15175 209.07628 209.40381 209.78634 210.17187
 210.96140 212.13593 213.38246 215.16199 217.08651 219.12604 221.21757 223.29710
 225.35363 227.43416 229.52769 231.63022 233.75575 235.92428 238.17681 240.54334
 243.16086 245.40839 247.40692 249.16845 250.58198 251.70151 252.52004 252.83257
 252.86610 252.63663 251.99316 250.93769 249.54021 247.69774 245.60327 243.43280
 241.22033 239.02086 236.83739 234.67292 232.52945 230.39298 228.41551 226.56903
 224.84856 223.31709 221.94362 220.71215 219.59068 218.54721 217.64774 216.78527
 216.02380 215.20033 214.29486 213.65538 213.10191 213.30440 213.78281 214.64131
 215.17967 215.49440 216.54909 218.38548 220.64915 223.65048 228.13983 232.61447
 236.37328 240.36760 243.81259 246.46436 248.58606 250.94333 253.76665 256.82501
 260.01480 263.18826 266.20840 269.01212 271.56918 273.77841 275.45227 276.94397
 278.47916 280.06281 281.60248 282.97177 284.16238 285.21878 286.18457 287.06546
 287.86713 288.58795 289.22079 290.05716
 366.78100 356.33156 345.76012 334.62269 323.02225 311.21281 299.07937 286.87893
 274.58749 262.48106 250.48662 239.78418 229.90274 221.00330 213.18187 206.18043
 200.01099 194.94555 191.52411 189.56267 188.59624 188.65680 189.48836 190.79292
 192.51448 194.60604 196.86561 199.22117 201.66273 204.13929 206.22385 208.06242
 209.68498 210.82654 211.05210 211.27666 211.21022 210.91179 210.54135 210.16791
 209.78147 209.48803 209.29260 209.15316 209.07772 209.40528 209.78784 210.17340
 210.96297 212.13753 213.38409 215.16365 217.08821 219.12777 221.21934 223.29890
 225.35546 227.43602 229.52958 231.63215 233.75771 235.92627 238.17883 240.54539
 243.16295 245.41052 247.40908 249.17064 250.58420 251.70376 252.52233 252.83489
 252.86845 252.63901 251.99557 250.94013 249.54270 247.70026 245.60582 243.43538
 241.22294 239.02350 236.84007 234.67563 232.53219 230.39575 228.41831 226.57188
 224.85144 223.32000 221.94656 220.71512 219.59368 218.55025 217.65081 216.78837
 216.02693 215.20349 214.29806 213.65862 213.10518 213.33023 213.86195 214.75000
 215.31593 215.56033 216.61765 218.43921 220.66090 223.67793 228.14363 232.61482
 236.35648 240.29173 243.63725 246.19388 248.29977 250.70210 253.59227 256.71063
 259.94977 263.14563 266.16885 268.98383 271.55627 273.78079 275.47583 276.96484
 278.46072 279.99060 281.52414 282.89310 284.08279 285.13931 286.10516 286.98727
 287.78888 288.50977 289.14355 289.97937
 366.78100 356.33151 345.76001 334.62252 323.02202 311.21253 299.07903 286.87854
 274.58704 262.48055 250.48605 239.78356 229.90206 221.00257 213.18107 206.17958
 200.01008 194.94459 191.52309 189.56160 188.59510 188.65561 189.48711 190.79162
 192.51312 194.60463 196.86413 199.21964 201.66114 204.13765 206.22216 208.06066
 209.68317 210.82467 211.05018 211.27468 211.20819 210.90969 210.53920 210.16570
 209.77921 209.48571 209.29022 209.15072 209.07523 209.40273 209.78524 210.17074
 210.96025 212.13475 213.38126 215.16076 217.08527 219.12477 221.21628 223.29578
 225.35229 227.43280 229.52630 231.62881 233.75431 235.92282 238.17532 240.54183
 243.15933 245.40684 247.40534 249.16685 250.58035 251.69986 252.51836 252.83087
 252.86437 252.63488 251.99138 250.93589 249.53839 247.69590 245.60140 243.43091
 241.21841 239.01892 236.83542 234.67093 232.52743 230.39094 228.41345 226.56695
 224.84646 223.31496 221.94147 220.70997 219.58848 218.54498 217.64549 216.78299
 216.02150 215.19800 214.29251 213.65301 213.09952 213.35257 213.95045 214.85426
 215.45090 215.62881 216.66823 218.50302 220.69952 223.70911 228.15714 232.62309
 236.33324 240.19130 243.42976 245.89580 247.99815 250.45787 253.42363 256.61130
 259.90012 263.11316 266.13657 268.95740 271.54214 273.77841 275.49875 277.00223
 278.47269 279.91400 281.43857 282.80652 283.99570 285.05148 286.01617 286.89899
 287.70047 288.42209 289.05667 289.89246
 366.78100 356.33231 345.76162 334.62493 323.02525 311.21656 299.08387 286.88418
 274.59349 262.48780 250.49412 239.79243 229.91174 221.01305 213.19236 206.19167
 200.02299 194.95830 191.53761 189.57692 188.61123 188.67254 189.50486 190.81017
 192.53248 194.62479 196.88510 199.24141 201.68372 204.16104 206.24635 208.08566
 209.70897 210.85128 211.07759 211.30291 211.23722 210.93953 210.56984 210.19715
 209.81146 209.51878 209.32409 209.18540 209.11071 209.43902 209.82233 210.20865
 210.99896 212.17427 213.42158 215.20189 217.12720 219.16752 221.25983 223.34014
 225.39745 227.47876 229.57307 231.67638 233.80270 235.97201 238.22532 240.59263
 243.21094 245.45925 247.45857 249.22088 250.63519 251.75550 252.57481 252.88812
 252.92244 252.69375 252.05106 250.99637 249.59968 247.75799 245.66431 243.49462
 241.28293 239.08424 236.90155 234.73786 232.59517 230.45949 228.48280 226.63711
 224.91742 223.38673 222.01404 220.78336 219.66267 218.61998 217.72129 216.85960
 216.09891 215.27623 214.37154 213.73285 213.18016 213.41832 213.98100 215.01990
 215.56775 215.68629 216.76982 218.57570 220.70212 223.70618 228.16754 232.62526
 236.29195 240.06252 243.19125 245.57980 247.69511 250.22386 253.27438 256.53894
 259.87589 263.10162 266.11859 268.93790 271.52896 273.76999 275.50458 277.01956
 278.47641 279.86212 281.35651 282.71954 283.90613 284.96075 285.92511 286.80835
 287.61014 288.33194 288.96747 289.80368
 366.78100 356.33294 345.76288 334.62682 323.02776 311.21970 299.08764 286.88858
 274.59852 262.49346 250.50040 239.79934 229.91928 221.02122 213.20116 206.20109
 200.03303 194.96897 191.54891 189.58885 188.62379 188.68573 189.51867 190.82461
 192.54755 194.64049 196.90143 199.25837 201.70131 204.17925 206.26519 208.10513
 209.72907 210.87201 211.09895 211.32489 211.25983 210.96277 210.59371 210.22165
 209.83659 209.54453 209.35047 209.21241 209.13834 209.46728 209.85122 210.23816
 211.02910 212.20504 213.45298 215.23392 217.15986 219.20080 221.29374 223.37468
 225.43262 227.51456 229.60950 231.71344 233.84038 236.01032 238.26426 240.63220
 243.25114 245.50008 247.50002 249.26296 250.67790 251.79884 252.61878 252.93272
 252.96766 252.73959 252.09753 251.04347 249.64741 247.80635 245.71329 243.54423
 241.33317 239.13511 236.95305 234.78999 232.64793 230.51287 228.53681 226.69175
 224.97269 223.44263 222.07057 220.84051 219.72045 218.67839 217.78033 216.91927
 216.15921 215.33715 214.43309 213.79503 213.24297 213.47607 214.02678 215.12743
 215.81082 215.76811 216.75259 218.55913 220.73543 223.73431 228.19142 232.61966
 236.24228 239.92224 242.93877 245.25717 247.39577 249.99936 253.13901 256.48373
 259.86514 263.09833 266.10373 268.92065 271.52087 273.77228 275.51669 277.02704
 278.44348 279.80295 281.26367 282.62433 283.81189 284.86761 285.83209 286.71448
 287.51605 288.23923 288.87296 289.71039
 366.78100 356.33250 345.76201 334.62551 323.02601 311.21752 299.08502 286.88552
 274.59503 262.48953 250.49603 239.79454 229.91404 221.01554 213.19505 206.19455
 200.02605 194.96156 191.54106 189.58056 188.61507 188.67657 189.50907 190.81458
 192.53708 194.62959 196.89009 199.24659 201.68910 204.16660 206.25210 208.09161
 209.71511 210.85761 211.08412 211.30962 211.24412 210.94663 210.57713 210.20463
 209.81914 209.52664 209.33214 209.19365 209.11915 209.44765 209.83116 210.21766
 211.00816 212.18367 213.43117 215.21167 217.13718 219.17768 221.27018 223.35069
 225.40819 227.48969 229.58420 231.68770 233.81420 235.98371 238.23721 240.60471
 243.22322 245.47172 247.47122 249.23373 250.64823 251.76874 252.58824 252.90174
 252.93625 252.70775 252.06525 251.01076 249.61426 247.77276 245.67927 243.50977
 241.29827 239.09978 236.91728 234.75378 232.61129 230.47579 228.49929 226.65380
 224.93430 223.40380 222.03131 220.80081 219.68031 218.63782 217.73932 216.87782
 216.11733 215.29483 214.39033 213.75184 213.19934 213.48254 214.15164 215.16368
 216.02443 215.73717 216.74048 218.76941 220.86125 223.76749 228.21075 232.58368
 236.18225 239.76801 242.67001 244.92207 247.09126 249.77370 253.00435 256.43021
 259.85214 263.08749 266.08170 268.90131 271.51718 273.79086 275.55594 277.05771
 278.42789 279.74362 281.15125 282.50797 283.69666 284.75232 285.71790 286.60175
 287.40454 288.12445 288.76193 289.60004
 366.78100 356.33280 345.76260 334.62640 323.02720 311.21900 299.08680 286.88760
 274.59740 262.49220 250.49900 239.79781 229.91761 221.01941 213.19921 206.19901
 200.03081 194.96661 191.54641 189.58621 188.62101 188.68281 189.51561 190.82141
 192.54421 194.63701 196.89781 199.25461 201.69741 204.17521 206.26101 208.10082
 209.72462 210.86742 211.09422 211.32002 211.25482 210.95762 210.58842 210.21622
 209.83102 209.53882 209.34462 209.20642 209.13222 209.46102 209.84482 210.23162
 211.02242 212.19822 213.44602 215.22683 217.15263 219.19343 221.28623 223.36703
 225.42483 227.50663 229.60143 231.70523 233.83203 236.00183 238.25563 240.62343
 243.24223 245.49103 247.49083 249.25363 250.66843 251.78923 252.60903 252.92284
 252.95764 252.72944 252.08724 251.03304 249.63684 247.79564 245.70244 243.53324
 241.32204 239.12384 236.94164 234.77844 232.63624 230.50104 228.52484 226.67964
 224.96044 223.43024 222.05804 220.82785 219.70765 218.66545 217.76725 216.90605
 216.14585 215.32365 214.41945 213.78125 213.22905 213.52676 214.23015 215.25894
 216.16429 215.75821 216.77167 218.95128 220.93330 223.79198 228.23665 232.54012
 236.12500 239.61049 242.40204 244.58839 246.79124 249.55214 252.87131 256.37756
 259.83569 263.07034 266.05682 268.88083 271.51514 273.81595 275.60422 277.10321
 278.44711 279.73032 281.03110 282.37851 283.56693 284.62415 285.59109 286.47522
 287.27930 288.00372 288.64117 289.48206
 366.78100 356.33407 345.76514 334.63021 323.03227 311.22534 299.09441 286.89648
 274.60755 262.50362 250.51169 239.81176 229.93282 221.03589 213.21696 206.21803
 200.05110 194.98817 191.56924 189.61030 188.64637 188.70944 189.54351 190.85058
 192.57465 194.66872 196.93079 199.28885 201.73292 204.21199 206.29906 208.14013
 209.76520 210.90927 211.13733 211.36440 211.30047 211.00454 210.63661 210.26568
 209.88175 209.59081 209.39788 209.26095 209.18802 209.51809 209.90316 210.29123
 211.08330 212.26036 213.50943 215.29150 217.21857 219.26064 221.35471 223.43678
 225.49584 227.57891 229.67498 231.78005 233.90812 236.07919 238.33426 240.70333
 243.32339 245.57346 247.57453 249.33860 250.75467 251.87674 252.69781 253.01287
 253.04894 252.82201 252.18108 251.12815 249.73322 247.89329 245.80136 243.63342
 241.42349 239.22656 237.04563 234.88370 232.74277 230.60884 228.63390 226.78997
 225.07204 223.54311 222.17218 220.94325 219.82432 218.78338 217.88645 217.02652
 216.26759 215.44666 214.54373 213.90680 213.35587 213.62056 214.24596 215.40791
 216.25494 215.82985 216.84581 219.04408 220.96153 223.83630 228.28662 232.51590
 236.06982 239.45105 242.13365 244.25204 246.48787 249.33028 252.73912 256.32730
 259.81915 263.05386 266.03506 268.86459 271.51685 273.84067 275.64462 277.14505
 278.47241 279.72586 280.93118 282.26993 283.45889 284.51486 285.48459 286.36786
 287.17264 287.89786 288.53683 289.38046
 366.78100 356.33597 345.76895 334.63592 323.03990 311.23487 299.10585 286.90982
 274.62280 262.52077 250.53075 239.83272 229.95570 221.06067 213.24364 206.24662
 200.08159 195.02057 191.60354 189.64652 188.68449 188.74947 189.58544 190.89442
 192.62039 194.71637 196.98034 199.34032 201.78629 204.26726 206.35624 208.19921
 209.82619 210.97216 211.20214 211.43111 211.36909 211.07506 210.70904 210.34001
 209.95799 209.66896 209.47793 209.34291 209.27188 209.60386 209.99083 210.38081
 211.17478 212.35376 213.60473 215.38871 217.31768 219.36166 221.45763 223.54160
 225.60258 227.68755 229.78553 231.89250 234.02248 236.19545 238.45243 240.82340
 243.44538 245.69735 247.70033 249.46630 250.88427 252.00825 252.83122 253.14820
 253.18617 252.96115 252.32212 251.27110 249.87807 248.04005 245.95002 243.78400
 241.57597 239.38095 237.20192 235.04189 232.90287 230.77084 228.79782 226.95579
 225.23977 223.71274 222.34372 221.11669 219.99967 218.96064 218.06562 217.20759
 216.45056 215.63154 214.73051 214.09549 213.54646 213.74706 214.22098 215.54504
 216.36838 215.95996 216.95526 219.08543 221.00266 223.89807 228.33902 232.48984
 235.98479 239.25902 241.83250 243.88919 246.16698 249.10155 252.60593 256.27747
 259.80191 263.03854 266.02011 268.85632 271.52533 273.87186 275.69839 277.21170
 278.51721 279.73068 280.85870 282.18176 283.36740 284.42258 285.38922 286.27289
 287.07751 287.80222 288.44470 289.28925
 366.78100 356.33767 345.77234 334.64101 323.04667 311.24334 299.11601 286.92168
 274.63635 262.53602 250.54768 239.85135 229.97602 221.08269 213.26736 206.27203
 200.10869 195.04936 191.63403 189.67870 188.71837 188.78504 189.62270 190.93337
 192.66104 194.75871 197.02438 199.38605 201.83371 204.31638 206.40705 208.25172
 209.88039 211.02806 211.25972 211.49039 211.43006 211.13773 210.77340 210.40607
 210.02573 209.73840 209.54907 209.41574 209.34641 209.68008 210.06874 210.46041
 211.25608 212.43675 213.68942 215.47509 217.40575 219.45142 221.54909 223.63476
 225.69743 227.78410 229.88376 231.99243 234.12410 236.29877 238.55744 240.93011
 243.55377 245.80744 247.81211 249.57978 250.99945 252.12512 252.94978 253.26845
 253.30812 253.08479 252.44746 251.39813 250.00680 248.17046 246.08213 243.91780
 241.71147 239.51814 237.34081 235.18247 233.04514 230.91481 228.94348 227.10315
 225.38882 223.86348 222.49615 221.27082 220.15549 219.11816 218.22483 217.36849
 216.61316 215.79583 214.89650 214.26317 213.71584 213.86398 214.21400 215.61134
 216.52641 216.17880 217.09596 219.11685 221.06552 223.95212 228.36418 232.43494
 235.86128 239.02583 241.49593 243.50795 245.83730 248.87051 252.47173 256.22195
 259.77429 263.01355 266.00125 268.84875 271.53568 273.91238 275.78003 277.32001
 278.60843 279.78360 280.90192 282.09277 283.26462 284.32086 285.29004 286.17624
 286.98367 287.71109 288.35617 289.20309
 366.78100 356.33838 345.77376 334.64314 323.04952 311.24691 299.12029 286.92667
 274.64205 262.54243 250.55481 239.85919 229.98457 221.09196 213.27734 206.28272
 200.12010 195.06148 191.64686 189.69224 188.73262 188.80001 189.63839 190.94977
 192.67815 194.77653 197.04291 199.40529 201.85367 204.33706 206.42844 208.27382
 209.90320 211.05158 211.28396 211.51534 211.45572 211.16411 210.80049 210.43387
 210.05425 209.76763 209.57901 209.44639 209.37777 209.71216 210.10154 210.49392
 211.29030 212.47168 213.72506 215.51144 217.44282 219.48921 221.58759 223.67397
 225.73735 227.82473 229.92511 232.03449 234.16687 236.34226 238.60164 240.97502
 243.59940 245.85378 247.85916 249.62754 251.04792 252.17431 252.99969 253.31907
 253.35945 253.13683 252.50021 251.45159 250.06097 248.22536 246.13774 243.97412
 241.76850 239.57588 237.39926 235.24164 233.10502 230.97541 229.00479 227.16517
 225.45155 223.92693 222.56031 221.33569 220.22107 219.18446 218.29184 217.43622
 216.68160 215.86498 214.96636 214.33374 213.78712 213.93216 214.27483 215.62386
 216.64943 216.43155 217.24409 219.14760 221.13980 224.01244 228.38586 232.38252
 235.73849 238.79472 241.16838 243.14410 245.52162 248.64645 252.33902 256.15778
 259.73032 262.97189 265.96921 268.82767 271.52972 273.93069 275.84189 277.41766
 278.71262 279.87299 280.95944 282.05893 283.22299 284.27988 285.24872 286.13791
 286.94748 287.67398 288.31918 289.16574
 366.78100 356.33881 345.77462 334.64442 323.05123 311.24904 299.12285 286.92966
 274.64547 262.54627 250.55908 239.86389 229.98970 221.09751 213.28331 206.28912
 200.12693 195.06874 191.65455 189.70036 188.74116 188.80897 189.64778 190.95959
 192.68840 194.78720 197.05401 199.41682 201.86563 204.34944 206.44125 208.28705
 209.91686 211.06567 211.29848 211.53029 211.47109 211.17990 210.81671 210.45052
 210.07133 209.78514 209.59694 209.46475 209.39656 209.73137 210.12118 210.51398
 211.31079 212.49260 213.74641 215.53322 217.46503 219.51183 221.61064 223.69745
 225.76126 227.84907 229.94987 232.05968 234.19249 236.36830 238.62811 241.00192
 243.62672 245.88153 247.88734 249.65615 251.07696 252.20376 253.02957 253.34938
 253.39019 253.16800 252.53181 251.48361 250.09342 248.25823 246.17104 244.00785
 241.80265 239.61046 237.43427 235.27708 233.14089 231.01170 229.04150 227.20231
 225.48912 223.96493 222.59874 221.37455 220.26035 219.22416 218.33197 217.47678
 216.72259 215.90639 215.00820 214.37601 213.82982 213.98666 214.35722 215.65530
 216.68085 216.63562 217.38750 219.19783 221.24629 224.11298 228.43388 232.36700
 235.63968 238.58649 240.86208 242.80293 245.22952 248.43948 252.21536 256.09116
 259.67932 262.92371 265.92715 268.79291 271.50693 273.91986 275.87030 277.47702
 278.78238 279.93832 281.00299 282.10052 283.26523 284.32239 285.29153 286.17917
 286.98935 287.71814 288.35962 289.20709
 366.78100 356.34016 345.77732 334.64848 323.05665 311.25581 299.13097 286.93913
 274.65629 262.55845 250.57261 239.87878 230.00594 221.11510 213.30226 206.30942
 200.14858 195.09175 191.67891 189.72607 188.76823 188.83739 189.67755 190.99071
 192.72088 194.82104 197.08920 199.45336 201.90352 204.38868 206.48184 208.32901
 209.96017 211.11033 211.34449 211.57765 211.51981 211.22998 210.86814 210.50330
 210.12546 209.84062 209.65378 209.52294 209.45611 209.79227 210.18343 210.57759
 211.37575 212.55891 213.81407 215.60224 217.53540 219.58356 221.68372 223.77188
 225.83704 227.92620 230.02837 232.13953 234.27369 236.45085 238.71201 241.08717
 243.71334 245.96950 247.97666 249.74682 251.16898 252.29714 253.12430 253.44547
 253.48763 253.26679 252.63195 251.58511 250.19627 248.36243 246.27660 244.11476
 241.91092 239.72008 237.54524 235.38940 233.25457 231.12673 229.15789 227.32005
 225.60821 224.08537 222.72053 221.49770 220.38486 219.35002 218.45918 217.60534
 216.85250 216.03766 215.14083 214.50999 213.96515 214.09003 214.38506 215.71118
 216.69843 216.80003 217.53638 219.28989 221.38158 224.22957 228.47878 232.35553
 235.53052 238.35150 240.52905 242.45923 244.95680 248.25485 252.10672 256.03107
 259.63623 262.88629 265.89542 268.76938 271.49460 273.92053 275.89722 277.51050
 278.80853 279.96475 281.04501 282.15671 283.31998 284.37296 285.34164 286.22574
 287.03430 287.76004 288.39990 289.24261
 366.78100 356.34127 345.77954 334.65181 323.06108 311.26135 299.13762 286.94690
 274.66517 262.56844 250.58371 239.89098 230.01925 221.12952 213.31779 206.32606
 200.16633 195.11060 191.69887 189.74715 188.79042 188.86069 189.70196 191.01623
 192.74750 194.84877 197.11804 199.48331 201.93458 204.42085 206.51512 208.36339
 209.99567 211.14694 211.38221 211.61648 211.55975 211.27102 210.91029 210.54656
 210.16983 209.88610 209.70037 209.57064 209.50492 209.84219 210.23446 210.62973
 211.42900 212.61327 213.86954 215.65881 217.59308 219.64235 221.74362 223.83289
 225.89916 227.98944 230.09271 232.20498 234.34025 236.51852 238.78079 241.15706
 243.78433 246.04160 248.04987 249.82114 251.24441 252.37369 253.20196 253.52423
 253.56750 253.34777 252.71404 251.66831 250.28058 248.44785 246.36312 244.20239
 241.99966 239.80994 237.63621 235.48148 233.34775 231.22102 229.25329 227.41656
 225.70583 224.18410 222.82037 221.59864 220.48691 219.45318 218.56346 217.71073
 216.95900 216.14527 215.24954 214.61981 214.07608 214.18152 214.43062 215.73564
 216.74504 216.94818 217.70613 219.39999 221.49355 224.31882 228.49777 232.33234
 235.39708 238.08888 240.18945 242.13760 244.71608 248.09409 252.00818 255.97046
 259.58942 262.84836 265.87177 268.76071 271.49738 273.93515 275.92227 277.52893
 278.79446 279.92834 281.01871 282.20541 283.37476 284.42810 285.39313 286.27670
 287.07938 287.80457 288.44003 289.27872
 366.78100 356.34035 345.77770 334.64904 323.05739 311.25674 299.13209 286.94044
 274.65778 262.56013 250.57448 239.88083 230.00818 221.11752 213.30487 206.31222
 200.15157 195.09492 191.68226 189.72961 188.77196 188.84131 189.68165 190.99500
 192.72535 194.82570 197.09405 199.45839 201.90874 204.39409 206.48744 208.33479
 209.96613 211.11648 211.35083 211.58418 211.52653 211.23687 210.87522 210.51057
 210.13292 209.84827 209.66161 209.53096 209.46431 209.80066 210.19201 210.58635
 211.38470 212.56805 213.82340 215.61175 217.54509 219.59344 221.69379 223.78214
 225.84749 227.93683 230.03918 232.15053 234.28488 236.46223 238.72357 241.09892
 243.72527 245.98162 247.98896 249.75931 251.18166 252.31001 253.13736 253.45870
 253.50105 253.28040 252.64575 251.59910 250.21044 248.37679 246.29114 244.12949
 241.92584 239.73518 237.56053 235.40488 233.27023 231.14258 229.17392 227.33627
 225.62462 224.10197 222.73732 221.51466 220.40201 219.36736 218.47671 217.62306
 216.87040 216.05575 215.15910 214.52845 213.98380 214.16656 214.59839 215.70361
 216.74908 217.09320 217.88947 219.47935 221.55638 224.38931 228.52676 232.33040
 235.27681 237.85342 239.89755 241.86899 244.51164 247.95180 251.91316 255.90027
 259.52573 262.79483 265.83960 268.74335 271.48453 273.92117 275.91187 277.51218
 278.74744 279.86099 280.96167 282.24002 283.41580 284.46692 285.43082 286.31174
 287.11465 287.83569 288.47052 289.30310
 366.78100 356.33931 345.77562 334.64593 323.05324 311.25155 299.12586 286.93317
 274.64948 262.55079 250.56410 239.86941 229.99572 221.10403 213.29034 206.29665
 200.13496 195.07727 191.66358 189.70989 188.75120 188.81951 189.65882 190.97113
 192.70044 194.79975 197.06706 199.43037 201.87968 204.36399 206.45630 208.30261
 209.93292 211.08223 211.31554 211.54785 211.48916 211.19847 210.83578 210.47009
 210.09140 209.80571 209.61802 209.48633 209.41864 209.75395 210.14426 210.53757
 211.33488 212.51719 213.77150 215.55881 217.49112 219.53843 221.63774 223.72505
 225.78936 227.87767 229.97898 232.08929 234.22260 236.39891 238.65922 241.03353
 243.65884 245.91415 247.92046 249.68977 251.11108 252.23839 253.06470 253.38501
 253.42632 253.20463 252.56894 251.52125 250.13156 248.29687 246.21018 244.04749
 241.84280 239.65111 237.47542 235.31873 233.18304 231.05435 229.08466 227.24597
 225.53328 224.00959 222.64390 221.42021 220.30652 219.27083 218.37914 217.52445
 216.77076 215.95507 215.05738 214.42569 213.88000 214.14352 214.76610 215.68773
 216.67630 217.25516 218.11546 219.55096 221.62009 224.48505 228.57968 232.31664
 235.15694 237.62782 239.61955 241.61217 244.31250 247.81387 251.81754 255.82291
 259.45511 262.73932 265.80457 268.71494 271.44922 273.87564 275.87201 277.48300
 278.72119 279.83408 280.94104 282.24579 283.42557 284.47647 285.44083 286.31870
 287.12109 287.83957 288.47473 289.30325
 366.78100 356.33952 345.77604 334.64655 323.05407 311.25259 299.12711 286.93463
 274.65115 262.55266 250.56618 239.87170 229.99822 221.10674 213.29325 206.29977
 200.13829 195.08081 191.66733 189.71385 188.75536 188.82388 189.66340 190.97592
 192.70544 194.80495 197.07247 199.43599 201.88551 204.37003 206.46255 208.30906
 209.93958 211.08910 211.32262 211.55514 211.49665 211.20617 210.84369 210.47821
 210.09973 209.81425 209.62676 209.49528 209.42780 209.76332 210.15384 210.54735
 211.34487 212.52739 213.78191 215.56943 217.50195 219.54946 221.64898 223.73650
 225.80102 227.88954 229.99105 232.10157 234.23509 236.41161 238.67213 241.04665
 243.67216 245.92768 247.93420 249.70372 251.12524 252.25275 253.07927 253.39979
 253.44131 253.21983 252.58435 251.53686 250.14738 248.31290 246.22642 244.06394
 241.85945 239.66797 237.49249 235.33601 233.20053 231.07205 229.10256 227.26408
 225.55160 224.02812 222.66264 221.43915 220.32567 219.29019 218.39871 217.54423
 216.79075 215.97526 215.07778 214.44630 213.90082 214.18373 214.85213 215.68149
 216.63652 217.45905 218.35953 219.66173 221.69788 224.55630 228.62547 232.25153
 235.01376 237.38429 239.31940 241.33336 244.09875 247.67026 251.71780 255.73755
 259.37921 262.68298 265.76917 268.68457 271.41367 273.84286 275.86340 277.48135
 278.67865 279.75714 280.91824 282.24756 283.43234 284.48544 285.44983 286.33005
 287.13101 287.85019 288.48373 289.30545
 366.78100 356.34047 345.77794 334.64942 323.05789 311.25736 299.13283 286.94131
 274.65878 262.56125 250.57572 239.88219 230.00967 221.11914 213.30661 206.31408
 200.15355 195.09703 191.68450 189.73197 188.77444 188.84392 189.68439 190.99786
 192.72833 194.82880 197.09728 199.46175 201.91222 204.39769 206.49116 208.33864
 209.97011 211.12058 211.35505 211.58853 211.53100 211.24147 210.87994 210.51541
 210.13789 209.85336 209.66683 209.53630 209.46977 209.80625 210.19772 210.59219
 211.39066 212.57414 213.82961 215.61808 217.55155 219.60002 221.70050 223.78897
 225.85444 227.94391 230.04639 232.15786 234.29233 236.46980 238.73127 241.10675
 243.73322 245.98969 247.99716 249.76763 251.19011 252.31858 253.14605 253.46752
 253.51000 253.28947 252.65494 251.60841 250.21988 248.38636 246.30083 244.13930
 241.93577 239.74524 237.57072 235.41519 233.28066 231.15313 229.18461 227.34708
 225.63555 224.11302 222.74849 221.52597 220.41344 219.37891 218.48838 217.63486
 216.88233 216.06780 215.17127 214.54074 213.99622 214.25874 214.87901 215.71161
 216.57759 217.70419 218.67070 219.72754 221.74461 224.66585 228.67606 232.14464
 234.84654 237.11348 238.98886 241.03305 243.87801 247.52867 251.62032 255.65182
 259.30432 262.62640 265.73215 268.65317 271.38348 273.82651 275.87607 277.49167
 278.63342 279.68082 280.87738 282.21323 283.39996 284.45285 285.41864 286.29962
 287.10135 287.82169 288.45404 289.27359
 366.78100 356.34180 345.78061 334.65341 323.06321 311.26401 299.14082 286.95062
 274.66942 262.57322 250.58903 239.89683 230.02563 221.13644 213.32524 206.33404
 200.17484 195.11965 191.70845 189.75725 188.80105 188.87186 189.71366 191.02846
 192.76027 194.86207 197.13187 199.49767 201.94948 204.43628 206.53108 208.37988
 210.01269 211.16449 211.40029 211.63510 211.57890 211.29070 210.93050 210.56731
 210.19111 209.90791 209.72271 209.59352 209.52832 209.86612 210.25893 210.65473
 211.45453 212.63933 213.89614 215.68594 217.62074 219.67054 221.77235 223.86215
 225.92895 228.01976 230.12356 232.23636 234.37216 236.55097 238.81377 241.19057
 243.81837 246.07618 248.08498 249.85678 251.28059 252.41039 253.23919 253.56199
 253.60580 253.38660 252.75340 251.70820 250.32101 248.48881 246.40461 244.24442
 242.04222 239.85302 237.67982 235.52563 233.39243 231.26623 229.29903 227.46284
 225.75264 224.23144 222.86825 221.64705 220.53585 219.50265 218.61346 217.76126
 217.01006 216.19686 215.30167 214.67247 214.12927 214.34784 214.86423 215.80182
 216.54422 217.79555 218.93199 220.03224 221.93379 224.68741 228.66815 231.99533
 234.63603 236.80498 238.63895 240.74078 243.68317 247.41243 251.54140 255.58316
 259.24646 262.58444 265.70642 268.63229 271.36526 273.81631 275.87723 277.48035
 278.59393 279.62967 280.80957 282.14313 283.32965 284.38193 285.34692 286.22806
 287.03079 287.75009 288.38443 289.20404
 366.78100 356.34283 345.78265 334.65648 323.06730 311.26913 299.14695 286.95778
 274.67761 262.58243 250.59926 239.90808 230.03791 221.14973 213.33956 206.34939
 200.19121 195.13704 191.72686 189.77669 188.82151 188.89334 189.73616 191.05199
 192.78482 194.88764 197.15847 199.52529 201.97812 204.46594 206.56177 208.41160
 210.04542 211.19825 211.43507 211.67090 211.61572 211.32855 210.96938 210.60720
 210.23203 209.94985 209.76568 209.63750 209.57333 209.91216 210.30598 210.70281
 211.50363 212.68946 213.94728 215.73811 217.67394 219.72476 221.82759 223.91841
 225.98624 228.07806 230.18289 232.29671 234.43354 236.61337 238.87719 241.25502
 243.88384 246.14267 248.15249 249.92532 251.35015 252.48097 253.31080 253.63462
 253.67945 253.46127 252.82910 251.78493 250.39875 248.56758 246.48440 244.32523
 242.12405 239.93588 237.76371 235.61053 233.47836 231.35318 229.38701 227.55183
 225.84266 224.32248 222.96031 221.74014 220.62996 219.59779 218.70961 217.85844
 217.10826 216.29609 215.40192 214.77374 214.23157 214.41937 214.86307 215.87767
 216.55754 217.85831 219.15146 220.34705 222.11449 224.68454 228.62787 231.83632
 234.40700 236.49327 238.30827 240.48822 243.53030 247.32722 251.48190 255.52895
 259.20087 262.55365 265.69330 268.62466 271.35754 273.80283 275.86014 277.45401
 278.55429 279.59000 280.74017 282.06891 283.25372 284.30704 285.27078 286.15283
 286.95407 287.67627 288.30850 289.13339
 366.78100 356.34300 345.78300 334.65700 323.06800 311.27000 299.14800 286.95900
 274.67900 262.58400 250.60100 239.91000 230.04000 221.15200 213.34199 206.35199
 200.19399 195.13999 191.72999 189.77999 188.82499 188.89699 189.73999 191.05599
 192.78899 194.89199 197.16299 199.52999 201.98299 204.47099 206.56699 208.41699
 210.05099 211.20399 211.44099 211.67699 211.62199 211.33499 210.97599 210.61399
 210.23898 209.95698 209.77298 209.64498 209.58098 209.91998 210.31398 210.71098
 211.51198 212.69798 213.95598 215.74698 217.68298 219.73398 221.83698 223.92798
 225.99598 228.08798 230.19298 232.30698 234.44398 236.62398 238.88798 241.26598
 243.89498 246.15398 248.16398 249.93697 251.36197 252.49297 253.32297 253.64697
 253.69197 253.47397 252.84197 251.79797 250.41197 248.58097 246.49797 244.33897
 242.13797 239.94997 237.77797 235.62497 233.49297 231.36797 229.40197 227.56697
 225.85797 224.33797 222.97597 221.75597 220.64597 219.61397 218.72596 217.87496
 217.12496 216.31296 215.41896 214.79096 214.24896 214.44685 214.91437 215.89848
 216.59592 217.93513 219.34740 220.63040 222.27200 224.69405 228.58728 231.69394
 234.18411 236.19580 238.00197 240.26335 243.40067 247.25520 251.42662 255.47188
 259.14548 262.51556 265.67755 268.61792 271.34698 273.78409 275.84500 277.44052
 278.52664 279.55341 280.68289 282.00745 283.19193 284.24512 285.20917 286.08984
 286.89362 287.61841 288.25073 289.07773
 366.78100 356.34249 345.78198 334.65546 323.06595 311.26744 299.14493 286.95542
 274.67491 262.57939 250.59588 239.90437 230.03386 221.14535 213.33484 206.34432
 200.18581 195.13130 191.72079 189.77028 188.81477 188.88625 189.72874 191.04423
 192.77672 194.87921 197.14970 199.51618 201.96867 204.45616 206.55165 208.40114
 210.03463 211.18711 211.42360 211.65909 211.60358 211.31607 210.95656 210.59404
 210.21853 209.93602 209.75151 209.62300 209.55849 209.89697 210.29046 210.68695
 211.48744 212.67293 213.93042 215.72090 217.65639 219.70688 221.80937 223.89986
 225.96734 228.05883 230.16332 232.27681 234.41330 236.59279 238.85627 241.23376
 243.86225 246.12074 248.13023 249.90272 251.32720 252.45769 253.28718 253.61067
 253.65516 253.43665 252.80413 251.75962 250.37311 248.54160 246.45809 244.29858
 242.09706 239.90855 237.73604 235.58253 233.45002 231.32451 229.35799 227.52248
 225.81297 224.29246 222.92995 221.70944 220.59892 219.56641 218.67790 217.82639
 217.07588 216.26337 215.36885 214.74034 214.19783 214.43796 215.00531 215.88246
 216.64468 218.01866 219.52904 220.88463 222.41508 224.72530 228.56259 231.57793
 233.97513 235.90985 237.70789 240.04921 243.27791 247.18459 251.36790 255.40442
 259.07538 262.46582 265.65338 268.60376 271.32852 273.76550 275.84506 277.45474
 278.52313 279.53046 280.64127 281.96371 283.14832 284.19943 285.16367 286.04654
 286.84982 287.57489 288.20853 289.03976
 366.78100 356.34175 345.78051 334.65326 323.06301 311.26377 299.14052 286.95027
 274.66903 262.57278 250.58853 239.89629 230.02504 221.13579 213.32455 206.33330
 200.17406 195.11881 191.70756 189.75632 188.80007 188.87082 189.71258 191.02733
 192.75908 194.86084 197.13059 199.49634 201.94810 204.43485 206.52960 208.37836
 210.01111 211.16286 211.39862 211.63337 211.57712 211.28888 210.92863 210.56538
 210.18914 209.90589 209.72064 209.59140 209.52615 209.86390 210.25666 210.65241
 211.45217 212.63692 213.89367 215.68343 217.61818 219.66793 221.76969 223.85944
 225.92619 228.01695 230.12070 232.23345 234.36921 236.54796 238.81071 241.18747
 243.81522 246.07297 248.08173 249.85348 251.27723 252.40699 253.23574 253.55849
 253.60225 253.38300 252.74975 251.70451 250.31726 248.48501 246.40077 244.24052
 242.03828 239.84903 237.67578 235.52154 233.38829 231.26204 229.29480 227.45855
 225.74830 224.22706 222.86381 221.64256 220.53132 219.49807 218.60882 217.75658
 217.00533 216.19208 215.29684 214.66759 214.12434 214.41599 215.10501 215.85254
 216.70416 218.10826 219.69496 221.11487 222.55254 224.76750 228.54906 231.48306
 233.78191 235.63170 237.41850 239.83978 243.15778 247.11357 251.30527 255.32874
 258.99835 262.41248 265.62277 268.58124 271.30582 273.74957 275.85471 277.48392
 278.53601 279.51859 280.61737 281.93817 283.12268 284.17502 285.13992 286.02213
 286.82623 287.55246 288.18515 289.01309
 366.78100 356.34122 345.77943 334.65165 323.06086 311.26108 299.13730 286.94651
 274.66473 262.56794 250.58316 239.89038 230.01859 221.12881 213.31702 206.32524
 200.16546 195.10967 191.69789 189.74610 188.78932 188.85954 189.70075 191.01497
 192.74618 194.84740 197.11662 199.48183 201.93305 204.41926 206.51348 208.36170
 209.99391 211.14513 211.38034 211.61456 211.55778 211.26899 210.90821 210.54442
 210.16764 209.88386 209.69807 209.56829 209.50251 209.83972 210.23194 210.62715
 211.42637 212.61059 213.86680 215.65602 217.59023 219.63945 221.74067 223.82988
 225.89610 227.98631 230.08953 232.20175 234.33696 236.51518 238.77739 241.15361
 243.78083 246.03804 248.04626 249.81747 251.24069 252.36991 253.19812 253.52034
 253.56355 253.34377 252.70999 251.66420 250.27642 248.44363 246.35885 244.19807
 241.99528 239.80550 237.63171 235.47693 233.34315 231.21636 229.24858 227.41179
 225.70101 224.17923 222.81544 221.59366 220.48187 219.44809 218.55831 217.70552
 216.95374 216.13995 215.24417 214.61439 214.07060 214.40126 215.18248 215.84572
 216.75999 218.19736 219.84618 221.30907 222.68788 224.83260 228.54059 231.39890
 233.59891 235.35872 237.13341 239.63687 243.04248 247.04416 251.24246 255.25281
 258.92484 262.36273 265.59219 268.55624 271.28128 273.73462 275.86261 277.50995
 278.55319 279.51575 280.61111 281.93240 283.11612 284.16953 285.13559 286.01657
 286.82108 287.54507 288.18018 289.00677
 366.78100 356.34127 345.77955 334.65182 323.06109 311.26136 299.13764 286.94691
 274.66518 262.56846 250.58373 239.89100 230.01927 221.12955 213.31782 206.32609
 200.16636 195.11064 191.69891 189.74718 188.79046 188.86073 189.70200 191.01627
 192.74755 194.84882 197.11809 199.48337 201.93464 204.42091 206.51518 208.36346
 209.99573 211.14700 211.38227 211.61655 211.55982 211.27109 210.91037 210.54664
 210.16991 209.88618 209.70046 209.57073 209.50500 209.84228 210.23455 210.62982
 211.42909 212.61337 213.86964 215.65891 217.59318 219.64246 221.74373 223.83300
 225.89928 227.98955 230.09282 232.20509 234.34037 236.51864 238.78091 241.15719
 243.78446 246.04173 248.05000 249.82128 251.24455 252.37382 253.20210 253.52437
 253.56764 253.34791 252.71419 251.66846 250.28073 248.44800 246.36328 244.20255
 241.99982 239.81010 237.63637 235.48164 233.34791 231.22119 229.25346 227.41673
 225.70601 224.18428 222.82055 221.59882 220.48710 219.45337 218.56364 217.71091
 216.95919 216.14546 215.24973 214.62001 214.07628 214.41344 215.21001 215.89679
 216.82097 218.26028 219.93892 221.47585 222.84550 224.90697 228.52412 231.31978
 233.42497 235.09665 236.86374 239.45081 242.93958 246.98180 251.18425 255.18445
 258.86258 262.31912 265.56232 268.53006 271.25644 273.71606 275.86160 277.52750
 278.57584 279.53421 280.61539 281.92990 283.11130 284.16400 285.12784 286.00934
 286.81296 287.53729 288.17102 288.99634
 366.78100 356.34161 345.78023 334.65284 323.06245 311.26306 299.13968 286.94929
 274.66790 262.57152 250.58713 239.89474 230.02335 221.13397 213.32258 206.33119
 200.17181 195.11642 191.70503 189.75365 188.79726 188.86787 189.70948 191.02410
 192.75571 194.85732 197.12694 199.49255 201.94416 204.43077 206.52539 208.37400
 210.00661 211.15823 211.39384 211.62845 211.57206 211.28368 210.92329 210.55990
 210.18352 209.90013 209.71474 209.58535 209.51997 209.85758 210.25019 210.64581
 211.44542 212.63003 213.88665 215.67626 217.61087 219.66048 221.76210 223.85171
 225.91832 228.00894 230.11255 232.22516 234.36077 236.53939 238.80200 241.17861
 243.80623 246.06384 248.07245 249.84406 251.26768 252.39729 253.22590 253.54852
 253.59213 253.37274 252.73935 251.69397 250.30658 248.47419 246.38981 244.22942
 242.02703 239.83765 237.66426 235.50987 233.37648 231.25010 229.28271 227.44632
 225.73594 224.21455 222.85116 221.62977 220.51839 219.48500 218.59561 217.74323
 216.99184 216.17845 215.28306 214.65368 214.11029 214.43777 215.21152 215.97986
 216.88925 218.30644 220.00008 221.60258 222.99504 224.98843 228.50278 231.23851
 233.25414 234.85162 236.62390 239.29480 242.85680 246.93001 251.13394 255.12521
 258.80923 262.27835 265.52988 268.50171 271.22882 273.69077 275.84631 277.52597
 278.58600 279.55304 280.62808 281.93787 283.11963 284.17062 285.13504 286.01456
 286.81888 287.54202 288.17697 289.00150
 366.78100 356.34154 345.78009 334.65263 323.06218 311.26272 299.13927 286.94881
 274.66736 262.57090 250.58645 239.89399 230.02254 221.13308 213.32163 206.33017
 200.17072 195.11526 191.70380 189.75235 188.79589 188.86644 189.70798 191.02253
 192.75407 194.85562 197.12516 199.49071 201.94225 204.42880 206.52334 208.37189
 210.00443 211.15598 211.39152 211.62606 211.56961 211.28115 210.92070 210.55724
 210.18079 209.89733 209.71188 209.58242 209.51697 209.85451 210.24706 210.64260
 211.44215 212.62669 213.88323 215.67278 217.60732 219.65687 221.75841 223.84796
 225.91450 228.00505 230.10859 232.22114 234.35668 236.53523 238.79777 241.17432
 243.80186 246.05941 248.06795 249.83949 251.26304 252.39258 253.22113 253.54367
 253.58722 253.36776 252.73431 251.68885 250.30140 248.46894 246.38449 244.22403
 242.02158 239.83212 237.65867 235.50421 233.37075 231.24430 229.27684 227.44039
 225.72993 224.20848 222.84502 221.62357 220.51211 219.47866 218.58920 217.73675
 216.98529 216.17184 215.27638 214.64693 214.10347 214.44089 215.23810 216.04559
 216.96750 218.35901 220.05737 221.69691 223.12811 225.07307 228.46669 231.14511
 233.08539 234.62648 236.41376 239.16621 242.79030 246.88622 251.08858 255.07166
 258.75836 262.23511 265.49405 268.46970 271.19751 273.65952 275.81842 277.50293
 278.57834 279.56226 280.65033 281.96436 283.14725 284.19812 285.16232 286.04507
 286.84845 287.57169 288.20630 289.03305
 366.78100 356.34108 345.77916 334.65124 323.06032 311.26040 299.13648 286.94556
 274.66364 262.56672 250.58180 239.88888 230.01696 221.12704 213.31512 206.32320
 200.16328 195.10736 191.69544 189.74352 188.78660 188.85668 189.69776 191.01184
 192.74292 194.84400 197.11308 199.47816 201.92924 204.41532 206.50940 208.35748
 209.98956 211.14064 211.37572 211.60980 211.55288 211.26396 210.90304 210.53912
 210.16220 209.87828 209.69236 209.56244 209.49652 209.83360 210.22568 210.62076
 211.41984 212.60392 213.86000 215.64908 217.58316 219.63224 221.73332 223.82240
 225.88848 227.97856 230.08164 232.19372 234.32879 236.50687 238.76895 241.14503
 243.77211 246.02919 248.03727 249.80835 251.23143 252.36051 253.18859 253.51067
 253.55375 253.33383 252.69991 251.65399 250.26607 248.43315 246.34823 244.18731
 241.98439 239.79447 237.62055 235.46563 233.33171 231.20479 229.23687 227.39995
 225.68903 224.16711 222.80319 221.58127 220.46935 219.43543 218.54551 217.69259
 216.94067 216.12675 215.23083 214.60091 214.05699 214.42348 215.28935 216.09334
 217.04691 218.42169 220.12631 221.77853 223.21645 225.14458 228.43983 231.05637
 232.91652 234.41338 236.22577 239.05823 242.73447 246.84570 251.04399 255.01694
 258.70334 262.18564 265.44962 268.43030 271.16052 273.62338 275.77991 277.46771
 278.55920 279.56622 280.68149 282.00284 283.18729 284.23929 285.20377 286.08597
 286.88788 287.61307 288.24835 289.07095
 366.78100 356.34054 345.77808 334.64962 323.05816 311.25770 299.13324 286.94178
 274.65931 262.56185 250.57639 239.88293 230.01047 221.12001 213.30755 206.31509
 200.15463 195.09817 191.68571 189.73325 188.77579 188.84533 189.68586 190.99940
 192.72994 194.83048 197.09902 199.46356 201.91410 204.39964 206.49318 208.34072
 209.97226 211.12280 211.35734 211.59088 211.53341 211.24395 210.88249 210.51803
 210.14057 209.85611 209.66965 209.53919 209.47273 209.80927 210.20081 210.59535
 211.39389 212.57743 213.83296 215.62150 217.55504 219.60358 221.70412 223.79266
 225.85820 227.94774 230.05028 232.16182 234.29636 236.47390 238.73544 241.11098
 243.73752 245.99405 248.00159 249.77213 251.19467 252.32321 253.15075 253.47229
 253.51483 253.29437 252.65991 251.61345 250.22499 248.39153 246.30607 244.14460
 241.94114 239.75068 237.57622 235.42076 233.28630 231.15884 229.19038 227.35292
 225.64146 224.11900 222.75454 221.53208 220.41962 219.38515 218.49469 217.64123
 216.88877 216.07431 215.17785 214.54739 214.00293 214.40120 215.34215 216.16034
 217.10933 218.47940 220.18250 221.84245 223.29820 225.21915 228.41199 230.97026
 232.76546 234.22946 236.06496 238.96660 242.68605 246.80606 250.99588 254.95834
 258.64383 262.12888 265.39490 268.38110 271.11642 273.57993 275.72827 277.41000
 278.52258 279.56088 280.71643 282.04651 283.23206 284.28442 285.25098 286.13235
 286.93576 287.65915 288.29373 289.11676
 366.78100 356.33979 345.77658 334.64736 323.05515 311.25394 299.12873 286.93651
 274.65330 262.55509 250.56888 239.87467 230.00145 221.11024 213.29703 206.30382
 200.14260 195.08539 191.67218 189.71897 188.76076 188.82954 189.66933 190.98212
 192.71191 194.81170 197.07948 199.44327 201.89306 204.37785 206.47063 208.31742
 209.94821 211.09800 211.33179 211.56457 211.50636 211.21615 210.85394 210.48872
 210.11051 209.82530 209.63809 209.50688 209.43966 209.77545 210.16624 210.56003
 211.35781 212.54060 213.79539 215.58318 217.51597 219.56375 221.66354 223.75133
 225.81612 227.90490 230.00669 232.11748 234.25127 236.42806 238.68884 241.06363
 243.68942 245.94521 247.95199 249.72178 251.14357 252.27136 253.09815 253.41893
 253.46072 253.23951 252.60430 251.55709 250.16787 248.33366 246.24745 244.08524
 241.88102 239.68981 237.51460 235.35839 233.22318 231.09496 229.12575 227.28754
 225.57533 224.05211 222.68690 221.46369 220.35048 219.31527 218.42405 217.56984
 216.81663 216.00142 215.10420 214.47299 213.92778 214.36758 215.40668 216.25301
 217.12865 218.52461 220.24144 221.86018 223.29655 225.27115 228.43422 230.93387
 232.62343 234.03568 235.90744 238.88689 242.64536 246.77173 250.95630 254.90903
 258.59073 262.07297 265.33832 268.32831 271.07025 273.53235 275.66891 277.34198
 278.45166 279.52490 280.73584 282.10092 283.28802 284.34216 285.30969 286.19666
 287.00125 287.72668 288.37711 289.25571
 366.78100 356.33913 345.77527 334.64540 323.05253 311.25067 299.12480 286.93193
 274.64807 262.54920 250.56234 239.86747 229.99360 221.10174 213.28787 206.29400
 200.13214 195.07427 191.66040 189.70654 188.74767 188.81580 189.65494 190.96707
 192.69620 194.79534 197.06247 199.42560 201.87474 204.35887 206.45101 208.29714
 209.92727 211.07641 211.30954 211.54167 211.48281 211.19194 210.82907 210.46321
 210.08434 209.79847 209.61061 209.47874 209.41087 209.74601 210.13614 210.52927
 211.32641 212.50854 213.76268 215.54981 217.48194 219.52908 221.62821 223.71534
 225.77948 227.86761 229.96874 232.07888 234.21201 236.38814 238.64828 241.02241
 243.64754 245.90268 247.90881 249.67794 251.09908 252.22621 253.05235 253.37248
 253.41361 253.19175 252.55588 251.50801 250.11815 248.28328 246.19641 244.03355
 241.82868 239.63681 237.46095 235.30408 233.16821 231.03935 229.06948 227.23061
 225.51775 223.99388 222.62802 221.40415 220.29028 219.25442 218.36255 217.50768
 216.75382 215.93795 215.04008 214.40822 213.86235 214.33794 215.46158 216.37617
 217.13991 218.52437 220.25783 221.84749 223.33592 225.33350 228.41017 230.84937
 232.46823 233.85881 235.77730 238.83655 242.62804 246.75566 250.93137 254.87550
 258.55215 262.02869 265.28925 268.28448 271.03278 273.49298 275.60880 277.26187
 278.42847 279.54663 280.79437 282.15594 283.34253 284.39737 285.36569 286.25195
 287.05679 287.78378 288.46121 289.33484
 366.78100 356.33856 345.77413 334.64369 323.05025 311.24781 299.12138 286.92794
 274.64350 262.54407 250.55663 239.86119 229.98675 221.09432 213.27988 206.28544
 200.12301 195.06457 191.65013 189.69569 188.73626 188.80382 189.64238 190.95394
 192.68251 194.78107 197.04763 199.41020 201.85876 204.34232 206.43388 208.27945
 209.90901 211.05757 211.29014 211.52170 211.46226 211.17082 210.80739 210.44095
 210.06151 209.77508 209.58664 209.45420 209.38576 209.72033 210.10989 210.50245
 211.29902 212.48058 213.73414 215.52070 217.45227 219.49883 221.59739 223.68396
 225.74752 227.83508 229.93564 232.04521 234.17777 236.35333 238.61290 240.98646
 243.61102 245.86558 247.87115 249.63971 251.06027 252.18683 253.01240 253.33196
 253.37252 253.15009 252.51365 251.46521 250.07477 248.23934 246.15190 243.98846
 241.78303 239.59059 237.41415 235.25671 233.12028 230.99084 229.02040 227.18097
 225.46753 223.94309 222.57665 221.35222 220.23778 219.20134 218.30891 217.45347
 216.69903 215.88259 214.98416 214.35172 213.80528 214.31200 215.50914 216.47775
 217.24144 218.56673 220.25925 221.75620 223.23734 225.32491 228.41409 230.79727
 232.31363 233.68454 235.65453 238.80368 242.62566 246.75179 250.92049 254.86087
 258.53555 262.00677 265.26639 268.27112 271.02350 273.47839 275.57202 277.21307
 278.42764 279.56668 280.84756 282.19244 283.37820 284.43359 285.40082 286.28616
 287.09204 287.83710 288.52145 289.39359
 366.78100 356.33739 345.77179 334.64018 323.04557 311.24196 299.11436 286.91975
 274.63414 262.53354 250.54493 239.84832 229.97271 221.07911 213.26350 206.26789
 200.10428 195.04468 191.62907 189.67346 188.71286 188.77925 189.61664 190.92703
 192.65443 194.75182 197.01721 199.37861 201.82600 204.30839 206.39878 208.24318
 209.87157 211.01896 211.25035 211.48075 211.42014 211.12753 210.76293 210.39532
 210.01471 209.72710 209.53750 209.40389 209.33428 209.66768 210.05607 210.44746
 211.24285 212.42325 213.67564 215.46103 217.39142 219.43682 221.53421 223.61960
 225.68200 227.76839 229.86778 231.97617 234.10757 236.28196 238.54035 240.91275
 243.53614 245.78953 247.79392 249.56132 250.98071 252.10610 252.93049 253.24889
 253.28828 253.06467 252.42707 251.37746 249.98585 248.14924 246.06064 243.89603
 241.68942 239.49582 237.31821 235.15960 233.02199 230.89139 228.91978 227.07917
 225.36456 223.83896 222.47135 221.24574 220.13014 219.09253 218.19892 217.34231
 216.58671 215.76910 214.86949 214.23589 213.68828 214.25911 215.60667 216.49211
 217.36411 218.67755 220.28455 221.59201 223.03464 225.26195 228.35881 230.71875
 232.10262 233.47192 235.50067 238.76154 242.64316 246.77718 250.93413 254.87935
 258.56223 262.02988 265.28406 268.29453 271.04565 273.49698 275.57892 277.19696
 278.41586 279.52716 280.84888 282.21524 283.40671 284.46683 285.44455 286.34454
 287.18634 287.96228 288.64014 289.50397
 366.78100 356.33808 345.77315 334.64223 323.04831 311.24538 299.11846 286.92454
 274.63961 262.53969 250.55177 239.85584 229.98092 221.08800 213.27307 206.27815
 200.11523 195.05630 191.64138 189.68646 188.72653 188.79361 189.63169 190.94276
 192.67084 194.76892 197.03499 199.39707 201.84515 204.32822 206.41930 208.26438
 209.89345 211.04153 211.27361 211.50468 211.44476 211.15284 210.78891 210.42199
 210.04207 209.75514 209.56622 209.43330 209.36437 209.69845 210.08753 210.47960
 211.27568 212.45676 213.70983 215.49591 217.42699 219.47306 221.57114 223.65722
 225.72029 227.80737 229.90745 232.01652 234.14860 236.32368 238.58275 240.95583
 243.57991 245.83398 247.83906 249.60714 251.02721 252.15329 252.97837 253.29744
 253.33752 253.11460 252.47767 251.42875 250.03783 248.20190 246.11398 243.95006
 241.74413 239.55121 237.37429 235.21636 233.07944 230.94952 228.97859 227.13867
 225.42475 223.89982 222.53290 221.30798 220.19305 219.15613 218.26321 217.40728
 216.65236 215.83544 214.93651 214.30359 213.75667 214.30128 215.58983 216.57256
 217.47896 218.72060 220.28033 221.49323 222.91122 225.22067 228.26074 230.61037
 231.86433 233.29498 235.45450 238.80219 242.70428 246.82465 250.96069 254.90656
 258.60046 262.07257 265.32867 268.34454 271.10910 273.57385 275.67194 277.27600
 278.49033 279.62262 280.91177 282.27673 283.47058 284.54080 285.53622 286.51489
 287.40787 288.20303 288.89771 289.78296
 366.78100 356.33990 345.77680 334.64770 323.05561 311.25451 299.12941 286.93731
 274.65421 262.55611 250.57001 239.87592 230.00282 221.11172 213.29862 206.30552
 200.14442 195.08733 191.67423 189.72113 188.76303 188.83193 189.67183 190.98473
 192.71464 194.81454 197.08244 199.44634 201.89624 204.38114 206.47404 208.32095
 209.95185 211.10175 211.33565 211.56855 211.51045 211.22035 210.85826 210.49316
 210.11506 209.82996 209.64286 209.51176 209.44467 209.78057 210.17147 210.56537
 211.36327 212.54617 213.80107 215.58898 217.52188 219.56978 221.66968 223.75758
 225.82248 227.91138 230.01329 232.12419 234.25809 236.43499 238.69589 241.07079
 243.69669 245.95260 247.95950 249.72940 251.15130 252.27920 253.10610 253.42701
 253.46891 253.24781 252.61271 251.56561 250.17651 248.34241 246.25632 244.09422
 241.89012 239.69902 237.52392 235.36782 233.23272 231.10463 229.13553 227.29743
 225.58533 224.06223 222.69713 221.47403 220.36094 219.32584 218.43474 217.58064
 216.82754 216.01244 215.11534 214.48425 213.93915 214.39427 215.48654 216.72029
 217.61131 218.77774 220.35873 221.53152 222.90987 225.20158 228.23549 230.43858
 231.65256 233.08780 235.30557 238.74261 242.68796 246.80365 250.92796 254.87372
 258.57413 262.05124 265.31604 268.35596 271.15121 273.65857 275.80957 277.50342
 278.77396 279.84222 280.99420 282.35275 283.54391 284.61383 285.61163 286.59741
 287.49377 288.29196 288.98926 289.87787
 366.78100 356.34023 345.77746 334.64870 323.05693 311.25616 299.13139 286.93963
 274.65686 262.55909 250.57332 239.87956 230.00679 221.11602 213.30325 206.31049
 200.14972 195.09295 191.68018 189.72742 188.76965 188.83888 189.67911 190.99235
 192.72258 194.82281 197.09104 199.45528 201.90551 204.39074 206.48397 208.33121
 209.96244 211.11267 211.34690 211.58014 211.52237 211.23260 210.87083 210.50607
 210.12830 209.84353 209.65676 209.52600 209.45923 209.79546 210.18669 210.58092
 211.37916 212.56239 213.81762 215.60585 217.53909 219.58732 221.68755 223.77578
 225.84102 227.93025 230.03248 232.14371 234.27795 236.45518 238.71641 241.09164
 243.71788 245.97411 247.98134 249.75157 251.17381 252.30204 253.12927 253.45050
 253.49274 253.27197 252.63720 251.59043 250.20167 248.36790 246.28213 244.12036
 241.91660 239.72583 237.55106 235.39529 233.26053 231.13276 229.16399 227.32622
 225.61445 224.09169 222.72692 221.50415 220.39138 219.35662 218.46585 217.61208
 216.85931 216.04455 215.14778 214.51701 213.97224 214.40562 215.43652 216.87015
 217.75793 218.91391 220.52374 221.67479 223.00011 225.23442 228.28372 230.21826
 231.48154 232.88376 235.11664 238.62192 242.60281 246.70757 250.81807 254.75090
 258.44037 261.91385 265.19147 268.26138 271.08551 273.61850 275.80292 277.59091
 278.98865 280.11969 281.19052 282.40451 283.59286 284.65024 285.62433 286.52127
 287.36395 288.14575 288.82874 289.69910
 366.78100 356.33914 345.77528 334.64542 323.05257 311.25071 299.12485 286.93199
 274.64813 262.54927 250.56241 239.86755 229.99370 221.10184 213.28798 206.29412
 200.13226 195.07440 191.66054 189.70668 188.74783 188.81597 189.65511 190.96725
 192.69639 194.79553 197.06267 199.42581 201.87496 204.35910 206.45124 208.29738
 209.92752 211.07666 211.30980 211.54195 211.48309 211.19223 210.82937 210.46351
 210.08465 209.79879 209.61093 209.47908 209.41122 209.74636 210.13650 210.52964
 211.32678 212.50892 213.76306 215.55021 217.48235 219.52949 221.62863 223.71577
 225.77991 227.86805 229.96919 232.07934 234.21248 236.38862 238.64876 241.02290
 243.64804 245.90318 247.90932 249.67847 251.09961 252.22675 253.05289 253.37303
 253.41417 253.19231 252.55646 251.50860 250.11874 248.28388 246.19702 244.03416
 241.82930 239.63744 237.46159 235.30473 233.16887 231.04001 229.07015 227.23129
 225.51843 223.99457 222.62872 221.40486 220.29100 219.25514 218.36328 217.50842
 216.75456 215.93870 215.04085 214.40899 213.86313 214.34230 215.47441 216.99718
 217.88293 219.06577 220.62828 221.80937 223.10962 225.25148 228.24171 230.05083
 231.32468 232.79791 235.10721 238.61086 242.58701 246.66348 250.73962 254.64859
 258.32007 261.77789 265.04926 268.12982 270.96460 273.49301 275.66855 277.46744
 278.93109 280.16187 281.29739 282.44666 283.61932 284.67026 285.63507 286.51602
 287.31851 288.04379 288.68106 289.49850
 366.78100 356.33816 345.77333 334.64249 323.04866 311.24582 299.11899 286.92515
 274.64032 262.54048 250.55265 239.85681 229.98197 221.08914 213.27430 206.27947
 200.11663 195.05780 191.64296 189.68813 188.72829 188.79546 189.63362 190.94479
 192.67295 194.77111 197.03728 199.39944 201.84761 204.33077 206.42194 208.26710
 209.89627 211.04443 211.27660 211.50776 211.44792 211.15609 210.79225 210.42542
 210.04558 209.75875 209.56991 209.43708 209.36824 209.70241 210.09157 210.48373
 211.27990 212.46106 213.71423 215.50039 217.43156 219.47772 221.57589 223.66205
 225.72522 227.81238 229.91255 232.02171 234.15387 236.32904 238.58820 240.96137
 243.58553 245.83970 247.84486 249.61303 251.03319 252.15936 252.98452 253.30368
 253.34385 253.12101 252.48418 251.43534 250.04451 248.20867 246.12084 243.95700
 241.75117 239.55833 237.38149 235.22366 233.08682 230.95699 228.98615 227.14632
 225.43248 223.90765 222.54081 221.31598 220.20114 219.16431 218.27147 217.41563
 216.66080 215.84396 214.94513 214.31229 213.76546 214.28778 215.52185 217.09084
 217.96446 219.13647 220.66681 221.84319 223.10843 225.19334 228.14171 229.91068
 231.17989 232.69585 235.06906 238.63667 242.63249 246.68944 250.74088 254.63374
 258.29605 261.74066 264.99564 268.07117 270.89835 273.40533 275.54169 277.32275
 278.79453 280.07062 281.25122 282.44644 283.61734 284.66653 285.62927 286.50879
 287.30508 288.02319 288.64496 289.44781
 366.78100 356.33843 345.77387 334.64330 323.04973 311.24716 299.12060 286.92703
 274.64246 262.54289 250.55533 239.85976 229.98519 221.09262 213.27806 206.28349
 200.12092 195.06235 191.64779 189.69322 188.73365 188.80108 189.63952 190.95095
 192.67938 194.77781 197.04425 199.40668 201.85511 204.33854 206.42998 208.27541
 209.90484 211.05327 211.28571 211.51714 211.45757 211.16600 210.80244 210.43587
 210.05630 209.76973 209.58117 209.44860 209.38003 209.71446 210.10390 210.49633
 211.29276 212.47419 213.72763 215.51406 217.44549 219.49192 221.59036 223.67679
 225.74022 227.82765 229.92809 232.03752 234.16995 236.34538 238.60482 240.97825
 243.60268 245.85711 247.86255 249.63098 251.05141 252.17784 253.00328 253.32271
 253.36314 253.14057 252.50401 251.45544 250.06487 248.22930 246.14174 243.97817
 241.77260 239.58003 237.40347 235.24590 233.10933 230.97976 229.00920 227.16963
 225.45606 223.93149 222.56493 221.34036 220.22579 219.18922 218.29666 217.44109
 216.68652 215.86995 214.97139 214.33882 213.79225 214.29929 215.49719 217.16077
 218.09955 219.23146 220.70294 221.84248 223.06670 225.10883 228.02536 229.76602
 231.04524 232.59334 235.03452 238.68048 242.69945 246.73787 250.76512 254.64639
 258.30478 261.73965 264.97723 268.04434 270.86731 273.36673 275.47284 277.23373
 278.70914 280.01132 281.22232 282.43204 283.60165 284.65176 285.61270 286.49149
 287.29166 288.00549 288.62589 289.42914
 366.78100 356.33947 345.77594 334.64642 323.05389 311.25236 299.12683 286.93430
 274.65077 262.55225 250.56572 239.87119 229.99766 221.10613 213.29261 206.29908
 200.13755 195.08002 191.66649 189.71296 188.75444 188.82291 189.66238 190.97485
 192.70432 194.80379 197.07127 199.43474 201.88421 204.36868 206.46115 208.30763
 209.93810 211.08757 211.32104 211.55351 211.49498 211.20446 210.84193 210.47640
 210.09787 209.81234 209.62482 209.49329 209.42576 209.76123 210.15170 210.54517
 211.34265 212.52512 213.77959 215.56706 217.49953 219.54700 221.64648 223.73395
 225.79842 227.88689 229.98836 232.09884 234.23231 236.40878 238.66925 241.04372
 243.66919 245.92467 247.93114 249.70061 251.12208 252.24955 253.07603 253.39650
 253.43797 253.21644 252.58091 251.53338 250.14386 248.30933 246.22280 244.06027
 241.85574 239.66422 237.48869 235.33216 233.19663 231.06810 229.09857 227.26005
 225.54752 224.02399 222.65846 221.43493 220.32140 219.28588 218.39435 217.53982
 216.78629 215.97076 215.07324 214.44171 213.89618 214.35220 215.42961 217.21527
 218.29912 219.39026 220.75894 221.83064 223.00549 225.00127 227.87936 229.58365
 230.87154 232.45763 234.97519 238.70459 242.74580 246.76788 250.77118 254.64165
 258.29678 261.72284 264.94733 268.00671 270.82739 273.31873 275.40155 277.14868
 278.63342 279.96182 281.19919 282.41107 283.57999 284.63135 285.59467 286.47235
 287.26974 287.98547 288.60699 289.41104
 366.78100 356.34066 345.77833 334.64999 323.05865 311.25832 299.13398 286.94264
 274.66031 262.56297 250.57763 239.88430 230.01196 221.12162 213.30929 206.31695
 200.15661 195.10028 191.68794 189.73560 188.77827 188.84793 189.68859 191.00226
 192.73292 194.83358 197.10225 199.46691 201.91757 204.40324 206.49690 208.34456
 209.97623 211.12689 211.36155 211.59522 211.53788 211.24854 210.88721 210.52287
 210.14553 209.86120 209.67486 209.54452 209.47819 209.81485 210.20651 210.60118
 211.39984 212.58350 213.83917 215.62783 217.56149 219.61016 221.71082 223.79948
 225.86515 227.95481 230.05747 232.16914 234.30380 236.48146 238.74313 241.11879
 243.74545 246.00212 248.00978 249.78044 251.20311 252.33177 253.15943 253.48110
 253.52376 253.30342 252.66909 251.62275 250.23441 248.40108 246.31574 244.15440
 241.95107 239.76073 237.58639 235.43106 233.29672 231.16938 229.20105 227.36371
 225.65237 224.13004 222.76570 221.54336 220.43103 219.39669 218.50635 217.65302
 216.90068 216.08635 215.19001 214.55967 214.01534 214.41405 215.35606 217.23648
 218.50333 219.58327 220.83539 221.82838 222.95084 224.89809 227.73268 229.39865
 230.69704 232.32794 234.92233 238.72913 242.78835 246.79446 250.77132 254.62904
 258.27954 261.69836 264.91132 267.96289 270.78058 273.26569 275.33093 277.07104
 278.56433 279.91144 281.17209 282.38495 283.55621 284.60696 285.56967 286.44894
 287.24594 287.96140 288.58548 289.39056
 366.78100 356.34153 345.78005 334.65258 323.06211 311.26264 299.13916 286.94869
 274.66722 262.57075 250.58627 239.89380 230.02233 221.13286 213.32138 206.32991
 200.17044 195.11497 191.70349 189.75202 188.79555 188.86608 189.70760 191.02213
 192.75366 194.85519 197.12471 199.49024 201.94177 204.42830 206.52282 208.37135
 210.00388 211.15541 211.39093 211.62546 211.56899 211.28052 210.92004 210.55657
 210.18010 209.89663 209.71115 209.58168 209.51621 209.85374 210.24626 210.64179
 211.44132 212.62585 213.88237 215.67190 217.60643 219.65596 221.75748 223.84701
 225.91354 228.00406 230.10759 232.22012 234.35565 236.53417 238.79670 241.17323
 243.80076 246.05828 248.06681 249.83834 251.26187 252.39139 253.21992 253.54245
 253.58598 253.36650 252.73303 251.68756 250.30009 248.46761 246.38314 244.22267
 242.02020 239.83072 237.65725 235.50278 233.36931 231.24283 229.27536 227.43889
 225.72842 224.20694 222.84347 221.62200 220.51053 219.47705 218.58758 217.73511
 216.98364 216.17016 215.27469 214.64522 214.10175 214.45920 215.30371 217.23996
 218.68352 219.76584 220.90425 221.82811 222.90855 224.80220 227.58589 229.22462
 230.54536 232.22583 234.89058 238.76462 242.83861 246.82588 250.77197 254.61502
 258.25861 261.67084 264.87286 267.91507 270.72690 273.20474 275.25751 276.99585
 278.49850 279.85968 281.14166 282.35718 283.52783 284.58044 285.54431 286.42249
 287.21979 287.93634 288.56226 289.36853
 366.78100 356.34209 345.78118 334.65427 323.06437 311.26546 299.14255 286.95264
 274.67173 262.57582 250.59191 239.90001 230.02910 221.14019 213.32928 206.33837
 200.17946 195.12455 191.71365 189.76274 188.80683 188.87792 189.72001 191.03510
 192.76719 194.86929 197.13938 199.50547 201.95756 204.44465 206.53974 208.38883
 210.02193 211.17402 211.41011 211.64520 211.58929 211.30138 210.94147 210.57857
 210.20266 209.91975 209.73484 209.60593 209.54102 209.87911 210.27221 210.66830
 211.46839 212.65348 213.91057 215.70066 217.63575 219.68585 221.78794 223.87803
 225.94512 228.03621 230.14030 232.25339 234.38949 236.56858 238.83167 241.20876
 243.83685 246.09494 248.10403 249.87613 251.30022 252.43031 253.25940 253.58249
 253.62658 253.40767 252.77477 251.72986 250.34295 248.51104 246.42713 244.26722
 242.06531 239.87641 237.70350 235.54959 233.41668 231.29077 229.32386 227.48795
 225.77805 224.25714 222.89423 221.67332 220.56241 219.52950 218.64059 217.78868
 217.03778 216.22487 215.32996 214.70105 214.15814 214.48788 215.26694 217.23341
 218.85161 219.94316 220.96960 221.82198 222.86278 224.70404 227.43895 229.06006
 230.41013 232.14262 234.87199 238.80701 242.89391 246.85966 250.77339 254.59846
 258.23428 261.63959 264.83130 267.86188 270.66586 273.13358 275.17627 276.91882
 278.43060 279.80612 281.10437 282.32657 283.49872 284.55090 285.51736 286.39474
 287.19363 287.90982 288.53717 289.34109
 366.78100 356.34267 345.78234 334.65601 323.06667 311.26834 299.14601 286.95668
 274.67635 262.58102 250.59768 239.90635 230.03602 221.14769 213.33736 206.34703
 200.18869 195.13436 191.72403 189.77370 188.81837 188.89004 189.73270 191.04837
 192.78104 194.88371 197.15438 199.52105 201.97371 204.46138 206.55705 208.40672
 210.04039 211.19306 211.42972 211.66539 211.61006 211.32273 210.96340 210.60107
 210.22573 209.94340 209.75907 209.63074 209.56641 209.90508 210.29874 210.69541
 211.49608 212.68175 213.93942 215.73009 217.66575 219.71642 221.81909 223.90976
 225.97743 228.06910 230.17376 232.28743 234.42410 236.60377 238.86744 241.24511
 243.87377 246.13244 248.14211 249.91478 251.33945 252.47012 253.29978 253.62345
 253.66812 253.44979 252.81746 251.77313 250.38680 248.55546 246.47213 244.31280
 242.11147 239.92314 237.75081 235.59747 233.46514 231.33981 229.37348 227.53815
 225.82882 224.30848 222.94615 221.72582 220.61549 219.58316 218.69483 217.84349
 217.09316 216.28083 215.38650 214.75817 214.21584 214.51643 215.22661 217.21953
 219.01282 220.11966 221.04665 221.82422 222.82065 224.59674 227.27267 228.88994
 230.28514 232.07565 234.86562 238.85526 242.95238 246.89714 250.77818 254.58229
 258.20959 261.60764 264.78900 267.80679 270.59930 273.05484 275.09140 276.83856
 278.36008 279.74780 281.06372 282.29739 283.47220 284.52841 285.49527 286.37823
 287.17877 287.89969 288.53015 289.34723
 366.78100 356.34344 345.78387 334.65831 323.06974 311.27218 299.15061 286.96205
 274.68248 262.58792 250.60535 239.91479 230.04522 221.15766 213.34809 206.35853
 200.20096 195.14740 191.73783 189.78827 188.83370 188.90614 189.74957 191.06601
 192.79944 194.90288 197.17431 199.54175 201.99518 204.48362 206.58005 208.43049
 210.06492 211.21836 211.45579 211.69223 211.63766 211.35110 210.99253 210.63097
 210.25640 209.97484 209.79127 209.66371 209.60014 209.93958 210.33402 210.73145
 211.53289 212.71932 213.97776 215.76919 217.70563 219.75706 221.86050 223.95193
 226.02037 228.11280 230.21824 232.33267 234.47011 236.65054 238.91498 241.29341
 243.92285 246.18228 248.19272 249.96615 251.39159 252.52302 253.35346 253.67789
 253.72333 253.50576 252.87420 251.83063 250.44507 248.61450 246.53194 244.37337
 242.17281 239.98524 237.81368 235.66111 233.52955 231.40498 229.43942 227.60485
 225.89629 224.37672 223.01516 221.79559 220.68603 219.65447 218.76690 217.91634
 217.16677 216.35521 215.46164 214.83408 214.29251 214.55484 215.17461 217.19998
 219.17322 220.30006 221.12027 221.81746 222.76787 224.47588 227.09998 228.72844
 230.17706 232.02516 234.87100 238.90971 243.01489 246.93982 250.78761 254.56911
 258.18634 261.57568 264.74692 267.74908 270.52728 272.96890 275.00180 276.75641
 278.28558 279.68719 280.96384 282.29092 283.47058 284.52075 285.48413 286.36615
 287.16422 287.88562 288.51764 289.33350
 366.78100 356.34425 345.78549 334.66074 323.07299 311.27624 299.15548 286.96773
 274.68898 262.59523 250.61347 239.92372 230.05497 221.16822 213.35946 206.37071
 200.21396 195.16120 191.75245 189.80370 188.84995 188.92319 189.76744 191.08469
 192.81894 194.92318 197.19543 199.56368 202.01793 204.50717 206.60442 208.45567
 210.09091 211.24516 211.48341 211.72066 211.66690 211.38115 211.02340 210.66265
 210.28889 210.00814 209.82539 209.69864 209.63588 209.97613 210.37138 210.76962
 211.57187 212.75912 214.01837 215.81061 217.74786 219.80011 221.90436 223.99660
 226.06585 228.15910 230.26535 232.38059 234.51884 236.70009 238.96533 241.34458
 243.97483 246.23508 248.24632 250.02057 251.44682 252.57907 253.41031 253.73556
 253.78181 253.56506 252.93430 251.89155 250.50680 248.67704 246.59529 244.43754
 242.23779 240.05103 237.88028 235.72853 233.59778 231.47402 229.50927 227.67552
 225.96777 224.44901 223.08826 221.86951 220.76075 219.73000 218.84325 217.99350
 217.24474 216.43399 215.54124 214.91449 214.37373 214.59694 215.12427 217.17369
 219.31870 220.48671 221.21407 221.79501 222.68533 224.34662 226.93260 228.58424
 230.08682 231.98677 234.88376 238.96812 243.08009 246.98625 250.79916 254.55716
 258.16208 261.54132 264.70236 267.68839 270.44986 272.87723 274.90936 276.67169
 278.21136 279.62289 280.91125 282.25552 283.44315 284.49811 285.46530 286.34769
 287.15005 287.87143 288.50180 289.31650
 366.78100 356.34500 345.78700 334.66300 323.07600 311.28000 299.16000 286.97300
 274.69500 262.60200 250.62100 239.93200 230.06400 221.17800 213.37000 206.38200
 200.22600 195.17400 191.76600 189.81800 188.86500 188.93900 189.78400 191.10200
 192.83700 194.94201 197.21501 199.58401 202.03901 204.52901 206.62701 208.47901
 210.11501 211.27001 211.50901 211.74701 211.69401 211.40901 211.05201 210.69201
 210.31901 210.03901 209.85701 209.73101 209.66901 210.01001 210.40601 210.80501
 211.60801 212.79601 214.05601 215.84901 217.78701 219.84001 221.94501 224.03801
 226.10801 228.20201 230.30901 232.42501 234.56401 236.74601 239.01201 241.39201
 244.02301 246.28401 248.29601 250.07101 251.49801 252.63101 253.46301 253.78901
 253.83601 253.62001 252.99002 251.94802 250.56402 248.73502 246.65402 244.49702
 242.29802 240.11202 237.94202 235.79102 233.66102 231.53802 229.57402 227.74102
 226.03402 224.51602 223.15602 221.93802 220.83002 219.80002 218.91402 218.06502
 217.31702 216.50702 215.61502 214.98902 214.44902 214.63699 215.08110 217.14360
 219.44560 220.66455 221.33139 221.77866 222.57365 224.20811 226.79530 228.46472
 229.99614 231.93800 234.89221 239.02419 243.14278 247.03227 250.81233 254.54596
 258.13760 261.50705 264.65851 267.62653 270.37012 272.78455 274.81918 276.59149
 278.14020 279.55560 280.87006 282.21884 283.41168 284.47107 285.44135 286.32590
 287.12943 287.84943 288.48056 289.29846
 366.78100 356.34564 345.78829 334.66493 323.07858 311.28322 299.16387 286.97751
 274.70016 262.60780 250.62745 239.93909 230.07173 221.18638 213.37902 206.39167
 200.23631 195.18496 191.77760 189.83025 188.87789 188.95254 189.79818 191.11683
 192.85247 194.95811 197.23176 199.60140 202.05705 204.54769 206.64634 208.49898
 210.13563 211.29127 211.53092 211.76956 211.71720 211.43285 211.07649 210.71714
 210.34478 210.06543 209.88407 209.75872 209.69736 210.03901 210.43565 210.83530
 211.63894 212.82758 214.08823 215.88187 217.82052 219.87416 221.97981 224.07345
 226.14410 228.23874 230.34639 232.46303 234.60267 236.78532 239.05196 241.43261
 244.06425 246.32590 248.33854 250.11419 251.54183 252.67548 253.50812 253.83477
 253.88241 253.66705 253.03770 251.99634 250.61299 248.78463 246.70428 244.54792
 242.34957 240.16421 237.99486 235.84450 233.71514 231.59279 229.62943 227.79708
 226.09072 224.57337 223.21401 221.99666 220.88930 219.85995 218.97459 218.12624
 217.37888 216.56952 215.67817 215.05281 214.51346 214.67239 215.04790 217.10724
 219.55722 220.82826 221.45854 221.79219 222.48050 224.10158 226.64815 228.30890
 229.87677 231.87610 234.89963 239.08206 243.21002 247.08432 250.83247 254.53943
 258.11636 261.47531 264.61536 267.56381 270.28897 272.69345 274.73264 276.51349
 278.06876 279.48535 280.83447 282.18698 283.38037 284.44217 285.41263 286.29822
 287.10153 287.82422 288.45422 289.27206
 366.78100 356.34611 345.78921 334.66632 323.08042 311.28553 299.16664 286.98074
 274.70385 262.61195 250.63206 239.94416 230.07727 221.19238 213.38548 206.39859
 200.24369 195.19280 191.78591 189.83901 188.88712 188.96222 189.80833 191.12743
 192.86354 194.96965 197.24375 199.61386 202.06996 204.56107 206.66018 208.51328
 210.15039 211.30649 211.54660 211.78570 211.73381 211.44992 211.09402 210.73513
 210.36323 210.08434 209.90345 209.77855 209.71766 210.05976 210.45687 210.85698
 211.66108 212.85019 214.11129 215.90540 217.84450 219.89861 222.00472 224.09882
 226.16993 228.26503 230.37314 232.49025 234.63035 236.81346 239.08056 241.46167
 244.09377 246.35588 248.36899 250.14509 251.57320 252.70730 253.54041 253.86752
 253.91562 253.70073 253.07183 252.03094 250.64805 248.82015 246.74026 244.58436
 242.38647 240.20157 238.03268 235.88279 233.75389 231.63200 229.66910 227.83721
 226.13132 224.61442 223.25553 222.03863 220.93174 219.90284 219.01795 218.17006
 217.42316 216.61427 215.72337 215.09848 214.55959 214.69916 215.02892 217.06696
 219.64636 220.97519 221.57774 221.83871 222.41757 223.92966 226.48248 228.18475
 229.78107 231.82858 234.92068 239.15030 243.28801 247.14648 250.86093 254.53688
 258.09625 261.44226 264.57138 267.49936 270.20651 272.60242 274.64642 276.43475
 277.99326 279.41180 280.79901 282.15564 283.34930 284.41025 285.38104 286.26740
 287.06924 287.79297 288.42276 289.24088
 366.78100 356.34636 345.78971 334.66707 323.08142 311.28678 299.16813 286.98249
 274.70585 262.61420 250.63456 239.94691 230.08027 221.19563 213.38898 206.40234
 200.24769 195.19705 191.79040 189.84376 188.89212 188.96747 189.81383 191.13318
 192.86954 194.97589 197.25025 199.62061 202.07696 204.56832 206.66767 208.52103
 210.15839 211.31474 211.55510 211.79445 211.74281 211.45916 211.10352 210.74488
 210.37323 210.09459 209.91394 209.78930 209.72865 210.07101 210.46837 210.86872
 211.67308 212.86243 214.12379 215.91815 217.85750 219.91186 222.01821 224.11257
 226.18392 228.27928 230.38764 232.50499 234.64535 236.82870 239.09606 241.47742
 244.10977 246.37213 248.38548 250.16184 251.59019 252.72455 253.55791 253.88526
 253.93362 253.71897 253.09033 252.04968 250.66704 248.83940 246.75975 244.60411
 242.40646 240.22182 238.05318 235.90353 233.77489 231.65324 229.69060 227.85895
 226.15331 224.63667 223.27802 222.06138 220.95473 219.92609 219.04144 218.19380
 217.44716 216.63851 215.74787 215.12322 214.58458 214.71472 215.02223 217.02675
 219.71417 221.10374 221.68149 221.87897 222.35959 223.76308 226.32542 228.07385
 229.69676 231.79103 234.95139 239.22478 243.37065 247.21187 250.89203 254.53549
 258.07498 261.40710 264.52502 267.43329 270.12137 272.51147 274.56082 276.35529
 277.91650 279.32590 280.77344 282.13159 283.32108 284.37964 285.34921 286.23462
 287.03604 287.75601 288.38782 289.20331
 366.78100 356.34646 345.78992 334.66738 323.08184 311.28730 299.16876 286.98322
 274.70668 262.61514 250.63560 239.94806 230.08152 221.19698 213.39044 206.40390
 200.24937 195.19883 191.79229 189.84575 188.89421 188.96967 189.81613 191.13559
 192.87205 194.97851 197.25297 199.62343 202.07989 204.57135 206.67081 208.52427
 210.16173 211.31819 211.55865 211.79811 211.74657 211.46303 211.10749 210.74895
 210.37741 210.09887 209.91833 209.79379 209.73325 210.07571 210.47317 210.87363
 211.67810 212.86756 214.12902 215.92348 217.86294 219.91740 222.02386 224.11832
 226.18978 228.28524 230.39370 232.51116 234.65162 236.83508 239.10254 241.48400
 244.11646 246.37892 248.39238 250.16884 251.59730 252.73176 253.56522 253.89268
 253.94114 253.72660 253.09806 252.05752 250.67498 248.84744 246.76790 244.61237
 242.41483 240.23029 238.06175 235.91221 233.78367 231.66213 229.69959 227.86805
 226.16251 224.64597 223.28743 222.07089 220.96435 219.93581 219.05127 218.20373
 217.45719 216.64865 215.75811 215.13357 214.59503 214.72238 215.02325 216.99252
 219.76482 221.21382 221.77325 221.90596 222.30176 223.61975 226.17717 227.96222
 229.61224 231.75722 234.98898 239.30298 243.45551 247.27914 250.92606 254.53737
 258.05466 261.37207 264.47815 267.36697 270.03882 272.42377 274.47726 276.27469
 277.83588 279.23694 280.74207 282.10883 283.29672 284.35416 285.32126 286.20343
 287.00433 287.72073 288.34698 289.16629
 366.78100 356.34652 345.79003 334.66755 323.08207 311.28759 299.16910 286.98362
 274.70714 262.61566 250.63617 239.94869 230.08221 221.19772 213.39124 206.40476
 200.25028 195.19979 191.79331 189.84683 188.89534 188.97086 189.81738 191.13690
 192.87341 194.97993 197.25445 199.62497 202.08148 204.57300 206.67252 208.52603
 210.16355 211.32007 211.56059 211.80010 211.74862 211.46514 211.10965 210.75117
 210.37969 210.10121 209.92072 209.79624 209.73576 210.07828 210.47579 210.87631
 211.68083 212.87034 214.13186 215.92638 217.86590 219.92041 222.02693 224.12145
 226.19297 228.28848 230.39700 232.51452 234.65503 236.83855 239.10607 241.48759
 244.12010 246.38262 248.39614 250.17265 251.60117 252.73569 253.56921 253.89672
 253.94524 253.73076 253.10228 252.06179 250.67931 248.85183 246.77234 244.61686
 242.41938 240.23490 238.06641 235.91693 233.78845 231.66696 229.70448 227.87300
 226.16752 224.65103 223.29255 222.07607 220.96959 219.94110 219.05662 218.20914
 217.46265 216.65417 215.76369 215.13921 214.60072 214.72934 215.03322 216.96938
 219.79405 221.29958 221.85619 221.92717 222.24875 223.49873 226.03531 227.84795
 229.52722 231.72832 235.03352 239.38454 243.54233 247.34961 250.96339 254.54135
 258.03384 261.33545 264.42938 267.29938 269.95776 272.33939 274.39673 276.19678
 277.76068 279.18539 280.70151 282.06979 283.25986 284.31598 285.28302 286.16336
 286.96179 287.67725 288.30377 289.11841
 366.78100 356.34657 345.79014 334.66771 323.08228 311.28785 299.16942 286.98399
 274.70756 262.61613 250.63670 239.94927 230.08284 221.19841 213.39198 206.40555
 200.25112 195.20069 191.79426 189.84783 188.89640 188.97197 189.81854 191.13811
 192.87468 194.98125 197.25582 199.62639 202.08297 204.57454 206.67411 208.52768
 210.16525 211.32182 211.56239 211.80196 211.75053 211.46710 211.11167 210.75324
 210.38181 210.10338 209.92295 209.79852 209.73809 210.08066 210.47823 210.87880
 211.68337 212.87294 214.13451 215.92908 217.86865 219.92322 222.02979 224.12436
 226.19593 228.29150 230.40007 232.51764 234.65821 236.84178 239.10935 241.49092
 244.12349 246.38606 248.39963 250.17620 251.60477 252.73934 253.57291 253.90048
 253.94905 253.73462 253.10619 252.06576 250.68333 248.85590 246.77647 244.62104
 242.42361 240.23918 238.07075 235.92132 233.79290 231.67147 229.70904 227.87761
 226.17218 224.65575 223.29732 222.08089 220.97446 219.94603 219.06160 218.21417
 217.46774 216.65931 215.76888 215.14445 214.60602 214.73920 215.05386 216.96173
 219.79161 221.35693 221.93341 221.95409 222.20647 223.39708 225.89812 227.73337
 229.44389 231.70578 235.08540 239.46877 243.62906 247.41957 251.00131 254.54539
 258.01175 261.29617 264.37851 267.23199 269.87897 272.25912 274.31967 276.12094
 277.69089 279.14352 280.66388 282.03183 283.22205 284.27771 285.24515 286.12610
 286.92300 287.63904 288.26559 289.07993
 366.78100 356.34657 345.79013 334.66770 323.08226 311.28783 299.16940 286.98396
 274.70753 262.61609 250.63666 239.94923 230.08279 221.19836 213.39192 206.40549
 200.25106 195.20062 191.79419 189.84776 188.89632 188.97189 189.81845 191.13802
 192.87459 194.98115 197.25572 199.62628 202.08285 204.57442 206.67398 208.52755
 210.16511 211.32168 211.56225 211.80181 211.75038 211.46694 211.11151 210.75308
 210.38164 210.10321 209.92277 209.79834 209.73791 210.08047 210.47804 210.87860
 211.68317 212.87274 214.13430 215.92887 217.86844 219.92300 222.02957 224.12413
 226.19570 228.29127 230.39983 232.51740 234.65796 236.84153 239.10910 241.49066
 244.12323 246.38579 248.39936 250.17593 251.60449 252.73906 253.57262 253.90019
 253.94876 253.73432 253.10589 252.06545 250.68302 248.85559 246.77615 244.62072
 242.42328 240.23885 238.07042 235.92098 233.79255 231.67112 229.70868 227.87725
 226.17181 224.65538 223.29695 222.08051 220.97408 219.94564 219.06121 218.21378
 217.46734 216.65891 215.76847 215.14404 214.60561 214.74716 215.08159 216.97131
 219.75620 221.38586 222.00552 221.98869 222.17625 223.31036 225.76637 227.62181
 229.36388 231.69221 235.14560 239.55423 243.71410 247.48849 251.03917 254.54904
 257.98727 261.25372 264.32434 267.16467 269.80280 272.18140 274.24435 276.04980
 277.63205 279.10767 280.63150 282.00082 283.18964 284.24561 285.21185 286.09174
 286.89194 287.61047 288.23886 289.05411
 366.78100 356.34639 345.78979 334.66718 323.08158 311.28697 299.16836 286.98276
 274.70615 262.61455 250.63494 239.94733 230.08073 221.19612 213.38952 206.40291
 200.24830 195.19770 191.79109 189.84448 188.89288 188.96827 189.81467 191.13406
 192.87045 194.97685 197.25124 199.62164 202.07803 204.56942 206.66882 208.52221
 210.15961 211.31600 211.55639 211.79579 211.74418 211.46058 211.10497 210.74636
 210.37476 210.09615 209.91555 209.79094 209.73033 210.07273 210.47012 210.87052
 211.67491 212.86430 214.12570 215.92009 217.85948 219.91388 222.02027 224.11467
 226.18606 228.28145 230.38985 232.50724 234.64764 236.83103 239.09842 241.47982
 244.11221 246.37461 248.38800 250.16439 251.59279 252.72718 253.56058 253.88797
 253.93636 253.72176 253.09315 252.05255 250.66994 248.84233 246.76273 244.60712
 242.40952 240.22491 238.05630 235.90670 233.77809 231.65649 229.69388 227.86227
 226.15667 224.64006 223.28145 222.06485 220.95824 219.92964 219.04503 218.19742
 217.45082 216.64221 215.75161 215.12700 214.58839 214.74580 215.11771 216.99185
 219.69856 221.39221 222.07079 222.02519 222.14679 223.23141 225.63666 227.51070
 229.28850 231.69087 235.21526 239.64275 243.80118 247.56110 251.08286 254.55675
 257.96469 261.21146 264.26904 267.09760 269.72787 272.10260 274.16385 275.97131
 277.56830 279.07986 280.60669 281.97702 283.16595 284.22211 285.18805 286.06946
 286.87097 287.59244 288.22278 289.03436
 366.78100 356.34596 345.78892 334.66588 323.07984 311.28481 299.16577 286.97973
 274.70269 262.61065 250.63061 239.94257 230.07553 221.19050 213.38346 206.39642
 200.24138 195.19034 191.78330 189.83626 188.88422 188.95919 189.80515 191.12411
 192.86007 194.96603 197.23999 199.60995 202.06591 204.55687 206.65584 208.50880
 210.14576 211.30172 211.54168 211.78064 211.72860 211.44456 211.08853 210.72949
 210.35745 210.07841 209.89737 209.77233 209.71129 210.05325 210.45022 210.85018
 211.65414 212.84310 214.10406 215.89802 217.83698 219.89094 221.99690 224.09087
 226.16183 228.25679 230.36475 232.48171 234.62167 236.80463 239.07159 241.45256
 244.08452 246.34648 248.35944 250.13540 251.56336 252.69732 253.53028 253.85725
 253.90521 253.69017 253.06113 252.02009 250.63705 248.80901 246.72897 244.57293
 242.37490 240.18986 238.02082 235.87078 233.74174 231.61970 229.65666 227.82462
 226.11859 224.60155 223.24251 222.02547 220.91843 219.88939 219.00435 218.15631
 217.40928 216.60024 215.70920 215.08416 214.54512 214.73029 215.16779 217.01483
 219.62941 221.37485 222.11819 222.05644 222.12378 223.15747 225.51108 227.40547
 229.22040 231.70267 235.29445 239.73392 243.89058 247.63849 251.13383 254.57153
 257.94751 261.17300 264.21719 267.03561 269.65710 272.02625 274.08438 275.89471
 277.51038 279.04941 280.57776 281.94675 283.13409 284.18756 285.15012 286.03015
 286.83145 287.55356 288.18149 288.97708
 366.78100 356.34543 345.78786 334.66429 323.07772 311.28215 299.16258 286.97601
 274.69844 262.60587 250.62531 239.93674 230.06917 221.18360 213.37603 206.38846
 200.23289 195.18132 191.77375 189.82618 188.87361 188.94804 189.79347 191.11190
 192.84733 194.95276 197.22619 199.59562 202.05105 204.54148 206.63992 208.49235
 210.12878 211.28421 211.52364 211.76207 211.70950 211.42493 211.06836 210.70879
 210.33622 210.05665 209.87508 209.74951 209.68794 210.02937 210.42580 210.82523
 211.62866 212.81709 214.07753 215.87096 217.80939 219.86282 221.96825 224.06168
 226.13211 228.22654 230.33397 232.45040 234.58983 236.77226 239.03869 241.41912
 244.05055 246.31198 248.32441 250.09984 251.52727 252.66070 253.49314 253.81957
 253.86700 253.65143 253.02186 251.98029 250.59672 248.76815 246.68758 244.53101
 242.33244 240.14687 237.97730 235.82673 233.69716 231.57459 229.61102 227.77845
 226.07188 224.55431 223.19475 221.97718 220.86961 219.84004 218.95447 218.10590
 217.35833 216.54876 215.65719 215.03162 214.49205 214.71053 215.22672 217.03596
 219.56125 221.34134 222.15271 222.07393 222.08148 223.08795 225.38995 227.29906
 229.15625 231.72664 235.38171 239.82732 243.98051 247.71877 251.19069 254.59172
 257.93454 261.13715 264.16711 266.97614 269.58960 271.95108 274.00436 275.81512
 277.44855 279.01208 280.54202 281.90921 283.09335 284.14554 285.10425 285.98300
 286.78522 287.50702 288.12866 288.92252
 366.78100 356.34490 345.78680 334.66270 323.07560 311.27950 299.15940 286.97230
 274.69420 262.60110 250.62000 239.93090 230.06280 221.17670 213.36860 206.38049
 200.22439 195.17229 191.76419 189.81609 188.86299 188.93689 189.78179 191.09969
 192.83459 194.93949 197.21239 199.58129 202.03619 204.52609 206.62399 208.47589
 210.11179 211.26669 211.50559 211.74349 211.69039 211.40529 211.04819 210.68809
 210.31499 210.03489 209.85279 209.72668 209.66458 210.00548 210.40138 210.80028
 211.60318 212.79108 214.05098 215.84388 217.78178 219.83468 221.93958 224.03248
 226.10238 228.19628 230.30318 232.41908 234.55798 236.73988 239.00578 241.38568
 244.01658 246.27748 248.28938 250.06428 251.49118 252.62408 253.45598 253.78188
 253.82877 253.61267 252.98257 251.94047 250.55637 248.72727 246.64617 244.48907
 242.28997 240.10387 237.93377 235.78267 233.65257 231.52947 229.56537 227.73227
 226.02517 224.50707 223.14697 221.92887 220.82077 219.79067 218.90457 218.05547
 217.30737 216.49727 215.60517 214.97907 214.43896 214.69070 215.28546 217.05609
 219.51471 221.30814 222.16473 222.08157 222.04739 222.99651 225.25038 227.18233
 229.08681 231.75624 235.47552 239.92261 244.07326 247.80515 251.25415 254.61572
 257.92160 261.09723 264.11011 266.90991 269.51508 271.86725 273.91965 275.74371
 277.40228 278.97372 280.49979 281.86316 283.04620 284.09329 285.04974 285.92621
 286.73160 287.45932 288.07199 288.86386
 366.78100 356.34370 345.78440 334.65911 323.07081 311.27351 299.15221 286.96391
 274.68461 262.59032 250.60802 239.91772 230.04842 221.16112 213.35183 206.36253
 200.20523 195.15193 191.74263 189.79333 188.83904 188.91174 189.75544 191.07214
 192.80584 194.90955 197.18125 199.54895 202.00265 204.49135 206.58806 208.43876
 210.07346 211.22716 211.46486 211.70156 211.64727 211.36097 211.00267 210.64137
 210.26707 209.98578 209.80248 209.67518 209.61188 209.95158 210.34628 210.74399
 211.54569 212.73239 213.99109 215.78279 217.71950 219.77120 221.87490 223.96660
 226.03530 228.12800 230.23371 232.34841 234.48611 236.66681 238.93151 241.31022
 243.93992 246.19962 248.21032 249.98402 251.40972 252.54143 253.37213 253.69683
 253.74253 253.52523 252.89394 251.85064 250.46534 248.63504 246.55274 244.39444
 242.19415 240.00685 237.83555 235.68325 233.55195 231.42766 229.46236 227.62806
 225.91976 224.40046 223.03917 221.81987 220.71057 219.67927 218.79197 217.94167
 217.19238 216.38108 215.48778 214.86048 214.31918 214.63159 215.36969 217.09833
 219.45380 221.27875 222.19798 222.06551 221.96579 222.92947 225.12830 227.05281
 229.00687 231.78073 235.56401 240.01027 244.15480 247.87976 251.31061 254.63956
 257.91187 261.06363 264.06018 266.85291 269.44867 271.79196 273.84006 275.66833
 277.34613 278.92514 280.44769 281.80820 282.98740 284.03217 284.98566 285.86179
 286.67072 287.40234 288.01086 288.79813
 366.78100 356.34258 345.78216 334.65575 323.06633 311.26791 299.14549 286.95608
 274.67566 262.58024 250.59682 239.90541 230.03499 221.14657 213.33615 206.34574
 200.18732 195.13290 191.72248 189.77207 188.81665 188.88823 189.73081 191.04640
 192.77898 194.88156 197.15214 199.51873 201.97131 204.45889 206.55447 208.40406
 210.03764 211.19022 211.42680 211.66239 211.60697 211.31955 210.96013 210.59772
 210.22230 209.93988 209.75546 209.62705 209.56263 209.90121 210.29479 210.69138
 211.49196 212.67754 213.93512 215.72570 217.66129 219.71187 221.81445 223.90503
 225.97262 228.06420 230.16878 232.28236 234.41895 236.59853 238.86211 241.23969
 243.86828 246.12686 248.13644 249.90902 251.33361 252.46419 253.29377 253.61735
 253.66194 253.44352 252.81110 251.76668 250.38027 248.54885 246.46543 244.30601
 242.10460 239.91618 237.74376 235.59034 233.45793 231.33251 229.36609 227.53067
 225.82126 224.30084 222.93842 221.71800 220.60759 219.57517 218.68675 217.83533
 217.08492 216.27250 215.37808 214.74966 214.20724 214.58344 215.47221 217.14633
 219.33922 221.20091 222.19780 222.13533 221.98738 222.79634 224.96973 226.94498
 228.95216 231.82930 235.67110 240.10445 244.24077 247.96259 251.37813 254.66716
 257.90082 261.02191 264.00006 266.78754 269.37683 271.71027 273.75998 275.60437
 277.30502 278.90161 280.39346 281.73505 282.90170 283.93979 284.88931 285.76248
 286.57620 287.30005 287.90921 288.69879
 366.78100 356.34323 345.78347 334.65770 323.06894 311.27117 299.14940 286.96064
 274.68087 262.58610 250.60334 239.91257 230.04281 221.15504 213.34527 206.35551
 200.19774 195.14398 191.73421 189.78444 188.82968 188.90191 189.74514 191.06138
 192.79461 194.89785 197.16908 199.53631 201.98955 204.47778 206.57402 208.42425
 210.05848 211.21172 211.44895 211.68518 211.63042 211.34365 210.98489 210.62312
 210.24835 209.96659 209.78282 209.65506 209.59129 209.93052 210.32476 210.72199
 211.52322 212.70946 213.96769 215.75893 217.69516 219.74639 221.84963 223.94086
 226.00910 228.10133 230.20656 232.32080 234.45803 236.63826 238.90250 241.28073
 243.90997 246.16920 248.17943 249.95267 251.37790 252.50914 253.33937 253.66360
 253.70884 253.49107 252.85930 251.81554 250.42977 248.59901 246.51624 244.35747
 242.15671 239.96894 237.79718 235.64441 233.51264 231.38788 229.42211 227.58734
 225.87858 224.35881 222.99705 221.77728 220.66751 219.63575 218.74798 217.89722
 217.14745 216.33568 215.44192 214.81415 214.27238 214.63828 215.50273 217.16740
 219.29112 221.13982 222.14436 222.11893 221.94536 222.61308 224.79578 226.83626
 228.91591 231.90082 235.80948 240.25201 244.39786 248.12433 251.51411 254.75023
 257.92850 261.00482 263.94257 266.70364 269.26260 271.56357 273.60547 275.47552
 277.23761 278.85880 280.33609 281.65326 282.79340 283.80780 284.73727 285.61319
 286.43488 287.15564 287.76492 288.56180
 366.78100 356.34528 345.78756 334.66384 323.07712 311.28140 299.16168 286.97496
 274.69723 262.60451 250.62379 239.93507 230.06735 221.18163 213.37391 206.38619
 200.23047 195.17875 191.77103 189.82331 188.87059 188.94487 189.79014 191.10842
 192.84370 194.94898 197.22226 199.59154 202.04682 204.53710 206.63538 208.48766
 210.12394 211.27922 211.51850 211.75678 211.70405 211.41933 211.06261 210.70289
 210.33017 210.05045 209.86873 209.74301 209.68129 210.02257 210.41885 210.81813
 211.62141 212.80969 214.06996 215.86324 217.80152 219.85480 221.96008 224.05336
 226.12364 228.21792 230.32520 232.44148 234.58076 236.76304 239.02932 241.40960
 244.04087 246.30215 248.31443 250.08971 251.51699 252.65027 253.48255 253.80883
 253.85611 253.64039 253.01067 251.96895 250.58523 248.75651 246.67578 244.51906
 242.32034 240.13462 237.96490 235.81418 233.68446 231.56174 229.59802 227.76530
 226.05858 224.54086 223.18114 221.96342 220.85569 219.82597 218.94025 218.09153
 217.34381 216.53409 215.64237 215.01665 214.47693 214.76315 215.43939 217.15732
 219.39005 221.18452 222.10889 221.99771 221.75673 222.33269 224.57155 226.67679
 228.84610 231.96625 235.95502 240.38533 244.54990 248.31517 251.73232 254.94469
 258.08167 261.10721 264.00278 266.72437 269.23795 271.48492 273.47379 275.32983
 277.11148 278.74722 280.19708 281.48602 282.61322 283.65170 284.61298 285.48779
 286.26996 286.96002 287.56857 288.36014
 366.78100 356.34607 345.78915 334.66622 323.08029 311.28536 299.16644 286.98051
 274.70358 262.61166 250.63173 239.94380 230.07687 221.19195 213.38502 206.39809
 200.24317 195.19224 191.78531 189.83839 188.88646 188.96153 189.80760 191.12668
 192.86275 194.96882 197.24290 199.61297 202.06904 204.56011 206.65919 208.51226
 210.14933 211.30541 211.54548 211.78455 211.73262 211.44870 211.09277 210.73384
 210.36192 210.08299 209.90206 209.77713 209.71621 210.05828 210.45535 210.85543
 211.65950 212.84857 214.10964 215.90372 217.84279 219.89686 222.00294 224.09701
 226.16808 228.26316 230.37123 232.48830 234.62837 236.81145 239.07852 241.45959
 244.09167 246.35374 248.36681 250.14288 251.57096 252.70503 253.53810 253.86518
 253.91325 253.69832 253.06939 252.02847 250.64554 248.81761 246.73769 244.58176
 242.38383 240.19890 238.02998 235.88005 233.75112 231.62920 229.66627 227.83434
 226.12841 224.61149 223.25256 222.03563 220.92871 219.89978 219.01485 218.16693
 217.42000 216.61107 215.72014 215.09522 214.55629 214.83069 215.47900 217.08722
 219.37109 221.27931 222.23488 222.01929 221.61627 222.01566 224.25644 226.32558
 228.60480 231.87668 236.00055 240.48924 244.66328 248.46916 251.92783 255.15833
 258.25735 261.26993 264.11905 266.82895 269.32278 271.54694 273.50388 275.33115
 277.04538 278.49075 279.82996 281.00244 282.07889 283.11383 284.08075 284.96213
 285.74866 286.44754 287.08032 287.88779
 366.78100 356.34494 345.78688 334.66282 323.07576 311.27970 299.15965 286.97259
 274.69453 262.60147 250.62041 239.93135 230.06329 221.17723 213.36917 206.38111
 200.22505 195.17299 191.76494 189.81688 188.86382 188.93776 189.78270 191.10064
 192.83558 194.94052 197.21346 199.58240 202.03734 204.52728 206.62523 208.47717
 210.11311 211.26805 211.50699 211.74493 211.69187 211.40681 211.04975 210.68969
 210.31663 210.03657 209.85452 209.72846 209.66640 210.00734 210.40328 210.80222
 211.60516 212.79310 214.05304 215.84598 217.78392 219.83686 221.94181 224.03475
 226.10469 228.19863 230.30557 232.42151 234.56045 236.74239 239.00833 241.38827
 244.01921 246.28016 248.29210 250.06704 251.49398 252.62692 253.45886 253.78480
 253.83174 253.61568 252.98562 251.94356 250.55950 248.73045 246.64939 244.49233
 242.29327 240.10721 237.93715 235.78609 233.65603 231.53297 229.56891 227.73585
 226.02879 224.51074 223.15068 221.93262 220.82456 219.79450 218.90844 218.05938
 217.31132 216.50126 215.60920 214.98314 214.44308 214.80423 215.65747 217.00261
 219.07417 221.24486 222.43526 222.27269 221.76324 221.91060 224.05067 226.00523
 228.34602 231.73665 235.97708 240.46332 244.69206 248.50261 251.93436 255.15965
 258.27344 261.30475 264.16113 266.88828 269.39740 271.63123 273.60974 275.43787
 277.05765 278.48438 279.77368 280.88159 281.80835 282.74377 283.70560 284.58441
 285.35898 286.02780 286.61108 287.35443
 366.78100 356.34450 345.78601 334.66151 323.07401 311.27752 299.15702 286.96952
 274.69102 262.59753 250.61603 239.92653 230.05804 221.17154 213.36304 206.37455
 200.21805 195.16555 191.75706 189.80856 188.85506 188.92856 189.77307 191.09057
 192.82507 194.92958 197.20208 199.57058 202.02509 204.51459 206.61209 208.46360
 210.09910 211.25360 211.49210 211.72961 211.67611 211.39061 211.03312 210.67262
 210.29912 210.01863 209.83613 209.70963 209.64714 209.98764 210.38314 210.78164
 211.58415 212.77165 214.03115 215.82366 217.76116 219.81366 221.91817 224.01067
 226.08017 228.17368 230.28018 232.39568 234.53418 236.71569 238.98119 241.36069
 243.99120 246.25170 248.26320 250.03771 251.46421 252.59671 253.42822 253.75372
 253.80022 253.58372 252.95323 251.91073 250.52623 248.69674 246.61524 244.45774
 242.25825 240.07175 237.90125 235.74976 233.61926 231.49576 229.53126 227.69777
 225.99027 224.47177 223.11128 221.89278 220.78428 219.75379 218.86729 218.01779
 217.26929 216.45880 215.56630 214.93980 214.39931 214.81349 215.79207 216.97090
 218.84723 221.11156 222.45503 222.39723 221.94258 222.00410 224.05237 225.95287
 228.29916 231.77473 236.04094 240.46481 244.63931 248.40547 251.84805 255.07803
 258.19543 261.23538 264.11627 266.85800 269.39374 271.66455 273.68564 275.53683
 277.21851 278.69424 279.99863 281.13205 282.02646 282.80566 283.75626 284.57721
 285.28113 285.98782 286.62027 287.42624
 366.78100 356.34398 345.78497 334.65995 323.07193 311.27491 299.15390 286.96588
 274.68686 262.59285 250.61083 239.92081 230.05179 221.16478 213.35576 206.36674
 200.20973 195.15671 191.74769 189.79868 188.84466 188.91764 189.76162 191.07861
 192.81259 194.91657 197.18856 199.55654 202.01052 204.49950 206.59649 208.44747
 210.08245 211.23644 211.47442 211.71140 211.65738 211.37137 211.01335 210.65233
 210.27832 209.99730 209.81428 209.68726 209.62425 209.96423 210.35921 210.75720
 211.55918 212.74616 214.00515 215.79713 217.73411 219.78609 221.89008 223.98206
 226.05104 228.14403 230.25001 232.36499 234.50297 236.68396 238.94894 241.32792
 243.95791 246.21789 248.22887 250.00285 251.42884 252.56082 253.39180 253.71679
 253.76277 253.54575 252.91473 251.87172 250.48670 248.65668 246.57467 244.41665
 242.21663 240.02961 237.85860 235.70658 233.57556 231.45155 229.48653 227.65251
 225.94450 224.42548 223.06446 221.84544 220.73643 219.70541 218.81839 217.96838
 217.21936 216.40834 215.51532 214.88831 214.34729 214.81209 215.91020 217.00294
 218.69278 220.91185 222.34254 222.37802 221.97864 222.02818 224.05940 225.97705
 228.32198 231.86044 236.12703 240.49646 244.62405 248.37549 251.86852 255.11441
 258.21207 261.21945 264.07913 266.80988 269.33029 271.59805 273.64438 275.53400
 277.25580 278.75598 280.07138 281.22812 282.17273 282.96091 283.85968 284.68073
 285.27084 285.97430 286.61694 287.43588
 366.78100 356.34348 345.78396 334.65844 323.06992 311.27240 299.15088 286.96236
 274.68284 262.58832 250.60580 239.91528 230.04577 221.15825 213.34873 206.35921
 200.20169 195.14817 191.73865 189.78913 188.83461 188.90709 189.75057 191.06705
 192.80053 194.90401 197.17549 199.54297 201.99645 204.48493 206.58141 208.43189
 210.06637 211.21985 211.45733 211.69381 211.63930 211.35278 210.99426 210.63274
 210.25822 209.97670 209.79318 209.66566 209.60214 209.94162 210.33610 210.73358
 211.53506 212.72154 213.98002 215.77150 217.70798 219.75946 221.86294 223.95442
 226.02290 228.11538 230.22086 232.33535 234.47283 236.65331 238.91779 241.29627
 243.92575 246.18523 248.19571 249.96919 251.39467 252.52615 253.35663 253.68111
 253.72659 253.50907 252.87755 251.83403 250.44851 248.61799 246.53547 244.37695
 242.17643 239.98891 237.81740 235.66488 233.53336 231.40884 229.44332 227.60880
 225.90028 224.38076 223.01924 221.79972 220.69020 219.65868 218.77116 217.92064
 217.17112 216.35960 215.46608 214.83856 214.29704 214.80302 215.99846 217.10463
 218.52666 220.58815 222.12810 222.31329 222.01207 222.03218 224.05191 225.97552
 228.33566 231.91139 236.17490 240.49770 244.60910 248.40599 251.96234 255.21761
 258.29156 261.27753 264.12112 266.83322 269.34497 271.60510 273.64981 275.54300
 277.25052 278.72662 280.03275 281.16867 282.01578 282.90723 283.86087 284.58463
 285.12418 285.81830 286.43765 287.22693
 366.78100 356.34453 345.78606 334.66159 323.07412 311.27765 299.15717 286.96970
 274.69123 262.59776 250.61629 239.92682 230.05835 221.17188 213.36341 206.37494
 200.21847 195.16600 191.75752 189.80905 188.85558 188.92911 189.77364 191.09117
 192.82570 194.93023 197.20276 199.57129 202.02582 204.51535 206.61287 208.46440
 210.09993 211.25446 211.49299 211.73052 211.67705 211.39158 211.03411 210.67364
 210.30017 210.01970 209.83722 209.71075 209.64828 209.98881 210.38434 210.78287
 211.58540 212.77293 214.03246 215.82499 217.76252 219.81505 221.91957 224.01210
 226.08163 228.17516 230.28169 232.39722 234.53575 236.71728 238.98281 241.36234
 243.99287 246.25340 248.26492 250.03945 251.46598 252.59851 253.43004 253.75557
 253.80210 253.58563 252.95516 251.91269 250.52822 248.69875 246.61727 244.45980
 242.26033 240.07386 237.90339 235.75192 233.62145 231.49798 229.53351 227.70004
 225.99257 224.47410 223.11362 221.89515 220.78668 219.75621 218.86974 218.02027
 217.27180 216.46133 215.56886 214.94239 214.40192 214.88281 216.01897 217.10112
 218.53792 220.39554 221.79979 222.04506 221.90598 221.96574 224.01884 225.99731
 228.36600 231.98622 236.26418 240.55299 244.68851 248.45378 252.10803 255.40923
 258.47604 261.43408 264.25174 266.95023 269.43033 271.66980 273.69876 275.56796
 277.24677 278.70425 279.98788 281.10388 282.06207 283.07632 283.89752 284.35571
 284.88251 285.56747 286.18787 286.97852
 366.78100 356.34466 345.78633 334.66199 323.07466 311.27832 299.15799 286.97065
 274.69232 262.59898 250.61765 239.92831 230.05998 221.17364 213.36531 206.37697
 200.22063 195.16830 191.75996 189.81163 188.85829 188.93196 189.77662 191.09429
 192.82895 194.93362 197.20628 199.57495 202.02961 204.51928 206.61694 208.46860
 210.10427 211.25893 211.49760 211.73526 211.68193 211.39659 211.03926 210.67892
 210.30559 210.02525 209.84292 209.71658 209.65425 209.99491 210.39057 210.78924
 211.59190 212.77957 214.03923 215.83190 217.76956 219.82223 221.92689 224.01956
 226.08922 228.18289 230.28955 232.40522 234.54388 236.72554 238.99121 241.37087
 244.00154 246.26220 248.27387 250.04853 251.47520 252.60786 253.43953 253.76519
 253.81186 253.59552 252.96519 251.92285 250.53851 248.70918 246.62784 244.47051
 242.27117 240.08484 237.91450 235.76317 233.63283 231.50950 229.54516 227.71183
 226.00449 224.48616 223.12582 221.90748 220.79915 219.76881 218.88248 218.03314
 217.28481 216.47447 215.58214 214.95580 214.41547 214.92464 216.12782 217.01950
 218.42891 220.29884 221.59990 221.75810 221.72659 221.74434 223.86179 225.92241
 228.28972 232.00932 236.34068 240.60725 244.74316 248.73889 252.38988 255.72699
 258.78049 261.68857 264.43909 267.03427 269.44778 271.61710 273.60306 275.45245
 277.02441 278.46140 279.69363 280.80362 281.90622 282.80695 283.38440 283.93860
 284.69843 285.37503 285.96609 286.71936
 366.78100 356.34364 345.78427 334.65891 323.07055 311.27318 299.15182 286.96346
 274.68409 262.58973 250.60737 239.91701 230.04764 221.16028 213.35092 206.36155
 200.20419 195.15083 191.74146 189.79210 188.83774 188.91037 189.75401 191.07065
 192.80428 194.90792 197.17956 199.54719 202.00083 204.48947 206.58610 208.43674
 210.07138 211.22502 211.46265 211.69929 211.64493 211.35856 211.00020 210.63884
 210.26447 209.98311 209.79975 209.67238 209.60902 209.94866 210.34329 210.74093
 211.54257 212.72920 213.98784 215.77948 217.71612 219.76775 221.87139 223.96303
 226.03166 228.12430 230.22994 232.34457 234.48221 236.66285 238.92748 241.30612
 243.93576 246.19539 248.20603 249.97967 251.40530 252.53694 253.36758 253.69222
 253.73785 253.52049 252.88913 251.84576 250.46040 248.63004 246.54767 244.38931
 242.18895 240.00158 237.83022 235.67786 233.54649 231.42213 229.45677 227.62240
 225.91404 224.39468 223.03331 221.81395 220.70459 219.67323 218.78586 217.93550
 217.18614 216.37477 215.48141 214.85405 214.31268 214.89655 216.26997 217.08571
 218.18147 219.99083 221.47916 221.72704 221.76228 221.67755 223.71674 225.91557
 228.27824 232.07451 236.41757 240.67178 244.78996 248.83841 252.61511 255.92723
 258.92438 261.77011 264.48264 266.98886 269.31335 271.44199 273.43979 275.25763
 276.79135 278.22064 279.43472 280.58228 281.65631 282.32568 283.08289 283.95004
 284.72998 285.42450 286.03122 286.80441
 366.78100 356.34298 345.78297 334.65695 323.06793 311.26991 299.14790 286.95888
 274.67886 262.58384 250.60083 239.90981 230.03979 221.15177 213.34176 206.35174
 200.19372 195.13970 191.72969 189.77967 188.82465 188.89663 189.73962 191.05560
 192.78858 194.89156 197.16255 199.52953 201.98251 204.47049 206.56648 208.41646
 210.05044 211.20342 211.44041 211.67639 211.62137 211.33435 210.97534 210.61332
 210.23830 209.95628 209.77227 209.64425 209.58023 209.91921 210.31320 210.71018
 211.51116 212.69714 213.95513 215.74611 217.68209 219.73307 221.83606 223.92704
 225.99502 228.08700 230.19199 232.30597 234.44295 236.62293 238.88692 241.26490
 243.89388 246.15286 248.16285 249.93583 251.36081 252.49179 253.32178 253.64576
 253.69074 253.47272 252.84071 251.79669 250.41067 248.57966 246.49664 244.33762
 242.13660 239.94859 237.77657 235.62355 233.49153 231.36652 229.40050 227.56548
 225.85646 224.33645 222.97443 221.75441 220.64439 219.61238 218.72436 217.87334
 217.12332 216.31131 215.41729 214.78927 214.24725 214.88820 216.37712 217.16597
 218.12616 219.80145 221.46428 221.96619 221.94510 221.90166 223.59494 225.85004
 228.30029 232.11171 236.45032 240.68678 244.77370 248.81735 252.62469 256.02026
 259.01047 261.81046 264.48587 266.95499 269.19165 271.27072 273.29416 275.05804
 276.65137 278.05869 279.30652 280.39749 281.51770 282.58328 283.55545 284.43616
 285.22827 285.93365 286.54987 287.33514
 366.78100 356.34249 345.78197 334.65546 323.06595 311.26744 299.14492 286.95541
 274.67490 262.57939 250.59587 239.90436 230.03385 221.14534 213.33482 206.34431
 200.18580 195.13129 191.72077 189.77026 188.81475 188.88624 189.72872 191.04421
 192.77670 194.87918 197.14967 199.51616 201.96865 204.45613 206.55162 208.40111
 210.03460 211.18708 211.42357 211.65906 211.60355 211.31603 210.95652 210.59401
 210.21850 209.93598 209.75147 209.62296 209.55845 209.89693 210.29042 210.68691
 211.48739 212.67288 213.93037 215.72086 217.65634 219.70683 221.80932 223.89981
 225.96729 228.05878 230.16327 232.27676 234.41324 236.59273 238.85622 241.23371
 243.86219 246.12068 248.13017 249.90265 251.32714 252.45763 253.28712 253.61060
 253.65509 253.43658 252.80407 251.75955 250.37304 248.54153 246.45802 244.29850
 242.09699 239.90848 237.73597 235.58245 233.44994 231.32443 229.35792 227.52240
 225.81289 224.29238 222.92986 221.70935 220.59884 219.56633 218.67781 217.82630
 217.07579 216.26328 215.36876 214.74025 214.19774 214.89650 216.47043 217.16858
 218.13268 219.82411 221.52988 222.22289 222.00783 221.98624 223.60457 225.60342
 228.23216 232.14391 236.51990 240.72278 244.78699 248.82663 252.58644 255.93890
 259.00586 261.86465 264.53427 266.96460 269.14835 271.19647 273.11676 274.85132
 276.47415 277.87454 279.40482 280.81726 282.03964 283.12112 284.10782 285.00168
 285.80560 286.52151 287.14694 287.94394
 366.78100 356.34291 345.78283 334.65674 323.06765 311.26956 299.14748 286.95839
 274.67830 262.58322 250.60013 239.90904 230.03895 221.15087 213.34078 206.35069
 200.19260 195.13852 191.72843 189.77834 188.82326 188.89517 189.73808 191.05399
 192.78691 194.88982 197.16073 199.52765 201.98056 204.46847 206.56438 208.41430
 210.04821 211.20112 211.43804 211.67395 211.61886 211.33177 210.97269 210.61060
 210.23551 209.95342 209.76934 209.64125 209.57716 209.91608 210.30999 210.70690
 211.50781 212.69373 213.95164 215.74255 217.67847 219.72938 221.83229 223.92320
 225.99112 228.08303 230.18794 232.30186 234.43877 236.61868 238.88259 241.26051
 243.88942 246.14833 248.15824 249.93116 251.35607 252.48698 253.31690 253.64081
 253.68572 253.46763 252.83555 251.79146 250.40537 248.57429 246.49120 244.33211
 242.13102 239.94294 237.77085 235.61776 233.48568 231.36059 229.39450 227.55941
 225.85033 224.33024 222.96815 221.74806 220.63798 219.60589 218.71780 217.86672
 217.11663 216.30454 215.41045 214.78237 214.24028 214.94777 216.51382 217.18463
 218.08025 219.78857 221.42760 222.17868 221.92305 221.87144 223.72057 225.65398
 228.27370 232.19121 236.57597 240.81108 244.90770 248.95930 252.69136 256.07236
 259.08496 261.92413 264.55560 266.94507 269.07224 271.03436 273.12833 274.80347
 276.54449 278.44165 280.10858 281.57227 282.83896 283.95969 284.98215 285.90845
 286.74152 287.48340 288.13150 288.95740
 366.78100 356.34500 345.78700 334.66300 323.07600 311.28000 299.16000 286.97300
 274.69500 262.60200 250.62100 239.93200 230.06400 221.17800 213.37000 206.38200
 200.22600 195.17400 191.76600 189.81800 188.86499 188.93899 189.78399 191.10199
 192.83699 194.94199 197.21499 199.58399 202.03899 204.52899 206.62699 208.47899
 210.11499 211.26999 211.50899 211.74699 211.69399 211.40899 211.05199 210.69199
 210.31899 210.03899 209.85699 209.73099 209.66899 210.00999 210.40599 210.80499
 211.60799 212.79599 214.05599 215.84899 217.78699 219.83999 221.94499 224.03799
 226.10799 228.20199 230.30899 232.42499 234.56398 236.74598 239.01198 241.39198
 244.02298 246.28398 248.29598 250.07098 251.49798 252.63098 253.46298 253.78898
 253.83598 253.61998 252.98998 251.94798 250.56398 248.73498 246.65398 244.49698
 242.29798 240.11198 237.94198 235.79098 233.66098 231.53798 229.57398 227.74098
 226.03398 224.51598 223.15598 221.93798 220.82998 219.79998 218.91398 218.06498
 217.31698 216.50698 215.61498 214.98897 214.44897 215.07271 216.49034 217.26283
 218.01619 219.62590 221.15135 221.89413 221.87405 221.53337 223.67650 225.67409
 228.39723 232.30627 236.66566 240.93228 245.06557 249.11948 252.87665 256.27783
 259.34366 262.18613 264.81131 267.17279 269.24704 271.15781 273.27133 274.98331
 277.14563 279.10147 280.79395 282.28003 283.56613 284.70401 285.74213 286.68259
 287.52844 288.28168 288.93970 289.77826
 366.78100 356.34668 345.79036 334.66804 323.08272 311.28840 299.17008 286.98476
 274.70844 262.61712 250.63781 239.95049 230.08417 221.19985 213.39353 206.40721
 200.25289 195.20257 191.79625 189.84993 188.89861 188.97429 189.82097 191.14065
 192.87733 194.98401 197.25869 199.62937 202.08605 204.57773 206.67742 208.53110
 210.16878 211.32546 211.56614 211.80582 211.75450 211.47118 211.11586 210.75754
 210.38622 210.10790 209.92758 209.80326 209.74294 210.08562 210.48330 210.88398
 211.68866 212.87834 214.14003 215.93471 217.87439 219.92907 222.03575 224.13043
 226.20211 228.29779 230.40647 232.52415 234.66483 236.84851 239.11619 241.49787
 244.13055 246.39323 248.40691 250.18359 251.61227 252.74695 253.58064 253.90832
 253.95700 253.74268 253.11436 252.07404 250.69172 248.86440 246.78508 244.62976
 242.43244 240.24812 238.07980 235.93048 233.80216 231.68084 229.71852 227.88720
 226.18188 224.66556 223.30725 222.09093 220.98461 219.95629 219.07197 218.22465
 217.47833 216.67001 215.77969 215.15537 214.61705 215.16490 216.44772 217.31731
 218.10742 219.41452 220.70407 221.38986 221.60699 221.77722 223.75394 225.77394
 228.47545 232.42101 236.81735 241.08688 245.20288 249.24118 253.03032 256.44336
 259.51117 262.39209 265.09167 267.50702 269.59464 271.46442 273.42377 275.32092
 277.45386 279.41046 281.10361 282.59030 283.87689 285.01520 286.05374 286.99457
 287.84076 288.59430 289.25256 290.09146
 366.78100 356.34572 345.78845 334.66517 323.07890 311.28362 299.16434 286.97807
 274.70079 262.60852 250.62824 239.93996 230.07269 221.18741 213.38014 206.39286
 200.23759 195.18631 191.77903 189.83176 188.87948 188.95421 189.79993 191.11865
 192.85438 194.96010 197.23383 199.60355 202.05927 204.55000 206.64872 208.50145
 210.13817 211.29389 211.53362 211.77234 211.72007 211.43579 211.07952 210.72024
 210.34796 210.06869 209.88741 209.76214 209.70086 210.04258 210.43931 210.83903
 211.64276 212.83148 214.09220 215.88593 217.82465 219.87838 221.98410 224.07782
 226.14855 228.24327 230.35100 232.46772 234.60744 236.79017 239.05689 241.43762
 244.06934 246.33107 248.34379 250.11951 251.54724 252.68096 253.51369 253.84041
 253.88813 253.67286 253.04358 252.00231 250.61903 248.79075 246.71048 244.55420
 242.35593 240.17065 238.00137 235.85110 233.72182 231.59955 229.63627 227.80400
 226.09772 224.58044 223.22117 222.00389 220.89662 219.86734 218.98206 218.13379
 217.38651 216.57724 215.68596 215.06068 214.52141 215.12013 216.49684 217.27238
 218.11830 219.44589 220.53551 220.95598 221.23665 221.94070 223.60141 225.74571
 228.44319 232.48183 236.92462 241.14664 245.24040 249.24052 253.02686 256.44690
 259.46484 262.31769 265.02310 267.47821 269.65213 271.64893 273.54855 275.29935
 276.90677 278.61539 280.22910 281.65875 282.89597 283.99060 284.98929 285.89401
 286.70773 287.43234 288.06534 288.87204
 366.78100 356.34543 345.78786 334.66429 323.07773 311.28216 299.16259 286.97602
 274.69845 262.60588 250.62532 239.93675 230.06918 221.18361 213.37604 206.38847
 200.23291 195.18134 191.77377 189.82620 188.87363 188.94806 189.79349 191.11193
 192.84736 194.95279 197.22622 199.59565 202.05108 204.54152 206.63995 208.49238
 210.12881 211.28424 211.52367 211.76210 211.70954 211.42497 211.06840 210.70883
 210.33626 210.05669 209.87513 209.74956 209.68799 210.02942 210.42585 210.82528
 211.62872 212.81715 214.07758 215.87101 217.80944 219.86287 221.96830 224.06174
 226.13217 228.22660 230.33403 232.45046 234.58989 236.77233 239.03876 241.41919
 244.05062 246.31205 248.32448 250.09992 251.52735 252.66078 253.49321 253.81964
 253.86707 253.65150 253.02194 251.98037 250.59680 248.76823 246.68766 244.53109
 242.33253 240.14696 237.97739 235.82682 233.69725 231.57468 229.61112 227.77855
 226.07198 224.55441 223.19484 221.97727 220.86970 219.84014 218.95457 218.10600
 217.35843 216.54886 215.65729 215.03173 214.49216 215.10864 216.52814 217.28549
 217.99310 219.41100 220.67249 220.96498 221.01083 221.68184 223.47804 225.67163
 228.43048 232.51588 237.00809 241.23718 245.32085 249.33839 253.15729 256.61005
 259.60071 262.30212 264.92133 267.33514 269.50937 271.52982 273.49423 275.31735
 276.80917 278.32397 279.96579 281.42557 282.68887 283.80661 284.82635 285.75015
 286.58102 287.32092 287.96729 288.79099
 366.78100 356.34583 345.78867 334.66550 323.07933 311.28417 299.16500 286.97884
 274.70167 262.60950 250.62934 239.94117 230.07400 221.18884 213.38167 206.39450
 200.23934 195.18817 191.78101 189.83384 188.88167 188.95651 189.80234 191.12117
 192.85701 194.96284 197.23667 199.60651 202.06234 204.55318 206.65201 208.50484
 210.14168 211.29751 211.53734 211.77618 211.72401 211.43984 211.08368 210.72451
 210.35235 210.07318 209.89201 209.76685 209.70568 210.04751 210.44435 210.84418
 211.64801 212.83685 214.09768 215.89152 217.83035 219.88418 221.99002 224.08385
 226.15468 228.24952 230.35735 232.47418 234.61402 236.79685 239.06369 241.44452
 244.07635 246.33819 248.35102 250.12685 251.55469 252.68852 253.52135 253.84819
 253.89602 253.68086 253.05169 252.01052 250.62736 248.79919 246.71902 244.56286
 242.36469 240.17952 238.01036 235.86019 233.73103 231.60886 229.64569 227.81353
 226.10736 224.59019 223.23103 222.01386 220.90669 219.87753 218.99236 218.14420
 217.39703 216.58786 215.69670 215.07153 214.53236 215.14261 216.53328 217.27409
 218.00323 219.37868 220.64401 220.80148 220.62401 221.24203 223.38567 225.79831
 228.68315 232.71255 237.13496 241.40968 245.54073 249.59740 253.45999 256.94489
 259.96442 262.67401 265.20132 267.50891 269.60150 271.56622 273.49570 275.25287
 276.95105 278.93982 280.67188 282.19275 283.50894 284.67343 285.73584 286.69830
 287.56396 288.33481 289.00824 289.86639
 366.78100 356.34497 345.78694 334.66290 323.07587 311.27984 299.15981 286.97278
 274.69474 262.60171 250.62068 239.93165 230.06362 221.17758 213.36955 206.38152
 200.22549 195.17346 191.76542 189.81739 188.86436 188.93833 189.78330 191.10126
 192.83623 194.94120 197.21417 199.58314 202.03810 204.52807 206.62604 208.47801
 210.11398 211.26894 211.50791 211.74588 211.69285 211.40782 211.05078 210.69075
 210.31772 210.03769 209.85566 209.72962 209.66759 210.00856 210.40453 210.80350
 211.60646 212.79443 214.05440 215.84737 217.78534 219.83830 221.94327 224.03624
 226.10621 228.20018 230.30714 232.42311 234.56208 236.74405 239.01002 241.38998
 244.02095 246.28192 248.29389 250.06886 251.49582 252.62879 253.46076 253.78673
 253.83370 253.61766 252.98763 251.94560 250.56157 248.73254 246.65150 244.49447
 242.29544 240.10941 237.93938 235.78834 233.65831 231.53528 229.57125 227.73822
 226.03118 224.51315 223.15312 221.93509 220.82706 219.79702 218.91099 218.06196
 217.31393 216.50390 215.61186 214.98583 214.44580 215.11781 216.57881 217.22380
 218.05180 219.38861 220.57979 220.64929 220.27948 220.75504 223.18542 225.74173
 228.75842 232.82156 237.25261 241.54399 245.68817 249.77104 253.72269 257.30673
 260.39423 263.09161 265.56381 267.82318 269.85931 271.75684 273.58743 275.44791
 277.85004 280.01447 281.88742 283.53201 284.95529 286.21451 287.36334 288.40411
 289.34018 290.17374 290.90192 291.82993
 366.78100 356.34552 345.78803 334.66455 323.07806 311.28258 299.16309 286.97661
 274.69912 262.60664 250.62615 239.93767 230.07018 221.18470 213.37721 206.38973
 200.23425 195.18276 191.77528 189.82779 188.87531 188.94982 189.79534 191.11385
 192.84937 194.95488 197.22840 199.59791 202.05343 204.54394 206.64246 208.49498
 210.13149 211.28701 211.52652 211.76504 211.71255 211.42807 211.07158 210.71210
 210.33961 210.06013 209.87864 209.75316 209.69167 210.03319 210.42971 210.82922
 211.63274 212.82125 214.08177 215.87528 217.81380 219.86731 221.97283 224.06634
 226.13686 228.23137 230.33889 232.45541 234.59492 236.77744 239.04395 241.42447
 244.05598 246.31750 248.33001 250.10553 251.53304 252.66656 253.49907 253.82559
 253.87310 253.65762 253.02814 251.98665 250.60317 248.77468 246.69420 244.53771
 242.33923 240.15374 237.98426 235.83377 233.70429 231.58180 229.61832 227.78583
 226.07935 224.56187 223.20238 221.98490 220.87741 219.84793 218.96244 218.11396
 217.36647 216.55699 215.66550 215.04002 214.50053 215.13892 216.55496 217.23207
 218.05702 219.34192 220.48868 220.64931 220.29413 220.87674 222.91243 225.62854
 228.73131 232.85358 237.27913 241.52235 245.65242 249.76198 253.72630 257.26224
 260.35721 263.14359 265.70709 268.00800 270.09509 272.06812 273.97745 275.92990
 278.09189 280.14337 281.91861 283.47742 284.82642 286.01993 287.10883 288.09531
 288.98251 289.77261 290.46280 291.34238
 366.78100 356.34706 345.79113 334.66919 323.08425 311.29031 299.17238 286.98744
 274.71150 262.62056 250.64163 239.95469 230.08875 221.20481 213.39888 206.41294
 200.25900 195.20906 191.80313 189.85719 188.90625 188.98231 189.82938 191.14944
 192.88650 194.99356 197.26863 199.63969 202.09675 204.58881 206.68888 208.54294
 210.18100 211.33807 211.57913 211.81919 211.76825 211.48532 211.13038 210.77244
 210.40150 210.12357 209.94363 209.81969 209.75975 210.10282 210.50088 210.90194
 211.70700 212.89707 214.15913 215.95419 217.89425 219.94932 222.05638 224.15144
 226.22350 228.31957 230.42863 232.54669 234.68775 236.87182 239.13988 241.52194
 244.15501 246.41807 248.43213 250.20919 251.63826 252.77332 253.60738 253.93544
 253.98451 253.77057 253.14263 252.10269 250.72076 248.89382 246.81488 244.65994
 242.46301 240.27907 238.11113 235.96219 233.83426 231.71332 229.75138 227.92044
 226.21551 224.69957 223.34163 222.12569 221.01976 219.99182 219.10788 218.26095
 217.51501 216.70707 215.81713 215.19320 214.65526 215.19519 216.46219 217.31177
 218.07469 219.16266 220.15515 220.42239 220.38068 221.10629 222.87216 225.64081
 228.75368 232.92308 237.38020 241.61485 245.72179 249.76570 253.57014 256.99460
 260.08444 262.95013 265.61163 268.02289 270.21481 272.27930 274.23331 275.99884
 277.60614 279.13742 280.68643 282.08829 283.30148 284.37485 285.35413 286.24130
 287.03918 287.74973 288.37045 289.16147
 366.78100 356.34692 345.79084 334.66876 323.08368 311.28959 299.17151 286.98643
 274.71035 262.61927 250.64019 239.95311 230.08703 221.20294 213.39686 206.41078
 200.25670 195.20662 191.80054 189.85446 188.90338 188.97930 189.82621 191.14613
 192.88305 194.98997 197.26489 199.63581 202.09273 204.58465 206.68457 208.53848
 210.17640 211.33332 211.57424 211.81416 211.76308 211.48000 211.12492 210.76683
 210.39575 210.11767 209.93759 209.81351 209.75343 210.09635 210.49427 210.89519
 211.70010 212.89002 214.15194 215.94686 217.88678 219.94170 222.04862 224.14354
 226.21546 228.31137 230.42029 232.53821 234.67913 236.86305 239.13097 241.51289
 244.14581 246.40872 248.42264 250.19956 251.62848 252.76340 253.59732 253.92524
 253.97416 253.76008 253.13199 252.09191 250.70983 248.88275 246.80367 244.64859
 242.45151 240.26743 238.09935 235.95026 233.82218 231.70110 229.73902 227.90794
 226.20286 224.68678 223.32870 222.11261 221.00653 219.97845 219.09437 218.24729
 217.50121 216.69313 215.80305 215.17897 214.64088 215.18254 216.45624 217.33127
 218.11382 219.14806 220.05763 220.19116 220.10129 220.87051 222.73349 225.51942
 228.78561 233.01114 237.50630 241.77130 245.89713 249.96207 253.81125 257.24808
 260.25458 262.98706 265.57172 267.96603 270.16290 272.23022 274.21729 276.01129
 277.57632 278.71152 279.75635 281.14746 282.35135 283.41647 284.38821 285.26859
 286.06036 286.76544 287.38138 288.16632
 366.78100 356.34623 345.78946 334.66669 323.08092 311.28615 299.16739 286.98162
 274.70485 262.61308 250.63331 239.94554 230.07877 221.19400 213.38723 206.40046
 200.24570 195.19493 191.78816 189.84139 188.88962 188.96485 189.81108 191.13031
 192.86654 194.97277 197.24701 199.61724 202.07347 204.56470 206.66393 208.51716
 210.15439 211.31062 211.55085 211.79008 211.73832 211.45455 211.09878 210.74001
 210.36824 210.08947 209.90870 209.78393 209.72316 210.06539 210.46262 210.86286
 211.66709 212.85632 214.11755 215.91178 217.85101 219.90524 222.01147 224.10570
 226.17693 228.27217 230.38040 232.49763 234.63786 236.82109 239.08832 241.46955
 244.10178 246.36401 248.37724 250.15348 251.58171 252.71594 253.54917 253.87640
 253.92463 253.70986 253.08109 252.04032 250.65755 248.82979 246.75002 244.59425
 242.39648 240.21171 238.04294 235.89317 233.76440 231.64263 229.67986 227.84810
 226.14233 224.62556 223.26679 222.05002 220.94325 219.91448 219.02971 218.18194
 217.43517 216.62640 215.73564 215.11087 214.57210 215.16626 216.51079 217.28087
 218.15552 219.32487 220.19635 220.04047 219.63319 220.35762 222.43060 225.45099
 228.83849 233.09386 237.56766 241.89156 246.10043 250.23369 254.15320 257.64575
 260.69287 263.41098 265.89139 268.14316 270.22452 272.22046 274.13248 275.86087
 277.13919 279.08939 280.77695 282.25876 283.54114 284.67569 285.71085 286.64859
 287.49200 288.24304 288.89917 289.73529
 366.78100 356.34618 345.78937 334.66655 323.08073 311.28591 299.16710 286.98128
 274.70446 262.61265 250.63283 239.94501 230.07819 221.19338 213.38656 206.39974
 200.24493 195.19411 191.78729 189.84048 188.88866 188.96384 189.81002 191.12921
 192.86539 194.97157 197.24576 199.61594 202.07212 204.56330 206.66249 208.51567
 210.15285 211.30904 211.54922 211.78840 211.73658 211.45277 211.09695 210.73813
 210.36632 210.08750 209.90668 209.78187 209.72105 210.06323 210.46041 210.86060
 211.66478 212.85396 214.11515 215.90933 217.84851 219.90269 222.00888 224.10306
 226.17424 228.26943 230.37761 232.49479 234.63497 236.81816 239.08534 241.46652
 244.09871 246.36089 248.37407 250.15026 251.57844 252.71262 253.54580 253.87299
 253.92117 253.70635 253.07754 252.03672 250.65390 248.82608 246.74627 244.59045
 242.39263 240.20782 238.03900 235.88918 233.76036 231.63855 229.67573 227.84391
 226.13810 224.62128 223.26246 222.04565 220.93883 219.91001 219.02519 218.17738
 217.43056 216.62174 215.73093 215.10611 214.56729 215.17525 216.51067 217.24774
 218.17975 219.35155 220.18187 219.87045 219.29630 219.93410 222.31279 225.37045
 228.87303 233.21190 237.73753 242.10333 246.29817 250.46410 254.47130 258.06381
 261.17709 263.88641 266.32843 268.52692 270.53296 272.44217 274.28952 276.02576
 278.40482 280.50714 282.32635 283.92374 285.30615 286.52924 287.64511 288.65601
 289.56522 290.37485 291.08215 291.98352
 366.78100 356.34610 345.78920 334.66630 323.08040 311.28550 299.16660 286.98070
 274.70381 262.61191 250.63201 239.94411 230.07721 221.19231 213.38541 206.39851
 200.24361 195.19271 191.78581 189.83891 188.88701 188.96211 189.80821 191.12732
 192.86342 194.96952 197.24362 199.61372 202.06982 204.56092 206.66002 208.51312
 210.15022 211.30632 211.54642 211.78552 211.73362 211.44972 211.09383 210.73493
 210.36303 210.08413 209.90323 209.77833 209.71743 210.05953 210.45663 210.85673
 211.66083 212.84993 214.11103 215.90513 217.84423 219.89834 222.00444 224.09854
 226.16964 228.26474 230.37284 232.48994 234.63004 236.81314 239.08024 241.46134
 244.09344 246.35554 248.36864 250.14474 251.57285 252.70695 253.54005 253.86715
 253.91525 253.70035 253.07145 252.03055 250.64765 248.81975 246.73985 244.58395
 242.38605 240.20115 238.03225 235.88236 233.75346 231.63156 229.66866 227.83676
 226.13086 224.61396 223.25506 222.03816 220.93126 219.90236 219.01746 218.16956
 217.42266 216.61376 215.72287 215.09797 214.55907 215.15958 216.50003 217.20406
 218.28006 219.47273 219.99692 219.53899 219.14200 220.00685 222.04755 225.33600
 228.89343 233.28896 237.83365 242.17409 246.35300 250.46898 254.41861 257.96335
 261.06238 263.85413 266.42480 268.76651 270.91443 272.93579 274.85770 276.59485
 278.19815 279.94577 281.50293 282.87024 284.05353 285.10040 286.05557 286.92084
 287.69910 288.39209 288.99753 289.76904
 366.78100 356.34553 345.78806 334.66460 323.07813 311.28266 299.16319 286.97672
 274.69926 262.60679 250.62632 239.93785 230.07039 221.18492 213.37745 206.38998
 200.23451 195.18305 191.77558 189.82811 188.87564 188.95017 189.79571 191.11424
 192.84977 194.95530 197.22884 199.59837 202.05390 204.54443 206.64296 208.49550
 210.13203 211.28756 211.52709 211.76562 211.71316 211.42869 211.07222 210.71275
 210.34029 210.06082 209.87935 209.75388 209.69241 210.03395 210.43048 210.83001
 211.63354 212.82207 214.08261 215.87614 217.81467 219.86820 221.97373 224.06727
 226.13780 228.23233 230.33986 232.45640 234.59593 236.77846 239.04499 241.42552
 244.05706 246.31859 248.33112 250.10665 251.53418 252.66772 253.50025 253.82678
 253.87431 253.65885 253.02938 251.98791 250.60444 248.77597 246.69551 244.53904
 242.34057 240.15510 237.98563 235.83517 233.70570 231.58323 229.61976 227.78729
 226.08083 224.56336 223.20389 221.98642 220.87896 219.84949 218.96402 218.11555
 217.36808 216.55862 215.66715 215.04168 214.50221 215.11739 216.51529 217.17390
 218.16534 219.56395 220.11847 219.47374 218.96234 219.77914 221.89935 225.21985
 228.90199 233.35135 237.91229 242.23474 246.39735 250.47385 254.34883 257.80927
 260.85968 263.64810 266.25589 268.67441 270.93216 273.06726 275.09491 276.92236
 278.41644 279.54977 280.61404 281.80090 282.82803 283.73679 284.56589 285.31699
 285.99249 286.59409 287.11960 287.78931
 366.78100 356.34516 345.78732 334.66348 323.07664 311.28080 299.16095 286.97411
 274.69627 262.60343 250.62259 239.93375 230.06591 221.18007 213.37223 206.38439
 200.22854 195.17670 191.76886 189.82102 188.86818 188.94234 189.78750 191.10566
 192.84082 194.94598 197.21914 199.58829 202.04345 204.53361 206.63177 208.48393
 210.12009 211.27525 211.51441 211.75257 211.69973 211.41488 211.05804 210.69820
 210.32536 210.04552 209.86368 209.73784 209.67600 210.01716 210.41332 210.81248
 211.61563 212.80379 214.06395 215.85711 217.79527 219.84843 221.95359 224.04675
 226.11691 228.21107 230.31822 232.43438 234.57354 236.75570 239.02186 241.40202
 244.03318 246.29434 248.30650 250.08166 251.50882 252.64197 253.47413 253.80029
 253.84745 253.63161 253.00177 251.95993 250.57609 248.74725 246.66641 244.50956
 242.31072 240.12488 237.95504 235.80420 233.67436 231.55152 229.58768 227.75484
 226.04800 224.53016 223.17031 221.95247 220.84463 219.81479 218.92895 218.08011
 217.33227 216.52243 215.63059 215.00475 214.46490 215.08566 216.51930 217.20772
 218.00386 219.43318 220.08740 219.40817 218.78090 219.47885 221.80515 225.15105
 228.97427 233.43906 238.01819 242.36754 246.55551 250.63724 254.49608 257.93372
 260.95331 263.72693 266.31192 268.70486 270.95847 273.12930 275.21930 277.11661
 278.66946 279.76584 280.31039 280.52399 281.55542 282.62723 283.60510 284.49097
 285.28772 285.99722 286.61703 287.40692
 366.78100 356.34559 345.78818 334.66477 323.07836 311.28295 299.16354 286.97713
 274.69972 262.60731 250.62689 239.93848 230.07107 221.18566 213.37825 206.39084
 200.23543 195.18402 191.77661 189.82920 188.87679 188.95138 189.79697 191.11556
 192.85115 194.95674 197.23033 199.59992 202.05551 204.54610 206.64468 208.49727
 210.13386 211.28945 211.52904 211.76763 211.71522 211.43081 211.07440 210.71499
 210.34258 210.06317 209.88176 209.75635 209.69494 210.03653 210.43312 210.83271
 211.63630 212.82489 214.08547 215.87906 217.81765 219.87124 221.97683 224.07042
 226.14101 228.23560 230.34319 232.45978 234.59937 236.78196 239.04855 241.42914
 244.06073 246.32232 248.33491 250.11050 251.53809 252.67168 253.50426 253.83085
 253.87844 253.66303 253.03362 251.99221 250.60880 248.78039 246.69998 244.54357
 242.34516 240.15975 237.99034 235.83993 233.71052 231.58811 229.62470 227.79229
 226.08588 224.56847 223.20905 221.99164 220.88423 219.85482 218.96941 218.12100
 217.37359 216.56418 215.67277 215.04736 214.50795 215.09119 216.46333 217.32007
 217.93697 219.15593 219.84570 219.16376 218.51314 219.15379 221.77292 225.06186
 229.06142 233.53716 238.15765 242.53087 246.72670 250.79967 254.61667 258.02280
 261.04749 263.83115 266.41946 268.79935 271.05023 273.24036 275.32812 277.20532
 278.72906 279.78571 280.37326 280.56021 280.72952 281.34195 282.34488 283.25708
 284.07751 284.80811 285.44632 286.25967
 366.78100 356.34624 345.78947 334.66671 323.08095 311.28618 299.16742 286.98165
 274.70489 262.61313 250.63336 239.94560 230.07884 221.19407 213.38731 206.40054
 200.24578 195.19502 191.78825 189.84149 188.88973 188.96496 189.81120 191.13044
 192.86667 194.97291 197.24714 199.61738 202.07362 204.56485 206.66409 208.51733
 210.15456 211.31080 211.55103 211.79027 211.73851 211.45474 211.09898 210.74022
 210.36845 210.08969 209.90893 209.78416 209.72340 210.06563 210.46287 210.86311
 211.66734 212.85658 214.11782 215.91205 217.85129 219.90552 222.01176 224.10600
 226.17723 228.27247 230.38071 232.49794 234.63818 236.82142 239.08865 241.46989
 244.10212 246.36436 248.37760 250.15383 251.58207 252.71631 253.54954 253.87678
 253.92501 253.71025 253.08149 252.04072 250.65796 248.83020 246.75043 244.59467
 242.39691 240.21214 238.04338 235.89361 233.76485 231.64309 229.68032 227.84856
 226.14280 224.62603 223.26727 222.05050 220.94374 219.91498 219.03021 218.18245
 217.43569 216.62692 215.73616 215.11140 214.57263 215.11430 216.39679 217.41997
 218.01598 219.09705 219.78323 219.01233 218.25259 218.79436 221.60207 224.97748
 229.11691 233.62437 238.27386 242.65497 246.86380 250.93541 254.72778 258.10284
 261.10754 263.88556 266.48126 268.87488 271.13806 273.33875 275.44260 277.31818
 278.81573 279.83810 280.32889 280.36490 280.42294 280.86728 281.74109 282.64337
 283.45651 284.18063 284.81323 285.61938
 366.78100 356.34636 345.78971 334.66707 323.08143 311.28678 299.16814 286.98250
 274.70585 262.61421 250.63457 239.94692 230.08028 221.19564 213.38899 206.40235
 200.24770 195.19706 191.79042 189.84377 188.89213 188.96749 189.81384 191.13320
 192.86956 194.97591 197.25027 199.62063 202.07698 204.56834 206.66770 208.52105
 210.15841 211.31477 211.55512 211.79448 211.74284 211.45919 211.10355 210.74491
 210.37326 210.09462 209.91398 209.78933 209.72869 210.07105 210.46840 210.86876
 211.67311 212.86247 214.12383 215.91818 217.85754 219.91190 222.01825 224.11261
 226.18397 228.27932 230.38768 232.50504 234.64539 236.82875 239.09611 241.47746
 244.10982 246.37218 248.38553 250.16189 251.59025 252.72460 253.55796 253.88532
 253.93367 253.71903 253.09039 252.04974 250.66710 248.83945 246.75981 244.60417
 242.40652 240.22188 238.05324 235.90359 233.77495 231.65331 229.69066 227.85902
 226.15338 224.63673 223.27809 222.06145 220.95480 219.92616 219.04152 218.19387
 217.44723 216.63859 215.74794 215.12330 214.58466 215.11617 216.37457 217.46967
 218.07616 219.06046 219.73599 218.90349 218.05579 218.50662 221.44048 224.93816
 229.17068 233.71611 238.38358 242.77469 247.00430 251.07701 254.84413 258.18781
 261.17505 263.95032 266.55121 268.95789 271.24039 273.45840 275.58215 277.46979
 278.95331 279.86328 280.16986 280.09024 280.17484 280.67114 281.52982 282.40805
 283.20319 283.91129 284.52988 285.31818
 366.78100 356.34603 345.78907 334.66610 323.08014 311.28517 299.16620 286.98024
 274.70327 262.61130 250.63134 239.94337 230.07641 221.19144 213.38447 206.39751
 200.24254 195.19158 191.78461 189.83764 188.88568 188.96071 189.80674 191.12578
 192.86181 194.96785 197.24188 199.61191 202.06795 204.55898 206.65802 208.51105
 210.14808 211.30412 211.54415 211.78318 211.73122 211.44725 211.09129 210.73232
 210.36035 210.08139 209.90042 209.77545 209.71449 210.05652 210.45356 210.85359
 211.65762 212.84666 214.10769 215.90173 217.84076 219.89479 222.00083 224.09486
 226.16589 228.26093 230.36896 232.48600 234.62603 236.80906 239.07610 241.45713
 244.08917 246.35120 248.36423 250.14027 251.56830 252.70233 253.53537 253.86240
 253.91044 253.69547 253.06650 252.02554 250.64257 248.81461 246.73464 244.57867
 242.38071 240.19574 238.02677 235.87681 233.74784 231.62588 229.66291 227.83094
 226.12498 224.60801 223.24905 222.03208 220.92511 219.89615 219.01118 218.16321
 217.41625 216.60728 215.71632 215.09135 214.55238 215.09695 216.38371 217.48776
 218.18573 219.05930 219.57777 218.72084 217.88220 218.35100 221.28395 224.89615
 229.24725 233.82541 238.50510 242.90703 247.15710 251.22559 254.96303 258.27841
 261.26251 264.03748 266.63657 269.04733 271.34784 273.59430 275.71863 277.57767
 279.01270 279.85553 280.03809 279.85730 279.99609 280.51657 281.37671 282.24033
 283.03119 283.73947 284.35822 285.14673
 354.97500 345.04800 334.58700 324.11500 313.32600 302.53700 291.65000 280.76700
 269.93100 259.19300 248.62200 238.61700 229.08700 220.35500 212.54000 205.53500
 199.46400 194.49300 191.14300 189.19000 188.08900 188.01400 188.72400 189.90600
 191.46900 193.38200 195.40300 197.55600 199.80700 202.06000 204.28800 206.47900
 208.55200 210.37800 212.02500 213.65900 214.99800 216.11800 217.17200 218.25900
 219.49400 220.64500 221.67900 222.61400 223.54500 224.98200 226.57100 228.19000
 229.79700 231.81100 233.86500 235.97200 238.24200 240.55300 242.89900 245.25300
 247.48800 249.53500 251.36600 252.84800 254.09800 255.16700 256.02700 256.25300
 256.09500 255.54300 253.93500 252.56600 251.38400 250.24500 249.05200 247.70100
 246.01600 243.99600 241.78400 239.39300 236.81300 234.22300 231.65800 229.14400
 226.74000 224.47300 222.33500 220.32500 218.44000 216.67700 214.96200 213.47200
 212.20000 211.10800 210.26000 209.63900 209.24400 209.03100 209.05800 209.33300
 209.78400 210.62600 211.33100 212.39100 213.62500 214.84668 217.72949 219.47640
 220.32566 220.86828 220.88710 220.27371 219.43733 218.84250 219.04934 220.86203
 222.60583 225.72206 229.03064 232.61777 236.12270 239.51333 242.70767 245.68587
 248.41061 250.90679 253.19353 254.91714 256.48655 257.94920 259.39966 260.69384
 261.81714 262.77997 263.71679 264.54570 265.26305 265.89772 266.47676 267.00133
 267.47312 267.89325 268.26027 268.72800
