|-------------------------------------------------------------------------|
|   File Name : in_temp.dat
|   Subject   : temperature profiles used for initial guess atmosphere
|   File Type : input of gmtr
|   Data Type : atmospherical data
|   Author/s  : WRF-Chem
|   Date      : Fri Jul 26 15:39:24 2024
|-------------------------------------------------------------------------|

 WRF-Chem temperature
#
 values of T (K)    (8f10.5)
#
 354.97500 345.04800 334.58700 324.11500 313.32600 302.53700 291.65000 280.76700
 269.93100 259.19300 248.62200 238.61700 229.08700 220.35500 212.54000 205.53500
 199.46400 194.49300 191.14300 189.19000 188.08900 188.01400 188.72400 189.90600
 191.46900 193.38200 195.40300 197.55600 199.80700 202.06000 204.28800 206.47900
 208.55200 210.37800 212.02500 213.65900 214.99800 216.11800 217.17200 218.25900
 219.49400 220.64500 221.67900 222.61400 223.54500 224.98200 226.57100 228.19000
 229.79700 231.81100 233.86500 235.97200 238.24200 240.55300 242.89900 245.25300
 247.48800 249.53500 251.36600 252.84800 254.09800 255.16700 256.02700 256.25300
 256.09500 255.54300 253.93500 252.56600 251.38400 250.24500 249.05200 247.70100
 246.01600 243.99600 241.78400 239.39300 236.81300 234.22300 231.65800 229.14400
 226.74000 224.47300 222.33500 220.32500 218.44000 216.67700 214.96200 213.47200
 212.20000 211.10800 210.26000 209.63900 209.24400 209.03100 209.05800 209.33300
 209.78400 210.62600 211.33100 212.39100 213.62500 214.84668 217.72949 219.47640
 220.32566 220.86828 220.88710 220.27371 219.43733 218.84250 219.04934 220.86203
 222.60583 225.72206 229.03064 232.61777 236.12270 239.51333 242.70767 245.68587
 248.41061 250.90679 253.19353 254.91714 256.48655 257.94920 259.39966 260.69384
 261.81714 262.77997 263.71679 264.54570 265.26305 265.89772 266.47676 267.00133
 267.47312 267.89325 268.26027 268.72800
 366.78100 356.33500 345.76700 334.63300 323.03600 311.23000 299.10000 286.90300
 274.61500 262.51200 250.52100 239.82200 229.94400 221.04800 213.23000 206.23200
 200.06600 195.00400 191.58600 189.62800 188.66500 188.72900 189.56400 190.87200
 192.59700 194.69200 196.95500 199.31400 201.75900 204.23900 206.32700 208.16900
 209.79500 210.94000 211.16900 211.39700 211.33400 211.03900 210.67200 210.30200
 209.91900 209.62900 209.43700 209.30100 209.22900 209.56000 209.94600 210.33500
 211.12800 212.30600 213.55600 215.33900 217.26700 219.31000 221.40500 223.48800
 225.54800 227.63200 229.72900 231.83500 233.96400 236.13600 238.39200 240.76200
 243.38300 245.63400 247.63600 249.40100 250.81800 251.94100 252.76300 253.07900
 253.11600 252.89000 252.25000 251.19800 249.80400 247.96500 245.87400 243.70700
 241.49800 239.30200 237.12200 234.96100 232.82100 230.68800 228.71400 226.87100
 225.15400 223.62600 222.25600 221.02800 219.91000 218.87000 217.97400 217.11500
 216.35700 215.53700 214.63500 213.99900 213.44900 212.85855 212.01316 212.61654
 214.26826 216.08686 218.14273 220.53346 223.40855 226.78828 231.49734 235.90155
 239.42278 243.28576 247.23140 251.11907 254.80144 258.23331 261.38913 264.27520
 266.89312 269.26852 271.44504 273.08845 274.58484 275.98591 277.39845 278.65879
 279.75272 280.69038 281.56708 282.34086 283.01050 283.60295 284.14348 284.63317
 285.07358 285.46577 285.80838 286.24500
 381.81900 372.39900 361.20600 349.77600 337.62200 324.85300 311.81000 298.35300
 284.86000 271.32400 258.56100 246.30400 236.08700 226.79600 218.44800 211.29000
 205.52200 200.89400 197.38100 194.84800 193.01500 192.31500 192.25000 192.43100
 192.91200 193.53700 194.13600 194.71200 195.26200 195.83100 196.39300 196.97600
 197.60400 198.14900 198.58400 199.05700 199.69500 200.37800 201.05400 201.70800
 202.31300 202.85700 203.35500 203.86200 204.56900 205.29700 206.02600 206.98700
 208.19300 209.44100 210.96900 212.57600 214.46200 216.51300 218.63000 220.85300
 223.34100 225.96200 228.73900 231.69700 234.70600 237.70600 240.69200 243.65700
 246.73700 249.69900 252.52100 255.06300 257.29000 259.23300 260.63300 261.68000
 262.46100 262.79800 262.69100 262.22400 261.06900 259.52500 257.70700 255.50700
 253.00100 250.30200 247.39800 244.45200 241.65400 239.05400 236.73300 234.59000
 232.59500 230.72500 228.83400 226.82600 224.66600 222.38700 220.10400 217.71500
 215.45900 213.06600 210.54600 208.09300 205.35400 202.08130 196.05959 200.71215
 209.01611 216.90438 223.84126 229.78593 235.00632 240.20838 245.98943 250.68668
 254.32982 257.93487 261.55666 264.96801 268.15192 271.06452 273.76717 276.25691
 278.57680 280.74479 282.77456 284.60533 286.27232 287.81705 289.31715 290.65561
 291.81734 292.81312 293.70701 294.49387 295.17482 295.77730 296.32696 296.82492
 297.27278 297.67160 298.02000 298.46400
 399.33000 389.90700 379.81300 368.66800 357.52200 345.30100 333.07400 320.22700
 307.21600 293.84800 280.37600 267.29600 254.61000 242.98700 232.15100 221.97700
 212.67200 204.28600 197.66900 192.82100 189.48600 187.45200 186.81400 187.08900
 187.78100 189.05400 190.64800 192.54200 194.63000 196.75200 198.67100 200.15800
 201.53500 202.48700 202.97500 203.34000 203.53900 203.49700 203.38500 203.24700
 203.00500 202.78600 202.60300 202.43700 202.42600 202.88800 203.42000 203.95100
 204.89500 205.99200 207.30100 208.95800 210.73800 213.10000 215.56400 218.18000
 220.96600 223.91800 226.96100 230.09200 233.29300 236.55700 239.95500 243.53700
 246.84500 249.39000 251.54200 253.47400 255.19500 256.48400 257.43100 258.05900
 258.21200 258.04000 257.58200 256.64300 255.23900 253.50700 251.40800 249.05600
 246.57600 243.99400 241.38900 238.83000 236.34400 233.98600 231.96900 230.11800
 228.42300 226.89900 225.54800 224.29700 223.10500 221.96500 220.95800 220.11300
 219.49000 218.92000 218.32500 217.88100 217.42300 216.96366 216.35568 216.80261
 217.73415 218.28582 218.64258 219.10077 220.44626 222.53987 226.38451 230.35736
 233.59734 237.39164 241.29814 245.22796 248.98002 252.51130 255.78595 258.80109
 261.54781 264.05210 266.34239 268.04198 269.58951 271.01303 272.35754 273.55718
 274.59842 275.49092 276.28989 276.99307 277.60161 278.14001 278.63122 279.07623
 279.47646 279.83287 280.14422 280.54100
 399.73800 389.78500 379.66200 368.15100 356.64100 344.35000 331.79200 318.88800
 305.72600 292.49300 279.20900 266.73800 254.69600 244.21100 234.45700 225.43300
 217.56900 210.45100 204.30000 199.30600 195.45800 192.57600 191.02700 190.38600
 190.23900 190.53400 191.16600 191.92500 192.79500 193.76600 194.73200 195.31200
 195.80000 196.05200 196.11500 196.11500 196.03900 195.72300 195.34000 194.98900
 194.75100 194.79200 195.13300 195.59800 196.50600 198.13600 199.85800 201.56600
 204.17900 206.82300 209.89300 213.28400 216.82800 220.60500 224.38700 228.20900
 232.03200 235.82500 239.56000 243.25800 246.84500 250.20100 253.70900 257.46800
 261.53000 264.22100 266.60100 268.68100 270.32900 271.74100 272.83600 273.47400
 273.89800 274.00200 273.75700 273.28800 272.37100 271.10000 269.58900 267.77900
 265.81600 263.72100 261.39300 258.91600 256.29800 253.42300 250.33100 247.11400
 243.83700 240.52900 237.24900 233.99900 230.72800 227.51500 224.25400 220.95200
 217.62700 213.65600 210.12100 206.78900 204.01000 201.99491 199.07309 198.76551
 199.40006 200.48994 201.46112 202.31912 203.45100 204.96110 207.47502 210.85391
 213.70530 217.29629 220.99574 224.72316 228.28753 231.64854 234.68024 237.40893
 239.70644 241.60899 243.46854 245.67368 247.68154 249.52395 251.24767 252.78566
 254.12057 255.26479 256.23740 257.09036 257.82852 258.48160 259.07744 259.61723
 260.10271 260.53504 260.91270 261.39400
 399.73800 389.78500 379.66200 368.15100 356.64100 344.35000 331.79200 318.88800
 305.72600 292.49300 279.20900 266.73800 254.69600 244.21100 234.45700 225.43300
 217.56900 210.45100 204.30000 199.30600 195.45800 192.57600 191.02700 190.38600
 190.23900 190.53400 191.16600 191.92500 192.79500 193.76600 194.73200 195.31200
 195.80000 196.05200 196.11500 196.11500 196.03900 195.72300 195.34000 194.98900
 194.75100 194.79200 195.13300 195.59800 196.50600 198.13600 199.85800 201.56600
 204.17900 206.82300 209.89300 213.28400 216.82800 220.60500 224.38700 228.20900
 232.03200 235.82500 239.56000 243.25800 246.84500 250.20100 253.70900 257.46800
 261.53000 264.22100 266.60100 268.68100 270.32900 271.74100 272.83600 273.47400
 273.89800 274.00200 273.75700 273.28800 272.37100 271.10000 269.58900 267.77900
 265.81600 263.72100 261.39300 258.91600 256.29800 253.42300 250.33100 247.11400
 243.83700 240.52900 237.24900 233.99900 230.72800 227.51500 224.25400 220.95200
 217.62700 213.65600 210.12100 206.78900 204.01000 201.99491 199.07309 198.76551
 199.40006 200.48994 201.46112 202.31912 203.45100 204.96110 207.47502 210.85391
 213.70530 217.29629 220.99574 224.72316 228.28753 231.64854 234.68024 237.40893
 239.70644 241.60899 243.46854 245.67368 247.68154 249.52395 251.24767 252.78566
 254.12057 255.26479 256.23740 257.09036 257.82852 258.48160 259.07744 259.61723
 260.10271 260.53504 260.91270 261.39400
 399.33000 389.90700 379.81300 368.66800 357.52200 345.30100 333.07400 320.22700
 307.21600 293.84800 280.37600 267.29600 254.61000 242.98700 232.15100 221.97700
 212.67200 204.28600 197.66900 192.82100 189.48600 187.45200 186.81400 187.08900
 187.78100 189.05400 190.64800 192.54200 194.63000 196.75200 198.67100 200.15800
 201.53500 202.48700 202.97500 203.34000 203.53900 203.49700 203.38500 203.24700
 203.00500 202.78600 202.60300 202.43700 202.42600 202.88800 203.42000 203.95100
 204.89500 205.99200 207.30100 208.95800 210.73800 213.10000 215.56400 218.18000
 220.96600 223.91800 226.96100 230.09200 233.29300 236.55700 239.95500 243.53700
 246.84500 249.39000 251.54200 253.47400 255.19500 256.48400 257.43100 258.05900
 258.21200 258.04000 257.58200 256.64300 255.23900 253.50700 251.40800 249.05600
 246.57600 243.99400 241.38900 238.83000 236.34400 233.98600 231.96900 230.11800
 228.42300 226.89900 225.54800 224.29700 223.10500 221.96500 220.95800 220.11300
 219.49000 218.92000 218.32500 217.88100 217.42300 216.96366 216.35568 216.80261
 217.73415 218.28582 218.64258 219.10077 220.44626 222.53987 226.38451 230.35736
 233.59734 237.39164 241.29814 245.22796 248.98002 252.51130 255.78595 258.80109
 261.54781 264.05210 266.34239 268.04198 269.58951 271.01303 272.35754 273.55718
 274.59842 275.49092 276.28989 276.99307 277.60161 278.14001 278.63122 279.07623
 279.47646 279.83287 280.14422 280.54100
 381.81900 372.39900 361.20600 349.77600 337.62200 324.85300 311.81000 298.35300
 284.86000 271.32400 258.56100 246.30400 236.08700 226.79600 218.44800 211.29000
 205.52200 200.89400 197.38100 194.84800 193.01500 192.31500 192.25000 192.43100
 192.91200 193.53700 194.13600 194.71200 195.26200 195.83100 196.39300 196.97600
 197.60400 198.14900 198.58400 199.05700 199.69500 200.37800 201.05400 201.70800
 202.31300 202.85700 203.35500 203.86200 204.56900 205.29700 206.02600 206.98700
 208.19300 209.44100 210.96900 212.57600 214.46200 216.51300 218.63000 220.85300
 223.34100 225.96200 228.73900 231.69700 234.70600 237.70600 240.69200 243.65700
 246.73700 249.69900 252.52100 255.06300 257.29000 259.23300 260.63300 261.68000
 262.46100 262.79800 262.69100 262.22400 261.06900 259.52500 257.70700 255.50700
 253.00100 250.30200 247.39800 244.45200 241.65400 239.05400 236.73300 234.59000
 232.59500 230.72500 228.83400 226.82600 224.66600 222.38700 220.10400 217.71500
 215.45900 213.06600 210.54600 208.09300 205.35400 202.08130 196.05959 200.71215
 209.01611 216.90438 223.84126 229.78593 235.00632 240.20838 245.98943 250.68668
 254.32982 257.93487 261.55666 264.96801 268.15192 271.06452 273.76717 276.25691
 278.57680 280.74479 282.77456 284.60533 286.27232 287.81705 289.31715 290.65561
 291.81734 292.81312 293.70701 294.49387 295.17482 295.77730 296.32696 296.82492
 297.27278 297.67160 298.02000 298.46400
 366.78100 356.33622 345.76943 334.63665 323.04087 311.23608 299.10730 286.91152
 274.62473 262.52295 250.53316 239.83538 229.95860 221.06381 213.24703 206.25025
 200.08546 195.02468 191.60790 189.65111 188.68933 188.75455 189.59076 190.89998
 192.62620 194.72241 196.98663 199.34685 201.79306 204.27428 206.36349 208.20671
 209.83393 210.98014 211.21036 211.43958 211.37779 211.08401 210.71823 210.34944
 209.96766 209.67888 209.48809 209.35331 209.28253 209.61474 210.00196 210.39217
 211.18639 212.36561 213.61682 215.40104 217.33026 219.37447 221.47069 223.55491
 225.61612 227.70134 229.79956 231.90677 234.03699 236.21021 238.46742 240.83864
 243.46085 245.71307 247.71629 249.48250 250.90072 252.02494 252.84815 253.16537
 253.20359 252.97880 252.34002 251.28924 249.89645 248.05867 245.96889 243.80310
 241.59532 239.40054 237.22175 235.06197 232.92318 230.79140 228.81862 226.97683
 225.26105 223.73427 222.36548 221.13870 220.02192 218.98313 218.08835 217.23057
 216.47378 215.65500 214.75422 214.11943 213.57065 212.80310 210.99391 210.37581
 210.58815 212.01163 213.68369 215.82747 219.15680 223.73096 229.56750 234.73650
 238.65016 242.52263 246.45755 250.45058 254.34500 258.10272 260.93063 262.67108
 265.37369 268.21039 270.57773 272.37326 274.31409 276.30838 277.84662 279.36237
 281.03503 282.60306 284.07068 285.42764 286.60870 287.65591 288.61285 289.48441
 290.26965 290.97379 291.59692 292.42081
 366.78100 356.33663 345.77026 334.63789 323.04252 311.23815 299.10978 286.91441
 274.62804 262.52667 250.53730 239.83993 229.96356 221.06919 213.25282 206.25645
 200.09208 195.03170 191.61533 189.65896 188.69759 188.76322 189.59985 190.90948
 192.63611 194.73274 196.99737 199.35800 201.80463 204.28626 206.37589 208.21952
 209.84715 210.99378 211.22441 211.45404 211.39267 211.09930 210.73393 210.36556
 209.98419 209.69582 209.50545 209.37108 209.30071 209.63334 210.02097 210.41160
 211.20623 212.38585 213.63748 215.42211 217.35174 219.39637 221.49300 223.57763
 225.63926 227.72489 229.82352 231.93115 234.06178 236.23541 238.49304 240.86467
 243.48730 245.73993 247.74356 249.51019 250.92882 252.05345 252.87708 253.19471
 253.23334 253.00897 252.37060 251.32023 249.92786 248.09049 246.00112 243.83575
 241.62838 239.43400 237.25563 235.09626 232.95789 230.82652 228.85415 227.01278
 225.29741 223.77104 222.40267 221.17630 220.05993 219.02156 218.12719 217.26982
 216.51345 215.69508 214.79471 214.16034 213.61197 212.85925 211.08441 210.44331
 210.61882 212.10509 213.77434 215.84717 219.08070 223.66550 229.52007 234.67847
 238.57854 242.43506 246.35661 250.35329 254.27809 258.03574 260.85751 262.61008
 265.31949 268.16211 270.52890 272.29297 274.20761 276.20221 277.74585 279.26071
 280.94229 282.51633 283.97690 285.33282 286.51431 287.56161 288.51886 289.38824
 290.17633 290.88184 291.50192 292.32944
 366.78100 356.33681 345.77062 334.63843 323.04324 311.23904 299.11085 286.91566
 274.62947 262.52828 250.53909 239.84190 229.96571 221.07151 213.25532 206.25913
 200.09494 195.03475 191.61856 189.66237 188.70118 188.76699 189.60379 190.91360
 192.64041 194.73722 197.00203 199.36284 201.80965 204.29146 206.38126 208.22507
 209.85288 210.99969 211.23050 211.46031 211.39912 211.10593 210.74074 210.37254
 209.99135 209.70316 209.51297 209.37878 209.30859 209.64140 210.02921 210.42001
 211.21482 212.39463 213.64644 215.43125 217.36106 219.40587 221.50268 223.58749
 225.64929 227.73510 229.83391 231.94172 234.07253 236.24634 238.50415 240.87596
 243.49876 245.75157 247.75538 249.52219 250.94100 252.06581 252.88962 253.20743
 253.24624 253.02204 252.38385 251.33366 249.94147 248.10428 246.01509 243.84990
 241.64271 239.44852 237.27032 235.11113 232.97294 230.84175 228.86956 227.02837
 225.31318 223.78699 222.41879 221.19260 220.07641 219.03822 218.14403 217.28684
 216.53065 215.71246 214.81227 214.17807 213.62988 212.90277 211.18756 210.49826
 210.66759 212.18520 213.86148 215.87622 219.02298 223.59500 229.46971 234.61485
 238.50095 242.34418 246.25574 250.25798 254.21487 257.97012 260.78369 262.54907
 265.26111 268.10852 270.47537 272.21237 274.10370 276.09656 277.64722 279.16296
 280.85236 282.43100 283.88699 285.24200 286.42291 287.47107 288.42865 289.29886
 290.08533 290.79373 291.41565 292.24158
 366.78100 356.33690 345.77079 334.63869 323.04359 311.23948 299.11138 286.91628
 274.63017 262.52907 250.53997 239.84287 229.96676 221.07266 213.25656 206.26045
 200.09635 195.03625 191.62014 189.66404 188.70294 188.76883 189.60573 190.91563
 192.64252 194.73942 197.00432 199.36522 201.81211 204.29401 206.38391 208.22780
 209.85570 211.00260 211.23349 211.46339 211.40229 211.10918 210.74408 210.37598
 209.99487 209.70677 209.51667 209.38257 209.31246 209.64536 210.03326 210.42415
 211.21905 212.39895 213.65084 215.43574 217.36564 219.41053 221.50743 223.59233
 225.65422 227.74012 229.83902 231.94692 234.07781 236.25171 238.50961 240.88150
 243.50440 245.75730 247.76119 249.52809 250.94699 252.07188 252.89578 253.21368
 253.25257 253.02847 252.39037 251.34027 249.94816 248.11106 246.02196 243.85685
 241.64975 239.45565 237.27754 235.11844 232.98034 230.84923 228.87713 227.03603
 225.32092 223.79482 222.42672 221.20062 220.08451 219.04641 218.15231 217.29520
 216.53910 215.72100 214.82089 214.18679 213.63869 212.94026 211.29211 210.55957
 210.72220 212.25209 213.93941 215.91275 218.98679 223.52333 229.41527 234.54691
 238.42102 242.25340 246.15671 250.16504 254.15572 257.90527 260.70645 262.48627
 265.19604 268.04672 270.41647 272.13147 274.00262 275.99564 277.55493 279.07101
 280.76733 282.34818 283.79971 285.15506 286.33676 287.38550 288.34241 289.21289
 290.00162 290.70798 291.33017 292.15881
 366.78100 356.33701 345.77102 334.63903 323.04404 311.24006 299.11207 286.91708
 274.63109 262.53010 250.54111 239.84412 229.96813 221.07414 213.25815 206.26217
 200.09818 195.03819 191.62220 189.66621 188.70522 188.77123 189.60824 190.91825
 192.64526 194.74228 197.00729 199.36830 201.81531 204.29732 206.38733 208.23134
 209.85935 211.00636 211.23737 211.46739 211.40640 211.11341 210.74842 210.38043
 209.99944 209.71145 209.52146 209.38747 209.31748 209.65050 210.03851 210.42952
 211.22453 212.40454 213.65655 215.44156 217.37157 219.41658 221.51359 223.59861
 225.66062 227.74663 229.84564 231.95365 234.08466 236.25867 238.51668 240.88869
 243.51170 245.76472 247.76873 249.53574 250.95475 252.07976 252.90377 253.22178
 253.26079 253.03680 252.39881 251.34883 249.95684 248.11985 246.03086 243.86587
 241.65888 239.46489 237.28690 235.12791 232.98992 230.85894 228.88695 227.04596
 225.33097 223.80498 222.43699 221.21100 220.09501 219.05702 218.16303 217.30605
 216.55006 215.73207 214.83208 214.19809 213.65010 212.97762 211.39017 210.63312
 210.78488 212.30278 214.00711 215.95619 218.96487 223.45769 229.35822 234.47488
 238.33838 242.16066 246.05786 250.07407 254.09982 257.84125 260.62592 262.42096
 265.12411 267.97565 270.35046 272.04929 273.90533 275.89899 277.46912 278.98624
 280.68646 282.26898 283.71793 285.07193 286.25473 287.30151 288.26093 289.13065
 289.91791 290.62769 291.24948 292.07925
 366.78100 356.33715 345.77130 334.63944 323.04459 311.24074 299.11289 286.91803
 274.63218 262.53133 250.54248 239.84562 229.96977 221.07592 213.26007 206.26422
 200.10036 195.04051 191.62466 189.66881 188.70795 188.77410 189.61125 190.92140
 192.64855 194.74569 197.01084 199.37199 201.81914 204.30128 206.39143 208.23558
 209.86373 211.01087 211.24202 211.47217 211.41132 211.11847 210.75361 210.38576
 210.00491 209.71706 209.52720 209.39335 209.32350 209.65665 210.04480 210.43594
 211.23109 212.41124 213.66339 215.44853 217.37868 219.42383 221.52098 223.60612
 225.66827 227.75442 229.85357 231.96172 234.09286 236.26701 238.52516 240.89731
 243.52045 245.77360 247.77775 249.54490 250.96405 252.08919 252.91334 253.23149
 253.27064 253.04678 252.40893 251.35908 249.96723 248.13037 246.04152 243.87667
 241.66982 239.47597 237.29811 235.13926 233.00141 230.87056 228.89870 227.05785
 225.34300 223.81715 222.44930 221.22344 220.10759 219.06974 218.17589 217.31903
 216.56318 215.74533 214.84548 214.21162 213.66377 213.01486 211.48277 210.71948
 210.85239 212.34222 214.06798 216.00327 218.94743 223.40092 229.30008 234.40120
 238.25221 242.06564 245.95781 249.98491 254.04709 257.77863 260.54428 262.35620
 265.04697 267.89615 270.27615 271.96259 273.80978 275.80624 277.38980 278.90970
 280.60941 282.19525 283.63959 284.99469 286.17667 287.22473 288.18250 289.05475
 289.84137 290.54959 291.17401 292.00458
 366.78100 356.33718 345.77136 334.63955 323.04473 311.24091 299.11309 286.91827
 274.63246 262.53164 250.54282 239.84600 229.97018 221.07637 213.26055 206.26473
 200.10091 195.04109 191.62528 189.66946 188.70864 188.77482 189.61201 190.92219
 192.64937 194.74655 197.01173 199.37292 201.82010 204.30228 206.39246 208.23664
 209.86483 211.01201 211.24319 211.47337 211.41255 211.11974 210.75492 210.38710
 210.00628 209.71846 209.52865 209.39483 209.32501 209.65819 210.04637 210.43756
 211.23274 212.41292 213.66510 215.45028 217.38047 219.42565 221.52283 223.60801
 225.67020 227.75638 229.85556 231.96374 234.09492 236.26911 238.52729 240.89947
 243.52265 245.77583 247.78002 249.54720 250.96638 252.09156 252.91574 253.23393
 253.27311 253.04929 252.41147 251.36165 249.96984 248.13302 246.04420 243.87938
 241.67256 239.47875 237.30093 235.14211 233.00429 230.87347 228.90166 227.06084
 225.34602 223.82020 222.45239 221.22657 220.11075 219.07293 218.17911 217.32230
 216.56648 215.74866 214.84884 214.21502 213.66721 213.04565 211.57787 210.81342
 210.92097 212.37662 214.12517 216.05132 218.92737 223.34877 229.24222 234.32509
 238.16196 241.96667 245.85767 249.89938 254.00046 257.71967 260.46384 262.29501
 264.96503 267.80688 270.18994 271.87015 273.71402 275.71716 277.31448 278.83884
 280.53790 282.12659 283.56738 284.92230 286.10388 287.15189 288.10876 288.98175
 289.77036 290.47833 291.10413 291.93451
 366.78100 356.33704 345.77108 334.63912 323.04416 311.24020 299.11224 286.91728
 274.63132 262.53036 250.54140 239.84443 229.96847 221.07451 213.25855 206.26259
 200.09863 195.03867 191.62271 189.66675 188.70579 188.77183 189.60887 190.91891
 192.64595 194.74299 197.00803 199.36907 201.81611 204.29815 206.38819 208.23223
 209.86027 211.00730 211.23834 211.46838 211.40742 211.11446 210.74950 210.38154
 210.00058 209.71262 209.52266 209.38870 209.31874 209.65178 210.03982 210.43086
 211.22590 212.40594 213.65798 215.44302 217.37306 219.41810 221.51514 223.60017
 225.66221 227.74825 229.84729 231.95533 234.08637 236.26041 238.51845 240.89049
 243.51353 245.76657 247.77061 249.53765 250.95669 252.08173 252.90577 253.22381
 253.26285 253.03889 252.40093 251.35097 249.95901 248.12204 246.03308 243.86812
 241.66116 239.46720 237.28924 235.13028 232.99232 230.86136 228.88940 227.04844
 225.33348 223.80752 222.43956 221.21360 220.09764 219.05968 218.16572 217.30876
 216.55280 215.73484 214.83488 214.20091 213.65295 213.06604 211.67987 210.91550
 210.99040 212.40469 214.17786 216.10103 218.90771 223.29720 229.18277 234.24576
 238.06746 241.86353 245.75710 249.81821 253.96011 257.66287 260.38525 262.23944
 264.88055 267.70746 270.09384 271.77170 273.61835 275.63013 277.24411 278.77460
 280.47058 282.06100 283.49847 284.85385 286.03531 287.08344 288.04184 288.91293
 289.70245 290.40933 291.03720 291.86981
 366.78100 356.33679 345.77058 334.63836 323.04315 311.23894 299.11073 286.91552
 274.62930 262.52809 250.53888 239.84167 229.96546 221.07124 213.25503 206.25882
 200.09461 195.03439 191.61818 189.66197 188.70076 188.76655 189.60333 190.91312
 192.63991 194.73670 197.00149 199.36227 201.80906 204.29085 206.38064 208.22443
 209.85221 210.99900 211.22979 211.45958 211.39837 211.10515 210.73994 210.37173
 209.99052 209.70230 209.51209 209.37788 209.30767 209.64046 210.02824 210.41903
 211.21382 212.39361 213.64540 215.43018 217.35997 219.40476 221.50155 223.58634
 225.64812 227.73391 229.83270 231.94049 234.07128 236.24506 238.50285 240.87464
 243.49743 245.75022 247.75400 249.52079 250.93958 252.06437 252.88815 253.20594
 253.24473 253.02052 252.38231 251.33209 249.93988 248.10267 246.01346 243.84825
 241.64103 239.44682 237.26861 235.10940 232.97119 230.83997 228.86776 227.02655
 225.31134 223.78513 222.41691 221.19070 220.07449 219.03628 218.14206 217.28485
 216.52864 215.71043 214.81022 214.17600 213.62779 213.07954 211.78452 211.02823
 211.06049 212.42668 214.23283 216.15616 218.89119 223.24249 229.12132 234.15942
 237.96399 241.75323 245.65446 249.74046 253.92589 257.60764 260.31030 262.18967
 264.79501 267.60077 269.98975 271.66962 273.52457 275.54724 277.17947 278.71634
 280.40805 281.99875 283.43323 284.78836 285.97150 287.01807 287.97836 288.84961
 289.63913 290.34601 290.97256 291.80957
 366.78100 356.33631 345.76963 334.63694 323.04125 311.23657 299.10788 286.91220
 274.62551 262.52382 250.53414 239.83645 229.95976 221.06508 213.24839 206.25171
 200.08702 195.02633 191.60965 189.65296 188.69127 188.75659 189.59290 190.90221
 192.62853 194.72484 196.98916 199.34947 201.79578 204.27710 206.36641 208.20972
 209.83704 210.98335 211.21367 211.44298 211.38129 211.08761 210.72192 210.35323
 209.97155 209.68286 209.49217 209.35749 209.28680 209.61912 210.00643 210.39674
 211.19106 212.37037 213.62168 215.40600 217.33531 219.37963 221.47594 223.56025
 225.62157 227.70688 229.80519 231.91251 234.04282 236.21613 238.47345 240.84476
 243.46708 245.71939 247.72270 249.48902 250.90733 252.03164 252.85496 253.17227
 253.21058 252.98590 252.34721 251.29653 249.90384 248.06615 245.97647 243.81078
 241.60309 239.40841 237.22972 235.07004 232.93135 230.79966 228.82698 226.98529
 225.26960 223.74292 222.37423 221.14754 220.03086 218.99217 218.09749 217.23980
 216.48311 215.66443 214.76374 214.12905 213.58037 213.08061 211.89995 211.13826
 211.13890 212.46223 214.28719 216.19545 218.86729 223.18678 229.05373 234.06241
 237.85242 241.63766 245.55093 249.66594 253.89621 257.55426 260.23587 262.14417
 264.71008 267.48883 269.88190 271.57111 273.43668 275.47256 277.12485 278.66766
 280.35080 281.93924 283.37308 284.72836 285.90982 286.95831 287.91669 288.78934
 289.57861 290.28754 290.91605 291.74875
 366.78100 356.33599 345.76898 334.63597 323.03996 311.23495 299.10594 286.90994
 274.62293 262.52092 250.53091 239.83290 229.95589 221.06088 213.24387 206.24686
 200.08185 195.02084 191.60383 189.64683 188.68482 188.74981 189.58580 190.89479
 192.62078 194.71677 196.98076 199.34075 201.78674 204.26773 206.35672 208.19971
 209.82671 210.97270 211.20269 211.43168 211.36967 211.07566 210.70965 210.34064
 209.95863 209.66962 209.47861 209.34360 209.27260 209.60459 209.99158 210.38157
 211.17556 212.35455 213.60554 215.38953 217.31852 219.36251 221.45850 223.54249
 225.60349 227.68848 229.78647 231.89346 234.02345 236.19644 238.45343 240.82442
 243.44641 245.69840 247.70139 249.46738 250.88537 252.00937 252.83236 253.14935
 253.18734 252.96233 252.32332 251.27231 249.87930 248.04129 245.95128 243.78527
 241.57726 239.38226 237.20325 235.04324 232.90423 230.77222 228.79921 226.95720
 225.24119 223.71418 222.34517 221.11816 220.00115 218.96214 218.06714 217.20913
 216.45212 215.63311 214.73210 214.09709 213.54808 213.08543 211.99239 211.30035
 211.25102 212.40628 214.30649 216.27252 218.86829 223.13188 228.97772 233.95615
 237.73305 241.51701 245.44762 249.59540 253.87080 257.50388 260.16479 262.10654
 264.62796 267.37411 269.77148 271.47461 273.35217 275.40347 277.07587 278.62292
 280.29846 281.88239 283.31537 284.66983 285.85226 286.90060 287.85938 288.73059
 289.52301 290.23090 290.85803 291.69604
 366.78100 356.33526 345.76752 334.63379 323.03705 311.23131 299.10157 286.90484
 274.61710 262.51436 250.52362 239.82489 229.94715 221.05141 213.23367 206.23594
 200.07020 195.00846 191.59072 189.63298 188.67025 188.73451 189.56977 190.87803
 192.60330 194.69856 196.96182 199.32108 201.76635 204.24661 206.33487 208.17713
 209.80340 210.94866 211.17792 211.40618 211.34344 211.04871 210.68197 210.31223
 209.92949 209.63976 209.44802 209.31228 209.24054 209.57181 209.95807 210.34733
 211.14059 212.31886 213.56912 215.35238 217.28064 219.32390 221.41917 223.50243
 225.56269 227.64695 229.74422 231.85048 233.97974 236.15200 238.40827 240.77853
 243.39979 245.65105 247.65332 249.41858 250.83584 251.95910 252.78136 253.09763
 253.13489 252.90915 252.26941 251.21768 249.82394 247.98520 245.89446 243.72773
 241.51899 239.32325 237.14351 234.98278 232.84304 230.71030 228.73656 226.89382
 225.17709 223.64935 222.27961 221.05187 219.93414 218.89440 217.99866 217.13992
 216.38219 215.56245 214.66071 214.02497 213.47523 213.06876 212.10841 211.43680
 211.34047 212.45061 214.39406 216.27124 218.78593 223.07849 228.90785 233.84700
 237.61076 241.39528 245.34711 249.53157 253.85156 257.45944 260.10178 262.08066
 264.55139 267.25671 269.65533 271.37375 273.26624 275.33255 277.02219 278.57599
 280.24576 281.82532 283.26028 284.61517 285.79755 286.84598 287.80392 288.67688
 289.46811 290.17789 290.80515 291.64462
 366.78100 356.33478 345.76656 334.63234 323.03512 311.22890 299.09868 286.90145
 274.61323 262.51001 250.51879 239.81957 229.94135 221.04513 213.22691 206.22869
 200.06247 195.00025 191.58203 189.62381 188.66059 188.72436 189.55914 190.86692
 192.59170 194.68648 196.94926 199.30804 201.75282 204.23260 206.32038 208.16216
 209.78794 210.93272 211.16149 211.38927 211.32605 211.03083 210.66361 210.29339
 209.91017 209.61995 209.42773 209.29151 209.21929 209.55007 209.93585 210.32463
 211.11740 212.29518 213.54496 215.32774 217.25552 219.29830 221.39308 223.47586
 225.53564 227.61942 229.71620 231.82198 233.95076 236.12253 238.37831 240.74809
 243.36887 245.61965 247.62143 249.38621 250.80299 251.92577 252.74755 253.06333
 253.10011 252.87389 252.23366 251.18144 249.78722 247.94800 245.85678 243.68956
 241.48034 239.28412 237.10390 234.94268 232.80246 230.66924 228.69502 226.85180
 225.13457 223.60635 222.23613 221.00791 219.88969 218.84947 217.95325 217.09403
 216.33581 215.51559 214.61337 213.97715 213.42693 213.06696 212.21648 211.51085
 211.48181 212.53360 214.38586 216.30255 218.80789 222.98933 228.82715 233.73297
 237.48334 241.27415 245.25352 249.47855 253.84056 257.42453 260.04932 262.06433
 264.47888 267.13690 269.53378 271.26877 273.17838 275.26111 276.96622 278.52625
 280.19116 281.76694 283.20834 284.56378 285.74594 286.79456 287.75330 288.62601
 289.41553 290.12799 290.75534 291.59644
 366.78100 356.33411 345.76521 334.63032 323.03243 311.22553 299.09464 286.89675
 274.60786 262.50396 250.51207 239.81218 229.93328 221.03639 213.21750 206.21860
 200.05171 194.98882 191.56993 189.61103 188.64714 188.71025 189.54435 190.85146
 192.57557 194.66967 196.93178 199.28989 201.73399 204.21310 206.30021 208.14132
 209.76642 210.91053 211.13864 211.36574 211.30185 211.00596 210.63806 210.26717
 209.88328 209.59239 209.39949 209.26260 209.18971 209.51981 209.90492 210.29303
 211.08513 212.26224 213.51135 215.29345 217.22056 219.26267 221.35678 223.43888
 225.49799 227.58110 229.67720 231.78231 233.91042 236.08152 238.33663 240.70574
 243.32585 245.57595 247.57706 249.34117 250.75727 251.87938 252.70049 253.01559
 253.05170 252.82481 252.18391 251.13102 249.73613 247.89624 245.80434 243.63645
 241.42656 239.22966 237.04877 234.88688 232.74598 230.61209 228.63720 226.79331
 225.07541 223.54652 222.17563 220.94673 219.82784 218.78695 217.89005 217.03016
 216.27127 215.45037 214.54748 213.91059 213.35970 213.05600 212.33849 211.60005
 211.56912 212.59189 214.40193 216.36359 218.84343 222.90364 228.74355 233.62004
 237.35944 241.15904 245.16794 249.43294 253.83257 257.39087 259.99380 262.04330
 264.40359 267.01276 269.40790 271.16238 273.09109 275.19199 276.91177 278.47769
 280.13983 281.70905 283.15790 284.51447 285.69684 286.74509 287.70432 288.57718
 289.36752 290.08032 290.70810 291.55005
 366.78100 356.33366 345.76432 334.62897 323.03063 311.22329 299.09195 286.89360
 274.60426 262.49992 250.50758 239.80723 229.92789 221.03055 213.21121 206.21186
 200.04452 194.98118 191.56184 189.60249 188.63815 188.70081 189.53447 190.84112
 192.56478 194.65844 196.92010 199.27775 201.72141 204.20007 206.28673 208.12739
 209.75204 210.89570 211.12336 211.35002 211.28567 210.98933 210.62099 210.24965
 209.86530 209.57396 209.38062 209.24328 209.16993 209.49959 209.88425 210.27191
 211.06356 212.24022 213.48888 215.27054 217.19719 219.23885 221.33251 223.41417
 225.47282 227.55548 229.65114 231.75580 233.88345 236.05411 238.30877 240.67743
 243.29709 245.54674 247.54740 249.31106 250.72672 251.84837 252.66903 252.98369
 253.01935 252.79200 252.15066 251.09732 249.70198 247.86163 245.76929 243.60095
 241.39061 239.19326 237.01192 234.84958 232.70824 230.57389 228.59855 226.75421
 225.03587 223.50652 222.13518 220.90584 219.78650 218.74516 217.84781 216.98747
 216.22813 215.40679 214.50344 213.86610 213.31476 213.05411 212.43829 211.74278
 211.60962 212.65135 214.46825 216.40512 218.83200 222.82031 228.66997 233.51505
 237.23926 241.04739 245.08525 249.38919 253.82213 257.35049 259.92892 262.01321
 264.32593 266.88782 269.28296 271.06143 273.01062 275.12756 276.86115 278.43051
 280.09045 281.65192 283.11108 284.46814 285.65073 286.69870 287.65787 288.53214
 289.32129 290.03195 290.66345 291.50516
 366.78100 356.33325 345.76350 334.62775 323.02900 311.22125 299.08951 286.89076
 274.60101 262.49626 250.50351 239.80276 229.92301 221.02526 213.20551 206.20576
 200.03801 194.97427 191.55452 189.59477 188.63002 188.69227 189.52552 190.83177
 192.55502 194.64827 196.90952 199.26678 201.71003 204.18828 206.27453 208.11478
 209.73903 210.88228 211.10953 211.33578 211.27103 210.97428 210.60554 210.23379
 209.84904 209.55729 209.36354 209.22579 209.15204 209.48129 209.86554 210.25279
 211.04404 212.22030 213.46855 215.24980 217.17605 219.21730 221.31055 223.39180
 225.45005 227.53230 229.62755 231.73181 233.85906 236.02931 238.28356 240.65181
 243.27106 245.52031 247.52056 249.28381 250.69906 251.82031 252.64057 252.95482
 252.99007 252.76232 252.12057 251.06682 249.67107 247.83032 245.73757 243.56882
 241.35807 239.16033 236.97858 234.81583 232.67408 230.53933 228.56358 226.71883
 225.00008 223.47033 222.09858 220.86884 219.74909 218.70734 217.80959 216.94884
 216.18909 215.36734 214.46359 213.82584 213.27409 213.05331 212.53171 211.89952
 211.64951 212.71352 214.54019 216.43275 218.80719 222.74217 228.59947 233.41176
 237.11815 240.93561 245.00555 249.34677 253.80789 257.30417 259.85895 261.97922
 264.24997 266.76605 269.16220 270.96826 272.93616 275.06668 276.81165 278.38467
 280.04257 281.59000 283.06653 284.42419 285.60654 286.65500 287.61371 288.48764
 289.27902 289.98990 290.62088 291.46048
 366.78100 356.33268 345.76236 334.62604 323.02672 311.21840 299.08608 286.88676
 274.59644 262.49112 250.49780 239.79648 229.91616 221.01784 213.19752 206.19719
 200.02887 194.96455 191.54423 189.58391 188.61859 188.68027 189.51295 190.81863
 192.54131 194.63399 196.89467 199.25135 201.69403 204.17171 206.25739 208.09707
 209.72075 210.86343 211.09011 211.31579 211.25047 210.95315 210.58383 210.21151
 209.82619 209.53387 209.33955 209.20122 209.12690 209.45558 209.83926 210.22594
 211.01662 212.19230 213.43998 215.22066 217.14634 219.18702 221.27970 223.36038
 225.41806 227.49974 229.59442 231.69810 233.82478 235.99446 238.24814 240.61582
 243.23450 245.48318 247.48286 249.24554 250.66022 251.78090 252.60058 252.91425
 252.94893 252.72061 252.07829 251.02397 249.62765 247.78633 245.69301 243.52369
 241.31237 239.11405 236.93173 234.76841 232.62609 230.49077 228.51445 226.66913
 224.94981 223.41949 222.04717 220.81685 219.69653 218.65421 217.75589 216.89457
 216.13425 215.31193 214.40761 213.76929 213.21696 213.04395 212.63513 212.04301
 211.70847 212.77449 214.59610 216.45528 218.79089 222.67233 228.52643 233.30368
 236.99403 240.82434 244.93002 249.30684 253.79007 257.25284 259.78659 261.94226
 264.17581 266.64844 269.04501 270.87955 272.86719 275.00900 276.76285 278.33615
 279.99167 281.51797 283.02664 284.38669 285.56882 286.61603 287.57578 288.44907
 289.24069 289.95193 290.58102 291.42422
 366.78100 356.33202 345.76105 334.62407 323.02409 311.21512 299.08214 286.88216
 274.59119 262.48521 250.49123 239.78926 229.90828 221.00930 213.18833 206.18735
 200.01837 194.95340 191.53242 189.57144 188.60547 188.66649 189.49851 190.80354
 192.52556 194.61758 196.87761 199.23363 201.67565 204.15268 206.23770 208.07672
 209.69975 210.84177 211.06779 211.29282 211.22684 210.92886 210.55889 210.18591
 209.79993 209.50696 209.31198 209.17300 209.09803 209.42605 209.80907 210.19510
 210.98512 212.16014 213.40717 215.18719 217.11222 219.15224 221.24426 223.32429
 225.38131 227.46233 229.55636 231.65938 233.78540 235.95443 238.20745 240.57447
 243.19250 245.44052 247.43954 249.20157 250.61559 251.73561 252.55464 252.86766
 252.90168 252.67271 252.02973 250.97475 249.57778 247.73580 245.64182 243.47185
 241.25987 239.06089 236.87792 234.71394 232.57096 230.43499 228.45801 226.61203
 224.89206 223.36108 221.98810 220.75713 219.63615 218.59317 217.69420 216.83222
 216.07124 215.24827 214.34329 213.70431 213.15134 213.03046 212.74490 212.17735
 211.78276 212.83420 214.64156 216.47246 218.77853 222.61008 228.45311 233.19220
 236.87061 240.71860 244.86093 249.27031 253.76686 257.19687 259.70981 261.89832
 264.10077 266.53424 268.93256 270.79797 272.80298 274.95438 276.71414 278.28650
 279.94012 281.45670 282.98529 284.34808 285.52908 286.57840 287.53711 288.41162
 289.20407 289.91519 290.54376 291.39511
 366.78100 356.33140 345.75981 334.62221 323.02162 311.21202 299.07842 286.87783
 274.58623 262.47964 250.48504 239.78245 229.90085 221.00125 213.17966 206.17806
 200.00847 194.94287 191.52127 189.55968 188.59308 188.65349 189.48489 190.78930
 192.51070 194.60210 196.86151 199.21691 201.65832 204.13472 206.21912 208.05753
 209.67993 210.82134 211.04674 211.27115 211.20455 210.90595 210.53536 210.16176
 209.77517 209.48157 209.28597 209.14638 209.07078 209.39819 209.78059 210.16600
 210.95540 212.12980 213.37621 215.15561 217.08002 219.11942 221.21082 223.29023
 225.34663 227.42704 229.52044 231.62285 233.74825 235.91665 238.16906 240.53546
 243.15287 245.40027 247.39867 249.16008 250.57348 251.69289 252.51129 252.82370
 252.85710 252.62750 251.98391 250.92831 249.53072 247.68812 245.59352 243.42293
 241.21033 239.01074 236.82714 234.66255 232.51895 230.38235 228.40476 226.55816
 224.83757 223.30597 221.93237 220.70078 219.57918 218.53559 217.63599 216.77340
 216.01180 215.18820 214.28261 213.64301 213.08942 213.01880 212.85194 212.31119
 211.86726 212.89053 214.67654 216.48663 218.76959 222.55429 228.37976 233.07967
 236.75160 240.62033 244.79924 249.23671 253.73820 257.13364 259.62466 261.84296
 264.02368 266.42563 268.82645 270.72406 272.74649 274.90356 276.66553 278.23575
 279.88788 281.41077 282.94324 284.30609 285.48935 286.53885 287.49887 288.37222
 289.16516 289.87866 290.50378 291.35648
 366.78100 356.33080 345.75860 334.62041 323.01921 311.20901 299.07481 286.87362
 274.58142 262.47422 250.47902 239.77582 229.89363 220.99343 213.17123 206.16903
 199.99884 194.93264 191.51044 189.54824 188.58104 188.64085 189.47165 190.77545
 192.49625 194.58706 196.84586 199.20066 201.64146 204.11726 206.20107 208.03887
 209.66067 210.80147 211.02627 211.25008 211.18288 210.88368 210.51248 210.13829
 209.75109 209.45689 209.26069 209.12049 209.04430 209.37110 209.75290 210.13770
 210.92651 212.10031 213.34611 215.12491 217.04871 219.08752 221.17832 223.25712
 225.31292 227.39273 229.48553 231.58733 233.71213 235.87993 238.13174 240.49754
 243.11434 245.36114 247.35895 249.11975 250.53255 251.65135 252.46915 252.78096
 252.81376 252.58356 251.93936 250.88317 249.48497 247.64177 245.54657 243.37537
 241.16218 238.96198 236.77778 234.61258 232.46839 230.33119 228.35299 226.50579
 224.78459 223.25240 221.87820 220.64600 219.52380 218.47961 217.57941 216.71621
 215.95401 215.12981 214.22362 213.58342 213.02922 213.00760 212.95651 212.45117
 211.95341 212.94232 214.70972 216.49890 218.75677 222.50223 228.30777 232.97513
 236.64404 240.53404 244.74651 249.20551 253.70065 257.05981 259.52792 261.77161
 263.94153 266.32104 268.72784 270.65854 272.69730 274.85663 276.61713 278.18500
 279.83722 281.36969 282.90286 284.26642 285.44955 286.49887 287.45999 288.33484
 289.12512 289.84021 290.46613 291.31912
 366.78100 356.33036 345.75771 334.61907 323.01742 311.20678 299.07214 286.87049
 274.57785 262.47021 250.47456 239.77092 229.88827 220.98763 213.16499 206.16234
 199.99170 194.92506 191.50241 189.53977 188.57212 188.63148 189.46184 190.76519
 192.48555 194.57590 196.83426 199.18862 201.62897 204.10433 206.18769 208.02504
 209.64640 210.78675 211.01111 211.23447 211.16682 210.86718 210.49554 210.12089
 209.73325 209.43860 209.24196 209.10132 209.02467 209.35103 209.73238 210.11674
 210.90510 212.07845 213.32381 215.10217 217.02552 219.06388 221.15423 223.23259
 225.28795 227.36730 229.45966 231.56102 233.68537 235.85273 238.10408 240.46944
 243.08580 245.33215 247.32951 249.08986 250.50222 251.62058 252.43793 252.74929
 252.78165 252.55100 251.90636 250.84971 249.45107 247.60743 245.51178 243.34014
 241.12650 238.92585 236.74121 234.57556 232.43092 230.29328 228.31463 226.46699
 224.74534 223.21270 221.83806 220.60541 219.48277 218.43813 217.53748 216.67384
 215.91119 215.08655 214.17991 213.53926 212.98462 213.00481 213.05254 212.59386
 212.04300 212.98724 214.73416 216.51163 218.74742 222.45795 228.23940 232.87691
 236.54501 240.45828 244.70270 249.17656 253.65504 256.97659 259.42145 261.68494
 263.85211 266.21854 268.63339 270.59900 272.65430 274.81454 276.57001 278.13641
 279.78906 281.33014 282.86563 284.23050 285.41318 286.46356 287.42462 288.29727
 289.09259 289.80347 290.43243 291.28644
 366.78100 356.33002 345.75703 334.61805 323.01607 311.20508 299.07010 286.86812
 274.57513 262.46715 250.47117 239.76718 229.88420 220.98321 213.16023 206.15725
 199.98626 194.91928 191.49630 189.53331 188.56533 188.62435 189.45436 190.75738
 192.47740 194.56741 196.82543 199.17945 201.61946 204.09448 206.17750 208.01451
 209.63553 210.77555 210.99956 211.22258 211.15460 210.85461 210.48263 210.10764
 209.71966 209.42468 209.22769 209.08671 209.00973 209.33574 209.71676 210.10078
 210.88879 212.06181 213.30683 215.08484 217.00786 219.04588 221.13589 223.21391
 225.26893 227.34794 229.43996 231.54098 233.66499 235.83201 238.08302 240.44804
 243.06406 245.31007 247.30709 249.06711 250.47912 251.59714 252.41416 252.72517
 252.75719 252.52621 251.88122 250.82424 249.42526 247.58127 245.48529 243.31331
 241.09932 238.89834 236.71336 234.54737 232.40239 230.26441 228.28542 226.43744
 224.71545 223.18247 221.80749 220.57450 219.45152 218.40654 217.50555 216.64157
 215.87859 215.05360 214.14662 213.50564 212.95065 213.00810 213.14380 212.73218
 212.14334 213.02492 214.74101 216.52470 218.75349 222.41890 228.17084 232.78596
 236.45811 240.39622 244.66940 249.15221 253.60284 256.88528 259.30557 261.57965
 263.75150 266.11417 268.53949 270.54190 272.61685 274.77521 276.52582 278.08841
 279.74368 281.29550 282.83252 284.19641 285.38074 286.43079 287.39304 288.26715
 289.06006 289.77252 290.40216 291.25302
 366.78100 356.32982 345.75663 334.61745 323.01526 311.20408 299.06889 286.86671
 274.57352 262.46534 250.46915 239.76497 229.88179 220.98060 213.15742 206.15423
 199.98305 194.91586 191.49268 189.52949 188.56131 188.62012 189.44994 190.75275
 192.47257 194.56239 196.82020 199.17402 201.61383 204.08865 206.17146 208.00828
 209.62909 210.76891 210.99272 211.21554 211.14736 210.84717 210.47499 210.09980
 209.71162 209.41643 209.21925 209.07806 209.00088 209.32669 209.70751 210.09132
 210.87914 212.05196 213.29677 215.07459 216.99740 219.03522 221.12503 223.20285
 225.25766 227.33648 229.42829 231.52911 233.65293 235.81974 238.07056 240.43537
 243.05119 245.29700 247.29382 249.05363 250.46545 251.58326 252.40008 252.71089
 252.74271 252.51153 251.86634 250.80916 249.40997 247.56579 245.46960 243.29742
 241.08323 238.88205 236.69686 234.53068 232.38550 230.24731 228.26813 226.41994
 224.69776 223.16457 221.78939 220.55620 219.43302 218.38783 217.48665 216.62246
 215.85928 215.03410 214.12691 213.48573 212.93054 213.01888 213.22760 212.87477
 212.24010 213.05540 214.74916 216.54065 218.75572 222.38644 228.11264 232.70259
 236.37955 240.34258 244.64479 249.13115 253.54213 256.78421 259.18011 261.45676
 263.64008 266.00824 268.44696 270.48816 272.58487 274.74023 276.48309 278.04239
 279.70206 281.26572 282.80530 284.16968 285.35291 286.40436 287.36420 288.24045
 289.03482 289.74686 290.37564 291.22882
 366.78100 356.32963 345.75625 334.61688 323.01450 311.20313 299.06776 286.86538
 274.57201 262.46363 250.46726 239.76288 229.87951 220.97814 213.15476 206.15139
 199.98001 194.91264 191.48927 189.52589 188.55752 188.61614 189.44577 190.74840
 192.46802 194.55765 196.81527 199.16890 201.60853 204.08315 206.16578 208.00240
 209.62303 210.76265 210.98628 211.20891 211.14053 210.84016 210.46778 210.09241
 209.70404 209.40866 209.21129 209.06991 208.99254 209.31817 209.69879 210.08242
 210.87004 212.04267 213.28730 215.06492 216.98755 219.02517 221.11480 223.19242
 225.24705 227.32568 229.41730 231.51793 233.64155 235.80818 238.05881 240.42343
 243.03906 245.28468 247.28131 249.04094 250.45256 251.57019 252.38681 252.69744
 252.72907 252.49769 251.85232 250.79494 249.39557 247.55119 245.45482 243.28245
 241.06807 238.86670 236.68132 234.51495 232.36958 230.23120 228.25183 226.40345
 224.68108 223.14771 221.77233 220.53896 219.41558 218.37021 217.46884 216.60446
 215.84109 215.01571 214.10834 213.46696 212.91159 213.03113 213.31354 213.00154
 212.35162 213.09364 214.74571 216.54927 218.77394 222.35480 228.04610 232.61858
 236.30763 240.29965 244.62955 249.11453 253.47638 256.67816 259.04892 261.31796
 263.51746 265.89944 268.35446 270.43661 272.55710 274.70786 276.44095 277.99649
 279.66296 281.24057 282.78125 284.14630 285.33084 286.38098 287.34338 288.21832
 289.01120 289.72482 290.35397 291.20731
 366.78100 356.32954 345.75609 334.61663 323.01418 311.20272 299.06726 286.86481
 274.57135 262.46290 250.46644 239.76198 229.87853 220.97707 213.15362 206.15016
 199.97870 194.91125 191.48779 189.52434 188.55588 188.61442 189.44397 190.74651
 192.46606 194.55560 196.81314 199.16669 201.60623 204.08078 206.16332 207.99986
 209.62041 210.75995 210.98349 211.20604 211.13758 210.83713 210.46467 210.08921
 209.70076 209.40530 209.20785 209.06639 208.98893 209.31448 209.69502 210.07857
 210.86611 212.03865 213.28320 215.06074 216.98329 219.02083 221.11037 223.18792
 225.24246 227.32101 229.41255 231.51309 233.63664 235.80318 238.05373 240.41827
 243.03381 245.27936 247.27590 249.03545 250.44699 251.56453 252.38108 252.69162
 252.72317 252.49171 251.84625 250.78880 249.38934 247.54489 245.44843 243.27597
 241.06152 238.86006 236.67461 234.50815 232.36269 230.22424 228.24478 226.39633
 224.67387 223.14041 221.76496 220.53150 219.40804 218.36259 217.46113 216.59668
 215.83322 215.00776 214.10031 213.45885 212.90340 213.04948 213.39461 213.12125
 212.46288 213.13979 214.74591 216.55547 218.77441 222.32599 227.99710 232.55298
 236.24948 240.26752 244.62210 249.10088 253.40088 256.55695 258.90015 261.15613
 263.37994 265.78702 268.26233 270.39062 272.53702 274.68198 276.40454 277.95532
 279.62790 281.21939 282.76190 284.12720 285.31100 286.36215 287.32309 288.19934
 288.99399 289.70807 290.33615 291.19025
 366.78100 356.33004 345.75709 334.61813 323.01617 311.20522 299.07026 286.86830
 274.57535 262.46739 250.47143 239.76748 229.88452 220.98356 213.16061 206.15765
 199.98669 194.91974 191.49678 189.53382 188.56587 188.62491 189.45495 190.75800
 192.47804 194.56808 196.82613 199.18017 201.62021 204.09526 206.17830 208.01534
 209.63639 210.77643 211.00048 211.22352 211.15556 210.85561 210.48365 210.10869
 209.72074 209.42578 209.22882 209.08787 209.01091 209.33695 209.71800 210.10204
 210.89008 212.06313 213.30817 215.08621 217.00926 219.04730 221.13734 223.21539
 225.27043 227.34947 229.44152 231.54256 233.66660 235.83365 238.08469 240.44973
 243.06578 245.31182 247.30886 249.06891 250.48095 251.59899 252.41604 252.72708
 252.75912 252.52817 251.88321 250.82625 249.42730 247.58334 245.48738 243.31543
 241.10147 238.90051 236.71556 234.54960 232.40464 230.26669 228.28773 226.43977
 224.71782 223.18486 221.80990 220.57695 219.45399 218.40903 217.50808 216.64412
 215.88117 215.05621 214.14925 213.50830 212.95334 213.09756 213.43828 213.26241
 212.58530 213.15314 214.74159 216.60085 218.81653 222.31508 227.93240 232.46967
 236.18254 240.23238 244.61429 249.08412 253.31024 256.41733 258.73563 260.97836
 263.23627 265.67804 268.17773 270.35626 272.52960 274.66794 276.37985 277.92239
 279.59933 281.20258 282.74631 284.11304 285.29663 286.34747 287.31012 288.18573
 288.98074 289.69278 290.32025 291.17892
 366.78100 356.33060 345.75820 334.61979 323.01839 311.20799 299.07359 286.87218
 274.57978 262.47238 250.47698 239.77358 229.89117 220.99077 213.16837 206.16597
 199.99556 194.92916 191.50676 189.54436 188.57695 188.63655 189.46715 190.77075
 192.49135 194.58194 196.84054 199.19514 201.63574 204.11133 206.19493 208.03253
 209.65413 210.79473 211.01932 211.24292 211.17552 210.87612 210.50471 210.13031
 209.74291 209.44851 209.25210 209.11170 209.03530 209.36190 209.74350 210.12809
 210.91669 212.09029 213.33589 215.11448 217.03808 219.07668 221.16728 223.24588
 225.30147 227.38107 229.47367 231.57527 233.69986 235.86746 238.11906 240.48466
 243.10126 245.34785 247.34545 249.10605 250.51865 251.63724 252.45484 252.76644
 252.79904 252.56863 251.92423 250.86783 249.46943 247.62603 245.53062 243.35922
 241.14582 238.94542 236.76101 234.59561 232.45121 230.31381 228.33541 226.48800
 224.76660 223.23420 221.85980 220.62739 219.50499 218.46059 217.56019 216.69679
 215.93438 215.10998 214.20358 213.56318 213.00877 213.15276 213.49290 213.35617
 212.63924 213.26486 214.78641 216.62505 218.87659 222.28069 227.86021 232.38628
 236.11790 240.20245 244.61121 249.06799 253.21310 256.27249 258.56836 260.79645
 263.09332 265.57458 268.10049 270.33118 272.52902 274.65860 276.35986 277.89310
 279.57379 281.18930 282.73322 284.09927 285.28271 286.33438 287.29694 288.17447
 288.96744 289.68039 290.30939 291.16205
 366.78100 356.33091 345.75881 334.62072 323.01962 311.20953 299.07543 286.87434
 274.58224 262.47515 250.48005 239.77696 229.89486 220.99477 213.17267 206.17058
 200.00048 194.93439 191.51229 189.55020 188.58310 188.64301 189.47391 190.77782
 192.49872 194.58963 196.84853 199.20344 201.64434 204.12025 206.20415 208.04206
 209.66396 210.80487 211.02977 211.25368 211.18658 210.88749 210.51639 210.14230
 209.75520 209.46111 209.26501 209.12492 209.04882 209.37573 209.75763 210.14254
 210.93144 212.10535 213.35125 215.13016 217.05406 219.09297 221.18387 223.26278
 225.31868 227.39859 229.49149 231.59340 233.71830 235.88621 238.13811 240.50402
 243.12092 245.36783 247.36573 249.12664 250.53954 251.65845 252.47635 252.78826
 252.82116 252.59107 251.94697 250.89088 249.49278 247.64969 245.55459 243.38350
 241.17040 238.97031 236.78621 234.62112 232.47702 230.33993 228.36183 226.51474
 224.79364 223.26155 221.88745 220.65536 219.53326 218.48917 217.58907 216.72598
 215.96388 215.13979 214.23369 213.59360 213.03951 213.19675 213.56824 213.42909
 212.70830 213.36058 214.80914 216.66174 218.94444 222.23947 227.78960 232.31090
 236.06377 240.18369 244.61559 249.05290 253.11130 256.12192 258.39746 260.60989
 262.94925 265.47348 268.02600 270.30692 272.52896 274.64761 276.33429 277.86035
 279.54721 281.17673 282.72250 284.08777 285.27289 286.32483 287.28699 288.16284
 288.95718 289.66956 290.29950 291.14755
 366.78100 356.33146 345.75991 334.62237 323.02182 311.21228 299.07874 286.87819
 274.58665 262.48010 250.48556 239.78301 229.90147 221.00193 213.18038 206.17884
 200.00929 194.94375 191.52221 189.56066 188.59412 188.65457 189.48603 190.79049
 192.51194 194.60340 196.86285 199.21831 201.65976 204.13622 206.22068 208.05913
 209.68159 210.82304 211.04850 211.27296 211.20641 210.90787 210.53732 210.16378
 209.77724 209.48369 209.28815 209.14860 209.07306 209.40052 209.78297 210.16843
 210.95788 212.13234 213.37879 215.15825 217.08271 219.12216 221.21362 223.29307
 225.34953 227.42999 229.52344 231.62590 233.75135 235.91981 238.17227 240.53872
 243.15618 245.40363 247.40209 249.16354 250.57700 251.69646 252.51491 252.82737
 252.86082 252.63128 251.98774 250.93219 249.53465 247.69210 245.59756 243.42702
 241.21447 239.01493 236.83138 234.66684 232.52329 230.38675 228.40921 226.56266
 224.84212 223.31057 221.93703 220.70549 219.58394 218.54040 217.64085 216.77831
 216.01677 215.19322 214.28768 213.64813 213.09459 213.25400 213.63062 213.48282
 212.83612 213.42805 214.82408 216.71312 218.98114 222.19189 227.73053 232.24867
 236.02138 240.17422 244.62408 249.03589 253.00204 255.96356 258.22128 260.41876
 262.80328 265.37277 267.95178 270.28113 272.52399 274.63174 276.30331 277.82324
 279.52130 281.16483 282.71167 284.07822 285.26285 286.31219 287.27551 288.15250
 288.94653 289.65955 290.28653 291.14124
 366.78100 356.33212 345.76125 334.62437 323.02449 311.21561 299.08274 286.88286
 274.59198 262.48610 250.49223 239.79035 229.90947 221.01059 213.18972 206.18884
 200.01996 194.95508 191.53421 189.57333 188.60745 188.66857 189.50070 190.80582
 192.52794 194.62006 196.88019 199.23631 201.67843 204.15555 206.24068 208.07980
 209.70292 210.84504 211.07117 211.29629 211.23041 210.93253 210.56266 210.18978
 209.80390 209.51102 209.31615 209.17727 209.10239 209.43051 209.81364 210.19976
 210.98988 212.16500 213.41213 215.19225 217.11737 219.15750 221.24962 223.32974
 225.38686 227.46799 229.56211 231.66523 233.79135 235.96048 238.21360 240.58072
 243.19884 245.44697 247.44609 249.20821 250.62233 251.74246 252.56158 252.87470
 252.90882 252.67995 252.03707 250.98219 249.58531 247.74344 245.64956 243.47968
 241.26780 239.06893 236.88605 234.72217 232.57929 230.44342 228.46654 226.62066
 224.90078 223.36991 221.99703 220.76615 219.64527 218.60240 217.70352 216.84164
 216.08076 215.25789 214.35301 213.71413 213.16125 213.31755 213.68683 213.53075
 212.95442 213.50336 214.86835 216.76656 218.99393 222.14954 227.67758 232.19077
 235.98412 240.16997 244.63321 249.01297 252.88301 255.79585 258.03995 260.22427
 262.65646 265.27222 267.87762 270.25314 272.51416 274.60941 276.26489 277.78116
 279.49057 281.15524 282.70193 284.06845 285.25174 286.30338 287.26666 288.14270
 288.93753 289.65128 290.27936 291.12830
 366.78100 356.33300 345.76300 334.62701 323.02801 311.22001 299.08801 286.88901
 274.59902 262.49402 250.50102 239.80002 229.92002 221.02203 213.20203 206.20203
 200.03403 194.97004 191.55004 189.59004 188.62504 188.68704 189.52005 190.82605
 192.54905 194.64205 196.90305 199.26006 201.70306 204.18106 206.26706 208.10706
 209.73107 210.87407 211.10107 211.32707 211.26207 210.96508 210.59608 210.22408
 209.83908 209.54708 209.35309 209.21509 209.14109 209.47009 209.85410 210.24110
 211.03210 212.20810 213.45610 215.23711 217.16311 219.20411 221.29711 223.37811
 225.43612 227.51812 229.61312 231.71712 233.84412 236.01413 238.26813 240.63613
 243.25513 245.50413 247.50414 249.26714 250.68214 251.80314 252.62314 252.93715
 252.97215 252.74415 252.10215 251.04815 249.65216 247.81116 245.71816 243.54916
 241.33817 239.14017 236.95817 234.79517 232.65317 230.51818 228.54218 226.69718
 224.97818 223.44818 222.07619 220.84619 219.72619 218.68419 217.78619 216.92520
 216.16520 215.34320 214.43920 213.80120 213.24921 213.39206 213.72957 213.58698
 213.05226 213.58842 214.93512 216.81326 218.99603 222.11989 227.62801 232.13458
 235.95175 240.16838 244.63939 248.98141 252.75266 255.61807 257.85251 260.02750
 262.51086 265.17340 267.80402 270.22318 272.50244 274.58615 276.22784 277.74033
 279.46042 281.14270 282.69003 284.05710 285.24039 286.29147 287.25327 288.13016
 288.92422 289.63669 290.26553 291.11432
 366.78100 356.33407 345.76513 334.63020 323.03227 311.22533 299.09440 286.89647
 274.60754 262.50360 250.51167 239.81174 229.93280 221.03587 213.21694 206.21800
 200.05107 194.98814 191.56921 189.61027 188.64634 188.70941 189.54347 190.85054
 192.57461 194.66867 196.93074 199.28881 201.73288 204.21194 206.29901 208.14008
 209.76514 210.90921 211.13728 211.36434 211.30041 211.00448 210.63655 210.26561
 209.88168 209.59075 209.39781 209.26088 209.18795 209.51801 209.90308 210.29115
 211.08321 212.26028 213.50935 215.29142 217.21848 219.26055 221.35462 223.43668
 225.49575 227.57882 229.67488 231.77995 233.90802 236.07909 238.33415 240.70322
 243.32329 245.57335 247.57442 249.33849 250.75455 251.87662 252.69769 253.01276
 253.04882 252.82189 252.18096 251.12802 249.73309 247.89316 245.80122 243.63329
 241.42336 239.22643 237.04549 234.88356 232.74263 230.60869 228.63376 226.78983
 225.07189 223.54296 222.17203 220.94309 219.82416 218.78323 217.88630 217.02636
 216.26743 215.44650 214.54356 213.90663 213.35570 213.47623 213.76100 213.64082
 213.14868 213.67686 215.01306 216.85342 218.99507 222.10039 227.57875 232.08243
 235.92419 240.16992 244.64148 248.93806 252.61116 255.43082 257.66052 259.83215
 262.36826 265.07706 267.73230 270.19131 272.48657 274.56189 276.19144 277.70367
 279.43161 281.12646 282.67514 284.04019 285.22531 286.27502 287.23700 288.11505
 288.90784 289.62115 290.24637 291.09778
 366.78100 356.33523 345.76747 334.63370 323.03693 311.23117 299.10140 286.90463
 274.61687 262.51410 250.52333 239.82457 229.94680 221.05103 213.23327 206.23550
 200.06973 195.00797 191.59020 189.63243 188.66967 188.73390 189.56913 190.87737
 192.60260 194.69783 196.96107 199.32030 201.76553 204.24577 206.33400 208.17623
 209.80247 210.94770 211.17693 211.40517 211.34240 211.04763 210.68087 210.31110
 209.92833 209.63857 209.44680 209.31103 209.23927 209.57050 209.95673 210.34597
 211.13920 212.31743 213.56767 215.35090 217.27913 219.32237 221.41760 223.50083
 225.56107 227.64530 229.74253 231.84877 233.97800 236.15023 238.40647 240.77670
 243.39793 245.64917 247.65140 249.41663 250.83387 251.95710 252.77934 253.09557
 253.13280 252.90704 252.26727 251.21550 249.82174 247.98297 245.89220 243.72544
 241.51667 239.32090 237.14114 234.98037 232.84060 230.70784 228.73407 226.89130
 225.17454 223.64677 222.27700 221.04924 219.93147 218.89170 217.99594 217.13717
 216.37940 215.55964 214.65787 214.02210 213.47234 213.56636 213.78850 213.68628
 213.25124 213.76996 215.09981 216.89168 218.99547 222.08406 227.52620 232.03371
 235.90147 240.17340 244.63765 248.88234 252.45810 255.23506 257.46521 259.64264
 262.23178 264.98459 267.66183 270.15601 272.46426 274.53186 276.15134 277.66589
 279.39767 281.11136 282.66074 284.02670 285.21103 286.26190 287.22394 288.10168
 288.89923 289.61295 290.24289 291.09064
 366.78100 356.33645 345.76990 334.63735 323.04179 311.23724 299.10869 286.91314
 274.62659 262.52504 250.53549 239.83793 229.96138 221.06683 213.25028 206.25373
 200.08918 195.02863 191.61207 189.65552 188.69397 188.75942 189.59587 190.90532
 192.63177 194.72821 196.99266 199.35311 201.79956 204.28101 206.37046 208.21391
 209.84135 210.98780 211.21825 211.44770 211.38615 211.09260 210.72705 210.35849
 209.97694 209.68839 209.49784 209.36329 209.29274 209.62519 210.01263 210.40308
 211.19753 212.37698 213.62843 215.41288 217.34233 219.38677 221.48322 223.56767
 225.62912 227.71457 229.81302 231.92047 234.05091 236.22436 238.48181 240.85326
 243.47571 245.72816 247.73161 249.49805 250.91650 252.04095 252.86440 253.18185
 253.22030 252.99575 252.35719 251.30664 249.91409 248.07654 245.98699 243.82144
 241.61389 239.41933 237.24078 235.08123 232.94268 230.81113 228.83858 226.99703
 225.28147 223.75492 222.38637 221.15982 220.04327 219.00472 218.11017 217.25261
 216.49606 215.67751 214.77696 214.14241 213.59386 213.65935 213.81409 213.72360
 213.35965 213.86806 215.19437 216.93172 218.99721 222.06670 227.47040 231.98975
 235.88455 240.17778 244.62650 248.81105 252.29260 255.03049 257.26791 259.46317
 262.10547 264.89871 267.59595 270.11938 272.43735 274.49860 276.10971 277.62637
 279.35815 281.09082 282.64038 284.00641 285.18936 286.24057 287.20294 288.08057
 288.87747 289.59531 290.22165 291.06735
 366.78100 356.33768 345.77236 334.64104 323.04672 311.24340 299.11608 286.92177
 274.63645 262.53613 250.54781 239.85149 229.97617 221.08285 213.26753 206.27221
 200.10889 195.04957 191.63425 189.67893 188.71861 188.78530 189.62298 190.93366
 192.66134 194.75902 197.02470 199.38638 201.83406 204.31674 206.40742 208.25210
 209.88078 211.02846 211.26014 211.49083 211.43051 211.13819 210.77387 210.40655
 210.02623 209.73891 209.54959 209.41627 209.34695 209.68063 210.06931 210.46099
 211.25667 212.43736 213.69004 215.47572 217.40640 219.45208 221.54976 223.63544
 225.69812 227.78480 229.88448 231.99316 234.12484 236.29952 238.55820 240.93089
 243.55457 245.80825 247.81293 249.58061 251.00029 252.12597 252.95065 253.26933
 253.30901 253.08569 252.44837 251.39905 250.00773 248.17142 246.08310 243.91878
 241.71246 239.51914 237.34182 235.18350 233.04618 230.91586 228.94454 227.10422
 225.38990 223.86458 222.49726 221.27195 220.15663 219.11931 218.22599 217.36967
 216.61435 215.79703 214.89771 214.26439 213.71707 213.75310 213.83820 213.75079
 213.47641 213.96968 215.29082 216.97878 219.00124 222.04733 227.41327 231.94710
 235.86943 240.18098 244.60475 248.72131 252.11314 254.81671 257.06897 259.29434
 261.99036 264.82181 267.53714 270.08319 272.41003 274.46729 276.07394 277.59018
 279.32043 281.05762 282.60690 283.97156 285.15640 286.20605 287.16824 288.04501
 288.83792 289.55383 290.17938 291.02222
 366.78100 356.33912 345.77523 334.64535 323.05247 311.25058 299.12470 286.93181
 274.64793 262.54905 250.56216 239.86728 229.99340 221.10151 213.28763 206.29374
 200.13186 195.07398 191.66009 189.70621 188.74733 188.81544 189.65456 190.96667
 192.69579 194.79491 197.06202 199.42514 201.87426 204.35837 206.45049 208.29660
 209.92672 211.07584 211.30895 211.54107 211.48219 211.19130 210.82842 210.46253
 210.08365 209.79777 209.60988 209.47800 209.41012 209.74523 210.13535 210.52846
 211.32558 212.50770 213.76181 215.54893 217.48105 219.52816 221.62728 223.71439
 225.77851 227.86663 229.96774 232.07786 234.21098 236.38709 238.64721 241.02132
 243.64644 245.90156 247.90767 249.67679 251.09791 252.22502 253.05114 253.37125
 253.41237 253.19049 252.55460 251.50672 250.11684 248.28195 246.19507 244.03218
 241.82730 239.63542 237.45953 235.30265 233.16677 231.03788 229.06800 227.22911
 225.51623 223.99235 222.62646 221.40258 220.28870 219.25281 218.36093 217.50604
 216.75216 215.93628 215.03839 214.40651 213.86063 213.85683 213.84787 213.78349
 213.59363 214.07025 215.39055 217.03300 219.00700 222.02663 227.35452 231.90994
 235.85934 240.18539 244.57402 248.61539 251.92003 254.59189 256.86548 259.13474
 261.88528 264.75195 267.48489 270.04889 272.38275 274.43896 276.04282 277.55872
 279.28357 281.01108 282.56119 283.92621 285.10892 286.15866 287.12064 287.99689
 288.78842 289.50140 290.12524 290.96893
 366.78100 356.34049 345.77798 334.64947 323.05796 311.25745 299.13293 286.94142
 274.65891 262.56140 250.57589 239.88238 230.00987 221.11936 213.30685 206.31434
 200.15383 195.09731 191.68480 189.73229 188.77478 188.84427 189.68476 190.99825
 192.72874 194.82923 197.09772 199.46221 201.91269 204.39818 206.49167 208.33916
 209.97065 211.12114 211.35563 211.58912 211.53161 211.24210 210.88059 210.51607
 210.13856 209.85405 209.66754 209.53703 209.47052 209.80701 210.19850 210.59299
 211.39148 212.57497 213.83045 215.61894 217.55243 219.60092 221.70141 223.78990
 225.85539 227.94488 230.04737 232.15886 234.29335 236.47083 238.73232 241.10781
 243.73430 245.99079 247.99828 249.76877 251.19126 252.31975 253.14724 253.46873
 253.51121 253.29070 252.65619 251.60968 250.22117 248.38766 246.30215 244.14064
 241.93713 239.74662 237.57211 235.41659 233.28208 231.15457 229.18606 227.34855
 225.63704 224.11453 222.75002 221.52751 220.41500 219.38049 218.48997 217.63646
 216.88395 216.06944 215.17293 214.54242 213.99791 213.95702 213.86040 213.80310
 213.72830 214.16878 215.47847 217.08774 219.01675 222.01108 227.30344 231.87761
 235.85106 240.18698 244.53127 248.48811 251.71111 254.35674 256.66052 258.98718
 261.79279 264.69278 267.44141 270.01773 272.35736 274.41373 276.01852 277.53061
 279.24573 280.95401 282.50232 283.86652 285.05020 286.09964 287.06125 287.93619
 288.72839 289.44144 290.06647 290.90469
 366.78100 356.34240 345.78180 334.65520 323.06561 311.26701 299.14441 286.95481
 274.67421 262.57861 250.59501 239.90342 230.03282 221.14422 213.33362 206.34302
 200.18442 195.12983 191.71923 189.76863 188.81303 188.88443 189.72683 191.04223
 192.77464 194.87704 197.14744 199.51384 201.96624 204.45364 206.54904 208.39845
 210.03185 211.18425 211.42065 211.65605 211.60045 211.31285 210.95326 210.59066
 210.21506 209.93246 209.74786 209.61926 209.55467 209.89307 210.28647 210.68287
 211.48327 212.66867 213.92607 215.71648 217.65188 219.70228 221.80468 223.89508
 225.96248 228.05388 230.15829 232.27169 234.40809 236.58749 238.85089 241.22829
 243.85669 246.11510 248.12450 249.89690 251.32130 252.45170 253.28110 253.60451
 253.64891 253.43031 252.79771 251.75311 250.36651 248.53491 246.45132 244.29172
 242.09012 239.90152 237.72892 235.57532 233.44272 231.31713 229.35053 227.51493
 225.80533 224.28473 222.92213 221.70153 220.59094 219.55834 218.66974 217.81814
 217.06754 216.25494 215.36034 214.73175 214.18915 214.08342 213.83363 213.85527
 213.85953 214.25954 215.56453 217.15048 219.02275 221.98647 227.24614 231.84584
 235.84648 240.18762 244.48039 248.34822 251.49586 254.12112 256.46075 258.85333
 261.71146 264.64230 267.40384 269.98676 272.33099 274.38901 275.99487 277.50342
 279.20438 280.88971 282.43591 283.80069 284.98309 286.03183 286.99335 287.86841
 288.66092 289.37122 289.99832 290.83954
 366.78100 356.34427 345.78554 334.66081 323.07307 311.27634 299.15561 286.96788
 274.68915 262.59542 250.61368 239.92395 230.05522 221.16849 213.35976 206.37103
 200.21429 195.16156 191.75283 189.80410 188.85037 188.92364 189.76790 191.08517
 192.81944 194.92371 197.19598 199.56425 202.01851 204.50778 206.60505 208.45632
 210.09159 211.24586 211.48413 211.72139 211.66766 211.38193 211.02420 210.66347
 210.28974 210.00900 209.82627 209.69954 209.63681 209.97708 210.37235 210.77061
 211.57288 212.76015 214.01942 215.81169 217.74896 219.80122 221.90549 223.99776
 226.06703 228.16030 230.26657 232.38184 234.52010 236.70137 238.96664 241.34591
 243.97618 246.23645 248.24771 250.02198 251.44825 252.58052 253.41179 253.73706
 253.78332 253.56659 252.93586 251.89313 250.50840 248.67867 246.59693 244.43920
 242.23947 240.05274 237.88201 235.73028 233.59954 231.47581 229.51108 227.67735
 225.96962 224.45089 223.09016 221.87142 220.76269 219.73196 218.84523 217.99550
 217.24677 216.43603 215.54330 214.91657 214.37584 214.20760 213.81009 213.88268
 214.03241 214.34395 215.64017 217.18353 219.01816 221.97423 227.20702 231.82858
 235.85098 240.19159 244.42366 248.19479 251.26962 253.87593 256.25464 258.72372
 261.63596 264.59656 267.36948 269.95734 272.30627 274.36969 275.98190 277.48395
 279.16141 280.81900 282.36230 283.72644 284.90952 285.95834 286.91837 287.79465
 288.58652 289.29681 289.92407 290.75882
 366.78100 356.34514 345.78729 334.66343 323.07658 311.28072 299.16087 286.97401
 274.69616 262.60330 250.62245 239.93359 230.06574 221.17988 213.37203 206.38417
 200.22832 195.17646 191.76860 189.82075 188.86789 188.94204 189.78718 191.10533
 192.84047 194.94562 197.21876 199.58791 202.04305 204.53320 206.63134 208.48349
 210.11963 211.27478 211.51392 211.75206 211.69921 211.41435 211.05750 210.69764
 210.32479 210.04493 209.86308 209.73722 209.67537 210.01651 210.41266 210.81180
 211.61495 212.80309 214.06324 215.85638 217.79452 219.84767 221.95281 224.04596
 226.11610 228.21025 230.31739 232.43354 234.57268 236.75483 239.02097 241.40112
 244.03226 246.29341 248.30555 250.08070 251.50784 252.64098 253.47313 253.79927
 253.84642 253.63056 253.00071 251.95885 250.57500 248.74614 246.66529 244.50843
 242.30958 240.12372 237.95387 235.80301 233.67316 231.55030 229.58644 227.75359
 226.04673 224.52888 223.16902 221.95117 220.84331 219.81346 218.92760 218.07875
 217.33089 216.52104 215.62918 215.00333 214.46347 214.28304 213.85675 213.84039
 214.16046 214.51537 215.70840 217.23624 219.05002 221.93929 227.16359 231.81250
 235.85413 240.18810 244.35092 248.01933 251.02701 253.62112 256.04803 258.60443
 261.57086 264.56018 267.34390 269.93518 272.29047 274.36337 275.98425 277.47672
 279.12167 280.74496 282.28488 283.64856 284.83203 285.88116 286.84109 287.71490
 288.50717 289.21585 289.84525 290.67905
 366.78100 356.34615 345.78930 334.66645 323.08060 311.28575 299.16690 286.98105
 274.70420 262.61235 250.63250 239.94465 230.07780 221.19295 213.38610 206.39925
 200.24440 195.19355 191.78670 189.83985 188.88800 188.96315 189.80930 191.12845
 192.86460 194.97075 197.24490 199.61505 202.07120 204.56235 206.66150 208.51465
 210.15180 211.30795 211.54810 211.78725 211.73540 211.45155 211.09570 210.73685
 210.36500 210.08615 209.90530 209.78045 209.71960 210.06175 210.45890 210.85905
 211.66321 212.85236 214.11351 215.90766 217.84681 219.90096 222.00711 224.10126
 226.17241 228.26756 230.37571 232.49286 234.63301 236.81616 239.08331 241.46446
 244.09661 246.35876 248.37191 250.14806 251.57621 252.71036 253.54351 253.87066
 253.91881 253.70396 253.07511 252.03426 250.65141 248.82356 246.74371 244.58786
 242.39001 240.20516 238.03631 235.88646 233.75761 231.63576 229.67291 227.84106
 226.13521 224.61836 223.25951 222.04266 220.93581 219.90696 219.02211 218.17426
 217.42741 216.61856 215.72771 215.10286 214.56401 214.36330 213.88910 213.83685
 214.26564 214.64114 215.75363 217.30869 219.07169 221.91653 227.12129 231.79814
 235.86038 240.18372 244.27351 247.84012 250.79089 253.37981 255.85831 258.50385
 261.52103 264.53394 267.32532 269.91611 272.27600 274.35834 275.99008 277.47241
 279.08215 280.66946 282.20419 283.56860 284.75085 285.80032 286.75970 287.63428
 288.42532 289.13718 289.76498 290.59711
 366.78100 356.34738 345.79176 334.67014 323.08552 311.29189 299.17427 286.98965
 274.71403 262.62341 250.64479 239.95817 230.09255 221.20893 213.40330 206.41768
 200.26406 195.21444 191.80882 189.86320 188.91258 188.98896 189.83634 191.15671
 192.89409 195.00147 197.27685 199.64823 202.10561 204.59799 206.69837 208.55275
 210.19112 211.34850 211.58988 211.83026 211.77964 211.49702 211.14240 210.78478
 210.41416 210.13653 209.95691 209.83329 209.77367 210.11705 210.51543 210.91681
 211.72219 212.91257 214.17494 215.97032 217.91070 219.96608 222.07346 224.16884
 226.24122 228.33760 230.44698 232.56535 234.70673 236.89111 239.15949 241.54187
 244.17525 246.43863 248.45301 250.23039 251.65976 252.79514 253.62952 253.95790
 254.00728 253.79366 253.16604 252.12642 250.74480 248.91818 246.83955 244.68493
 242.48831 240.30469 238.13707 235.98845 233.86083 231.74021 229.77859 227.94796
 226.24334 224.72772 223.37010 222.15448 221.04886 220.02124 219.13762 218.29100
 217.54537 216.73775 215.84813 215.22451 214.68689 214.45314 213.90088 213.86792
 214.36304 214.73120 215.79393 217.38702 219.08359 221.90735 227.08331 231.78859
 235.87218 240.18242 244.19669 247.66255 250.56259 253.14795 255.67644 258.41156
 261.47522 264.50797 267.30496 269.89169 272.25684 274.34970 275.99310 277.46704
 279.04251 280.59470 282.12381 283.48907 284.67062 285.71884 286.67908 287.55365
 288.34512 289.05420 289.68326 290.51590
 366.78100 356.34842 345.79384 334.67326 323.08968 311.29710 299.18052 286.99694
 274.72236 262.63277 250.65519 239.96961 230.10503 221.22245 213.41787 206.43329
 200.28071 195.23213 191.82755 189.88297 188.93339 189.01081 189.85923 191.18065
 192.91907 195.02748 197.30390 199.67632 202.13474 204.62816 206.72958 208.58500
 210.22442 211.38284 211.62526 211.86668 211.81710 211.53552 211.18194 210.82536
 210.45578 210.17920 210.00061 209.87803 209.81945 210.16387 210.56329 210.96571
 211.77213 212.96355 214.22697 216.02339 217.96481 220.02123 222.12965 224.22607
 226.29949 228.39691 230.50732 232.62674 234.76916 236.95458 239.22400 241.60742
 244.24184 246.50626 248.52168 250.30010 251.73052 252.86694 253.70236 254.03178
 254.08220 253.86962 253.24304 252.20445 250.82387 248.99829 246.92071 244.76713
 242.57155 240.38897 238.22239 236.07481 233.94823 231.82865 229.86807 228.03849
 226.33491 224.82033 223.46375 222.24916 221.14458 220.11800 219.23542 218.38984
 217.64526 216.83868 215.95010 215.32752 214.79094 214.53134 213.91805 213.90544
 214.45222 214.81120 215.82794 217.44894 219.10730 221.90854 227.05190 231.78568
 235.88759 240.18127 244.11607 247.47974 250.33243 252.91460 255.49440 258.32068
 261.43008 264.48071 267.28104 269.86359 272.23550 274.34186 275.99957 277.46857
 279.00745 280.52383 282.04709 283.41080 284.59393 285.64044 286.60184 287.47690
 288.26773 288.97809 289.60696 290.43323
 366.78100 356.34915 345.79530 334.67544 323.09259 311.30074 299.18489 287.00204
 274.72819 262.63933 250.66248 239.97763 230.11378 221.23193 213.42808 206.44422
 200.29237 195.24452 191.84067 189.89682 188.94797 189.02611 189.87526 191.19741
 192.93656 195.04571 197.32286 199.69600 202.15515 204.64930 206.75145 208.60760
 210.24775 211.40689 211.65004 211.89219 211.84334 211.56249 211.20964 210.85378
 210.48493 210.20908 210.03123 209.90938 209.85153 210.19667 210.59682 210.99997
 211.80712 212.99927 214.26342 216.06056 218.00271 220.05986 222.16901 224.26616
 226.34031 228.43845 230.54960 232.66975 234.81290 236.99905 239.26919 241.65334
 244.28849 246.55364 248.56979 250.34894 251.78008 252.91723 253.75338 254.08353
 254.13468 253.92283 253.29697 252.25912 250.87927 249.05442 246.97757 244.82472
 242.62986 240.44801 238.28216 236.13531 234.00946 231.89061 229.93075 228.10190
 226.39905 224.88520 223.52935 222.31550 221.21164 220.18579 219.30394 218.45909
 217.71524 216.90939 216.02153 215.39968 214.86383 214.59190 213.94946 213.94427
 214.53500 214.89050 215.85841 217.49046 219.14011 221.91743 227.02586 231.78983
 235.90546 240.17650 244.02815 247.28951 250.09940 252.68169 255.31453 258.23306
 261.38736 264.45334 267.25720 269.83582 272.21347 274.33627 276.01111 277.47833
 278.98035 280.46158 281.97549 283.33939 284.52066 285.56906 286.52902 287.40485
 288.19550 288.90570 289.53424 290.36081
 366.78100 356.34961 345.79621 334.67682 323.09442 311.30303 299.18763 287.00524
 274.73184 262.64345 250.66705 239.98266 230.11926 221.23787 213.43447 206.45108
 200.29968 195.25229 191.84889 189.90550 188.95710 189.03571 189.88531 191.20792
 192.94752 195.05713 197.33473 199.70834 202.16794 204.66255 206.76515 208.62176
 210.26236 211.42197 211.66557 211.90818 211.85978 211.57939 211.22699 210.87160
 210.50320 210.22781 210.05041 209.92902 209.87162 210.21723 210.61783 211.02144
 211.82904 213.02165 214.28625 216.08386 218.02646 220.08407 222.19367 224.29128
 226.36588 228.46449 230.57609 232.69670 234.84030 237.02691 239.29751 241.68212
 244.31772 246.58333 248.59993 250.37954 251.81114 252.94875 253.78535 254.11596
 254.16756 253.95617 253.33077 252.29338 250.91398 249.08959 247.01319 244.86080
 242.66640 240.48501 238.31961 236.17322 234.04782 231.92943 229.97003 228.14164
 226.43924 224.92585 223.57045 222.35706 221.25366 220.22827 219.34687 218.50248
 217.75908 216.95369 216.06629 215.44490 214.90950 214.63646 213.99135 213.98665
 214.61200 214.96324 215.88933 217.51868 219.17380 221.92734 227.00908 231.79919
 235.92131 240.16414 243.93007 247.09218 249.86710 252.45546 255.14259 258.15186
 261.34717 264.42566 267.23093 269.80591 272.19080 274.32962 276.02414 277.49371
 278.96375 280.40887 281.91147 283.27390 284.45740 285.50549 286.46573 287.34131
 288.13095 288.84213 289.46985 290.29977
 366.78100 356.34990 345.79681 334.67771 323.09562 311.30452 299.18943 287.00733
 274.73424 262.64614 250.67005 239.98595 230.12286 221.24176 213.43867 206.45557
 200.30447 195.25738 191.85428 189.91119 188.96309 189.04200 189.89190 191.21481
 192.95471 195.06462 197.34252 199.71643 202.17633 204.67124 206.77414 208.63105
 210.27195 211.43185 211.67576 211.91866 211.87057 211.59047 211.23838 210.88328
 210.51519 210.24009 210.06300 209.94190 209.88481 210.23071 210.63162 211.03552
 211.84342 213.03633 214.30123 216.09914 218.04204 220.09995 222.20985 224.30776
 226.38266 228.48157 230.59347 232.71438 234.85828 237.04519 239.31609 241.70100
 244.33690 246.60280 248.61971 250.39961 251.83152 252.96942 253.80633 254.13723
 254.18914 253.97804 253.35295 252.31585 250.93676 249.11266 247.03657 244.88447
 242.69037 240.50928 238.34418 236.19809 234.07299 231.95490 229.99580 228.16771
 226.46561 224.95252 223.59742 222.38433 221.28123 220.25614 219.37504 218.53094
 217.78785 216.98275 216.09566 215.47456 214.93947 214.67101 214.03673 214.03520
 214.68796 215.02954 215.92630 217.54855 219.18942 221.93674 226.99306 231.80861
 235.93320 240.14302 243.82507 246.89586 249.64409 252.24203 254.98180 258.07556
 261.30789 264.39526 267.19949 269.77161 272.16476 274.32126 276.03448 277.51160
 278.95731 280.36923 281.85956 283.22122 284.40308 285.45276 286.41302 287.28772
 288.07819 288.78891 289.41641 290.24420
 366.78100 356.35009 345.79718 334.67828 323.09637 311.30546 299.19055 287.00865
 274.73574 262.64783 250.67192 239.98802 230.12511 221.24420 213.44129 206.45839
 200.30748 195.26057 191.85766 189.91475 188.96685 189.04594 189.89603 191.21912
 192.95922 195.06931 197.34740 199.72149 202.18159 204.67668 206.77977 208.63686
 210.27796 211.43805 211.68214 211.92523 211.87733 211.59742 211.24551 210.89060
 210.52269 210.24779 210.07088 209.94997 209.89306 210.23916 210.64025 211.04434
 211.85243 213.04553 214.31062 216.10871 218.05180 220.10990 222.21999 224.31808
 226.39317 228.49226 230.60436 232.72545 234.86954 237.05663 239.32773 241.71282
 244.34891 246.61500 248.63210 250.41219 251.84428 252.98237 253.81947 254.15056
 254.20265 253.99174 253.36684 252.32993 250.95102 249.12711 247.05120 244.89930
 242.70539 240.52448 238.35957 236.21367 234.08876 231.97085 230.01194 228.18404
 226.48213 224.96922 223.61431 222.40141 221.29850 220.27359 219.39268 218.54877
 217.80587 217.00096 216.11405 215.49314 214.95824 214.69795 214.08299 214.08850
 214.76419 215.09573 215.96291 217.57018 219.19273 221.94516 226.98618 231.82211
 235.94328 240.11752 243.71799 246.70366 249.42892 252.03758 254.82689 257.99911
 261.26358 264.35641 267.15936 269.73260 272.13654 274.31161 276.04465 277.52994
 278.95938 280.34540 281.82080 283.18271 284.36508 285.41397 286.37460 287.24994
 288.04022 288.74927 289.37799 290.20593
 366.78100 356.35015 345.79729 334.67844 323.09658 311.30573 299.19088 287.00902
 274.73617 262.64831 250.67246 239.98861 230.12575 221.24490 213.44204 206.45919
 200.30833 195.26148 191.85863 189.91577 188.96792 189.04706 189.89721 191.22036
 192.96050 195.07065 197.34879 199.72294 202.18309 204.67823 206.78138 208.63852
 210.27967 211.43982 211.68396 211.92711 211.87925 211.59940 211.24755 210.89269
 210.52484 210.24998 210.07313 209.95227 209.89542 210.24157 210.64271 211.04686
 211.85500 213.04815 214.31330 216.11144 218.05459 220.11273 222.22288 224.32103
 226.39617 228.49532 230.60746 232.72861 234.87276 237.05990 239.33105 241.71619
 244.35234 246.61849 248.63563 250.41578 251.84792 252.98607 253.82321 254.15436
 254.20651 253.99565 253.37080 252.33394 250.95509 249.13124 247.05538 244.90353
 242.70967 240.52882 238.36397 236.21811 234.09326 231.97540 230.01655 228.18870
 226.48684 224.97399 223.61913 222.40628 221.30343 220.27857 219.39772 218.55386
 217.81101 217.00615 216.11930 215.49845 214.96359 214.71614 214.13148 214.14790
 214.83400 215.17033 216.00009 217.58237 219.20128 221.95413 226.99316 231.84216
 235.94951 240.08212 243.60042 246.50383 249.20982 251.83292 254.67398 257.92001
 261.21387 264.30984 267.11136 269.69073 272.10925 274.30453 276.06006 277.55777
 278.97369 280.34006 281.79742 283.15881 284.34091 285.39270 286.35190 287.22540
 288.01746 288.72757 289.35297 290.18286
 366.78100 356.35014 345.79728 334.67843 323.09657 311.30571 299.19085 287.00900
 274.73614 262.64828 250.67242 239.98856 230.12571 221.24485 213.44199 206.45913
 200.30828 195.26142 191.85856 189.91570 188.96785 189.04699 189.89713 191.22027
 192.96041 195.07056 197.34870 199.72284 202.18298 204.67813 206.78127 208.63841
 210.27955 211.43969 211.68384 211.92698 211.87912 211.59926 211.24741 210.89255
 210.52469 210.24983 210.07298 209.95212 209.89526 210.24140 210.64254 211.04669
 211.85483 213.04797 214.31311 216.11126 218.05440 220.11254 222.22268 224.32082
 226.39597 228.49511 230.60725 232.72839 234.87254 237.05968 239.33082 241.71596
 244.35210 246.61825 248.63539 250.41553 251.84767 252.98582 253.82296 254.15410
 254.20624 253.99539 253.37053 252.33367 250.95481 249.13095 247.05510 244.90324
 242.70938 240.52852 238.36367 236.21781 234.09295 231.97509 230.01623 228.18838
 226.48652 224.97366 223.61880 222.40595 221.30309 220.27823 219.39737 218.55352
 217.81066 217.00580 216.11894 215.49808 214.96323 214.72940 214.17694 214.21970
 214.89351 215.24643 216.05150 217.59756 219.21568 221.96492 227.00452 231.86153
 235.94893 240.03320 243.46576 246.29181 248.98410 251.62917 254.52621 257.84164
 261.16202 264.25806 267.05923 269.64835 272.08429 274.30209 276.08282 277.59528
 279.00562 280.36035 281.78928 283.14789 284.33212 285.38245 286.34225 287.21774
 288.01022 288.71777 289.34589 290.17337
 366.78100 356.34993 345.79686 334.67778 323.09571 311.30464 299.18957 287.00749
 274.73442 262.64635 250.67028 239.98620 230.12313 221.24206 213.43899 206.45591
 200.30484 195.25777 191.85470 189.91162 188.96355 189.04248 189.89241 191.21533
 192.95526 195.06519 197.34312 199.71704 202.17697 204.67190 206.77483 208.63175
 210.27268 211.43261 211.67654 211.91947 211.87139 211.59132 211.23925 210.88418
 210.51610 210.24103 210.06396 209.94289 209.88581 210.23174 210.63267 211.03660
 211.84452 213.03745 214.30238 216.10031 218.04323 220.10116 222.21109 224.30902
 226.38394 228.48287 230.59480 232.71573 234.85965 237.04658 239.31751 241.70244
 244.33836 246.60429 248.62122 250.40115 251.83307 252.97100 253.80793 254.13886
 254.19079 253.97971 253.35464 252.31757 250.93850 249.11442 247.03835 244.88628
 242.69221 240.51113 238.34606 236.19999 234.07492 231.95684 229.99777 228.16970
 226.46763 224.95455 223.59948 222.38641 221.28334 220.25826 219.37719 218.53312
 217.79005 216.98497 216.09790 215.47683 214.94176 214.72998 214.22966 214.28740
 214.95544 215.33167 216.10434 217.61458 219.23517 221.98413 227.01491 231.87573
 235.94014 239.96802 243.31277 246.06767 248.75507 251.43172 254.38930 257.76801
 261.11057 264.20401 267.00464 269.60495 272.06079 274.30154 276.10587 277.63498
 279.04333 280.39056 281.79843 283.15543 284.34091 285.39130 286.35367 287.22748
 288.01868 288.72885 289.35507 290.18304
 366.78100 356.34978 345.79656 334.67734 323.09512 311.30390 299.18867 287.00645
 274.73323 262.64501 250.66879 239.98457 230.12135 221.24013 213.43691 206.45369
 200.30247 195.25524 191.85202 189.90880 188.96058 189.03936 189.88914 191.21192
 192.95170 195.06148 197.33926 199.71304 202.17281 204.66759 206.77037 208.62715
 210.26793 211.42771 211.67149 211.91427 211.86605 211.58583 211.23361 210.87839
 210.51016 210.23494 210.05772 209.93650 209.87928 210.22506 210.62584 211.02962
 211.83740 213.03018 214.29496 216.09273 218.03551 220.09329 222.20307 224.30085
 226.37563 228.47441 230.58619 232.70697 234.85075 237.03753 239.30830 241.69308
 244.32886 246.59464 248.61142 250.39120 251.82298 252.96076 253.79754 254.12832
 254.18010 253.96887 253.34365 252.30643 250.92721 249.10299 247.02677 244.87455
 242.68033 240.49911 238.33389 236.18767 234.06244 231.94422 229.98500 228.15678
 226.45456 224.94134 223.58612 222.37290 221.26968 220.24446 219.36324 218.51901
 217.77579 216.97057 216.08335 215.46213 214.92691 214.73160 214.27019 214.36903
 215.01036 215.41635 216.18030 217.64072 219.25351 221.99571 227.01859 231.88451
 235.92371 239.88887 243.14693 245.83972 248.53148 251.24667 254.26576 257.70093
 261.05896 264.14609 266.94556 269.55801 272.03616 274.29959 276.12741 277.67291
 279.08249 280.42358 281.82080 283.17822 284.36453 285.41437 286.37817 287.25174
 288.04312 288.75446 289.37735 290.20950
 366.78100 356.34950 345.79600 334.67650 323.09400 311.30250 299.18700 287.00450
 274.73100 262.64250 250.66600 239.98151 230.11801 221.23651 213.43301 206.44951
 200.29801 195.25051 191.84701 189.90351 188.95501 189.03351 189.88301 191.20551
 192.94501 195.05451 197.33201 199.70551 202.16501 204.65951 206.76201 208.61851
 210.25902 211.41852 211.66202 211.90452 211.85602 211.57552 211.22302 210.86752
 210.49902 210.22352 210.04602 209.92452 209.86702 210.21252 210.61302 211.01652
 211.82402 213.01652 214.28102 216.07852 218.02102 220.07853 222.18803 224.28553
 226.36003 228.45853 230.57003 232.69053 234.83403 237.02053 239.29103 241.67553
 244.31103 246.57653 248.59303 250.37253 251.80403 252.94153 253.77803 254.10853
 254.16003 253.94853 253.32304 252.28554 250.90604 249.08154 247.00504 244.85254
 242.65804 240.47654 238.31104 236.16454 234.03904 231.92054 229.96104 228.13254
 226.43004 224.91654 223.56104 222.34754 221.24404 220.21854 219.33704 218.49255
 217.74905 216.94355 216.05605 215.43455 214.89905 214.72539 214.31511 214.43605
 215.09044 215.50967 216.24045 217.66148 219.27588 222.03075 227.03178 231.89240
 235.90300 239.79623 242.96626 245.60378 248.30521 251.06502 254.14804 257.63327
 261.00150 264.08014 266.87854 269.50793 272.01144 274.29892 276.15131 277.71402
 279.12622 280.46176 281.85663 283.21384 284.40082 285.45346 286.41586 287.29047
 288.08075 288.79156 289.41818 290.24203
 366.78100 356.34880 345.79460 334.67440 323.09119 311.29899 299.18279 286.99959
 274.72539 262.63619 250.65898 239.97378 230.10958 221.22738 213.42318 206.43898
 200.28677 195.23857 191.83437 189.89017 188.94097 189.01877 189.86757 191.18936
 192.92816 195.03696 197.31376 199.68656 202.14536 204.63915 206.74095 208.59675
 210.23655 211.39535 211.63815 211.87994 211.83074 211.54954 211.19634 210.84014
 210.47094 210.19474 210.01653 209.89433 209.83613 210.18093 210.58073 210.98353
 211.79032 212.98212 214.24592 216.04272 217.98452 220.04132 222.15011 224.24691
 226.32071 228.41851 230.52931 232.64911 234.79191 236.97770 239.24750 241.63130
 244.26610 246.53090 248.54670 250.32549 251.75629 252.89309 253.72889 254.05869
 254.10949 253.89728 253.27108 252.23288 250.85268 249.02748 246.95028 244.79708
 242.60187 240.41967 238.25347 236.10627 233.98007 231.86087 229.90066 228.07146
 226.36826 224.85406 223.49786 222.28366 221.17945 220.15325 219.27105 218.42585
 217.68165 216.87545 215.98725 215.36504 214.82884 214.69698 214.38541 214.47166
 215.15421 215.64168 216.36200 217.72475 219.30688 222.02284 227.03244 231.88835
 235.86327 239.67407 242.75771 245.35196 248.07404 250.88824 254.03917 257.56921
 260.94385 264.01273 266.81326 269.46274 271.99118 274.30466 276.18478 277.76593
 279.18246 280.50970 281.90207 283.25925 284.44702 285.50089 286.46341 287.33826
 288.12958 288.83929 289.46609 290.28812
 366.78100 356.34813 345.79326 334.67240 323.08853 311.29566 299.17879 286.99492
 274.72005 262.63019 250.65232 239.96645 230.10158 221.21871 213.41384 206.42898
 200.27611 195.22724 191.82237 189.87750 188.92764 189.00477 189.85290 191.17403
 192.91216 195.02029 197.29643 199.66856 202.12669 204.61982 206.72095 208.57608
 210.21522 211.37335 211.61548 211.85661 211.80674 211.52488 211.17101 210.81414
 210.44427 210.16740 209.98853 209.86567 209.80680 210.15093 210.55006 210.95219
 211.75832 212.94946 214.21259 216.00872 217.94985 220.00598 222.11412 224.21025
 226.28338 228.38051 230.49064 232.60977 234.75191 236.93704 239.20617 241.58930
 244.22343 246.48756 248.50270 250.28083 251.71096 252.84709 253.68222 254.01136
 254.06149 253.84862 253.22175 252.18288 250.80201 248.97615 246.89828 244.74441
 242.54854 240.36567 238.19880 236.05094 233.92407 231.80420 229.84333 228.01346
 226.30960 224.79473 223.43786 222.22299 221.11812 220.09125 219.20839 218.36252
 217.61765 216.81078 215.92191 215.29904 214.76218 214.66823 214.44624 214.53212
 215.18286 215.75185 216.49181 217.76596 219.32014 222.06372 227.03441 231.87367
 235.81601 239.54453 242.55026 245.11366 247.86317 250.73495 253.94955 257.51553
 260.89160 263.94943 266.75058 269.42010 271.97293 274.31082 276.21735 277.81830
 279.24088 280.56494 281.95175 283.30914 284.49792 285.55261 286.51437 287.39044
 288.18195 288.89310 289.51569 290.34000
 366.78100 356.34782 345.79263 334.67145 323.08726 311.29408 299.17690 286.99271
 274.71753 262.62734 250.64916 239.96298 230.09779 221.21461 213.40942 206.42424
 200.27106 195.22187 191.81669 189.87151 188.92132 188.99814 189.84595 191.16677
 192.90459 195.01240 197.28822 199.66003 202.11785 204.61067 206.71148 208.56630
 210.20511 211.36293 211.60475 211.84556 211.79538 211.51319 211.15901 210.80183
 210.43164 210.15446 209.97527 209.85209 209.79291 210.13672 210.53554 210.93735
 211.74317 212.93399 214.19680 215.99262 217.93344 219.98925 222.09707 224.19288
 226.26570 228.36252 230.47233 232.59115 234.73296 236.91778 239.18660 241.56941
 244.20323 246.46704 248.48186 250.25968 251.68949 252.82531 253.66012 253.98894
 254.03876 253.82557 253.19839 252.15920 250.77802 248.95184 246.87365 244.71947
 242.52328 240.34010 238.17292 236.02473 233.89755 231.77737 229.81618 227.98600
 226.28181 224.76663 223.40945 222.19426 221.08908 220.06189 219.17871 218.33253
 217.58734 216.78016 215.89097 215.26779 214.73061 214.65468 214.47530 214.63063
 215.21135 215.83585 216.61488 217.80713 219.31947 222.11304 227.04115 231.86160
 235.76961 239.41792 242.35297 244.89212 247.67073 250.59990 253.87198 257.46591
 260.83829 263.88208 266.68253 269.37244 271.94943 274.31146 276.24249 277.86469
 279.29761 280.62424 282.00204 283.35806 284.54782 285.60330 286.56741 287.44003
 288.23166 288.94046 289.56494 290.38947
 366.78100 356.34775 345.79251 334.67126 323.08702 311.29377 299.17653 286.99228
 274.71704 262.62679 250.64855 239.96230 230.09706 221.21381 213.40857 206.42332
 200.27008 195.22083 191.81558 189.87034 188.92009 188.99685 189.84460 191.16536
 192.90311 195.01087 197.28662 199.65838 202.11613 204.60889 206.70964 208.56440
 210.20315 211.36091 211.60266 211.84342 211.79317 211.51092 211.15668 210.79943
 210.42919 210.15194 209.97270 209.84945 209.79021 210.13396 210.53272 210.93447
 211.74023 212.93098 214.19374 215.98949 217.93025 219.98600 222.09375 224.18951
 226.26226 228.35902 230.46877 232.58753 234.72928 236.91404 239.18279 241.56555
 244.19930 246.46306 248.47781 250.25557 251.68532 252.82108 253.65583 253.98459
 254.03434 253.82109 253.19385 252.15460 250.77336 248.94711 246.86887 244.71462
 242.51838 240.33513 238.16789 236.01964 233.89240 231.77215 229.81091 227.98066
 226.27642 224.76117 223.40392 222.18868 221.08343 220.05619 219.17294 218.32670
 217.58145 216.77421 215.88496 215.26172 214.72447 214.65222 214.48149 214.74071
 215.25969 215.91614 216.72922 217.86050 219.31245 222.14734 227.05386 231.85402
 235.72304 239.28935 242.15610 244.67601 247.48543 250.47235 253.79958 257.41525
 260.77982 263.80811 266.60895 269.32034 271.92178 274.30719 276.26013 277.90424
 279.35031 280.68311 282.05588 283.41165 284.60376 285.65906 286.62378 287.49838
 288.29132 289.00143 289.62665 290.44809
 366.78100 356.34771 345.79242 334.67113 323.08684 311.29355 299.17627 286.99198
 274.71669 262.62640 250.64811 239.96182 230.09653 221.21324 213.40795 206.42266
 200.26937 195.22009 191.81480 189.86951 188.91922 188.99593 189.84364 191.16435
 192.90206 195.00977 197.28548 199.65720 202.11491 204.60762 206.70833 208.56304
 210.20175 211.35946 211.60117 211.84188 211.79159 211.50930 211.15502 210.79773
 210.42744 210.15015 209.97086 209.84757 209.78828 210.13199 210.53070 210.93241
 211.73812 212.92884 214.19155 215.98726 217.92797 219.98368 222.09139 224.18710
 226.25981 228.35652 230.46623 232.58494 234.72666 236.91137 239.18008 241.56279
 244.19650 246.46021 248.47492 250.25263 251.68234 252.81805 253.65276 253.98148
 254.03119 253.81790 253.19061 252.15132 250.77003 248.94374 246.86545 244.71116
 242.51487 240.33159 238.16430 236.01601 233.88872 231.76843 229.80714 227.97685
 226.27256 224.75727 223.39998 222.18469 221.07941 220.05212 219.16883 218.32254
 217.57725 216.76996 215.88067 215.25738 214.72009 214.65002 214.48450 214.83823
 215.33336 216.01144 216.83728 217.91699 219.30577 222.16356 227.07150 231.84813
 235.67133 239.15195 241.95222 244.45995 247.30421 250.35126 253.73251 257.36426
 260.71835 263.73257 266.53665 269.27036 271.89615 274.30249 276.27615 277.94055
 279.39728 280.73367 282.11008 283.46796 284.65912 285.71722 286.68039 287.55685
 288.34961 289.05783 289.68460 290.50467
 366.78100 356.34760 345.79220 334.67079 323.08639 311.29299 299.17559 286.99119
 274.71578 262.62538 250.64698 239.96058 230.09518 221.21177 213.40637 206.42097
 200.26757 195.21817 191.81276 189.86736 188.91696 188.99356 189.84116 191.16175
 192.89935 195.00695 197.28255 199.65415 202.11174 204.60434 206.70494 208.55954
 210.19814 211.35573 211.59733 211.83793 211.78753 211.50513 211.15072 210.79332
 210.42292 210.14552 209.96612 209.84271 209.78331 210.12691 210.52551 210.92711
 211.73270 212.92330 214.18590 215.98150 217.92210 219.97769 222.08529 224.18089
 226.25349 228.35009 230.45968 232.57828 234.71988 236.90448 239.17308 241.55567
 244.18927 246.45287 248.46747 250.24507 251.67466 252.81026 253.64486 253.97346
 254.02306 253.80965 253.18225 252.14285 250.76145 248.93505 246.85664 244.70224
 242.50584 240.32244 238.15504 236.00664 233.87923 231.75883 229.79743 227.96703
 226.26263 224.74722 223.38982 222.17442 221.06902 220.04162 219.15821 218.31181
 217.56641 216.75901 215.86961 215.24620 214.70880 214.64401 214.49095 214.91832
 215.42686 216.11868 216.94168 217.96992 219.30653 222.16951 227.09099 231.83920
 235.61119 239.00562 241.74352 244.24612 247.12866 250.23741 253.66972 257.31372
 260.65518 263.65695 266.46637 269.22302 271.87277 274.29816 276.29233 277.97577
 279.44040 280.77930 282.15872 283.51724 284.70813 285.76572 286.73074 287.60565
 288.39874 289.10806 289.73071 290.55228
 366.78100 356.34757 345.79213 334.67070 323.08627 311.29283 299.17540 286.99096
 274.71553 262.62510 250.64666 239.96023 230.09480 221.21136 213.40593 206.42050
 200.26706 195.21763 191.81220 189.86676 188.91633 188.99289 189.84046 191.16103
 192.89859 195.00616 197.28173 199.65329 202.11086 204.60343 206.70399 208.55856
 210.19713 211.35469 211.59626 211.83682 211.78639 211.50396 211.14952 210.79209
 210.42166 210.14422 209.96479 209.84136 209.78192 210.12549 210.52406 210.92562
 211.73119 212.92175 214.18432 215.97989 217.92045 219.97602 222.08359 224.17915
 226.25172 228.34829 230.45785 232.57642 234.71799 236.90255 239.17112 241.55368
 244.18725 246.45082 248.46538 250.24295 251.67252 252.80808 253.64265 253.97122
 254.02078 253.80735 253.17992 252.14048 250.75905 248.93261 246.85418 244.69975
 242.50331 240.31988 238.15245 236.00401 233.87658 231.75615 229.79471 227.96428
 226.25985 224.74441 223.38698 222.17154 221.06611 220.03868 219.15524 218.30881
 217.56338 216.75594 215.86651 215.24308 214.70564 214.64171 214.49065 214.99837
 215.53200 216.22420 217.04330 218.02292 219.31769 222.17596 227.10944 231.82730
 235.54442 238.85297 241.53357 244.03886 246.96272 250.13235 253.61185 257.26251
 260.58865 263.57901 266.39572 269.17505 271.84753 274.28986 276.30188 278.00305
 279.47992 280.82114 282.19843 283.55621 284.74835 285.80676 286.77032 287.64612
 288.43781 289.14676 289.76898 290.58710
 366.78100 356.34767 345.79234 334.67101 323.08667 311.29334 299.17601 286.99168
 274.71635 262.62602 250.64769 239.96135 230.09602 221.21269 213.40736 206.42203
 200.26870 195.21936 191.81403 189.86870 188.91837 188.99504 189.84271 191.16338
 192.90104 195.00871 197.28438 199.65605 202.11372 204.60639 206.70706 208.56172
 210.20039 211.35806 211.59973 211.84040 211.79007 211.50773 211.15340 210.79607
 210.42574 210.14841 209.96908 209.84575 209.78641 210.13008 210.52875 210.93042
 211.73609 212.92676 214.18943 215.98509 217.92576 219.98143 222.08910 224.18477
 226.25744 228.35410 230.46377 232.58244 234.72411 236.90878 239.17745 241.56012
 244.19378 246.45745 248.47212 250.24979 251.67946 252.81513 253.64980 253.97846
 254.02813 253.81480 253.18747 252.14814 250.76681 248.94048 246.86214 244.70781
 242.51148 240.32815 238.16082 236.01249 233.88515 231.76482 229.80349 227.97316
 226.26883 224.75350 223.39617 222.18083 221.07550 220.04817 219.16484 218.31851
 217.57318 216.76585 215.87651 215.25318 214.71585 214.64561 214.47971 215.08032
 215.64322 216.32843 217.14737 218.07883 219.33769 222.18488 227.12294 231.80960
 235.47128 238.69624 241.32681 243.84219 246.80925 250.03751 253.55801 257.20941
 260.51862 263.49792 266.32404 269.12546 271.81775 274.27411 276.30228 278.02164
 279.50992 280.85876 282.22809 283.58658 284.77753 285.83649 286.80002 287.67480
 288.46436 289.17523 289.79449 290.61768
 366.78100 356.34791 345.79281 334.67172 323.08762 311.29453 299.17743 286.99334
 274.71824 262.62815 250.65005 239.96396 230.09886 221.21577 213.41067 206.42558
 200.27249 195.22339 191.81830 189.87320 188.92311 189.00001 189.84792 191.16882
 192.90673 195.01463 197.29054 199.66244 202.12035 204.61325 206.71416 208.56907
 210.20797 211.36588 211.60778 211.84869 211.79859 211.51650 211.16240 210.80531
 210.43521 210.15812 209.97902 209.85593 209.79683 210.14074 210.53964 210.94155
 211.74746 212.93836 214.20127 215.99717 217.93808 219.99398 222.10189 224.19779
 226.27070 228.36760 230.47751 232.59641 234.73832 236.92322 239.19213 241.57504
 244.20894 246.47285 248.48775 250.26566 251.69556 252.83147 253.66637 253.99528
 254.04518 253.83209 253.20499 252.16590 250.78480 248.95871 246.88062 244.72652
 242.53043 240.34733 238.18024 236.03214 233.90505 231.78495 229.82386 227.99376
 226.28967 224.77457 223.41748 222.20238 221.09729 220.07020 219.18710 218.34101
 217.59591 216.78882 215.89972 215.27663 214.73953 214.65639 214.45995 215.15942
 215.76120 216.43887 217.25986 218.14014 219.36116 222.19540 227.13072 231.78500
 235.38992 238.53438 241.12344 243.65724 246.66960 249.95291 253.50783 257.15482
 260.44452 263.41492 266.25177 269.07510 271.78497 274.25046 276.29282 278.02884
 279.53110 280.89066 282.24741 283.60403 284.79529 285.85281 286.81558 287.69122
 288.47931 289.18762 289.80792 290.62408
 366.78100 356.34827 345.79354 334.67282 323.08909 311.29636 299.17963 286.99590
 274.72117 262.63145 250.65372 239.96799 230.10326 221.22053 213.41581 206.43108
 200.27835 195.22962 191.82489 189.88016 188.93044 189.00771 189.85598 191.17725
 192.91552 195.02380 197.30007 199.67234 202.13061 204.62388 206.72516 208.58043
 210.21970 211.37797 211.62024 211.86151 211.81179 211.53006 211.17633 210.81960
 210.44987 210.17315 209.99442 209.87169 209.81296 210.15723 210.55650 210.95878
 211.76505 212.95632 214.21959 216.01586 217.95714 220.01341 222.12168 224.21795
 226.29122 228.38849 230.49877 232.61804 234.76031 236.94558 239.21485 241.59813
 244.23240 246.49667 248.51194 250.29021 251.72049 252.85676 253.69203 254.02130
 254.07157 253.85884 253.23212 252.19339 250.81266 248.98693 246.90920 244.75548
 242.55975 240.37702 238.21029 236.06256 233.93583 231.81611 229.85538 228.02565
 226.32192 224.80719 223.45047 222.23574 221.13101 220.10428 219.22155 218.37582
 217.63110 216.82437 215.93564 215.31291 214.77618 214.67366 214.43140 215.23692
 215.88751 216.55455 217.37584 218.19923 219.38849 222.20467 227.13060 231.74976
 235.29739 238.36583 240.92310 243.48402 246.54488 249.87981 253.46159 257.09805
 260.36691 263.33008 266.17960 269.02380 271.74808 274.21936 276.27133 278.02118
 279.53452 280.90610 282.26453 283.62143 284.81363 285.87170 286.83551 287.71356
 288.50809 289.22318 289.84903 290.66919
 366.78100 356.34857 345.79415 334.67372 323.09030 311.29787 299.18145 286.99802
 274.72360 262.63417 250.65675 239.97132 230.10690 221.22447 213.42005 206.43562
 200.28320 195.23477 191.83035 189.88592 188.93649 189.01407 189.86264 191.18422
 192.92279 195.03137 197.30794 199.68052 202.13909 204.63267 206.73424 208.58982
 210.22939 211.38797 211.63054 211.87212 211.82269 211.54126 211.18784 210.83141
 210.46199 210.18556 210.00714 209.88471 209.82629 210.17086 210.57044 210.97301
 211.77959 212.97116 214.23474 216.03131 217.97289 220.02946 222.13804 224.23461
 226.30818 228.40576 230.51633 232.63591 234.77848 236.96406 239.23363 241.61721
 244.25178 246.51636 248.53193 250.31051 251.74108 252.87766 253.71323 254.04281
 254.09338 253.88096 253.25453 252.21610 250.83568 249.01025 246.93283 244.77940
 242.58398 240.40155 238.23513 236.08770 233.96128 231.84185 229.88143 228.05200
 226.34858 224.83415 223.47773 222.26330 221.15887 220.13245 219.25002 218.40460
 217.66017 216.85375 215.96532 215.34290 214.80647 214.68698 214.40465 215.30588
 216.02017 216.67285 217.49945 218.25945 219.40738 222.20778 227.12396 231.70598
 235.19580 238.19452 240.72980 243.32516 246.43604 249.81873 253.41956 257.03946
 260.28537 263.24323 266.10779 268.97202 271.70859 274.18207 276.24234 278.00424
 279.52771 280.91193 282.27637 283.63367 284.82471 285.88260 286.84778 287.72412
 288.51971 289.23480 289.86093 290.68057
 366.78100 356.34875 345.79451 334.67426 323.09102 311.29877 299.18253 286.99928
 274.72504 262.63579 250.65855 239.97330 230.10906 221.22681 213.42257 206.43832
 200.28608 195.23783 191.83359 189.88934 188.94010 189.01785 189.86661 191.18836
 192.92712 195.03587 197.31263 199.68538 202.14414 204.63789 206.73965 208.59540
 210.23516 211.39391 211.63667 211.87842 211.82918 211.54793 211.19469 210.83844
 210.46920 210.19295 210.01471 209.89246 209.83422 210.17897 210.57873 210.98148
 211.78824 212.97999 214.24375 216.04050 217.98226 220.03901 222.14777 224.24452
 226.31828 228.41603 230.52679 232.64654 234.78930 236.97505 239.24481 241.62856
 244.26332 246.52807 248.54383 250.32258 251.75334 252.89009 253.72585 254.05560
 254.10636 253.89411 253.26787 252.22962 250.84937 249.02413 246.94688 244.79364
 242.59839 240.41615 238.24990 236.10266 233.97641 231.85717 229.89692 228.06768
 226.36443 224.85019 223.49394 222.27970 221.17545 220.14921 219.26696 218.42172
 217.67747 216.87123 215.98298 215.36074 214.82449 214.69356 214.38423 215.35628
 216.16261 216.80779 217.61055 218.31734 219.43794 222.21107 227.11139 231.65167
 235.08282 238.01604 240.53886 243.17711 246.34232 249.76964 253.38216 256.97925
 260.20175 263.15771 266.03918 268.92264 271.66827 274.14252 276.20999 277.98334
 279.51587 280.91168 282.27863 283.63544 284.82690 285.88327 286.84564 287.72369
 288.51663 289.23276 289.85910 290.67548
 366.78100 356.34908 345.79517 334.67525 323.09233 311.30041 299.18450 287.00158
 274.72766 262.63875 250.66183 239.97691 230.11300 221.23108 213.42716 206.44324
 200.29133 195.24341 191.83949 189.89558 188.94666 189.02474 189.87383 191.19591
 192.93499 195.04407 197.32116 199.69424 202.15332 204.64741 206.74949 208.60557
 210.24566 211.40474 211.64782 211.88990 211.84099 211.56007 211.20715 210.85124
 210.48232 210.20640 210.02849 209.90657 209.84865 210.19373 210.59382 210.99690
 211.80398 212.99607 214.26015 216.05723 217.99932 220.05640 222.16548 224.26256
 226.33665 228.43473 230.54581 232.66590 234.80898 236.99506 239.26515 241.64923
 244.28431 246.54939 248.56548 250.34456 251.77564 252.91273 253.74881 254.07889
 254.12998 253.91806 253.29214 252.25422 250.87431 249.04939 246.97247 244.81956
 242.62464 240.44272 238.27681 236.12989 234.00397 231.88505 229.92514 228.09622
 226.39330 224.87939 223.52347 222.30955 221.20564 220.17972 219.29780 218.45288
 217.70897 216.90305 216.01513 215.39322 214.85730 214.70781 214.35460 215.40302
 216.30850 216.95212 217.74118 218.37880 219.44627 222.20305 227.09091 231.58646
 234.95912 237.83395 240.35417 243.04402 246.26648 249.73459 253.35092 256.91943
 260.11884 263.07449 265.97345 268.87317 271.62479 274.09546 276.16907 277.95010
 279.49338 280.90097 282.27414 283.63120 284.82104 285.87747 286.83972 287.71466
 288.50943 289.22134 289.84747 290.66681
 366.78100 356.34962 345.79624 334.67686 323.09448 311.30310 299.18772 287.00534
 274.73196 262.64358 250.66720 239.98282 230.11944 221.23807 213.43469 206.45131
 200.29993 195.25255 191.84917 189.90579 188.95741 189.03603 189.88565 191.20827
 192.94789 195.05751 197.33513 199.70875 202.16837 204.66299 206.76561 208.62223
 210.26285 211.42247 211.66609 211.90871 211.86033 211.57996 211.22758 210.87220
 210.50382 210.22844 210.05106 209.92968 209.87230 210.21792 210.61854 211.02216
 211.82978 213.02240 214.28702 216.08464 218.02726 220.08488 222.19450 224.29212
 226.36674 228.46536 230.57698 232.69760 234.84122 237.02785 239.29847 241.68309
 244.31871 246.58433 248.60095 250.38057 251.81219 252.94981 253.78643 254.11705
 254.16867 253.95729 253.33191 252.29453 250.91515 249.09077 247.01439 244.86201
 242.66763 240.48625 238.32087 236.17449 234.04911 231.93074 229.97136 228.14298
 226.44060 224.92722 223.57184 222.35846 221.25508 220.22970 219.34832 218.50394
 217.76056 216.95518 216.06780 215.44642 214.91104 214.73366 214.31461 215.44376
 216.48206 217.10458 217.82841 218.44246 219.47910 222.20193 227.06865 231.51524
 234.82915 237.64882 240.17278 242.92064 246.20312 249.70811 253.32104 256.85602
 260.03134 262.98862 265.90619 268.82114 271.57550 274.04022 276.11646 277.90347
 279.45758 280.87750 282.26419 283.62115 284.80984 285.86475 286.82626 287.70065
 288.49411 289.20831 289.83121 290.64432
 366.78100 356.35002 345.79704 334.67806 323.09608 311.30510 299.19012 287.00814
 274.73516 262.64718 250.67120 239.98723 230.12425 221.24327 213.44029 206.45731
 200.30633 195.25935 191.85637 189.91339 188.96541 189.04443 189.89445 191.21747
 192.95749 195.06751 197.34553 199.71955 202.17957 204.67459 206.77761 208.63464
 210.27566 211.43568 211.67970 211.92272 211.87474 211.59476 211.24278 210.88780
 210.51982 210.24484 210.06786 209.94688 209.88990 210.23592 210.63694 211.04096
 211.84898 213.04200 214.30702 216.10505 218.04807 220.10609 222.21611 224.31413
 226.38915 228.48817 230.60019 232.72121 234.86523 237.05225 239.32327 241.70829
 244.34431 246.61033 248.62735 250.40737 251.83939 252.97741 253.81443 254.14546
 254.19748 253.98650 253.36152 252.32454 250.94556 249.12158 247.04560 244.89362
 242.69964 240.51866 238.35368 236.20770 234.08272 231.96474 230.00576 228.17778
 226.47580 224.96282 223.60784 222.39487 221.29189 220.26691 219.38593 218.54195
 217.79897 216.99399 216.10701 215.48603 214.95105 214.75340 214.28645 215.45430
 216.65405 217.31190 217.96440 218.49692 219.47827 222.18933 227.03616 231.42938
 234.68245 237.44919 239.98317 242.79893 246.14624 249.68596 253.29066 256.78836
 259.94092 262.90262 265.84088 268.77036 271.52567 273.98242 276.06036 277.85251
 279.41513 280.84775 282.24701 283.60504 284.79123 285.84549 286.80634 287.67935
 288.47299 289.18298 289.80655 290.61880
 366.78100 356.35020 345.79740 334.67861 323.09681 311.30601 299.19121 287.00941
 274.73661 262.64882 250.67302 239.98922 230.12642 221.24562 213.44282 206.46003
 200.30923 195.26243 191.85963 189.91683 188.96904 189.04824 189.89844 191.22164
 192.96184 195.07204 197.35025 199.72445 202.18465 204.67985 206.78305 208.64025
 210.28146 211.44166 211.68586 211.92906 211.88126 211.60147 211.24967 210.89487
 210.52707 210.25227 210.07547 209.95468 209.89788 210.24408 210.64528 211.04948
 211.85769 213.05089 214.31609 216.11429 218.05749 220.11569 222.22590 224.32410
 226.39930 228.49850 230.61070 232.73190 234.87611 237.06331 239.33451 241.71971
 244.35591 246.62212 248.63932 250.41952 251.85172 252.98992 253.82712 254.15833
 254.21053 253.99973 253.37493 252.33813 250.95933 249.13554 247.05974 244.90794
 242.71414 240.53334 238.36855 236.22275 234.09795 231.98015 230.02135 228.19355
 226.49176 224.97896 223.62416 222.41136 221.30856 220.28376 219.40297 218.55917
 217.81637 217.01157 216.12477 215.50398 214.96918 214.76134 214.27031 215.45340
 216.79500 217.51939 218.13603 218.55284 219.47040 222.17688 227.00038 231.33621
 234.52850 237.24521 239.79706 242.68874 246.10397 249.67490 253.26498 256.72397
 259.85513 262.82321 265.78104 268.72153 271.47455 273.92389 276.00198 277.79749
 279.36835 280.81351 282.22324 283.58112 284.76718 285.81995 286.77853 287.65015
 288.44135 289.15143 289.77423 290.58417
 366.78100 356.35031 345.79763 334.67894 323.09726 311.30657 299.19189 287.01020
 274.73751 262.64983 250.67414 239.99046 230.12777 221.24708 213.44440 206.46171
 200.31103 195.26434 191.86166 189.91897 188.97128 189.05060 189.90091 191.22423
 192.96454 195.07486 197.35317 199.72748 202.18780 204.68311 206.78643 208.64374
 210.28506 211.44537 211.68968 211.93300 211.88531 211.60563 211.25394 210.89925
 210.53157 210.25688 210.08020 209.95951 209.90283 210.24914 210.65045 211.05477
 211.86308 213.05640 214.32171 216.12003 218.06334 220.12165 222.23197 224.33028
 226.40560 228.50491 230.61723 232.73854 234.88285 237.07017 239.34148 241.72680
 244.36311 246.62942 248.64674 250.42705 251.85937 252.99768 253.83500 254.16631
 254.21862 254.00794 253.38325 252.34657 250.96788 249.14420 247.06851 244.91682
 242.72314 240.54245 238.37777 236.23208 234.10740 231.98971 230.03102 228.20334
 226.50165 224.98897 223.63428 222.42159 221.31891 220.29422 219.41354 218.56985
 217.82717 217.02248 216.13579 215.51511 214.98042 214.76314 214.24976 215.45952
 216.92645 217.70378 218.31920 218.61542 219.46359 222.16745 226.96211 231.23737
 234.37053 237.04204 239.61931 242.59256 246.07668 249.67400 253.24460 256.66257
 259.77332 262.74744 265.72333 268.67117 271.41983 273.85898 275.93442 277.73062
 279.31216 280.77121 282.19342 283.55045 284.73486 285.78482 286.74295 287.61276
 288.40323 289.11157 289.73163 290.54337
 366.78100 356.35038 345.79777 334.67915 323.09754 311.30692 299.19231 287.01069
 274.73808 262.65046 250.67485 239.99123 230.12862 221.24800 213.44539 206.46277
 200.31216 195.26554 191.86293 189.92031 188.97270 189.05208 189.90247 191.22585
 192.96624 195.07662 197.35501 199.72939 202.18978 204.68516 206.78855 208.64593
 210.28732 211.44770 211.69209 211.93547 211.88786 211.60824 211.25663 210.90201
 210.53440 210.25978 210.08316 209.96255 209.90593 210.25232 210.65370 211.05809
 211.86647 213.05986 214.32524 216.12363 218.06701 220.12540 222.23578 224.33417
 226.40955 228.50894 230.62132 232.74271 234.88709 237.07448 239.34586 241.73125
 244.36763 246.63402 248.65140 250.43179 251.86417 253.00256 253.83994 254.17133
 254.22371 254.01310 253.38848 252.35187 250.97325 249.14964 247.07402 244.92241
 242.72879 240.54818 238.38356 236.23794 234.11333 231.99571 230.03710 228.20948
 226.50787 224.99525 223.64064 222.42802 221.32541 220.30079 219.42018 218.57656
 217.83395 217.02933 216.14272 215.52210 214.98749 214.76079 214.22519 215.46674
 217.06151 217.88068 218.49542 218.68651 219.45499 222.15654 226.91982 231.13339
 234.20866 236.84076 239.44991 242.50928 246.06232 249.68134 253.22726 256.60327
 259.69345 262.67279 265.66406 268.61685 271.35733 273.78339 275.85480 277.65112
 279.24445 280.72131 282.15692 283.51257 284.69498 285.74301 286.69937 287.56876
 288.35767 289.06390 289.68512 290.49203
 366.78100 356.35040 345.79780 334.67919 323.09759 311.30699 299.19239 287.01079
 274.73818 262.65058 250.67498 239.99138 230.12878 221.24817 213.44557 206.46297
 200.31237 195.26577 191.86316 189.92056 188.97296 189.05236 189.90276 191.22615
 192.96655 195.07695 197.35535 199.72975 202.19014 204.68554 206.78894 208.64634
 210.28774 211.44813 211.69253 211.93593 211.88833 211.60873 211.25712 210.90252
 210.53492 210.26032 210.08372 209.96311 209.90651 210.25291 210.65431 211.05871
 211.86710 213.06050 214.32590 216.12430 218.06770 220.12609 222.23649 224.33489
 226.41029 228.50969 230.62208 232.74348 234.88788 237.07528 239.34668 241.73207
 244.36847 246.63487 248.65227 250.43267 251.86506 253.00346 253.84086 254.17226
 254.22466 254.01405 253.38945 252.35285 250.97425 249.15065 247.07504 244.92344
 242.72984 240.54924 238.38464 236.23903 234.11443 231.99683 230.03823 228.21063
 226.50902 224.99642 223.64182 222.42922 221.32662 220.30201 219.42141 218.57781
 217.83521 217.03061 216.14400 215.52340 214.98880 214.75563 214.20471 215.46800
 217.19226 218.06499 218.65659 218.76292 219.44746 222.14189 226.87419 231.02570
 234.04591 236.64465 239.29237 242.44049 246.05988 249.69464 253.21181 256.54431
 259.61435 262.59909 265.60513 268.55997 271.28976 273.70087 275.76300 277.55844
 279.16470 280.66339 282.11108 283.46558 284.64511 285.69180 286.64676 287.51462
 288.30240 289.00513 289.62805 290.43216
 366.78100 356.35045 345.79790 334.67935 323.09780 311.30725 299.19270 287.01115
 274.73860 262.65105 250.67550 239.99195 230.12940 221.24885 213.44630 206.46375
 200.31320 195.26665 191.86410 189.92155 188.97400 189.05345 189.90390 191.22735
 192.96780 195.07825 197.35670 199.73115 202.19160 204.68705 206.79050 208.64795
 210.28940 211.44985 211.69430 211.93775 211.89020 211.61065 211.25910 210.90455
 210.53700 210.26245 210.08589 209.96534 209.90879 210.25524 210.65669 211.06114
 211.86959 213.06304 214.32849 216.12694 218.07039 220.12884 222.23929 224.33774
 226.41319 228.51264 230.62509 232.74654 234.89099 237.07844 239.34989 241.73534
 244.37179 246.63824 248.65569 250.43614 251.86859 253.00704 253.84449 254.17594
 254.22839 254.01784 253.39329 252.35674 250.97819 249.15464 247.07909 244.92754
 242.73399 240.55344 238.38889 236.24334 234.11879 232.00124 230.04269 228.21514
 226.51359 225.00104 223.64649 222.43394 221.33139 220.30684 219.42629 218.58274
 217.84019 217.03564 216.14909 215.52854 214.99399 214.75510 214.19069 215.46205
 217.31332 218.25218 218.80562 218.84184 219.44551 222.12476 226.82713 230.91750
 233.88640 236.45818 239.14868 242.38567 246.06828 249.71315 253.19846 256.48779
 259.53693 262.52597 265.54413 268.49753 271.21466 273.61020 275.66388 277.45801
 279.08185 280.60196 282.05750 283.40582 284.58575 285.62988 286.58282 287.44946
 288.23407 288.94052 289.55933 290.36295
 366.78100 356.35050 345.79800 334.67950 323.09800 311.30750 299.19301 287.01151
 274.73901 262.65151 250.67601 239.99251 230.13001 221.24951 213.44701 206.46451
 200.31401 195.26751 191.86502 189.92252 188.97502 189.05452 189.90502 191.22852
 192.96902 195.07952 197.35802 199.73252 202.19302 204.68852 206.79203 208.64953
 210.29103 211.45153 211.69603 211.93953 211.89203 211.61253 211.26103 210.90653
 210.53903 210.26453 210.08804 209.96754 209.91104 210.25754 210.65904 211.06354
 211.87204 213.06554 214.33104 216.12954 218.07304 220.13154 222.24205 224.34055
 226.41605 228.51555 230.62805 232.74955 234.89405 237.08155 239.35305 241.73855
 244.37505 246.64155 248.65906 250.43956 251.87206 253.01056 253.84806 254.17956
 254.23206 254.02156 253.39706 252.36056 250.98206 249.15857 247.08307 244.93157
 242.73807 240.55757 238.39307 236.24757 234.12307 232.00557 230.04707 228.21957
 226.51807 225.00558 223.65108 222.43858 221.33608 220.31158 219.43108 218.58758
 217.84508 217.04058 216.15408 215.53358 214.99908 214.75598 214.18159 215.45279
 217.42354 218.43341 218.94720 218.92264 219.45404 222.10658 226.77895 230.80841
 233.72801 236.27869 239.01724 242.34331 246.08408 249.73447 253.18552 256.43146
 259.46133 262.45383 265.48203 268.43137 271.13522 273.51379 275.55466 277.34778
 278.99060 280.53415 281.99225 283.33478 284.51080 285.55359 286.50500 287.37143
 288.15427 288.86014 289.47668 290.28241
 366.78100 356.35026 345.79751 334.67877 323.09702 311.30628 299.19153 287.00979
 274.73704 262.64930 250.67355 239.98981 230.12706 221.24632 213.44357 206.46083
 200.31008 195.26334 191.86059 189.91785 188.97010 189.04936 189.89961 191.22287
 192.96312 195.07338 197.35163 199.72589 202.18614 204.68140 206.78465 208.64191
 210.28316 211.44342 211.68767 211.93093 211.88318 211.60344 211.25169 210.89695
 210.52920 210.25446 210.07771 209.95697 209.90022 210.24648 210.64773 211.05199
 211.86024 213.05350 214.31875 216.11701 218.06026 220.11852 222.22877 224.32703
 226.40228 228.50154 230.61379 232.73505 234.87930 237.06656 239.33781 241.72307
 244.35932 246.62558 248.64283 250.42309 251.85534 252.99360 253.83085 254.16211
 254.21436 254.00362 253.37887 252.34213 250.96338 249.13964 247.06389 244.91215
 242.71840 240.53766 238.37291 236.22717 234.10242 231.98468 230.02593 228.19819
 226.49644 224.98370 223.62895 222.41621 221.31346 220.28872 219.40797 218.56423
 217.82148 217.01674 216.12999 215.50925 214.97450 214.74002 214.18605 215.45605
 217.51317 218.58931 219.07541 219.00081 219.47292 222.08946 226.73143 230.70215
 233.57761 236.11311 238.90163 242.31339 246.10666 249.75471 253.16989 256.37607
 259.38950 262.38687 265.42264 268.36374 271.05014 273.40887 275.43918 277.23846
 278.90005 280.46130 281.91449 283.24722 284.41965 285.46164 286.41235 287.27695
 288.05991 288.76486 289.38263 290.18225
 366.78100 356.34964 345.79628 334.67692 323.09456 311.30320 299.18784 287.00548
 274.73212 262.64376 250.66740 239.98304 230.11968 221.23832 213.43496 206.45160
 200.30024 195.25288 191.84952 189.90616 188.95780 189.03644 189.88608 191.20872
 192.94836 195.05800 197.33564 199.70928 202.16892 204.66356 206.76620 208.62284
 210.26348 211.42312 211.66676 211.90940 211.86104 211.58068 211.22832 210.87296
 210.50460 210.22924 210.05188 209.93052 209.87316 210.21880 210.61944 211.02308
 211.83072 213.02336 214.28800 216.08564 218.02828 220.08592 222.19556 224.29320
 226.36784 228.46648 230.57812 232.69876 234.84240 237.02904 239.29968 241.68432
 244.31996 246.58560 248.60224 250.38188 251.81352 252.95116 253.78780 254.11844
 254.17008 253.95872 253.33336 252.29600 250.91664 249.09228 247.01592 244.86356
 242.66920 240.48784 238.32248 236.17612 234.05076 231.93240 229.97304 228.14468
 226.44232 224.92896 223.57359 222.36023 221.25687 220.23151 219.35015 218.50579
 217.76243 216.95707 216.06971 215.44835 214.91299 214.70500 214.21359 215.46826
 217.57634 218.70776 219.17694 219.06596 219.49583 222.07329 226.68607 230.60284
 233.44232 235.97432 238.81903 242.31223 246.14987 249.79495 253.17241 256.33615
 259.32874 262.32443 265.36093 268.28790 270.95303 273.29202 275.30542 277.10748
 278.79700 280.37009 281.81793 283.13922 284.30624 285.34500 286.29663 287.15854
 287.94260 288.64615 289.26404 290.07159
 366.78100 356.34904 345.79508 334.67512 323.09216 311.30020 299.18424 287.00127
 274.72731 262.63835 250.66139 239.97643 230.11247 221.23051 213.42655 206.44259
 200.29063 195.24267 191.83871 189.89474 188.94578 189.02382 189.87286 191.19490
 192.93394 195.04298 197.32002 199.69306 202.15210 204.64614 206.74818 208.60422
 210.24425 211.40329 211.64633 211.88837 211.83941 211.55845 211.20549 210.84953
 210.48057 210.20461 210.02665 209.90469 209.84673 210.19176 210.59180 210.99484
 211.80188 212.99392 214.25796 216.05500 217.99704 220.05408 222.16312 224.26016
 226.33420 228.43223 230.54327 232.66331 234.80635 236.99239 239.26243 241.64647
 244.28151 246.54655 248.56259 250.34163 251.77267 252.90971 253.74574 254.07578
 254.12682 253.91486 253.28890 252.25094 250.87098 249.04602 246.96906 244.81610
 242.62114 240.43918 238.27321 236.12625 234.00029 231.88133 229.92137 228.09241
 226.38945 224.87549 223.51953 222.30557 221.20161 220.17565 219.29369 218.44872
 217.70476 216.89880 216.01084 215.38888 214.85292 214.67427 214.25218 215.48695
 217.62775 218.79759 219.24484 219.10938 219.50978 222.05318 226.64134 230.51202
 233.32545 235.86311 238.76437 242.33963 246.22470 249.85535 253.18951 256.31323
 259.28610 262.27689 265.30801 268.21347 270.85071 273.15286 275.14395 276.95627
 278.66125 280.24655 281.68799 282.99469 284.15042 285.18491 286.13388 286.99704
 287.78326 288.48718 289.10773 289.91879
 366.78100 356.34839 345.79378 334.67317 323.08956 311.29695 299.18033 286.99672
 274.72211 262.63250 250.65489 239.96928 230.10467 221.22206 213.41745 206.43284
 200.28022 195.23161 191.82700 189.88239 188.93278 189.01017 189.85856 191.17995
 192.91834 195.02673 197.30311 199.67550 202.13389 204.62728 206.72867 208.58406
 210.22345 211.38184 211.62423 211.86562 211.81601 211.53439 211.18078 210.82417
 210.45456 210.17795 209.99934 209.87673 209.81812 210.16251 210.56190 210.96428
 211.77067 212.96206 214.22545 216.02184 217.96323 220.01962 222.12801 224.22440
 226.29779 228.39517 230.50556 232.62495 234.76734 236.95273 239.22212 241.60551
 244.23990 246.50429 248.51968 250.29806 251.72845 252.86484 253.70023 254.02962
 254.08001 253.86740 253.24079 252.20218 250.82157 248.99596 246.91834 244.76473
 242.56912 240.38651 238.21990 236.07229 233.94568 231.82607 229.86546 228.03585
 226.33223 224.81762 223.46101 222.24640 221.14179 220.11518 219.23257 218.38696
 217.64235 216.83574 215.94712 215.32451 214.78790 214.63943 214.28865 215.51755
 217.70059 218.89235 219.28320 219.12701 219.51411 222.02293 226.58492 230.40643
 233.19531 235.75389 238.73061 242.38622 246.30904 249.94264 253.24411 256.32648
 259.26871 262.24109 265.25177 268.12314 270.72147 272.99222 274.97839 276.80273
 278.50815 280.09808 281.51010 282.78827 283.92816 284.95499 285.90164 286.76709
 287.55246 288.26083 288.88312 289.69940
 366.78100 356.34763 345.79226 334.67089 323.08651 311.29314 299.17577 286.99140
 274.71603 262.62566 250.64728 239.96091 230.09554 221.21217 213.40680 206.42143
 200.26805 195.21868 191.81331 189.86794 188.91757 188.99420 189.84182 191.16245
 192.90008 195.00771 197.28334 199.65497 202.11259 204.60522 206.70585 208.56048
 210.19911 211.35674 211.59836 211.83899 211.78862 211.50625 211.15188 210.79451
 210.42414 210.14676 209.96739 209.84402 209.78465 210.12828 210.52691 210.92853
 211.73416 212.92479 214.18742 215.98305 217.92368 219.97930 222.08693 224.18256
 226.25519 228.35182 230.46145 232.58007 234.72170 236.90633 239.17496 241.55759
 244.19122 246.45484 248.46947 250.24710 251.67673 252.81236 253.64699 253.97561
 254.02524 253.81187 253.18450 252.14513 250.76376 248.93739 246.85901 244.70464
 242.50827 240.32490 238.15753 236.00916 233.88178 231.76141 229.80004 227.96967
 226.26530 224.74993 223.39255 222.17718 221.07181 220.04444 219.16107 218.31470
 217.56932 216.76195 215.87258 215.24921 214.71184 214.59122 214.30626 215.58145
 217.79460 218.98927 219.30341 219.11528 219.49321 221.97438 226.51329 230.28391
 233.05060 235.62724 238.68005 242.43884 246.42827 250.04617 253.30502 256.35434
 259.27963 262.24234 265.23294 268.07028 270.64072 272.88150 274.80350 276.57623
 278.38281 279.88965 281.26999 282.51385 283.63022 284.64740 285.59326 286.45950
 287.24835 287.95850 288.58588 289.40308
 366.78100 356.34801 345.79302 334.67204 323.08805 311.29506 299.17807 286.99409
 274.71910 262.62911 250.65112 239.96514 230.10015 221.21716 213.41217 206.42718
 200.27420 195.22521 191.82022 189.87523 188.92525 189.00226 189.85027 191.17128
 192.90929 195.01731 197.29332 199.66533 202.12334 204.61636 206.71737 208.57238
 210.21139 211.36941 211.61142 211.85243 211.80244 211.52045 211.16647 210.80948
 210.43949 210.16250 209.98352 209.86053 209.80154 210.14555 210.54457 210.94658
 211.75259 212.94360 214.20661 216.00263 217.94364 219.99965 222.10766 224.20368
 226.27669 228.37370 230.48371 232.60273 234.74474 236.92975 239.19876 241.58177
 244.21579 246.47980 248.49481 250.27282 251.70284 252.83885 253.67386 254.00287
 254.05288 253.83990 253.21291 252.17392 250.79293 248.96695 246.88896 244.73497
 242.53898 240.35600 238.18901 236.04102 233.91403 231.79404 229.83306 228.00307
 226.29908 224.78409 223.42711 222.21212 221.10713 220.08014 219.19716 218.35117
 217.60618 216.79919 215.91020 215.28722 214.75023 214.59958 214.24367 215.71507
 217.95946 219.07312 219.26503 219.01613 219.40485 221.87947 226.40521 230.11877
 232.86777 235.49324 238.64674 242.46800 246.47348 250.14563 253.42133 256.47336
 259.39136 262.33490 265.30392 268.10974 270.65927 272.88647 274.76184 276.55722
 278.25381 279.74634 281.03418 282.22668 283.30728 284.31024 285.25565 286.12363
 286.91443 287.63025 288.26154 289.09195
 366.78100 356.34945 345.79590 334.67635 323.09381 311.30226 299.18671 287.00416
 274.73061 262.64206 250.66551 239.98096 230.11742 221.23587 213.43232 206.44877
 200.29722 195.24967 191.84612 189.90258 188.95403 189.03248 189.88193 191.20438
 192.94383 195.05328 197.33073 199.70419 202.16364 204.65809 206.76054 208.61699
 210.25744 211.41689 211.66035 211.90280 211.85425 211.57370 211.22115 210.86560
 210.49705 210.22151 210.04396 209.92241 209.86486 210.21031 210.61076 211.01421
 211.82166 213.01412 214.27857 216.07602 218.01847 220.07592 222.18537 224.28282
 226.35728 228.45573 230.56718 232.68763 234.83108 237.01753 239.28798 241.67243
 244.30789 246.57334 248.58979 250.36924 251.80069 252.93814 253.77459 254.10505
 254.15650 253.94495 253.31940 252.28185 250.90230 249.07775 247.00120 244.84866
 242.65411 240.47256 238.30701 236.16046 234.03491 231.91636 229.95682 228.12827
 226.42572 224.91217 223.55662 222.34307 221.23952 220.21398 219.33243 218.48788
 217.74433 216.93878 216.05123 215.42968 214.89413 214.66182 214.11293 215.80447
 218.23358 219.26863 219.31351 218.95433 219.29527 221.74069 226.23080 229.83900
 232.53865 235.19048 238.47504 242.47058 246.58391 250.23674 253.47832 256.52872
 259.46402 262.42252 265.36331 268.13879 270.67276 272.90121 274.80804 276.59113
 278.25449 279.54581 280.74930 281.80777 282.75217 283.69946 284.63983 285.50626
 286.30322 287.02896 287.67419 288.51401
 366.78100 356.34969 345.79638 334.67707 323.09476 311.30345 299.18814 287.00583
 274.73252 262.64421 250.66790 239.98359 230.12028 221.23897 213.43566 206.45235
 200.30104 195.25373 191.85042 189.90711 188.95880 189.03749 189.88718 191.20987
 192.94956 195.05925 197.33694 199.71063 202.17032 204.66501 206.76770 208.62439
 210.26508 211.42477 211.66846 211.91116 211.86285 211.58254 211.23023 210.87492
 210.50661 210.23130 210.05399 209.93268 209.87537 210.22106 210.62175 211.02544
 211.83313 213.02582 214.29051 216.08820 218.03089 220.08858 222.19827 224.29596
 226.37065 228.46934 230.58103 232.70172 234.84541 237.03210 239.30279 241.68748
 244.32317 246.58886 248.60555 250.38524 251.81693 252.95462 253.79131 254.12200
 254.17369 253.96238 253.33707 252.29976 250.92045 249.09614 247.01983 244.86752
 242.67321 240.49190 238.32659 236.18028 234.05497 231.93666 229.97735 228.14904
 226.44673 224.93342 223.57811 222.36480 221.26149 220.23618 219.35487 218.51056
 217.76725 216.96194 216.07463 215.45332 214.91801 214.67093 214.08719 215.76521
 218.43291 219.52217 219.48177 218.96463 219.23032 221.63937 226.10562 229.65593
 232.31914 235.00133 238.38046 242.45720 246.57983 250.19722 253.43011 256.48764
 259.43790 262.41296 265.35593 268.11508 270.64746 272.89810 274.84393 276.60666
 278.19476 279.41681 280.54721 281.58551 282.60904 283.61243 284.56290 285.43463
 286.23752 286.96597 287.60962 288.45673
 366.78100 356.34816 345.79333 334.67249 323.08866 311.29582 299.17898 286.99515
 274.72031 262.63048 250.65264 239.96680 230.10197 221.21913 213.41430 206.42946
 200.27662 195.22779 191.82295 189.87812 188.92828 189.00544 189.85361 191.17477
 192.91294 195.02110 197.29726 199.66943 202.12759 204.62075 206.72192 208.57708
 210.21625 211.37441 211.61657 211.85774 211.80790 211.52607 211.17223 210.81539
 210.44556 210.16872 209.98989 209.86705 209.80821 210.15238 210.55154 210.95371
 211.75987 212.95103 214.21420 216.01036 217.95153 220.00769 222.11585 224.21202
 226.28518 228.38235 230.49251 232.61167 234.75384 236.93900 239.20817 241.59133
 244.22549 246.48966 248.50482 250.28299 251.71315 252.84931 253.68448 254.01364
 254.06381 253.85097 253.22413 252.18530 250.80446 248.97863 246.90079 244.74695
 242.55112 240.36828 238.20144 236.05361 233.92677 231.80694 229.84610 228.01626
 226.31243 224.79759 223.44076 222.22592 221.12108 220.09425 219.21141 218.36558
 217.62074 216.81390 215.92507 215.30223 214.76540 214.58812 214.16931 215.71939
 218.47174 219.68825 219.61496 218.94685 219.14482 221.53938 225.99298 229.49605
 232.13103 234.85538 238.33412 242.51604 246.72163 250.31680 253.53188 256.60410
 259.55817 262.53659 265.44205 268.15411 270.66309 272.92023 274.87189 276.58551
 278.07230 279.18900 280.27478 281.27408 282.21243 283.15964 284.09857 284.96964
 285.77417 286.50970 287.16165 288.00830
 366.78100 356.34676 345.79052 334.66829 323.08305 311.28881 299.17057 286.98533
 274.70910 262.61786 250.63862 239.95138 230.08515 221.20091 213.39467 206.40843
 200.25419 195.20396 191.79772 189.85148 188.90024 188.97600 189.82277 191.14253
 192.87929 194.98605 197.26082 199.63158 202.08834 204.58010 206.67986 208.53363
 210.17139 211.32815 211.56891 211.80867 211.75744 211.47420 211.11896 210.76072
 210.38949 210.11125 209.93101 209.80677 209.74653 210.08930 210.48706 210.88782
 211.69258 212.88234 214.14411 215.93887 217.87863 219.93339 222.04016 224.13492
 226.20668 228.30244 230.41120 232.52897 234.66973 236.85349 239.12125 241.50301
 244.13578 246.39854 248.41230 250.18906 251.61783 252.75259 253.58635 253.91411
 253.96287 253.74864 253.12040 252.08016 250.69792 248.87068 246.79145 244.63621
 242.43897 240.25473 238.08650 235.93726 233.80902 231.68778 229.72554 227.89431
 226.18907 224.67283 223.31459 222.09835 220.99212 219.96388 219.07964 218.23240
 217.48617 216.67793 215.78769 215.16345 214.62521 214.51401 214.25127 215.72871
 218.46199 219.82736 219.76817 218.95360 219.05753 221.42957 225.86024 229.30049
 231.90622 234.68073 238.26524 242.53384 246.81152 250.36993 253.56184 256.64920
 259.62125 262.60452 265.47031 268.14127 270.63120 272.87973 274.83371 276.56177
 277.98972 279.05020 280.10944 281.06619 281.90912 282.82382 283.75989 284.63089
 285.43573 286.17374 286.82983 287.68707
 366.78100 356.34587 345.78873 334.66560 323.07946 311.28433 299.16520 286.97906
 274.70193 262.60980 250.62966 239.94153 230.07439 221.18926 213.38213 206.39499
 200.23986 195.18872 191.78159 189.83446 188.88232 188.95719 189.80306 191.12192
 192.85779 194.96365 197.23752 199.60739 202.06325 204.55412 206.65298 208.50585
 210.14272 211.29858 211.53845 211.77731 211.72518 211.44105 211.08491 210.72578
 210.35365 210.07451 209.89338 209.76824 209.70711 210.04898 210.44584 210.84571
 211.64957 212.83844 214.09931 215.89317 217.83204 219.88591 221.99177 224.08564
 226.15650 228.25137 230.35924 232.47610 234.61597 236.79883 239.06570 241.44657
 244.07843 246.34030 248.35317 250.12903 251.55690 252.69076 253.52363 253.85050
 253.89836 253.68323 253.05409 252.01296 250.62983 248.80169 246.72156 244.56543
 242.36729 240.18216 238.01302 235.86289 233.73376 231.61162 229.64849 227.81635
 226.11022 224.59309 223.23395 222.01682 220.90968 219.88055 218.99542 218.14728
 217.40015 216.59102 215.69988 215.07475 214.53561 214.47285 214.32455 215.73422
 218.41197 219.92108 219.94112 219.03632 219.02792 221.35164 225.74228 229.12167
 231.69923 234.52612 238.20671 242.55777 246.86978 250.38484 253.56105 256.66348
 259.63519 262.61874 265.45901 268.10132 270.57904 272.83337 274.80963 276.56027
 277.97830 279.01111 280.04813 280.97818 281.75125 282.62619 283.55685 284.42654
 285.23444 285.97681 286.63779 287.49854
 366.78100 356.34460 345.78621 334.66181 323.07441 311.27802 299.15762 286.97023
 274.69183 262.59843 250.61704 239.92764 230.05924 221.17285 213.36445 206.37605
 200.21966 195.16726 191.75887 189.81047 188.85707 188.93068 189.77528 191.09288
 192.82749 194.93209 197.20469 199.57330 202.02790 204.51751 206.61511 208.46671
 210.10232 211.25692 211.49552 211.73313 211.67973 211.39433 211.03694 210.67654
 210.30315 210.02275 209.84035 209.71396 209.65156 209.99216 210.38777 210.78637
 211.58897 212.77658 214.03618 215.82879 217.76639 219.81899 221.92360 224.01620
 226.08580 228.17941 230.28601 232.40161 234.54022 236.72182 238.98742 241.36703
 243.99763 246.25824 248.26984 250.04444 251.47105 252.60365 253.43525 253.76086
 253.80746 253.59106 252.96067 251.91827 250.53388 248.70448 246.62308 244.46569
 242.26629 240.07989 237.90950 235.75810 233.62770 231.50431 229.53991 227.70652
 225.99912 224.48072 223.12033 221.90193 220.79353 219.76314 218.87674 218.02734
 217.27895 216.46855 215.57616 214.94976 214.40936 214.41240 214.41960 215.76135
 218.32678 219.91597 220.01753 219.07924 219.00786 221.30499 225.66548 229.00302
 231.55620 234.42578 238.17372 242.61201 246.95763 250.44583 253.59923 256.68726
 259.65805 262.64847 265.47150 268.08005 270.53354 272.78876 274.78174 276.53513
 277.91794 278.91052 279.93558 280.82880 281.58112 282.41461 283.33435 284.20157
 285.00766 285.74896 286.41010 287.27420
 366.78100 356.34349 345.78399 334.65848 323.06998 311.27247 299.15097 286.96246
 274.68296 262.58845 250.60595 239.91544 230.04594 221.15843 213.34893 206.35942
 200.20192 195.14841 191.73891 189.78940 188.83490 188.90739 189.75089 191.06738
 192.80088 194.90437 197.17587 199.54336 201.99686 204.48535 206.58185 208.43234
 210.06684 211.22033 211.45783 211.69432 211.63982 211.35331 210.99481 210.63330
 210.25880 209.97729 209.79379 209.66628 209.60278 209.94227 210.33677 210.73426
 211.53576 212.72225 213.98075 215.77224 217.70874 219.76023 221.86373 223.95522
 226.02372 228.11621 230.22171 232.33620 234.47370 236.65419 238.91869 241.29718
 243.92668 246.18617 248.19667 249.97016 251.39565 252.52715 253.35764 253.68214
 253.72763 253.51013 252.87862 251.83512 250.44961 248.61911 246.53660 244.37810
 242.17759 239.99009 237.81858 235.66608 233.53457 231.41007 229.44456 227.61006
 225.90155 224.38205 223.02054 221.80104 220.69153 219.66003 218.77252 217.92202
 217.17251 216.36101 215.46750 214.84000 214.29849 214.35786 214.49814 215.82755
 218.29698 219.89732 220.02493 219.04086 218.93243 221.23367 225.57303 228.86546
 231.40675 234.33495 238.16118 242.69141 247.05478 250.52682 253.66190 256.74762
 259.73065 262.72375 265.52979 268.08932 270.50482 272.74149 274.73865 276.46289
 277.77618 278.77380 279.76721 280.62021 281.32230 282.17960 283.09848 283.96448
 284.76364 285.49976 286.15775 287.02356
 366.78100 356.34220 345.78140 334.65459 323.06479 311.26599 299.14319 286.95338
 274.67258 262.57678 250.59298 239.90118 230.03037 221.14157 213.33077 206.33997
 200.18116 195.12636 191.71556 189.76476 188.80896 188.88015 189.72235 191.03755
 192.76975 194.87194 197.14214 199.50834 201.96054 204.44774 206.54293 208.39213
 210.02533 211.17753 211.41372 211.64892 211.59312 211.30532 210.94552 210.58271
 210.20691 209.92411 209.73931 209.61050 209.54570 209.88390 210.27710 210.67330
 211.47349 212.65869 213.91589 215.70609 217.64128 219.69148 221.79368 223.88388
 225.95108 228.04227 230.14647 232.25967 234.39587 236.57506 238.83826 241.21546
 243.84366 246.10186 248.11105 249.88325 251.30745 252.43765 253.26684 253.59004
 253.63424 253.41544 252.78264 251.73783 250.35103 248.51923 246.43543 244.27562
 242.07382 239.88502 237.71222 235.55842 233.42561 231.29981 229.33301 227.49721
 225.78740 224.26660 222.90380 221.68300 220.57220 219.53939 218.65059 217.79879
 217.04799 216.23518 215.34038 214.71158 214.16878 214.29433 214.59094 215.88130
 218.25615 219.92621 220.09015 219.03804 218.87773 221.16666 225.46805 228.69048
 231.22223 234.21973 238.16438 242.76491 247.09059 250.52995 253.62485 256.73224
 259.73703 262.74060 265.53244 268.06924 270.47131 272.70667 274.72192 276.45511
 277.78281 278.77057 279.74454 280.59650 281.30457 282.00595 282.85596 283.71307
 284.50800 285.23959 285.89648 286.76556
 366.78100 356.34018 345.77737 334.64855 323.05673 311.25592 299.13110 286.93929
 274.65647 262.55865 250.57284 239.87902 230.00620 221.11539 213.30257 206.30975
 200.14894 195.09212 191.67931 189.72649 188.76867 188.83786 189.67804 190.99122
 192.72141 194.82159 197.08977 199.45396 201.90414 204.38932 206.48251 208.32969
 209.96088 211.11106 211.34524 211.57843 211.52061 211.23079 210.86898 210.50416
 210.12634 209.84153 209.65471 209.52390 209.45708 209.79326 210.18445 210.57863
 211.37681 212.56000 213.81518 215.60336 217.53655 219.58473 221.68492 223.77310
 225.83828 227.92747 230.02965 232.14083 234.27502 236.45220 238.71338 241.08857
 243.71475 245.97093 247.97812 249.74830 251.17049 252.29867 253.12585 253.44704
 253.48922 253.26840 252.63359 251.58677 250.19795 248.36414 246.27832 244.11651
 241.91269 239.72187 237.54706 235.39124 233.25642 231.12861 229.15979 227.32197
 225.61016 224.08734 222.72253 221.49971 220.38689 219.35208 218.46126 217.60744
 216.85463 216.03981 215.14299 214.51218 213.96736 214.19078 214.71863 215.97557
 218.10770 219.87976 220.19029 219.11900 218.90129 221.15288 225.39798 228.57903
 231.10709 234.16023 238.20845 242.85161 247.10049 250.43671 253.51672 256.63837
 259.66238 262.67938 265.49646 268.04242 270.45670 272.70694 274.76385 276.51257
 277.85034 278.89755 279.83740 280.68140 281.42160 282.10159 282.88025 283.73102
 284.53625 285.27960 285.91101 286.76544
 366.78100 356.34212 345.78124 334.65435 323.06447 311.26559 299.14271 286.95282
 274.67194 262.57606 250.59218 239.90030 230.02941 221.14053 213.32965 206.33877
 200.17989 195.12500 191.71412 189.76324 188.80736 188.87847 189.72059 191.03571
 192.76783 194.86995 197.14006 199.50618 201.95830 204.44542 206.54053 208.38965
 210.02277 211.17489 211.41101 211.64612 211.59024 211.30236 210.94248 210.57959
 210.20371 209.92083 209.73595 209.60707 209.54218 209.88030 210.27342 210.66954
 211.46966 212.65477 213.91189 215.70201 217.63713 219.68724 221.78936 223.87948
 225.94660 228.03772 230.14183 232.25495 234.39107 236.57019 238.83330 241.21042
 243.83854 246.09666 248.10578 249.87789 251.30201 252.43213 253.26125 253.58437
 253.62848 253.40960 252.77672 251.73184 250.34495 248.51307 246.42919 244.26931
 242.06743 239.87854 237.70566 235.55178 233.41890 231.29301 229.32613 227.49025
 225.78037 224.25949 222.89660 221.67572 220.56484 219.53196 218.64307 217.79119
 217.04031 216.22743 215.33255 214.70366 214.16078 214.30348 214.64061 216.06108
 218.22664 219.88205 220.19774 219.04285 218.77986 221.05249 225.27083 228.37425
 230.90561 234.03297 238.23805 242.94223 247.17587 250.51587 253.56236 256.70215
 259.73758 262.74875 265.52026 268.01129 270.38110 272.65723 274.67029 276.42444
 277.77170 278.79395 279.77597 280.67545 281.46466 282.24280 283.15735 284.03073
 284.82462 285.52969 286.16745 287.00858
 366.78100 356.34612 345.78924 334.66636 323.08049 311.28561 299.16673 286.98085
 274.70397 262.61209 250.63221 239.94434 230.07746 221.19258 213.38570 206.39882
 200.24394 195.19306 191.78619 189.83931 188.88743 188.96255 189.80867 191.12779
 192.86391 194.97004 197.24416 199.61428 202.07040 204.56152 206.66064 208.51376
 210.15089 211.30701 211.54713 211.78625 211.73437 211.45049 211.09461 210.73574
 210.36386 210.08498 209.90410 209.77922 209.71834 210.06046 210.45759 210.85771
 211.66183 212.85095 214.11207 215.90619 217.84531 219.89944 222.00556 224.09968
 226.17080 228.26592 230.37404 232.49116 234.63129 236.81441 239.08153 241.46265
 244.09477 246.35689 248.37001 250.14614 251.57426 252.70838 253.54150 253.86862
 253.91674 253.70186 253.07299 252.03211 250.64923 248.82135 246.74147 244.58559
 242.38771 240.20283 238.03396 235.88408 233.75520 231.63332 229.67044 227.83856
 226.13268 224.61581 223.25693 222.04005 220.93317 219.90429 219.01941 218.17153
 217.42466 216.61578 215.72490 215.10002 214.56114 214.55069 214.56052 215.96104
 218.36438 219.90762 220.12740 218.71693 218.36580 220.77298 225.02211 228.25262
 230.69167 233.95662 238.26871 242.98196 247.16545 250.56010 253.67195 256.78540
 259.83722 262.80624 265.53174 268.00143 270.30765 272.52151 274.53012 276.20044
 277.47043 278.60110 279.63702 280.55594 281.29013 282.17773 283.16724 283.99387
 284.67297 285.27774 285.80603 286.47931
 366.78100 356.34458 345.78615 334.66173 323.07430 311.27788 299.15746 286.97003
 274.69161 262.59819 250.61676 239.92734 230.05891 221.17249 213.36407 206.37564
 200.21922 195.16679 191.75837 189.80995 188.85652 188.93010 189.77468 191.09225
 192.82683 194.93140 197.20398 199.57256 202.02713 204.51671 206.61428 208.46586
 210.10144 211.25601 211.49459 211.73217 211.67874 211.39332 211.03589 210.67547
 210.30205 210.02162 209.83920 209.71277 209.65035 209.99093 210.38650 210.78508
 211.58766 212.77523 214.03481 215.82738 217.76496 219.81754 221.92211 224.01469
 226.08427 228.17784 230.28442 232.39999 234.53857 236.72015 238.98572 241.36530
 243.99587 246.25645 248.26803 250.04260 251.46918 252.60176 253.43333 253.75891
 253.80548 253.58906 252.95864 251.91621 250.53179 248.70236 246.62094 244.46352
 242.26409 240.07767 237.90725 235.75582 233.62540 231.50197 229.53755 227.70413
 225.99670 224.47828 223.11785 221.89943 220.79101 219.76058 218.87416 218.02474
 217.27631 216.46589 215.57346 214.94704 214.40662 214.50923 214.81561 215.96359
 218.05496 219.67860 220.04626 218.96983 218.77544 220.90222 224.89749 228.20055
 230.69888 234.08382 238.39864 243.03224 247.14088 250.58669 253.81441 256.95526
 259.98984 262.93906 265.63208 268.03717 270.25616 272.33939 274.39810 275.98529
 277.27487 278.31598 279.27875 280.24768 281.19543 282.20053 283.11755 283.94830
 284.69550 285.36084 285.94211 286.68283
 366.78100 356.33949 345.77597 334.64646 323.05394 311.25243 299.12691 286.93440
 274.65089 262.55237 250.56586 239.87134 229.99783 221.10631 213.29280 206.29929
 200.13777 195.08026 191.66674 189.71323 188.75471 188.82320 189.66268 190.97517
 192.70466 194.80414 197.07163 199.43511 201.88460 204.36908 206.46157 208.30806
 209.93854 211.08803 211.32151 211.55400 211.49548 211.20497 210.84246 210.47694
 210.09843 209.81291 209.62540 209.49388 209.42637 209.76186 210.15234 210.54583
 211.34331 212.52580 213.78028 215.56777 217.50026 219.54774 221.64723 223.73471
 225.79920 227.88768 229.98917 232.09965 234.23314 236.40963 238.67011 241.04460
 243.67008 245.92557 247.93205 249.70154 251.12303 252.25051 253.07700 253.39748
 253.43897 253.21745 252.58194 251.53443 250.14491 248.31040 246.22388 244.06137
 241.85685 239.66534 237.48983 235.33331 233.19780 231.06928 229.09977 227.26125
 225.54874 224.02523 222.65971 221.43620 220.32268 219.28717 218.39565 217.54114
 216.78763 215.97211 215.07460 214.44308 213.89757 214.27791 215.18234 216.02757
 217.59370 219.53085 220.28136 219.42924 219.18272 221.08405 224.92876 228.07748
 230.56335 233.99207 238.39743 243.04294 247.08821 250.47697 253.76599 257.01443
 260.09879 262.99850 265.61786 267.78400 270.24371 272.57440 274.46414 275.90497
 277.11652 278.20084 279.26617 280.20288 281.03314 281.76773 282.43793 283.04504
 283.59113 284.07739 284.50217 285.04352
 366.78100 356.33685 345.77070 334.63854 323.04339 311.23924 299.11109 286.91594
 274.62978 262.52863 250.53948 239.84233 229.96618 221.07202 213.25587 206.25972
 200.09557 195.03542 191.61926 189.66311 188.70196 188.76781 189.60466 190.91450
 192.64135 194.73820 197.00305 199.36390 201.81075 204.29259 206.38244 208.22629
 209.85414 211.00099 211.23183 211.46168 211.40053 211.10738 210.74223 210.37407
 209.99292 209.70477 209.51462 209.38047 209.31031 209.64316 210.03101 210.42186
 211.21671 212.39655 213.64840 215.43325 217.36310 219.40795 221.50479 223.58964
 225.65149 227.73734 229.83619 231.94403 234.07488 236.24873 238.50658 240.87843
 243.50127 245.75412 247.75797 249.52482 250.94367 252.06851 252.89236 253.21021
 253.24906 253.02491 252.38676 251.33660 249.94445 248.10730 246.01815 243.85300
 241.64584 239.45169 237.27354 235.11439 232.97624 230.84508 228.87293 227.03178
 225.31663 223.79048 222.42232 221.19617 220.08002 219.04187 218.14772 217.29056
 216.53441 215.71626 214.81611 214.18196 213.63380 214.17636 215.40837 216.08063
 217.40434 219.46211 220.33521 219.57918 219.31554 221.14854 224.93515 227.89905
 230.36319 233.87730 238.39418 243.02521 246.98834 250.42517 253.82336 257.01559
 260.00006 262.85608 265.34378 267.95511 270.52057 272.64868 274.37289 275.80029
 277.06168 278.25247 279.23026 280.11856 280.88730 281.56744 282.18799 282.75012
 283.25574 283.70596 284.09927 284.60052
 366.78100 356.33566 345.76831 334.63497 323.03863 311.23329 299.10394 286.90760
 274.62026 262.51791 250.52757 239.82923 229.95189 221.05654 213.23920 206.24186
 200.07651 195.01517 191.59783 189.64048 188.67814 188.74280 189.57846 190.88711
 192.61277 194.70843 196.97208 199.33174 201.77740 204.25806 206.34671 208.18937
 209.81603 210.96168 211.19134 211.42000 211.35766 211.06331 210.69697 210.32763
 209.94528 209.65594 209.46460 209.32926 209.25791 209.58957 209.97623 210.36588
 211.15954 212.33820 213.58885 215.37251 217.30117 219.34483 221.44048 223.52414
 225.58480 227.66945 229.76711 231.87377 234.00343 236.17608 238.43274 240.80340
 243.42505 245.67671 247.67937 249.44503 250.86268 251.98634 252.80900 253.12565
 253.16331 252.93797 252.29863 251.24728 249.85394 248.01560 245.92525 243.75891
 241.55057 239.35522 237.17588 235.01554 232.87620 230.74385 228.77051 226.92817
 225.21182 223.68448 222.31514 221.08780 219.97045 218.93111 218.03577 217.17742
 216.42008 215.60074 214.69940 214.06405 213.51471 214.15398 215.56107 216.04800
 217.29794 219.47856 220.36076 219.52768 219.26227 221.13841 224.92455 227.83585
 230.27942 233.86522 238.45923 243.04823 246.99037 250.45296 253.83952 256.96759
 259.93436 262.78149 265.31180 268.16022 270.60062 272.63931 274.34088 275.81232
 277.11880 278.24844 279.18585 280.01154 280.72610 281.35831 281.93509 282.45764
 282.92761 283.34610 283.71170 284.17761
 366.78100 356.33527 345.76753 334.63380 323.03706 311.23133 299.10159 286.90486
 274.61712 262.51439 250.52366 239.82492 229.94719 221.05145 213.23372 206.23598
 200.07025 195.00851 191.59078 189.63305 188.67031 188.73458 189.56984 190.87811
 192.60337 194.69864 196.96190 199.32117 201.76644 204.24670 206.33497 208.17723
 209.80350 210.94876 211.17803 211.40629 211.34356 211.04883 210.68209 210.31236
 209.92962 209.63989 209.44815 209.31242 209.24068 209.57195 209.95822 210.34748
 211.14075 212.31901 213.56928 215.35254 217.28081 219.32407 221.41934 223.50261
 225.56287 227.64714 229.74440 231.85067 233.97993 236.15220 238.40846 240.77873
 243.40000 245.65126 247.65353 249.41879 250.83606 251.95932 252.78159 253.09785
 253.13512 252.90939 252.26965 251.21792 249.82418 247.98545 245.89471 243.72798
 241.51924 239.32351 237.14378 234.98304 232.84331 230.71057 228.73684 226.89410
 225.17737 223.64963 222.27990 221.05217 219.93443 218.89470 217.99896 217.14023
 216.38249 215.56276 214.66102 214.02529 213.47556 214.16072 215.68210 216.10194
 216.99257 219.27293 220.47935 219.69093 219.31754 221.13513 224.81697 227.77966
 230.25407 233.92833 238.52510 243.07153 246.98071 250.44191 253.84024 257.02594
 260.01459 262.85510 265.53571 268.36288 270.71277 272.66864 274.30005 275.76688
 277.08530 278.21991 279.14423 279.83896 280.44022 280.97217 281.45749 281.89716
 282.29260 282.64471 282.95236 283.34436
 366.78100 356.33825 345.77349 334.64274 323.04899 311.24623 299.11948 286.92573
 274.64097 262.54122 250.55347 239.85771 229.98296 221.09021 213.27546 206.28070
 200.11795 195.05920 191.64444 189.68969 188.72994 188.79718 189.63543 190.94668
 192.67492 194.77317 197.03942 199.40166 201.84991 204.33316 206.42440 208.26965
 209.89890 211.04714 211.27939 211.51064 211.45089 211.15913 210.79538 210.42863
 210.04887 209.76212 209.57337 209.44061 209.37186 209.70611 210.09535 210.48760
 211.28385 212.46509 213.71834 215.50459 217.43583 219.48208 221.58033 223.66657
 225.72982 227.81707 229.91732 232.02656 234.15881 236.33406 238.59330 240.96655
 243.59080 245.84504 247.85029 249.61854 251.03878 252.16503 252.99028 253.30952
 253.34977 253.12702 252.49026 251.44151 250.05076 248.21500 246.12725 243.96350
 241.75775 239.56499 237.38824 235.23049 233.09373 230.96398 228.99323 227.15347
 225.43972 223.91497 222.54821 221.32346 220.20871 219.17195 218.27920 217.42345
 216.66869 215.85194 214.95319 214.32043 213.77368 214.32468 215.61465 216.32762
 216.76903 218.83232 220.46596 219.93123 219.41092 221.09196 224.66856 227.65685
 230.19066 233.94427 238.55711 243.03656 246.92488 250.41273 253.83069 257.07803
 260.13165 263.03949 265.79398 268.50784 270.76776 272.60608 274.15884 275.60999
 276.95374 278.06967 279.01086 279.95969 281.11337 282.13406 283.06531 283.90894
 284.66769 285.34338 285.93362 286.68585
 366.78100 356.34065 345.77831 334.64996 323.05861 311.25826 299.13392 286.94257
 274.66022 262.56287 250.57753 239.88418 230.01183 221.12148 213.30914 206.31679
 200.15644 195.10010 191.68775 189.73540 188.77805 188.84771 189.68836 191.00201
 192.73266 194.83332 197.10197 199.46662 201.91727 204.40293 206.49658 208.34423
 209.97589 211.12654 211.36119 211.59484 211.53750 211.24815 210.88680 210.52245
 210.14511 209.86076 209.67441 209.54406 209.47772 209.81437 210.20602 210.60068
 211.39933 212.58298 213.83863 215.62729 217.56094 219.60959 221.71024 223.79890
 225.86455 227.95420 230.05685 232.16851 234.30316 236.48081 238.74247 241.11812
 243.74477 246.00142 248.00908 249.77973 251.20238 252.33103 253.15869 253.48034
 253.52299 253.30264 252.66830 251.62195 250.23360 248.40026 246.31491 244.15356
 241.95021 239.75987 237.58552 235.43017 233.29582 231.16848 229.20013 227.36278
 225.65143 224.12909 222.76474 221.54239 220.43005 219.39570 218.50535 217.65200
 216.89966 216.08531 215.18896 214.55861 214.01427 214.48224 215.59433 216.35536
 216.87111 218.58160 220.27431 219.99132 219.48924 221.07201 224.56227 227.51851
 230.09489 233.94252 238.60919 243.06793 246.92284 250.42096 253.85304 257.14255
 260.23880 263.20163 266.02509 268.58807 270.75647 272.60178 273.95447 275.43646
 276.78183 277.88931 278.95068 280.23337 281.43500 282.49811 283.46805 284.34674
 285.13702 285.84076 286.45557 287.23901
 366.78100 356.33920 345.77540 334.64561 323.05281 311.25101 299.12521 286.93241
 274.64861 262.54982 250.56302 239.86822 229.99442 221.10262 213.28883 206.29503
 200.13323 195.07543 191.66163 189.70784 188.74904 188.81724 189.65644 190.96864
 192.69784 194.79705 197.06425 199.42745 201.87665 204.36085 206.45306 208.29926
 209.92946 211.07866 211.31186 211.54407 211.48527 211.19447 210.83167 210.46587
 210.08707 209.80128 209.61348 209.48168 209.41388 209.74908 210.13929 210.53249
 211.32969 212.51189 213.76609 215.55330 217.48550 219.53270 221.63190 223.71910
 225.78330 227.87151 229.97271 232.08291 234.21611 236.39231 238.65252 241.02672
 243.65192 245.90712 247.91332 249.68252 251.10373 252.23093 253.05713 253.37733
 253.41853 253.19674 252.56094 251.51314 250.12334 248.28854 246.20175 244.03895
 241.83415 239.64235 237.46655 235.30975 233.17396 231.04516 229.07536 227.23656
 225.52376 223.99997 222.63417 221.41037 220.29657 219.26077 218.36898 217.51418
 216.76038 215.94458 215.04678 214.41498 213.86919 214.46786 215.78719 216.20882
 216.93695 218.62138 220.14723 219.88422 219.46614 221.06824 224.54675 227.44006
 230.02809 233.95935 238.66287 243.07370 246.90672 250.43680 253.88246 257.18634
 260.30054 263.29453 266.15085 268.62695 270.73654 272.51483 273.85849 275.38074
 276.70636 277.97687 279.47876 280.87405 282.08154 283.14987 284.12454 285.00754
 285.80170 286.50888 287.12668 287.91400
 366.78100 356.33739 345.77178 334.64018 323.04557 311.24196 299.11435 286.91975
 274.63414 262.53353 250.54492 239.84832 229.97271 221.07910 213.26349 206.26788
 200.10428 195.04467 191.62906 189.67345 188.71285 188.77924 189.61663 190.92702
 192.65442 194.75181 197.01720 199.37859 201.82599 204.30838 206.39877 208.24316
 209.87155 211.01895 211.25034 211.48073 211.42012 211.12752 210.76291 210.39530
 210.01469 209.72709 209.53748 209.40387 209.33426 209.66765 210.05605 210.44744
 211.24283 212.42322 213.67562 215.46101 217.39140 219.43679 221.53419 223.61958
 225.68197 227.76836 229.86775 231.97615 234.10754 236.28193 238.54032 240.91272
 243.53611 245.78950 247.79389 249.56129 250.98068 252.10607 252.93046 253.24886
 253.28825 253.06464 252.42703 251.37742 249.98582 248.14921 246.06060 243.89599
 241.68939 239.49578 237.31817 235.15956 233.02196 230.89135 228.91974 227.07913
 225.36452 223.83892 222.47131 221.24570 220.13009 219.09249 218.19888 217.34227
 216.58666 215.76906 214.86945 214.23584 213.68823 214.42741 215.97661 216.17256
 216.76404 218.61848 220.16742 219.80084 219.30043 220.96805 224.57608 227.46933
 230.23109 234.11891 238.69672 243.05318 246.89467 250.45584 253.92337 257.24152
 260.38519 263.41330 266.25082 268.65326 270.75864 272.41144 273.85776 275.47913
 276.75800 278.21909 279.53687 280.69400 281.69540 282.58139 283.38971 284.12198
 284.78058 285.36707 285.87943 286.53235
 366.78100 356.33938 345.77575 334.64613 323.05350 311.25188 299.12625 286.93363
 274.65000 262.55138 250.56475 239.87013 229.99650 221.10488 213.29125 206.29763
 200.13601 195.07838 191.66476 189.71113 188.75251 188.82088 189.66026 190.97263
 192.70201 194.80138 197.06876 199.43213 201.88151 204.36589 206.45826 208.30464
 209.93501 211.08439 211.31776 211.55014 211.49151 211.20089 210.83826 210.47264
 210.09401 209.80839 209.62076 209.48914 209.42152 209.75689 210.14727 210.54064
 211.33802 212.52039 213.77477 215.56214 217.49452 219.54189 221.64127 223.72864
 225.79302 227.88140 229.98277 232.09315 234.22652 236.40290 238.66327 241.03765
 243.66302 245.91840 247.92477 249.69415 251.11552 252.24290 253.06927 253.38965
 253.43103 253.20940 252.57378 251.52615 250.13653 248.30190 246.21528 244.05265
 241.84803 239.65640 237.48078 235.32415 233.18853 231.05991 229.09028 227.25166
 225.53903 224.01541 222.64978 221.42616 220.31253 219.27691 218.38528 217.53066
 216.77703 215.96141 215.06378 214.43216 213.88654 214.55051 216.00684 216.30397
 216.52911 218.40930 220.14191 219.77586 219.26036 220.91069 224.58771 227.50137
 230.30199 234.20244 238.74760 243.06084 246.87839 250.45949 253.96384 257.31174
 260.47064 263.51520 266.31604 268.69275 270.76352 272.40491 273.89838 275.33694
 277.00800 278.70395 280.17154 281.46017 282.57538 283.56204 284.46222 285.27774
 286.01120 286.66434 287.23492 287.96204
 366.78100 356.33985 345.77669 334.64754 323.05538 311.25423 299.12907 286.93692
 274.65376 262.55561 250.56945 239.87530 230.00214 221.11099 213.29783 206.30468
 200.14352 195.08637 191.67321 189.72006 188.76190 188.83075 189.67059 190.98344
 192.71328 194.81313 197.08097 199.44482 201.89466 204.37951 206.47235 208.31920
 209.95004 211.09989 211.33373 211.56658 211.50842 211.21827 210.85611 210.49096
 210.11280 209.82765 209.64049 209.50934 209.44218 209.77803 210.16887 210.56272
 211.36056 212.54341 213.79825 215.58610 217.51894 219.56679 221.66663 223.75448
 225.81932 227.90817 230.01001 232.12086 234.25470 236.43155 238.69239 241.06724
 243.69308 245.94893 247.95577 249.72562 251.14746 252.27531 253.10215 253.42300
 253.46484 253.24369 252.60853 251.56138 250.17222 248.33807 246.25191 244.08976
 241.88560 239.69445 237.51929 235.36314 233.22798 231.09983 229.13067 227.29252
 225.58036 224.05721 222.69205 221.46890 220.35574 219.32059 218.42943 217.57528
 216.82212 216.00697 215.10981 214.47866 213.93350 214.61330 216.10521 216.33337
 216.36743 218.27504 220.15414 219.68465 219.36377 220.93323 224.55486 227.46407
 230.22585 234.18204 238.77695 243.07773 246.86819 250.46855 253.99257 257.37384
 260.54987 263.58826 266.36441 268.73193 270.79355 272.43295 273.67752 274.88107
 275.76056 276.51437 277.16672 277.73950 278.23520 278.67377 279.07391 279.43640
 279.76242 280.05273 280.30634 280.62955
 366.78100 356.33779 345.77258 334.64137 323.04716 311.24394 299.11673 286.92252
 274.63731 262.53710 250.54889 239.85268 229.97747 221.08426 213.26904 206.27383
 200.11062 195.05141 191.63620 189.68099 188.72078 188.78757 189.62536 190.93614
 192.66393 194.76172 197.02751 199.38930 201.83709 204.31988 206.41067 208.25546
 209.88424 211.03203 211.26382 211.49461 211.43440 211.14219 210.77798 210.41077
 210.03056 209.74334 209.55413 209.42092 209.35171 209.68550 210.07429 210.46608
 211.26187 212.44266 213.69545 215.48123 217.41202 219.45781 221.55560 223.64139
 225.70418 227.79097 229.89076 231.99955 234.13133 236.30612 238.56491 240.93770
 243.56149 245.81528 247.82007 249.58786 251.00765 252.13343 252.95822 253.27701
 253.31680 253.09359 252.45638 251.40717 250.01596 248.17975 246.09153 243.92732
 241.72111 239.52790 237.35069 235.19248 233.05527 230.92506 228.95385 227.11363
 225.39942 223.87421 222.50700 221.28179 220.16658 219.12937 218.23616 217.37995
 216.62473 215.80752 214.90831 214.27510 213.72789 214.56297 216.28821 216.30168
 215.98766 217.89029 219.75966 219.51985 219.40604 221.11057 224.49937 227.48529
 230.24471 234.21826 238.77696 243.06528 246.93782 250.59676 254.15971 257.55392
 260.74472 263.76868 266.50690 268.88501 270.82114 272.37750 273.62326 274.54828
 275.35114 276.03931 276.63483 277.15771 277.61026 278.01062 278.37589 278.70679
 279.00443 279.26944 279.50098 279.79602
 366.78100 356.33959 345.77618 334.64677 323.05436 311.25295 299.12754 286.93513
 274.65172 262.55331 250.56690 239.87249 229.99908 221.10767 213.29426 206.30085
 200.13944 195.08203 191.66862 189.71521 188.75680 188.82539 189.66498 190.97757
 192.70716 194.80676 197.07435 199.43794 201.88753 204.37212 206.46471 208.31130
 209.94189 211.09148 211.32507 211.55766 211.49925 211.20884 210.84643 210.48102
 210.10261 209.81720 209.62979 209.49838 209.43097 209.76656 210.15715 210.55074
 211.34833 212.53092 213.78551 215.57310 217.50569 219.55328 221.65287 223.74046
 225.80505 227.89364 229.99523 232.10582 234.23941 236.41600 238.67659 241.05118
 243.67677 245.93236 247.93895 249.70854 251.13013 252.25772 253.08431 253.40490
 253.44649 253.22508 252.58967 251.54227 250.15286 248.31845 246.23204 244.06963
 241.86522 239.67381 237.49840 235.34199 233.20658 231.07817 229.10876 227.27035
 225.55794 224.03453 222.66912 221.44571 220.33230 219.29689 218.40548 217.55107
 216.79766 215.98225 215.08484 214.45343 213.90802 214.66183 216.30788 216.51318
 215.84361 217.37788 219.43707 219.37752 219.45352 221.22859 224.69360 227.61568
 230.28836 234.29732 238.91144 243.20682 247.08148 250.73616 254.29079 257.70126
 260.89716 263.90344 266.68393 269.15329 271.21875 273.15369 273.75299 274.65741
 275.44244 276.11530 276.69757 277.20883 277.65128 278.04276 278.39990 278.72345
 279.01443 279.27359 279.49997 279.78845
 366.78100 356.34226 345.78152 334.65478 323.06504 311.26630 299.14356 286.95382
 274.67308 262.57734 250.59360 239.90186 230.03112 221.14238 213.33164 206.34091
 200.18217 195.12743 191.71669 189.76595 188.81021 188.88147 189.72373 191.03899
 192.77125 194.87351 197.14377 199.51003 201.96229 204.44955 206.54481 208.39407
 210.02733 211.17959 211.41585 211.65111 211.59537 211.30763 210.94789 210.58515
 210.20941 209.92667 209.74193 209.61319 209.54845 209.88672 210.27998 210.67624
 211.47650 212.66176 213.91902 215.70928 217.64454 219.69480 221.79706 223.88732
 225.95458 228.04584 230.15010 232.26336 234.39962 236.57888 238.84214 241.21940
 243.84766 246.10592 248.11518 249.88744 251.31170 252.44196 253.27122 253.59448
 253.63874 253.42000 252.78726 251.74253 250.35579 248.52405 246.44031 244.28057
 242.07883 239.89009 237.71735 235.56361 233.43087 231.30513 229.33839 227.50265
 225.79291 224.27217 222.90943 221.68869 220.57795 219.54521 218.65647 217.80473
 217.05399 216.24125 215.34651 214.71777 214.17503 214.80287 216.25543 216.67613
 216.06793 217.22876 219.21648 219.10536 219.23172 221.13770 224.63026 227.62636
 230.40277 234.36670 238.94873 243.24268 247.09845 250.75221 254.30650 257.71408
 260.89240 263.85037 266.60400 269.07129 271.22192 273.03033 274.13147 275.80334
 278.10754 280.08258 281.79169 283.29239 284.59109 285.74014 286.78848 287.73819
 288.59235 289.35297 290.01746 290.86426
 366.78100 356.34193 345.78086 334.65379 323.06372 311.26465 299.14158 286.95151
 274.67043 262.57436 250.59029 239.89822 230.02715 221.13808 213.32701 206.33594
 200.17687 195.12180 191.71073 189.75966 188.80359 188.87452 189.71645 191.03138
 192.76330 194.86523 197.13516 199.50109 201.95302 204.43995 206.53488 208.38381
 210.01674 211.16867 211.40460 211.63953 211.58346 211.29539 210.93532 210.57225
 210.19617 209.91310 209.72803 209.59896 209.53389 209.87182 210.26475 210.66068
 211.46061 212.64554 213.90247 215.69240 217.62733 219.67726 221.77919 223.86912
 225.93604 228.02697 230.13090 232.24383 234.37976 236.55869 238.82162 241.19855
 243.82648 246.08441 248.09334 249.86527 251.28920 252.41913 253.24806 253.57099
 253.61491 253.39584 252.76277 251.71770 250.33063 248.49856 246.41449 244.25442
 242.05235 239.86328 237.69021 235.53614 233.40307 231.27700 229.30993 227.47386
 225.76378 224.24271 222.87964 221.65857 220.54750 219.51443 218.62536 217.77329
 217.02222 216.20915 215.31408 214.68501 214.14194 214.81490 216.31790 216.64377
 216.08110 217.16270 219.08426 219.03651 219.03130 221.04015 224.49060 227.51663
 230.34837 234.38443 238.99167 243.27405 247.13864 250.79912 254.38058 257.80310
 260.96295 263.87985 266.59653 269.05331 271.22495 272.94553 274.19040 276.17874
 278.57861 280.64655 282.43600 284.00729 285.36710 286.57019 287.66782 288.66217
 289.55652 290.35294 291.04865 291.93527
 366.78100 356.34099 345.77898 334.65096 323.05995 311.25994 299.13593 286.94492
 274.66290 262.56589 250.58088 239.88787 230.01586 221.12584 213.31383 206.32182
 200.16181 195.10580 191.69379 189.74177 188.78476 188.85475 189.69574 191.00973
 192.74071 194.84170 197.11069 199.47568 201.92667 204.41265 206.50664 208.35463
 209.98662 211.13761 211.37259 211.60658 211.54957 211.26056 210.89955 210.53553
 210.15852 209.87451 209.68850 209.55849 209.49247 209.82946 210.22145 210.61644
 211.41543 212.59941 213.85540 215.64439 217.57838 219.62737 221.72836 223.81734
 225.88333 227.97332 230.07631 232.18830 234.32328 236.50127 238.76326 241.13925
 243.76624 246.02322 248.03121 249.80220 251.22519 252.35418 253.18216 253.50415
 253.54714 253.32713 252.69312 251.64710 250.25909 248.42608 246.34107 244.18006
 241.97704 239.78703 237.61302 235.45801 233.32400 231.19698 229.22897 227.39196
 225.68095 224.15894 222.79493 221.57291 220.46090 219.42689 218.53688 217.68387
 216.93185 216.11784 215.22183 214.59182 214.04781 214.78157 216.40089 216.67017
 216.09576 216.92294 218.60063 218.86070 219.07639 221.25459 224.47401 227.66876
 230.47189 234.44232 239.04527 243.34496 247.22374 250.89597 254.46425 257.86490
 261.00308 263.91037 266.62057 269.07080 271.21954 273.04099 274.58969 276.17361
 277.97000 279.83630 281.47656 282.91684 284.16327 285.26605 286.27216 287.18365
 288.00342 288.73343 289.37115 290.18384
 366.78100 356.34142 345.77984 334.65226 323.06168 311.26210 299.13852 286.94794
 274.66636 262.56978 250.58520 239.89263 230.02105 221.13147 213.31989 206.32831
 200.16873 195.11315 191.70157 189.74999 188.79341 188.86383 189.70525 191.01967
 192.75109 194.85251 197.12193 199.48735 201.93877 204.42519 206.51961 208.36804
 210.00046 211.15188 211.38730 211.62172 211.56514 211.27656 210.91598 210.55240
 210.17582 209.89224 209.70666 209.57708 209.51150 209.84892 210.24134 210.63676
 211.43618 212.62060 213.87702 215.66645 217.60087 219.65029 221.75171 223.84113
 225.90755 227.99797 230.10139 232.21381 234.34923 236.52765 238.79007 241.16649
 243.79391 246.05133 248.05975 249.83117 251.25459 252.38401 253.21243 253.53485
 253.57828 253.35870 252.72512 251.67954 250.29196 248.45938 246.37480 244.21422
 242.01164 239.82206 237.64848 235.49390 233.36032 231.23374 229.26616 227.42958
 225.71900 224.19742 222.83384 221.61226 220.50069 219.46711 218.57753 217.72495
 216.97337 216.15979 215.26421 214.63463 214.09105 214.81285 216.42416 216.74820
 216.15266 216.78445 218.26611 218.62103 218.99995 221.19344 224.38512 227.60474
 230.41623 234.45787 239.10294 243.39769 247.27745 250.96822 254.54317 257.92902
 261.05084 263.93896 266.62350 269.04205 271.15137 273.02725 274.64096 276.18802
 277.61517 279.32828 280.98608 282.44174 283.70151 284.81610 285.83298 286.75418
 287.58270 288.32053 288.96506 289.78647
 366.78100 356.34184 345.78067 334.65351 323.06334 311.26418 299.14101 286.95085
 274.66968 262.57352 250.58935 239.89719 230.02602 221.13686 213.32569 206.33453
 200.17536 195.12020 191.70903 189.75787 188.80170 188.87254 189.71437 191.02921
 192.76104 194.86288 197.13271 199.49855 201.95038 204.43722 206.53205 208.38089
 210.01372 211.16556 211.40139 211.63623 211.58006 211.29190 210.93173 210.56857
 210.19240 209.90924 209.72407 209.59491 209.52974 209.86758 210.26041 210.65625
 211.45608 212.64092 213.89775 215.68759 217.62242 219.67226 221.77409 223.86393
 225.93076 228.02160 230.12543 232.23827 234.37410 236.55294 238.81577 241.19261
 243.82044 246.07828 248.08711 249.85895 251.28278 252.41262 253.24146 253.56429
 253.60813 253.38896 252.75580 251.71063 250.32347 248.49130 246.40714 244.24697
 242.04481 239.85564 237.68248 235.52831 233.39515 231.26898 229.30182 227.46565
 225.75549 224.23432 222.87116 221.64999 220.53883 219.50566 218.61650 217.76433
 217.01317 216.20000 215.30484 214.67567 214.13251 214.85144 216.44266 216.71591
 216.15211 216.77596 218.19446 218.40730 218.78233 221.05299 224.29857 227.55942
 230.41855 234.52113 239.18306 243.47993 247.38571 251.10779 254.70833 258.08099
 261.16400 264.02866 266.70428 269.11819 271.22110 273.03287 274.75992 276.42303
 277.61847 279.43515 281.12433 282.60757 283.89117 285.02682 286.06296 287.00162
 287.84583 288.59763 289.25436 290.09131
 366.78100 356.34200 345.78100 334.65399 323.06399 311.26499 299.14199 286.95199
 274.67098 262.57498 250.59098 239.89898 230.02798 221.13897 213.32797 206.33697
 200.17797 195.12297 191.71196 189.76096 188.80496 188.87596 189.71796 191.03295
 192.76495 194.86695 197.13695 199.50295 201.95495 204.44194 206.53694 208.38594
 210.01894 211.17094 211.40693 211.64193 211.58593 211.29793 210.93793 210.57492
 210.19892 209.91592 209.73092 209.60192 209.53691 209.87491 210.26791 210.66391
 211.46391 212.64890 213.90590 215.69590 217.63090 219.68090 221.78289 223.87289
 225.93989 228.03089 230.13489 232.24788 234.38388 236.56288 238.82588 241.20288
 243.83087 246.08887 248.09787 249.86987 251.29387 252.42386 253.25286 253.57586
 253.61986 253.40086 252.76785 251.72285 250.33585 248.50385 246.41985 244.25984
 242.05784 239.86884 237.69584 235.54184 233.40884 231.28283 229.31583 227.47983
 225.76983 224.24883 222.88582 221.66482 220.55382 219.52082 218.63182 217.77981
 217.02881 216.21581 215.32081 214.69181 214.14880 214.86339 216.46190 216.75227
 216.14999 216.60455 217.78952 218.14667 218.80182 221.07080 224.40845 227.67487
 230.52412 234.62148 239.32890 243.62634 247.52051 251.22163 254.78513 258.11169
 261.17657 264.04333 266.72995 269.14319 271.26108 273.12076 274.91141 276.61261
 277.90363 279.30966 280.87891 282.30664 283.54221 284.63538 285.63272 286.53625
 287.34888 288.07254 288.70468 289.51031
 366.78100 356.34330 345.78359 334.65789 323.06919 311.27148 299.14978 286.96108
 274.68137 262.58667 250.60397 239.91326 230.04356 221.15586 213.34615 206.35645
 200.19875 195.14504 191.73534 189.78564 188.83093 188.90323 189.74653 191.06282
 192.79612 194.89942 197.17071 199.53801 201.99131 204.47960 206.57590 208.42620
 210.06049 211.21379 211.45109 211.68738 211.63268 211.34598 210.98728 210.62557
 210.25087 209.96917 209.78546 209.65776 209.59406 209.93335 210.32765 210.72495
 211.52624 212.71254 213.97084 215.76213 217.69843 219.74973 221.85302 223.94432
 226.01262 228.10491 230.21021 232.32451 234.46180 236.64210 238.90640 241.28469
 243.91399 246.17329 248.18358 249.95688 251.38218 252.51347 253.34377 253.66807
 253.71336 253.49566 252.86396 251.82025 250.43455 248.60385 246.52114 244.36244
 242.16174 239.97403 237.80233 235.64963 233.51792 231.39322 229.42752 227.59281
 225.88411 224.36441 223.00270 221.78300 220.67330 219.64159 218.75389 217.90319
 217.15348 216.34178 215.44808 214.82037 214.27867 214.92577 216.41313 216.89078
 216.18697 216.48503 217.56345 217.88208 218.61034 220.95354 224.38322 227.68675
 230.62566 234.71701 239.37494 243.67848 247.56810 251.26199 254.81731 258.11551
 261.16483 264.02808 266.70331 269.10870 271.21725 273.10318 274.96140 276.60477
 277.89954 279.25592 280.72751 282.12842 283.37228 284.47278 285.47681 286.38638
 287.20447 287.93295 288.56937 289.38037
 366.78100 356.34471 345.78643 334.66214 323.07486 311.27857 299.15829 286.97100
 274.69272 262.59943 250.61814 239.92886 230.06057 221.17429 213.36600 206.37772
 200.22143 195.16914 191.76086 189.81257 188.85929 188.93300 189.77772 191.09543
 192.83015 194.93486 197.20757 199.57629 202.03100 204.52072 206.61843 208.47015
 210.10586 211.26058 211.49929 211.73700 211.68372 211.39843 211.04115 210.68086
 210.30758 210.02729 209.84501 209.71872 209.65643 209.99715 210.39286 210.79158
 211.59429 212.78201 214.04172 215.83443 217.77215 219.82486 221.92958 224.02229
 226.09201 228.18572 230.29244 232.40815 234.54686 236.72858 238.99429 241.37401
 244.00472 246.26544 248.27715 250.05187 251.47858 252.61129 253.44301 253.76872
 253.81544 253.59915 252.96887 251.92658 250.54229 248.71301 246.63172 244.47444
 242.27515 240.08887 237.91858 235.76730 233.63701 231.51372 229.54944 227.71615
 226.00887 224.49058 223.13030 221.91201 220.80373 219.77344 218.88715 218.03787
 217.28958 216.47930 215.58701 214.96073 214.42044 215.00467 216.36679 216.90460
 216.24408 216.53546 217.56236 217.76517 218.49220 220.82899 224.28148 227.59250
 230.52763 234.72337 239.42339 243.72661 247.64670 251.37405 254.93880 258.22412
 261.24966 264.09149 266.74496 269.12466 271.22623 273.15607 275.07419 276.60849
 277.92355 279.44678 281.06491 282.54361 283.82330 284.95547 285.98843 286.92422
 287.76587 288.51535 289.17007 290.00446
 366.78100 356.34516 345.78732 334.66349 323.07665 311.28081 299.16097 286.97414
 274.69630 262.60346 250.62262 239.93379 230.06595 221.18011 213.37227 206.38444
 200.22860 195.17676 191.76892 189.82109 188.86825 188.94241 189.78757 191.10574
 192.84090 194.94606 197.21922 199.58838 202.04355 204.53371 206.63187 208.48403
 210.12020 211.27536 211.51452 211.75268 211.69985 211.41501 211.05817 210.69833
 210.32550 210.04566 209.86382 209.73798 209.67615 210.01731 210.41347 210.81263
 211.61580 212.80396 214.06412 215.85728 217.79545 219.84861 221.95377 224.04693
 226.11709 228.21126 230.31842 232.43458 234.57374 236.75591 239.02207 241.40223
 244.03339 246.29456 248.30672 250.08188 251.50904 252.64221 253.47437 253.80053
 253.84769 253.63186 253.00202 251.96018 250.57634 248.74751 246.66667 244.50983
 242.31099 240.12515 237.95532 235.80448 233.67464 231.55180 229.58797 227.75513
 226.04829 224.53045 223.17062 221.95278 220.84494 219.81510 218.92927 218.08043
 217.33259 216.52275 215.63092 215.00508 214.46524 215.03540 216.35843 216.86656
 216.31540 216.52974 217.50037 217.63000 218.37498 220.73462 224.27525 227.59979
 230.61426 234.80820 239.48657 243.82658 247.78421 251.52971 255.08661 258.34729
 261.34525 264.17343 266.81985 269.19772 271.30121 273.25464 275.22260 276.70273
 278.09906 279.88428 281.61658 283.13766 284.45404 285.61868 286.68127 287.64386
 288.50964 289.28061 289.95410 290.81241
 366.78100 356.34608 345.78916 334.66625 323.08033 311.28541 299.16649 286.98057
 274.70366 262.61174 250.63182 239.94390 230.07698 221.19206 213.38515 206.39823
 200.24331 195.19239 191.78547 189.83856 188.88664 188.96172 189.80780 191.12688
 192.86297 194.96905 197.24313 199.61321 202.06929 204.56038 206.65946 208.51254
 210.14962 211.30570 211.54578 211.78487 211.73295 211.44903 211.09311 210.73419
 210.36228 210.08336 209.90244 209.77752 209.71660 210.05869 210.45577 210.85585
 211.65993 212.84901 214.11009 215.90418 217.84326 219.89734 222.00342 224.09750
 226.16859 228.26367 230.37175 232.48883 234.62891 236.81200 239.07908 241.46016
 244.09224 246.35432 248.36741 250.14349 251.57157 252.70565 253.53873 253.86581
 253.91390 253.69898 253.07006 252.02914 250.64622 248.81831 246.73839 244.58247
 242.38455 240.19963 238.03072 235.88080 233.75188 231.62996 229.66704 227.83513
 226.12921 224.61229 223.25337 222.03645 220.92953 219.90062 219.01570 218.16778
 217.42086 216.61194 215.72103 215.09611 214.55719 215.08340 216.31310 216.88559
 216.48676 216.51062 217.29135 217.35350 218.18451 220.63208 224.24562 227.57858
 230.65717 234.88731 239.57521 243.93996 247.91910 251.66965 255.20645 258.43036
 261.40378 264.22427 266.86829 269.23825 271.34991 273.35968 275.42886 276.73883
 278.35315 280.23523 281.98788 283.52682 284.85864 286.03699 287.11203 288.08594
 288.96185 289.74188 290.42328 291.29166
 366.78100 356.34670 345.79041 334.66811 323.08281 311.28851 299.17022 286.98492
 274.70862 262.61732 250.63803 239.95073 230.08443 221.20013 213.39384 206.40754
 200.25324 195.20294 191.79665 189.85035 188.89905 188.97476 189.82146 191.14116
 192.87786 194.98457 197.25927 199.62997 202.08667 204.57838 206.67808 208.53178
 210.16948 211.32619 211.56689 211.80659 211.75529 211.47200 211.11670 210.75840
 210.38711 210.10881 209.92851 209.80421 209.74392 210.08662 210.48432 210.88502
 211.68973 212.87943 214.14113 215.93583 217.87554 219.93024 222.03694 224.13164
 226.20335 228.29905 230.40775 232.52545 234.66616 236.84986 239.11756 241.49927
 244.13197 246.39467 248.40837 250.18508 251.61378 252.74848 253.58218 253.90989
 253.95859 253.74429 253.11599 252.07570 250.69340 248.86610 246.78680 244.63151
 242.43421 240.24991 238.08162 235.93232 233.80402 231.68272 229.72043 227.88913
 226.18383 224.66753 223.30924 222.09294 220.98664 219.95834 219.07405 218.22675
 217.48045 216.67215 215.78186 215.15756 214.61926 215.12187 216.27919 216.84109
 216.65927 216.59138 217.17026 217.06932 217.90779 220.41850 224.12012 227.50694
 230.66914 234.94455 239.64162 244.04091 248.06325 251.84486 255.39856 258.61633
 261.56085 264.34882 266.97852 269.34943 271.45169 273.50119 275.58545 276.95096
 278.65399 280.68527 282.51727 284.12592 285.51807 286.74976 287.87347 288.89151
 289.80710 290.62244 291.33472 292.24243
 366.78100 356.34560 345.78821 334.66481 323.07842 311.28302 299.16363 286.97723
 274.69984 262.60744 250.62704 239.93865 230.07125 221.18586 213.37846 206.39107
 200.23567 195.18428 191.77688 189.82948 188.87709 188.95169 189.79730 191.11590
 192.85151 194.95711 197.23072 199.60032 202.05592 204.54653 206.64513 208.49774
 210.13434 211.28995 211.52955 211.76816 211.71576 211.43136 211.07497 210.71557
 210.34318 210.06378 209.88239 209.75699 209.69560 210.03720 210.43380 210.83341
 211.63701 212.82562 214.08622 215.87983 217.81843 219.87204 221.97764 224.07124
 226.14185 228.23645 230.34406 232.46066 234.60027 236.78287 239.04948 241.43008
 244.06168 246.32329 248.33589 250.11150 251.53910 252.67271 253.50531 253.83192
 253.87952 253.66412 253.03473 251.99333 250.60994 248.78154 246.70115 244.54475
 242.34636 240.16096 237.99157 235.84117 233.71177 231.58938 229.62598 227.79359
 226.08719 224.56980 223.21040 221.99301 220.88561 219.85621 218.97082 218.12242
 217.37503 216.56563 215.67424 215.04884 214.50945 215.06998 216.31030 216.70398
 216.75243 216.76718 217.08548 216.90947 217.76401 220.34337 223.93553 227.39088
 230.58540 234.98068 239.73622 244.12851 248.15363 251.93620 255.47891 258.68933
 261.64890 264.45554 267.08432 269.44647 271.66727 274.03757 276.15341 277.58401
 278.96121 280.80130 282.60040 284.18112 285.54910 286.75940 287.86362 288.86395
 289.76364 290.56485 291.26474 292.15668
 366.78100 356.34517 345.78734 334.66351 323.07667 311.28084 299.16101 286.97418
 274.69635 262.60352 250.62269 239.93385 230.06602 221.18019 213.37236 206.38453
 200.22870 195.17686 191.76903 189.82120 188.86837 188.94254 189.78771 191.10588
 192.84104 194.94621 197.21938 199.58855 202.04372 204.53389 206.63206 208.48422
 210.12039 211.27556 211.51473 211.75290 211.70007 211.41523 211.05840 210.69857
 210.32574 210.04591 209.86408 209.73825 209.67641 210.01758 210.41375 210.81292
 211.61609 212.80426 214.06443 215.85759 217.79576 219.84893 221.95410 224.04727
 226.11744 228.21160 230.31877 232.43494 234.57411 236.75628 239.02245 241.40262
 244.03378 246.29495 248.30712 250.08229 251.50946 252.64263 253.47480 253.80096
 253.84813 253.63230 253.00247 251.96064 250.57681 248.74798 246.66714 244.51031
 242.31148 240.12565 237.95582 235.80499 233.67515 231.55232 229.58849 227.75566
 226.04883 224.53100 223.17117 221.95333 220.84550 219.81567 218.92984 218.08101
 217.33318 216.52335 215.63151 215.00568 214.46585 215.02988 216.31230 216.67537
 216.75087 216.79092 216.88264 216.78796 217.64740 220.22653 223.89041 227.34956
 230.70929 235.03357 239.74527 244.14732 248.15576 251.89143 255.37091 258.53293
 261.49011 264.32907 267.01849 269.51981 271.91867 274.27954 276.41769 278.14737
 279.55283 280.80801 282.06760 283.23340 284.32092 285.28415 286.16293 286.95908
 287.67511 288.31274 288.86975 289.57962
 366.78100 356.34575 345.78849 334.66524 323.07898 311.28373 299.16448 286.97822
 274.70097 262.60871 250.62846 239.94021 230.07295 221.18770 213.38044 206.39319
 200.23794 195.18668 191.77943 189.83218 188.87992 188.95467 189.80041 191.11916
 192.85491 194.96065 197.23440 199.60414 202.05989 204.55064 206.64938 208.50213
 210.13887 211.29462 211.53437 211.77311 211.72086 211.43660 211.08035 210.72110
 210.34884 210.06959 209.88833 209.76308 209.70183 210.04357 210.44032 210.84006
 211.64381 212.83256 214.09330 215.88705 217.82579 219.87954 221.98529 224.07903
 226.14978 228.24453 230.35227 232.46902 234.60876 236.79151 239.05826 241.43900
 244.07075 246.33249 248.34524 250.12099 251.54873 252.68248 253.51522 253.84197
 253.88972 253.67446 253.04521 252.00395 250.62070 248.79245 246.71219 244.55594
 242.35768 240.17243 238.00318 235.85292 233.72367 231.60141 229.63816 227.80591
 226.09965 224.58240 223.22314 222.00589 220.89864 219.86938 218.98413 218.13588
 217.38862 216.57937 215.68811 215.06286 214.52361 215.04298 216.25194 216.73465
 216.76303 216.78722 216.79953 216.54958 217.33691 219.99084 223.82161 227.17365
 230.71022 235.03813 239.77293 244.20172 248.22040 251.95549 255.41147 258.54810
 261.45966 264.24786 266.91187 269.44086 271.95206 274.39417 276.50232 278.21191
 279.69275 280.91504 281.90454 282.67697 283.49182 284.34439 285.23630 286.04620
 286.77460 287.42325 287.98990 288.71201
 366.78100 356.34545 345.78789 334.66434 323.07779 311.28223 299.16268 286.97613
 274.69857 262.60602 250.62547 239.93692 230.06936 221.18381 213.37626 206.38870
 200.23315 195.18160 191.77404 189.82649 188.87394 188.94838 189.79383 191.11228
 192.84772 194.95317 197.22662 199.59606 202.05151 204.54196 206.64040 208.49285
 210.12930 211.28475 211.52419 211.76264 211.71009 211.42553 211.06898 210.70943
 210.33687 210.05732 209.87577 209.75021 209.68866 210.03011 210.42655 210.82600
 211.62945 212.81789 214.07834 215.87179 217.81024 219.86368 221.96913 224.06258
 226.13302 228.22747 230.33492 232.45136 234.59081 236.77326 239.03970 241.42015
 244.05160 246.31304 248.32549 250.10094 251.52838 252.66183 253.49428 253.82072
 253.86817 253.65262 253.02307 251.98151 250.59796 248.76941 246.68885 244.53230
 242.33375 240.14819 237.97864 235.82809 233.69853 231.57598 229.61243 227.77987
 226.07332 224.55577 223.19621 221.97866 220.87111 219.84156 218.95600 218.10745
 217.35990 216.55034 215.65879 215.03324 214.49368 215.02425 216.25598 216.68475
 216.77524 216.86725 216.84090 216.48248 217.19814 219.85512 223.67799 227.05243
 230.66530 235.07617 239.83531 244.28391 248.32713 252.08255 255.55072 258.68066
 261.57156 264.31735 266.93881 269.43018 271.99838 274.55356 276.66360 278.28125
 279.74094 280.98782 282.00104 282.69864 283.12698 283.83133 284.76682 285.62015
 286.38760 287.07104 287.66806 288.42889
 366.78100 356.34668 345.79037 334.66805 323.08273 311.28842 299.17010 286.98478
 274.70846 262.61715 250.63783 239.95051 230.08420 221.19988 213.39356 206.40725
 200.25293 195.20261 191.79630 189.84998 188.89866 188.97435 189.82103 191.14071
 192.87739 194.98408 197.25876 199.62944 202.08613 204.57781 206.67749 208.53118
 210.16886 211.32554 211.56623 211.80591 211.75459 211.47127 211.11596 210.75764
 210.38632 210.10801 209.92769 209.80337 209.74306 210.08574 210.48342 210.88411
 211.68879 212.87847 214.14015 215.93484 217.87452 219.92920 222.03589 224.13057
 226.20225 228.29794 230.40662 232.52430 234.66499 236.84867 239.11635 241.49804
 244.13072 246.39340 248.40708 250.18377 251.61245 252.74713 253.58082 253.90850
 253.95718 253.74287 253.11455 252.07423 250.69192 248.86460 246.78528 244.62996
 242.43265 240.24833 238.08001 235.93070 233.80238 231.68106 229.71875 227.88743
 226.18211 224.66580 223.30748 222.09116 220.98484 219.95653 219.07221 218.22489
 217.47858 216.67026 215.77994 215.15563 214.61731 215.07906 216.16295 216.74475
 216.78052 216.78845 216.82346 216.45987 217.11578 219.76442 223.61070 226.97191
 230.64951 235.11877 239.90294 244.36015 248.40587 252.14972 255.60277 258.72198
 261.60748 264.34265 266.93835 269.42969 272.05502 274.72269 276.87021 278.50046
 279.98798 281.27991 282.31290 283.00793 283.29831 283.79953 284.66602 285.46631
 286.18610 286.82706 287.38702 288.10059
 366.78100 356.34738 345.79177 334.67015 323.08554 311.29192 299.17431 286.98969
 274.71408 262.62346 250.64485 239.95823 230.09262 221.20900 213.40339 206.41777
 200.26416 195.21454 191.80892 189.86331 188.91269 188.98908 189.83646 191.15685
 192.89423 195.00162 197.27700 199.64839 202.10577 204.59816 206.69854 208.55293
 210.19131 211.34869 211.59008 211.83046 211.77985 211.49723 211.14262 210.78500
 210.41439 210.13677 209.95716 209.83354 209.77393 210.11731 210.51570 210.91708
 211.72247 212.91285 214.17523 215.97062 217.91100 219.96639 222.07377 224.16916
 226.24154 228.33793 230.44731 232.56570 234.70708 236.89147 239.15985 241.54224
 244.17562 246.43901 248.45339 250.23077 251.66016 252.79554 253.62993 253.95831
 254.00770 253.79408 253.16647 252.12685 250.74524 248.91862 246.84001 244.68539
 242.48878 240.30516 238.13754 235.98893 233.86131 231.74070 229.77908 227.94847
 226.24385 224.72824 223.37062 222.15501 221.04939 220.02178 219.13816 218.29155
 217.54593 216.73832 215.84870 215.22508 214.68747 215.10620 216.09464 216.75888
 216.99704 216.86899 216.75485 216.36172 216.99077 219.68030 223.55765 226.84215
 230.62289 235.14490 239.95277 244.40686 248.43852 252.16086 255.60712 258.73047
 261.61969 264.34647 266.92215 269.43326 272.09161 274.79865 276.95724 278.58676
 280.04974 281.30051 282.25522 282.90543 283.33282 283.77350 284.44766 285.18710
 285.86884 286.47589 287.00623 287.68207
 366.78100 356.34655 345.79010 334.66765 323.08219 311.28774 299.16929 286.98384
 274.70739 262.61594 250.63649 239.94903 230.08258 221.19813 213.39168 206.40523
 200.25078 195.20032 191.79387 189.84742 188.89597 188.97152 189.81807 191.13762
 192.87416 194.98071 197.25526 199.62581 202.08236 204.57391 206.67346 208.52700
 210.16455 211.32110 211.56165 211.80120 211.74975 211.46629 211.11084 210.75239
 210.38094 210.10249 209.92204 209.79759 209.73713 210.07968 210.47723 210.87778
 211.68233 212.87188 214.13343 215.92797 217.86752 219.92207 222.02862 224.12317
 226.19472 228.29027 230.39881 232.51636 234.65691 236.84046 239.10801 241.48956
 244.12210 246.38465 248.39820 250.17475 251.60330 252.73785 253.57140 253.89894
 253.94749 253.73304 253.10459 252.06414 250.68169 248.85424 246.77478 244.61933
 242.42188 240.23743 238.06898 235.91953 233.79108 231.66962 229.70717 227.87572
 226.17027 224.65382 223.29537 222.07891 220.97246 219.94401 219.05956 218.21211
 217.46566 216.65721 215.76675 215.14230 214.60385 215.06000 216.13419 216.67133
 217.12749 217.06856 216.75818 216.23209 216.82068 219.50009 223.40976 226.72804
 230.59003 235.17480 240.00104 244.44197 248.46944 252.19838 255.65938 258.80234
 261.70901 264.43207 266.97336 269.43701 272.15997 274.87521 277.02643 278.64859
 280.12256 281.30890 282.10983 282.56558 282.84171 283.23895 283.83163 284.58084
 285.35141 286.03760 286.63702 287.40094
 366.78100 356.34731 345.79162 334.66993 323.08524 311.29155 299.17386 286.98917
 274.71348 262.62279 250.64410 239.95741 230.09172 221.20803 213.40234 206.41665
 200.26296 195.21327 191.80758 189.86189 188.91120 188.98751 189.83482 191.15512
 192.89243 194.99974 197.27505 199.64636 202.10367 204.59598 206.69629 208.55060
 210.18891 211.34622 211.58753 211.82784 211.77715 211.49446 211.13977 210.78208
 210.41139 210.13370 209.95401 209.83032 209.77063 210.11394 210.51225 210.91356
 211.71887 212.90918 214.17149 215.96680 217.90711 219.96242 222.06973 224.16504
 226.23735 228.33366 230.44297 232.56128 234.70259 236.88690 239.15521 241.53752
 244.17083 246.43414 248.44845 250.22575 251.65506 252.79037 253.62468 253.95299
 254.00230 253.78861 253.16092 252.12123 250.73954 248.91285 246.83416 244.67947
 242.48278 240.29909 238.13140 235.98271 233.85502 231.73433 229.77264 227.94195
 226.23726 224.72157 223.36388 222.14819 221.04250 220.01481 219.13112 218.28443
 217.53874 216.73105 215.84136 215.21767 214.67998 215.09372 216.07060 216.71219
 217.14558 217.14517 216.80116 216.16647 216.69905 219.33533 223.26144 226.63174
 230.56763 235.21031 240.05516 244.49065 248.52551 252.27017 255.74304 258.89441
 261.81116 264.53467 267.05295 269.45892 272.11569 274.90817 277.15674 278.80057
 280.27744 281.43866 282.18903 282.55170 282.73553 282.93262 283.35382 284.02121
 284.79327 285.48434 286.08801 286.85736
 366.78100 356.34859 345.79418 334.67376 323.09035 311.29794 299.18153 286.99812
 274.72370 262.63429 250.65688 239.97147 230.10706 221.22464 213.42023 206.43582
 200.28341 195.23500 191.83058 189.88617 188.93676 189.01435 189.86294 191.18452
 192.92311 195.03170 197.30829 199.68088 202.13946 204.63305 206.73464 208.59023
 210.22982 211.38840 211.63099 211.87258 211.82317 211.54176 211.18834 210.83193
 210.46252 210.18611 210.00770 209.88528 209.82687 210.17146 210.57105 210.97364
 211.78022 212.97181 214.23540 216.03199 217.97358 220.03016 222.13875 224.23534
 226.30893 228.40652 230.51710 232.63669 234.77928 236.96487 239.23446 241.61804
 244.25263 246.51722 248.53281 250.31140 251.74198 252.87857 253.71416 254.04375
 254.09434 253.88192 253.25551 252.21710 250.83669 249.01128 246.93386 244.78045
 242.58504 240.40263 238.23622 236.08880 233.96239 231.84298 229.88257 228.05316
 226.34974 224.83533 223.47892 222.26451 221.16010 220.13368 219.25127 218.40586
 217.66145 216.85504 215.96662 215.34421 214.80780 215.15286 215.96812 216.79890
 217.21619 217.17703 216.80322 216.13437 216.63753 219.19080 223.13748 226.51865
 230.55522 235.24841 240.10959 244.55208 248.58888 252.33344 255.80295 258.94769
 261.86423 264.58344 267.08459 269.46204 272.04681 274.89920 277.27914 278.98251
 280.43549 281.59146 282.31619 282.61072 282.78934 282.96576 283.35602 283.77014
 284.41919 285.07730 285.65225 286.38492
 366.78100 356.34812 345.79324 334.67237 323.08849 311.29561 299.17873 286.99486
 274.71998 262.63010 250.65222 239.96634 230.10147 221.21859 213.41371 206.42883
 200.27595 195.22708 191.82220 189.87732 188.92744 189.00457 189.85269 191.17381
 192.91193 195.02005 197.29618 199.66830 202.12642 204.61954 206.72066 208.57579
 210.21491 211.37303 211.61515 211.85628 211.80640 211.52452 211.17064 210.81376
 210.44389 210.16701 209.98813 209.86525 209.80637 210.15050 210.54962 210.95174
 211.75786 212.94899 214.21211 216.00823 217.94935 220.00547 222.11360 224.20972
 226.28284 228.37996 230.49008 232.60921 234.75133 236.93645 239.20557 241.58870
 244.22282 246.48694 248.50206 250.28018 251.71031 252.84643 253.68155 254.01067
 254.06079 253.84792 253.22104 252.18216 250.80128 248.97541 246.89753 244.74365
 242.54777 240.36489 238.19802 236.05014 233.92326 231.80338 229.84251 228.01263
 226.30875 224.79387 223.43699 222.22212 221.11724 220.09036 219.20748 218.36160
 217.61673 216.80985 215.92097 215.29809 214.76122 215.12717 215.99176 216.78152
 217.27690 217.26009 216.82210 216.06651 216.56018 219.06111 223.00470 226.46631
 230.54729 235.28320 240.15221 244.60486 248.64015 252.38251 255.85408 258.99954
 261.91479 264.61826 267.09726 269.43985 271.96579 274.87445 277.38962 279.14108
 280.58041 281.71091 282.35037 282.57831 282.69519 282.82376 283.21442 283.72076
 284.22961 284.84335 285.40073 286.11102
 366.78100 356.34702 345.79105 334.66907 323.08410 311.29012 299.17214 286.98717
 274.71119 262.62022 250.64124 239.95426 230.08829 221.20431 213.39834 206.41236
 200.25838 195.20841 191.80243 189.85646 188.90548 188.98150 189.82853 191.14855
 192.88558 194.99260 197.26762 199.63865 202.09567 204.58770 206.68772 208.54174
 210.17977 211.33679 211.57782 211.81784 211.76686 211.48389 211.12891 210.77094
 210.39996 210.12198 209.94201 209.81803 209.75805 210.10108 210.49910 210.90013
 211.70515 212.89517 214.15720 215.95222 217.89225 219.94727 222.05429 224.14932
 226.22134 228.31737 230.42639 232.54441 234.68544 236.86946 239.13749 241.51951
 244.15253 246.41556 248.42958 250.20661 251.63563 252.77065 253.60468 253.93270
 253.98173 253.76775 253.13977 252.09980 250.71782 248.89085 246.81187 244.65689
 242.45992 240.27594 238.10797 235.95899 233.83101 231.71004 229.74806 227.91709
 226.21211 224.69613 223.33816 222.12218 221.01621 219.98823 219.10425 218.25728
 217.51130 216.70333 215.81335 215.18937 214.65140 215.07076 216.06154 216.74576
 217.29749 217.29616 216.82440 216.01277 216.47484 218.92798 222.85719 226.44946
 230.56506 235.32510 240.19159 244.65138 248.68863 252.43575 255.91985 259.08008
 262.00034 264.68283 267.12692 269.42737 271.91449 274.86392 277.46072 279.27139
 280.73627 281.85150 282.43921 282.57672 282.60718 282.65967 283.04453 283.54611
 284.04349 284.61902 285.17297 285.87897
 366.78100 356.34644 345.78988 334.66733 323.08177 311.28721 299.16865 286.98310
 274.70654 262.61498 250.63542 239.94787 230.08131 221.19675 213.39019 206.40364
 200.24908 195.19852 191.79196 189.84541 188.89385 188.96929 189.81573 191.13518
 192.87162 194.97806 197.25250 199.62295 202.07939 204.57083 206.67027 208.52372
 210.16116 211.31760 211.55804 211.79749 211.74593 211.46237 211.10681 210.74826
 210.37670 210.09814 209.91758 209.79303 209.73247 210.07491 210.47235 210.87280
 211.67724 212.86668 214.12812 215.92257 217.86201 219.91645 222.02289 224.11734
 226.18878 228.28422 230.39266 232.51011 234.65055 236.83399 239.10143 241.48288
 244.11532 246.37776 248.39120 250.16765 251.59609 252.73053 253.56397 253.89141
 253.93986 253.72530 253.09674 252.05618 250.67363 248.84607 246.76651 244.61095
 242.41340 240.22884 238.06028 235.91072 233.78217 231.66061 229.69805 227.86649
 226.16094 224.64438 223.28582 222.06926 220.96271 219.93415 219.04959 218.20203
 217.45548 216.64692 215.75636 215.13180 214.59325 215.04028 216.09645 216.76028
 217.32994 217.29877 216.73177 215.86526 216.35889 218.82982 222.77492 226.43817
 230.57941 235.35764 240.23251 244.70969 248.76254 252.52654 256.02612 259.18829
 262.09564 264.75684 267.17755 269.43985 271.84814 274.77029 277.47580 279.36548
 280.82968 281.92657 282.51312 282.61887 282.57089 282.55954 282.85068 283.32852
 283.86868 284.45779 285.02423 285.74609
 354.97500 345.04800 334.58700 324.11500 313.32600 302.53700 291.65000 280.76700
 269.93100 259.19300 248.62200 238.61700 229.08700 220.35500 212.54000 205.53500
 199.46400 194.49300 191.14300 189.19000 188.08900 188.01400 188.72400 189.90600
 191.46900 193.38200 195.40300 197.55600 199.80700 202.06000 204.28800 206.47900
 208.55200 210.37800 212.02500 213.65900 214.99800 216.11800 217.17200 218.25900
 219.49400 220.64500 221.67900 222.61400 223.54500 224.98200 226.57100 228.19000
 229.79700 231.81100 233.86500 235.97200 238.24200 240.55300 242.89900 245.25300
 247.48800 249.53500 251.36600 252.84800 254.09800 255.16700 256.02700 256.25300
 256.09500 255.54300 253.93500 252.56600 251.38400 250.24500 249.05200 247.70100
 246.01600 243.99600 241.78400 239.39300 236.81300 234.22300 231.65800 229.14400
 226.74000 224.47300 222.33500 220.32500 218.44000 216.67700 214.96200 213.47200
 212.20000 211.10800 210.26000 209.63900 209.24400 209.03100 209.05800 209.33300
 209.78400 210.62600 211.33100 212.39100 213.62500 214.84668 217.72949 219.47640
 220.32566 220.86828 220.88710 220.27371 219.43733 218.84250 219.04934 220.86203
 222.60583 225.72206 229.03064 232.61777 236.12270 239.51333 242.70767 245.68587
 248.41061 250.90679 253.19353 254.91714 256.48655 257.94920 259.39966 260.69384
 261.81714 262.77997 263.71679 264.54570 265.26305 265.89772 266.47676 267.00133
 267.47312 267.89325 268.26027 268.72800
