|-------------------------------------------------------------------------|
|   File Name : in_temp.dat
|   Subject   : temperature profiles used for initial guess atmosphere
|   File Type : input of gmtr
|   Data Type : atmospherical data
|   Author/s  : WRF-Chem
|   Date      : Fri Jul 26 15:39:24 2024
|-------------------------------------------------------------------------|

 WRF-Chem temperature
#
 values of T (K)    (8f10.5)
#
 354.97500 345.04800 334.58700 324.11500 313.32600 302.53700 291.65000 280.76700
 269.93100 259.19300 248.62200 238.61700 229.08700 220.35500 212.54000 205.53500
 199.46400 194.49300 191.14300 189.19000 188.08900 188.01400 188.72400 189.90600
 191.46900 193.38200 195.40300 197.55600 199.80700 202.06000 204.28800 206.47900
 208.55200 210.37800 212.02500 213.65900 214.99800 216.11800 217.17200 218.25900
 219.49400 220.64500 221.67900 222.61400 223.54500 224.98200 226.57100 228.19000
 229.79700 231.81100 233.86500 235.97200 238.24200 240.55300 242.89900 245.25300
 247.48800 249.53500 251.36600 252.84800 254.09800 255.16700 256.02700 256.25300
 256.09500 255.54300 253.93500 252.56600 251.38400 250.24500 249.05200 247.70100
 246.01600 243.99600 241.78400 239.39300 236.81300 234.22300 231.65800 229.14400
 226.74000 224.47300 222.33500 220.32500 218.44000 216.67700 214.96200 213.47200
 212.20000 211.10800 210.26000 209.63900 209.24400 209.03100 209.05800 209.33300
 209.78400 210.62600 211.33100 212.39100 213.62500 214.84668 217.72949 219.47640
 220.32566 220.86828 220.88710 220.27371 219.43733 218.84250 219.04934 220.86203
 222.60583 225.72206 229.03064 232.61777 236.12270 239.51333 242.70767 245.68587
 248.41061 250.90679 253.19353 254.91714 256.48655 257.94920 259.39966 260.69384
 261.81714 262.77997 263.71679 264.54570 265.26305 265.89772 266.47676 267.00133
 267.47312 267.89325 268.26027 268.72800
 366.78100 356.33500 345.76700 334.63300 323.03600 311.23000 299.10000 286.90300
 274.61500 262.51200 250.52100 239.82200 229.94400 221.04800 213.23000 206.23200
 200.06600 195.00400 191.58600 189.62800 188.66500 188.72900 189.56400 190.87200
 192.59700 194.69200 196.95500 199.31400 201.75900 204.23900 206.32700 208.16900
 209.79500 210.94000 211.16900 211.39700 211.33400 211.03900 210.67200 210.30200
 209.91900 209.62900 209.43700 209.30100 209.22900 209.56000 209.94600 210.33500
 211.12800 212.30600 213.55600 215.33900 217.26700 219.31000 221.40500 223.48800
 225.54800 227.63200 229.72900 231.83500 233.96400 236.13600 238.39200 240.76200
 243.38300 245.63400 247.63600 249.40100 250.81800 251.94100 252.76300 253.07900
 253.11600 252.89000 252.25000 251.19800 249.80400 247.96500 245.87400 243.70700
 241.49800 239.30200 237.12200 234.96100 232.82100 230.68800 228.71400 226.87100
 225.15400 223.62600 222.25600 221.02800 219.91000 218.87000 217.97400 217.11500
 216.35700 215.53700 214.63500 213.99900 213.44900 212.85855 212.01316 212.61654
 214.26826 216.08686 218.14273 220.53346 223.40855 226.78828 231.49734 235.90155
 239.42278 243.28576 247.23140 251.11907 254.80144 258.23331 261.38913 264.27520
 266.89312 269.26852 271.44504 273.08845 274.58484 275.98591 277.39845 278.65879
 279.75272 280.69038 281.56708 282.34086 283.01050 283.60295 284.14348 284.63317
 285.07358 285.46577 285.80838 286.24500
 381.81900 372.39900 361.20600 349.77600 337.62200 324.85300 311.81000 298.35300
 284.86000 271.32400 258.56100 246.30400 236.08700 226.79600 218.44800 211.29000
 205.52200 200.89400 197.38100 194.84800 193.01500 192.31500 192.25000 192.43100
 192.91200 193.53700 194.13600 194.71200 195.26200 195.83100 196.39300 196.97600
 197.60400 198.14900 198.58400 199.05700 199.69500 200.37800 201.05400 201.70800
 202.31300 202.85700 203.35500 203.86200 204.56900 205.29700 206.02600 206.98700
 208.19300 209.44100 210.96900 212.57600 214.46200 216.51300 218.63000 220.85300
 223.34100 225.96200 228.73900 231.69700 234.70600 237.70600 240.69200 243.65700
 246.73700 249.69900 252.52100 255.06300 257.29000 259.23300 260.63300 261.68000
 262.46100 262.79800 262.69100 262.22400 261.06900 259.52500 257.70700 255.50700
 253.00100 250.30200 247.39800 244.45200 241.65400 239.05400 236.73300 234.59000
 232.59500 230.72500 228.83400 226.82600 224.66600 222.38700 220.10400 217.71500
 215.45900 213.06600 210.54600 208.09300 205.35400 202.08130 196.05959 200.71215
 209.01611 216.90438 223.84126 229.78593 235.00632 240.20838 245.98943 250.68668
 254.32982 257.93487 261.55666 264.96801 268.15192 271.06452 273.76717 276.25691
 278.57680 280.74479 282.77456 284.60533 286.27232 287.81705 289.31715 290.65561
 291.81734 292.81312 293.70701 294.49387 295.17482 295.77730 296.32696 296.82492
 297.27278 297.67160 298.02000 298.46400
 399.33000 389.90700 379.81300 368.66800 357.52200 345.30100 333.07400 320.22700
 307.21600 293.84800 280.37600 267.29600 254.61000 242.98700 232.15100 221.97700
 212.67200 204.28600 197.66900 192.82100 189.48600 187.45200 186.81400 187.08900
 187.78100 189.05400 190.64800 192.54200 194.63000 196.75200 198.67100 200.15800
 201.53500 202.48700 202.97500 203.34000 203.53900 203.49700 203.38500 203.24700
 203.00500 202.78600 202.60300 202.43700 202.42600 202.88800 203.42000 203.95100
 204.89500 205.99200 207.30100 208.95800 210.73800 213.10000 215.56400 218.18000
 220.96600 223.91800 226.96100 230.09200 233.29300 236.55700 239.95500 243.53700
 246.84500 249.39000 251.54200 253.47400 255.19500 256.48400 257.43100 258.05900
 258.21200 258.04000 257.58200 256.64300 255.23900 253.50700 251.40800 249.05600
 246.57600 243.99400 241.38900 238.83000 236.34400 233.98600 231.96900 230.11800
 228.42300 226.89900 225.54800 224.29700 223.10500 221.96500 220.95800 220.11300
 219.49000 218.92000 218.32500 217.88100 217.42300 216.96366 216.35568 216.80261
 217.73415 218.28582 218.64258 219.10077 220.44626 222.53987 226.38451 230.35736
 233.59734 237.39164 241.29814 245.22796 248.98002 252.51130 255.78595 258.80109
 261.54781 264.05210 266.34239 268.04198 269.58951 271.01303 272.35754 273.55718
 274.59842 275.49092 276.28989 276.99307 277.60161 278.14001 278.63122 279.07623
 279.47646 279.83287 280.14422 280.54100
 399.73800 389.78500 379.66200 368.15100 356.64100 344.35000 331.79200 318.88800
 305.72600 292.49300 279.20900 266.73800 254.69600 244.21100 234.45700 225.43300
 217.56900 210.45100 204.30000 199.30600 195.45800 192.57600 191.02700 190.38600
 190.23900 190.53400 191.16600 191.92500 192.79500 193.76600 194.73200 195.31200
 195.80000 196.05200 196.11500 196.11500 196.03900 195.72300 195.34000 194.98900
 194.75100 194.79200 195.13300 195.59800 196.50600 198.13600 199.85800 201.56600
 204.17900 206.82300 209.89300 213.28400 216.82800 220.60500 224.38700 228.20900
 232.03200 235.82500 239.56000 243.25800 246.84500 250.20100 253.70900 257.46800
 261.53000 264.22100 266.60100 268.68100 270.32900 271.74100 272.83600 273.47400
 273.89800 274.00200 273.75700 273.28800 272.37100 271.10000 269.58900 267.77900
 265.81600 263.72100 261.39300 258.91600 256.29800 253.42300 250.33100 247.11400
 243.83700 240.52900 237.24900 233.99900 230.72800 227.51500 224.25400 220.95200
 217.62700 213.65600 210.12100 206.78900 204.01000 201.99491 199.07309 198.76551
 199.40006 200.48994 201.46112 202.31912 203.45100 204.96110 207.47502 210.85391
 213.70530 217.29629 220.99574 224.72316 228.28753 231.64854 234.68024 237.40893
 239.70644 241.60899 243.46854 245.67368 247.68154 249.52395 251.24767 252.78566
 254.12057 255.26479 256.23740 257.09036 257.82852 258.48160 259.07744 259.61723
 260.10271 260.53504 260.91270 261.39400
 399.73800 389.78500 379.66200 368.15100 356.64100 344.35000 331.79200 318.88800
 305.72600 292.49300 279.20900 266.73800 254.69600 244.21100 234.45700 225.43300
 217.56900 210.45100 204.30000 199.30600 195.45800 192.57600 191.02700 190.38600
 190.23900 190.53400 191.16600 191.92500 192.79500 193.76600 194.73200 195.31200
 195.80000 196.05200 196.11500 196.11500 196.03900 195.72300 195.34000 194.98900
 194.75100 194.79200 195.13300 195.59800 196.50600 198.13600 199.85800 201.56600
 204.17900 206.82300 209.89300 213.28400 216.82800 220.60500 224.38700 228.20900
 232.03200 235.82500 239.56000 243.25800 246.84500 250.20100 253.70900 257.46800
 261.53000 264.22100 266.60100 268.68100 270.32900 271.74100 272.83600 273.47400
 273.89800 274.00200 273.75700 273.28800 272.37100 271.10000 269.58900 267.77900
 265.81600 263.72100 261.39300 258.91600 256.29800 253.42300 250.33100 247.11400
 243.83700 240.52900 237.24900 233.99900 230.72800 227.51500 224.25400 220.95200
 217.62700 213.65600 210.12100 206.78900 204.01000 201.99491 199.07309 198.76551
 199.40006 200.48994 201.46112 202.31912 203.45100 204.96110 207.47502 210.85391
 213.70530 217.29629 220.99574 224.72316 228.28753 231.64854 234.68024 237.40893
 239.70644 241.60899 243.46854 245.67368 247.68154 249.52395 251.24767 252.78566
 254.12057 255.26479 256.23740 257.09036 257.82852 258.48160 259.07744 259.61723
 260.10271 260.53504 260.91270 261.39400
 399.33000 389.90700 379.81300 368.66800 357.52200 345.30100 333.07400 320.22700
 307.21600 293.84800 280.37600 267.29600 254.61000 242.98700 232.15100 221.97700
 212.67200 204.28600 197.66900 192.82100 189.48600 187.45200 186.81400 187.08900
 187.78100 189.05400 190.64800 192.54200 194.63000 196.75200 198.67100 200.15800
 201.53500 202.48700 202.97500 203.34000 203.53900 203.49700 203.38500 203.24700
 203.00500 202.78600 202.60300 202.43700 202.42600 202.88800 203.42000 203.95100
 204.89500 205.99200 207.30100 208.95800 210.73800 213.10000 215.56400 218.18000
 220.96600 223.91800 226.96100 230.09200 233.29300 236.55700 239.95500 243.53700
 246.84500 249.39000 251.54200 253.47400 255.19500 256.48400 257.43100 258.05900
 258.21200 258.04000 257.58200 256.64300 255.23900 253.50700 251.40800 249.05600
 246.57600 243.99400 241.38900 238.83000 236.34400 233.98600 231.96900 230.11800
 228.42300 226.89900 225.54800 224.29700 223.10500 221.96500 220.95800 220.11300
 219.49000 218.92000 218.32500 217.88100 217.42300 216.96366 216.35568 216.80261
 217.73415 218.28582 218.64258 219.10077 220.44626 222.53987 226.38451 230.35736
 233.59734 237.39164 241.29814 245.22796 248.98002 252.51130 255.78595 258.80109
 261.54781 264.05210 266.34239 268.04198 269.58951 271.01303 272.35754 273.55718
 274.59842 275.49092 276.28989 276.99307 277.60161 278.14001 278.63122 279.07623
 279.47646 279.83287 280.14422 280.54100
 381.81900 372.39900 361.20600 349.77600 337.62200 324.85300 311.81000 298.35300
 284.86000 271.32400 258.56100 246.30400 236.08700 226.79600 218.44800 211.29000
 205.52200 200.89400 197.38100 194.84800 193.01500 192.31500 192.25000 192.43100
 192.91200 193.53700 194.13600 194.71200 195.26200 195.83100 196.39300 196.97600
 197.60400 198.14900 198.58400 199.05700 199.69500 200.37800 201.05400 201.70800
 202.31300 202.85700 203.35500 203.86200 204.56900 205.29700 206.02600 206.98700
 208.19300 209.44100 210.96900 212.57600 214.46200 216.51300 218.63000 220.85300
 223.34100 225.96200 228.73900 231.69700 234.70600 237.70600 240.69200 243.65700
 246.73700 249.69900 252.52100 255.06300 257.29000 259.23300 260.63300 261.68000
 262.46100 262.79800 262.69100 262.22400 261.06900 259.52500 257.70700 255.50700
 253.00100 250.30200 247.39800 244.45200 241.65400 239.05400 236.73300 234.59000
 232.59500 230.72500 228.83400 226.82600 224.66600 222.38700 220.10400 217.71500
 215.45900 213.06600 210.54600 208.09300 205.35400 202.08130 196.05959 200.71215
 209.01611 216.90438 223.84126 229.78593 235.00632 240.20838 245.98943 250.68668
 254.32982 257.93487 261.55666 264.96801 268.15192 271.06452 273.76717 276.25691
 278.57680 280.74479 282.77456 284.60533 286.27232 287.81705 289.31715 290.65561
 291.81734 292.81312 293.70701 294.49387 295.17482 295.77730 296.32696 296.82492
 297.27278 297.67160 298.02000 298.46400
 366.78100 356.33910 345.77520 334.64529 323.05239 311.25049 299.12459 286.93169
 274.64779 262.54888 250.56198 239.86708 229.99318 221.10128 213.28738 206.29347
 200.13157 195.07367 191.65977 189.70587 188.74697 188.81506 189.65416 190.96626
 192.69536 194.79446 197.06155 199.42465 201.87375 204.35785 206.44995 208.29605
 209.92614 211.07524 211.30834 211.54044 211.48154 211.19064 210.82773 210.46183
 210.08293 209.79703 209.60913 209.47723 209.40932 209.74442 210.13452 210.52762
 211.32472 212.50681 213.76091 215.54801 217.48011 219.52721 221.62631 223.71340
 225.77750 227.86560 229.96670 232.07680 234.20990 236.38599 238.64609 241.02019
 243.64529 245.90039 247.90648 249.67558 251.09668 252.22378 253.04988 253.36998
 253.41107 253.18917 252.55327 251.50537 250.11547 248.28057 246.19366 244.03076
 241.82586 239.63396 237.45806 235.30116 233.16525 231.03635 229.06645 227.22755
 225.51465 223.99074 222.62484 221.40094 220.28704 219.25114 218.35924 217.50433
 216.75043 215.93453 215.03663 214.40473 213.85883 212.97289 210.88692 210.01604
 210.32239 210.54735 211.85220 215.15472 219.48555 224.23560 229.95392 234.97427
 238.83630 242.83821 247.07719 251.24063 255.02162 258.59113 261.41867 263.62149
 266.37085 269.08731 271.63181 274.08231 276.15564 277.85165 279.24365 280.76917
 282.57437 284.31387 285.85516 287.21368 288.39105 289.43411 290.38611 291.24515
 292.02029 292.70877 293.31036 294.08331
 366.78100 356.33903 345.77507 334.64510 323.05214 311.25017 299.12421 286.93124
 274.64728 262.54831 250.56135 239.86638 229.99242 221.10045 213.28649 206.29252
 200.13056 195.07259 191.65863 189.70466 188.74570 188.81373 189.65277 190.96480
 192.69384 194.79287 197.05991 199.42294 201.87198 204.35601 206.44805 208.29408
 209.92412 211.07315 211.30619 211.53822 211.47926 211.18829 210.82533 210.45936
 210.08040 209.79443 209.60647 209.47450 209.40654 209.74157 210.13161 210.52464
 211.32168 212.50371 213.75775 215.54478 217.47682 219.52385 221.62289 223.70992
 225.77396 227.86199 229.96303 232.07306 234.20610 236.38213 238.64217 241.01620
 243.64124 245.89627 247.90231 249.67134 251.09238 252.21941 253.04545 253.36548
 253.40652 253.18455 252.54859 251.50062 250.11065 248.27569 246.18872 244.02576
 241.82079 239.62883 237.45286 235.29590 233.15993 231.03097 229.06100 227.22204
 225.50907 223.98511 222.61914 221.39518 220.28121 219.24525 218.35328 217.49832
 216.74435 215.92839 215.03042 214.39846 213.85249 212.99547 210.97714 210.12674
 210.31789 210.60223 211.89326 215.09064 219.41460 224.16873 229.86060 234.87689
 238.73627 242.73685 246.98796 251.16356 254.95200 258.55008 261.40414 263.61716
 266.36990 269.07516 271.58960 274.00305 276.07870 277.80225 279.20166 280.71933
 282.50989 284.22391 285.75739 287.11688 288.29501 289.33823 290.28967 291.15198
 291.92682 292.61633 293.22162 293.99387
 366.78100 356.33890 345.77479 334.64469 323.05159 311.24948 299.12338 286.93027
 274.64617 262.54707 250.55996 239.86486 229.99076 221.09865 213.28455 206.29045
 200.12834 195.07024 191.65613 189.70203 188.74293 188.81082 189.64972 190.96162
 192.69051 194.78941 197.05631 199.41920 201.86810 204.35200 206.44389 208.28979
 209.91968 211.06858 211.30148 211.53337 211.47427 211.18317 210.82006 210.45396
 210.07486 209.78875 209.60065 209.46854 209.40044 209.73534 210.12523 210.51813
 211.31503 212.49692 213.75082 215.53772 217.46961 219.51651 221.61540 223.70230
 225.76620 227.85409 229.95499 232.06489 234.19778 236.37368 238.63358 241.00747
 243.63237 245.88726 247.89316 249.66206 251.08295 252.20985 253.03575 253.35564
 253.39654 253.17444 252.53833 251.49023 250.10013 248.26502 246.17792 244.01481
 241.80971 239.61761 237.44150 235.28440 233.14830 231.01919 229.04909 227.20999
 225.49688 223.97278 222.60667 221.38257 220.26847 219.23236 218.34026 217.48516
 216.73105 215.91495 215.01685 214.38474 213.83864 213.01343 211.06949 210.22964
 210.33160 210.64856 211.93900 215.04308 219.32390 224.09131 229.77446 234.78831
 238.64325 242.64035 246.90045 251.08574 254.88055 258.50406 261.38177 263.60681
 266.36584 269.06073 271.54770 273.92514 276.00479 277.75702 279.16498 280.67340
 282.44794 284.13846 285.66461 287.02243 288.20123 289.24606 290.19739 291.05997
 291.83411 292.52576 293.13034 293.91010
 366.78100 356.33869 345.77439 334.64408 323.05077 311.24847 299.12216 286.92885
 274.64455 262.54524 250.55793 239.86263 229.98832 221.09601 213.28171 206.28740
 200.12509 195.06679 191.65248 189.69817 188.73887 188.80656 189.64525 190.95695
 192.68564 194.78433 197.05103 199.41372 201.86241 204.34611 206.43780 208.28349
 209.91319 211.06188 211.29457 211.52627 211.46696 211.17565 210.81234 210.44604
 210.06673 209.78042 209.59212 209.45981 209.39150 209.72620 210.11589 210.50858
 211.30528 212.48697 213.74066 215.52736 217.45905 219.50574 221.60444 223.69113
 225.75482 227.84252 229.94321 232.05290 234.18560 236.36129 238.62098 240.99468
 243.61937 245.87406 247.87976 249.64845 251.06914 252.19584 253.02153 253.34122
 253.38192 253.15961 252.52330 251.47500 250.08469 248.24938 246.16208 243.99877
 241.79346 239.60116 237.42485 235.26754 233.13124 231.00193 229.03162 227.19232
 225.47901 223.95470 222.58840 221.36409 220.24978 219.21348 218.32117 217.46586
 216.71156 215.89525 214.99694 214.36464 213.81833 213.02705 211.16246 210.32709
 210.36003 210.69363 211.97577 215.00604 219.22781 224.00940 229.69621 234.70482
 238.55194 242.54340 246.80995 251.00430 254.80711 258.45547 261.35510 263.59262
 266.35818 269.04398 271.50339 273.84680 275.93314 277.71481 279.13168 280.63168
 282.38974 284.05728 285.57397 286.93274 288.11169 289.15588 290.10907 290.97247
 291.74847 292.43903 293.04556 293.82956
 366.78100 356.33850 345.77401 334.64351 323.05002 311.24752 299.12103 286.92753
 274.64304 262.54354 250.55605 239.86055 229.98606 221.09356 213.27907 206.28457
 200.12208 195.06358 191.64908 189.69459 188.73509 188.80260 189.64110 190.95261
 192.68111 194.77962 197.04612 199.40863 201.85713 204.34064 206.43214 208.27765
 209.90715 211.05565 211.28816 211.51966 211.46017 211.16867 210.80518 210.43868
 210.05919 209.77269 209.58420 209.45170 209.38321 209.71771 210.10722 210.49972
 211.29623 212.47773 213.73123 215.51774 217.44924 219.49575 221.59425 223.68076
 225.74426 227.83177 229.93227 232.04178 234.17428 236.34979 238.60929 240.98280
 243.60730 245.86180 247.86731 249.63581 251.05632 252.18282 253.00833 253.32783
 253.36834 253.14584 252.50935 251.46085 250.07036 248.23486 246.14737 243.98387
 241.77838 239.58588 237.40938 235.25189 233.11539 230.98590 229.01540 227.17591
 225.46241 223.93792 222.57142 221.34693 220.23243 219.19594 218.30344 217.44795
 216.69345 215.87695 214.97846 214.34596 213.79947 213.04015 211.25035 210.42415
 210.40091 210.74065 212.00423 214.97736 219.13229 223.92215 229.62166 234.62207
 238.45946 242.44574 246.71918 250.92200 254.73460 258.40591 261.32388 263.57281
 266.34589 269.02396 271.45871 273.76962 275.86429 277.67764 279.10507 280.59540
 282.33652 283.98352 285.49124 286.84940 288.02951 289.07254 290.02695 290.89209
 291.66757 292.35959 292.96664 293.75461
 366.78100 356.33844 345.77388 334.64332 323.04976 311.24720 299.12064 286.92708
 274.64252 262.54296 250.55540 239.85984 229.98528 221.09272 213.27816 206.28360
 200.12104 195.06249 191.64793 189.69337 188.73381 188.80125 189.63969 190.95113
 192.67957 194.77801 197.04445 199.40689 201.85533 204.33877 206.43021 208.27565
 209.90509 211.05353 211.28597 211.51741 211.45785 211.16629 210.80273 210.43617
 210.05661 209.77005 209.58149 209.44893 209.38037 209.71481 210.10425 210.49669
 211.29313 212.47457 213.72801 215.51446 217.44590 219.49234 221.59078 223.67722
 225.74066 227.82810 229.92854 232.03798 234.17042 236.34586 238.60530 240.97874
 243.60318 245.85762 247.86306 249.63150 251.05194 252.17838 253.00382 253.32326
 253.36370 253.14114 252.50458 251.45602 250.06546 248.22990 246.14234 243.97878
 241.77322 239.58066 237.40410 235.24654 233.10999 230.98043 229.00987 227.17031
 225.45675 223.93219 222.56563 221.34107 220.22651 219.18995 218.29739 217.44183
 216.68727 215.87071 214.97215 214.33959 213.79303 213.05833 211.32637 210.53014
 210.45024 210.78894 212.02786 214.95322 219.03702 223.83018 229.54720 234.53697
 238.36604 242.34894 246.62935 250.84079 254.66403 258.35510 261.28748 263.54617
 266.32730 268.99921 271.41190 273.69421 275.79828 277.64267 279.08246 280.56558
 282.28867 283.91544 285.41620 286.77524 287.95398 288.99899 289.95309 290.81766
 291.59534 292.28763 292.89560 293.68646
 366.78100 356.33837 345.77375 334.64312 323.04950 311.24687 299.12025 286.92662
 274.64200 262.54237 250.55475 239.85912 229.98450 221.09187 213.27725 206.28262
 200.12000 195.06137 191.64675 189.69212 188.73250 188.79987 189.63825 190.94962
 192.67800 194.77637 197.04275 199.40512 201.85350 204.33687 206.42825 208.27362
 209.90299 211.05137 211.28374 211.51512 211.45549 211.16387 210.80024 210.43362
 210.05399 209.76737 209.57874 209.44612 209.37749 209.71187 210.10124 210.49362
 211.28999 212.47137 213.72474 215.51112 217.44249 219.48887 221.58724 223.67362
 225.73699 227.82437 229.92474 232.03412 234.16649 236.34187 238.60124 240.97461
 243.59899 245.85336 247.85874 249.62711 251.04749 252.17386 252.99924 253.31861
 253.35899 253.13636 252.49974 251.45111 250.06049 248.22486 246.13724 243.97361
 241.76799 239.57536 237.39874 235.24111 233.10449 230.97486 229.00424 227.16461
 225.45099 223.92636 222.55974 221.33511 220.22049 219.18386 218.29123 217.43561
 216.68098 215.86436 214.96573 214.33311 213.78648 213.07518 211.39821 210.64044
 210.50856 210.83678 212.05106 214.93045 218.94234 223.73477 229.47281 234.44914
 238.27138 242.25317 246.54002 250.76045 254.59607 258.30399 261.24673 263.51340
 266.30399 268.97031 271.36359 273.62051 275.73456 277.61005 279.06339 280.54053
 282.24738 283.85733 285.35132 286.70895 287.88791 288.93484 289.88843 290.75351
 291.53104 292.22458 292.83304 293.62683
 366.78100 356.33847 345.77394 334.64340 323.04987 311.24734 299.12081 286.92728
 274.64275 262.54321 250.55568 239.86015 229.98562 221.09309 213.27856 206.28402
 200.12149 195.06296 191.64843 189.69390 188.73436 188.80183 189.64030 190.95177
 192.68024 194.77871 197.04517 199.40764 201.85611 204.33958 206.43105 208.27651
 209.90598 211.05445 211.28692 211.51839 211.45886 211.16732 210.80379 210.43726
 210.05773 209.77120 209.58267 209.45013 209.38160 209.71607 210.10554 210.49801
 211.29447 212.47594 213.72941 215.51588 217.44735 219.49382 221.59228 223.67875
 225.74222 227.82969 229.93016 232.03963 234.17209 236.34756 238.60703 240.98050
 243.60497 245.85943 247.86490 249.63337 251.05384 252.18031 253.00578 253.32524
 253.36571 253.14318 252.50665 251.45812 250.06758 248.23205 246.14452 243.98099
 241.77546 239.58293 237.40639 235.24886 233.11233 230.98280 229.01227 227.17274
 225.45920 223.93467 222.56814 221.34361 220.22908 219.19254 218.30001 217.44448
 216.68995 215.87342 214.97489 214.34235 213.79582 213.09862 211.45500 210.75969
 210.57794 210.88522 212.06674 214.90968 218.85690 223.63420 229.39694 234.35733
 238.17477 242.15717 246.45093 250.68065 254.53050 258.25259 261.20120 263.47412
 266.27469 268.93771 271.31348 273.54803 275.67374 277.58057 279.04758 280.52139
 282.21063 283.80820 285.29395 286.65152 287.83145 288.87787 289.83145 290.69568
 291.47543 292.16940 292.77847 293.57434
 366.78100 356.33881 345.77462 334.64444 323.05125 311.24906 299.12287 286.92969
 274.64550 262.54631 250.55912 239.86393 229.98975 221.09756 213.28337 206.28918
 200.12699 195.06881 191.65462 189.70043 188.74124 188.80906 189.64787 190.95968
 192.68849 194.78730 197.05412 199.41693 201.86574 204.34955 206.44136 208.28718
 209.91699 211.06580 211.29861 211.53043 211.47124 211.18005 210.81686 210.45067
 210.07149 209.78530 209.59711 209.46492 209.39673 209.73155 210.12136 210.51417
 211.31098 212.49280 213.74661 215.53342 217.46523 219.51204 221.61086 223.69767
 225.76148 227.84929 229.95010 232.05992 234.19273 236.36854 238.62835 241.00217
 243.62698 245.88179 247.88760 249.65641 251.07723 252.20404 253.02985 253.34966
 253.39048 253.16829 252.53210 251.48391 250.09372 248.25854 246.17135 244.00816
 241.80297 239.61078 237.43460 235.27741 233.14122 231.01203 229.04185 227.20266
 225.48947 223.96528 222.59909 221.37491 220.26072 219.22453 218.33234 217.47715
 216.72297 215.90678 215.00859 214.37640 213.83022 213.13379 211.49240 210.88582
 210.66411 210.93460 212.08511 214.88580 218.76973 223.52768 229.31877 234.26315
 238.07732 242.06175 246.36078 250.59843 254.46495 258.19955 261.15106 263.42889
 266.24246 268.90417 271.26312 273.47754 275.61713 277.55490 279.03656 280.50720
 282.18137 283.76514 285.24429 286.60248 287.78210 288.82739 289.78235 290.64700
 291.42743 292.12180 292.73096 293.52863
 366.78100 356.33900 345.77500 334.64500 323.05200 311.25000 299.12400 286.93100
 274.64700 262.54801 250.56101 239.86601 229.99201 221.10001 213.28601 206.29201
 200.13001 195.07201 191.65801 189.70401 188.74501 188.81301 189.65201 190.96401
 192.69301 194.79202 197.05902 199.42202 201.87102 204.35502 206.44702 208.29302
 209.92302 211.07202 211.30502 211.53702 211.47802 211.18702 210.82402 210.45802
 210.07902 209.79302 209.60503 209.47303 209.40503 209.74003 210.13003 210.52303
 211.32003 212.50203 213.75603 215.54303 217.47503 219.52203 221.62103 223.70803
 225.77203 227.86003 229.96103 232.07104 234.20404 236.38004 238.64004 241.01404
 243.63904 245.89404 247.90004 249.66904 251.09004 252.21704 253.04304 253.36304
 253.40404 253.18204 252.54604 251.49805 250.10805 248.27305 246.18605 244.02305
 241.81805 239.62605 237.45005 235.29305 233.15705 231.02805 229.05805 227.21905
 225.50605 223.98205 222.61605 221.39205 220.27806 219.24206 218.35006 217.49506
 216.74106 215.92506 215.02706 214.39506 213.84906 213.16090 211.53899 210.98730
 210.78424 210.98904 212.09517 214.87180 218.67671 223.41530 229.23788 234.16415
 237.97475 241.96245 246.26686 250.51395 254.40176 258.14954 261.10522 263.38434
 266.20972 268.86859 271.21222 273.40817 275.55994 277.52667 279.02448 280.49469
 282.15509 283.72604 285.20166 286.55942 287.73962 288.78442 289.74036 290.60522
 291.38327 292.08109 292.69009 293.48526
 366.78100 356.33966 345.77632 334.64698 323.05464 311.25329 299.12795 286.93561
 274.65227 262.55393 250.56759 239.87325 229.99991 221.10857 213.29522 206.30188
 200.14054 195.08320 191.66986 189.71652 188.75818 188.82684 189.66650 190.97915
 192.70881 194.80847 197.07613 199.43979 201.88945 204.37411 206.46677 208.31342
 209.94408 211.09374 211.32740 211.56006 211.50172 211.21138 210.84904 210.48370
 210.10535 209.82001 209.63267 209.50133 209.43399 209.76965 210.16031 210.55397
 211.35163 212.53428 213.78894 215.57660 217.50926 219.55692 221.65658 223.74424
 225.80890 227.89756 229.99921 232.10987 234.24353 236.42019 238.68085 241.05551
 243.68117 245.93683 247.94349 249.71314 251.13480 252.26246 253.08912 253.40978
 253.45144 253.23010 252.59476 251.54741 250.15807 248.32373 246.23739 244.07505
 241.87071 239.67937 237.50403 235.34769 233.21234 231.08400 229.11466 227.27632
 225.56398 224.04064 222.67530 221.45196 220.33862 219.30327 218.41193 217.55759
 216.80425 215.98891 215.09157 214.46023 213.91489 213.21036 211.55026 211.11099
 210.90640 211.06325 212.12025 214.83322 218.56787 223.29457 229.15216 234.05899
 237.86955 241.86505 246.17787 250.43742 254.34879 258.10986 261.06659 263.34116
 266.17224 268.82642 271.15305 273.33237 275.49789 277.49210 279.00632 280.47903
 282.13077 283.69208 285.16342 286.52252 287.70197 288.74692 289.70306 290.56750
 291.34726 292.04294 292.65314 293.45602
 366.78100 356.34139 345.77979 334.65218 323.06158 311.26197 299.13837 286.94776
 274.66616 262.56955 250.58495 239.89234 230.02073 221.13113 213.31952 206.32792
 200.16831 195.11271 191.70110 189.74950 188.79289 188.86329 189.70468 191.01907
 192.75047 194.85186 197.12126 199.48665 201.93805 204.42444 206.51884 208.36723
 209.99963 211.15102 211.38641 211.62081 211.56420 211.27560 210.91499 210.55139
 210.17478 209.89118 209.70557 209.57597 209.51036 209.84775 210.24015 210.63554
 211.43494 212.61933 213.87573 215.66512 217.59952 219.64891 221.75031 223.83970
 225.90609 227.99649 230.09988 232.21228 234.34767 236.52607 238.78846 241.16486
 243.79225 246.04965 248.05804 249.82943 251.25283 252.38222 253.21062 253.53301
 253.57641 253.35680 252.72320 251.67759 250.28999 248.45738 246.37278 244.21217
 242.00956 239.81996 237.64635 235.49175 233.35814 231.23154 229.26393 227.42733
 225.71672 224.19512 222.83151 221.60990 220.49830 219.46469 218.57509 217.72248
 216.97088 216.15727 215.26167 214.63206 214.08846 213.31587 211.49605 211.22195
 211.16124 211.15514 212.02185 214.75793 218.46411 223.17422 229.06448 233.96466
 237.78235 241.78592 246.10242 250.37259 254.30324 258.07028 261.01938 263.28568
 266.12292 268.77371 271.08606 273.25400 275.43671 277.45776 278.98929 280.46774
 282.11032 283.66229 285.13083 286.48972 287.67065 288.71484 289.66937 290.53531
 291.31448 292.01163 292.62265 293.42389
 366.78100 356.34226 345.78152 334.65478 323.06504 311.26630 299.14356 286.95382
 274.67309 262.57735 250.59361 239.90187 230.03113 221.14239 213.33165 206.34091
 200.18217 195.12743 191.71669 189.76595 188.81021 188.88147 189.72373 191.03899
 192.77126 194.87352 197.14378 199.51004 201.96230 204.44956 206.54482 208.39408
 210.02734 211.17960 211.41586 211.65112 211.59538 211.30764 210.94790 210.58516
 210.20943 209.92669 209.74195 209.61321 209.54847 209.88673 210.27999 210.67625
 211.47651 212.66177 213.91903 215.70929 217.64455 219.69481 221.79707 223.88734
 225.95460 228.04586 230.15012 232.26338 234.39964 236.57890 238.84216 241.21942
 243.84768 246.10594 248.11520 249.88746 251.31172 252.44198 253.27124 253.59451
 253.63877 253.42003 252.78729 251.74255 250.35581 248.52407 246.44033 244.28059
 242.07885 239.89011 237.71737 235.56363 233.43089 231.30515 229.33842 227.50268
 225.79294 224.27220 222.90946 221.68872 220.57798 219.54524 218.65650 217.80476
 217.05402 216.24128 215.34654 214.71780 214.17506 213.37994 211.50665 211.26555
 211.32965 211.28903 212.07718 214.65982 218.28944 223.07126 228.99689 233.89835
 237.71936 241.72156 246.03241 250.30602 254.25168 258.01697 260.94998 263.21457
 266.06369 268.71609 271.01996 273.18085 275.38293 277.43381 278.98294 280.46429
 282.09650 283.63760 285.10181 286.46176 287.64105 288.68527 289.64035 290.50623
 291.28720 291.98169 292.59451 293.39673
 366.78100 356.34235 345.78169 334.65504 323.06538 311.26673 299.14408 286.95442
 274.67377 262.57811 250.59446 239.90281 230.03215 221.14350 213.33284 206.34219
 200.18354 195.12888 191.71823 189.76757 188.81192 188.88326 189.72561 191.04096
 192.77330 194.87565 197.14599 199.51234 201.96469 204.45203 206.54738 208.39672
 210.03007 211.18242 211.41876 211.65411 211.59845 211.31080 210.95115 210.58849
 210.21284 209.93018 209.74553 209.61688 209.55222 209.89057 210.28391 210.68026
 211.48060 212.66595 213.92330 215.71364 217.64899 219.69933 221.80168 223.89203
 225.95937 228.05072 230.15506 232.26841 234.40476 236.58410 238.84745 241.22479
 243.85314 246.11149 248.12083 249.89318 251.31752 252.44787 253.27722 253.60056
 253.64491 253.42625 252.79360 251.74895 250.36229 248.53064 246.44698 244.28733
 242.08567 239.89702 237.72437 235.57071 233.43806 231.31240 229.34575 227.51010
 225.80044 224.27979 222.91713 221.69648 220.58583 219.55317 218.66452 217.81286
 217.06221 216.24956 215.35490 214.72625 214.18359 213.40410 211.56682 211.28986
 211.43643 211.38062 212.15062 214.60999 218.16956 222.98724 228.95744 233.84793
 237.65869 241.65237 245.95305 250.22771 254.19023 257.95129 260.86990 263.13873
 266.00464 268.66058 270.95914 273.11499 275.33487 277.41476 278.98346 280.46735
 282.08679 283.61765 285.07547 286.43622 287.61398 288.65771 289.61234 290.48007
 291.25934 291.95648 292.56854 293.37112
 366.78100 356.34257 345.78213 334.65570 323.06626 311.26783 299.14540 286.95596
 274.67553 262.58010 250.59666 239.90523 230.03479 221.14636 213.33593 206.34549
 200.18706 195.13262 191.72219 189.77176 188.81632 188.88789 189.73045 191.04602
 192.77859 194.88115 197.15172 199.51829 201.97085 204.45842 206.55398 208.40355
 210.03712 211.18968 211.42625 211.66181 211.60638 211.31895 210.95951 210.59708
 210.22164 209.93921 209.75478 209.62634 209.56191 209.90048 210.29404 210.69061
 211.49117 212.67674 213.93431 215.72487 217.66044 219.71100 221.81357 223.90414
 225.97170 228.06327 230.16784 232.28140 234.41797 236.59753 238.86110 241.23867
 243.86723 246.12580 248.13536 249.90793 251.33250 252.46306 253.29263 253.61619
 253.66076 253.44233 252.80989 251.76546 250.37903 248.54759 246.46416 244.30472
 242.10329 239.91486 237.74242 235.58899 233.45655 231.33112 229.36469 227.52925
 225.81982 224.29938 222.93695 221.71652 220.60608 219.57365 218.68522 217.83378
 217.08335 216.27091 215.37648 214.74805 214.20561 213.43469 211.61702 211.31708
 211.54837 211.47014 212.18196 214.59181 218.11348 222.90776 228.91769 233.78439
 237.57996 241.56830 245.86380 250.14255 254.12680 257.88556 260.79398 263.06833
 265.94830 268.60706 270.89835 273.05042 275.28729 277.39337 278.98016 280.46780
 282.07623 283.59952 285.05029 286.41132 287.59039 288.63406 289.58829 290.45410
 291.23486 291.93048 292.54550 293.34729
 366.78100 356.34316 345.78332 334.65748 323.06864 311.27080 299.14896 286.96012
 274.68028 262.58544 250.60260 239.91176 230.04192 221.15408 213.34424 206.35440
 200.19656 195.14272 191.73288 189.78304 188.82820 188.90036 189.74352 191.05968
 192.79284 194.89600 197.16716 199.53432 201.98748 204.47564 206.57180 208.42196
 210.05612 211.20928 211.44644 211.68261 211.62777 211.34093 210.98209 210.62025
 210.24541 209.96357 209.77973 209.65189 209.58805 209.92721 210.32137 210.71853
 211.51969 212.70585 213.96401 215.75517 217.69133 219.74249 221.84565 223.93681
 226.00497 228.09713 230.20229 232.31645 234.45361 236.63377 238.89793 241.27609
 243.90525 246.16441 248.17457 249.94773 251.37289 252.50405 253.33421 253.65837
 253.70353 253.48569 252.85385 251.81001 250.42417 248.59333 246.51049 244.35165
 242.15081 239.96297 237.79113 235.63829 233.50645 231.38161 229.41577 227.58093
 225.87209 224.35225 222.99041 221.77057 220.66073 219.62889 218.74105 217.89021
 217.14037 216.32853 215.43469 214.80685 214.26501 213.48357 211.64058 211.35356
 211.66284 211.56625 212.21288 214.58992 218.06783 222.83315 228.86491 233.70787
 237.49182 241.48048 245.77419 250.06047 254.06715 257.82407 260.72330 263.00061
 265.89160 268.54922 270.83432 272.98325 275.23727 277.36545 278.97058 280.46429
 282.06570 283.58130 285.02655 286.38708 287.56546 288.60999 289.56390 290.43073
 291.21100 291.90912 292.52133 293.32401
 366.78100 356.34395 345.78490 334.65985 323.07180 311.27475 299.15370 286.96564
 274.68659 262.59254 250.61049 239.92044 230.05139 221.16434 213.35529 206.36624
 200.20919 195.15614 191.74709 189.79803 188.84398 188.91693 189.76088 191.07783
 192.81178 194.91573 197.18768 199.55563 202.00958 204.49853 206.59548 208.44642
 210.08137 211.23532 211.47327 211.71022 211.65617 211.37012 211.01207 210.65102
 210.27697 209.99592 209.81287 209.68581 209.62276 209.96271 210.35766 210.75561
 211.55756 212.74451 214.00346 215.79541 217.73236 219.78431 221.88826 223.98020
 226.04915 228.14210 230.24805 232.36300 234.50095 236.68190 238.94685 241.32580
 243.95575 246.21570 248.22665 250.00059 251.42654 252.55849 253.38944 253.71439
 253.76034 253.54329 252.91224 251.86919 250.48414 248.65409 246.57204 244.41399
 242.21393 240.02688 237.85583 235.70378 233.57273 231.44868 229.48363 227.64958
 225.94153 224.42248 223.06143 221.84238 220.73332 219.70227 218.81522 217.96517
 217.21612 216.40507 215.51202 214.88497 214.34392 213.54160 211.64893 211.39555
 211.76962 211.66205 212.26945 214.59529 218.00630 222.76854 228.80618 233.62831
 237.40388 241.39388 245.68753 249.98230 254.01076 257.76367 260.65356 262.93329
 265.83203 268.48639 270.76477 272.91498 275.18607 277.33585 278.95776 280.45926
 282.05191 283.56369 285.00180 286.36411 287.54187 288.58630 289.53989 290.40640
 291.18680 291.88504 292.49744 293.30237
 366.78100 356.34477 345.78655 334.66232 323.07509 311.27887 299.15864 286.97142
 274.69319 262.59996 250.61874 239.92951 230.06128 221.17506 213.36683 206.37860
 200.22238 195.17015 191.76192 189.81370 188.86047 188.93425 189.77902 191.09679
 192.83157 194.93634 197.20911 199.57789 202.03266 204.52243 206.62021 208.47198
 210.10776 211.26253 211.50130 211.73908 211.68585 211.40062 211.04340 210.68317
 210.30994 210.02972 209.84749 209.72127 209.65904 209.99981 210.39559 210.79436
 211.59713 212.78491 214.04468 215.83745 217.77523 219.82800 221.93277 224.02555
 226.09532 228.18910 230.29587 232.41164 234.55042 236.73219 238.99796 241.37774
 244.00851 246.26928 248.28106 250.05583 251.48261 252.61538 253.44715 253.77293
 253.81970 253.60347 252.97325 251.93102 250.54679 248.71757 246.63634 244.47912
 242.27989 240.09366 237.92344 235.77221 233.64198 231.51876 229.55453 227.72130
 226.01408 224.49585 223.13562 221.91740 220.80917 219.77895 218.89272 218.04349
 217.29527 216.48504 215.59281 214.96659 214.42636 213.60094 211.65327 211.43640
 211.86499 211.76262 212.34253 214.59946 217.94254 222.71437 228.74718 233.54774
 237.31731 241.30879 245.60272 249.90730 253.95581 257.70193 260.58237 262.86594
 265.76999 268.41995 270.69318 272.84641 275.13467 277.30429 278.94302 280.45245
 282.03796 283.54401 284.97711 286.33853 287.51605 288.56104 289.51608 290.38058
 291.16245 291.86072 292.47379 293.27826
 366.78100 356.34561 345.78822 334.66484 323.07845 311.28306 299.16367 286.97728
 274.69990 262.60751 250.62712 239.93873 230.07134 221.18596 213.37857 206.39118
 200.23579 195.18440 191.77701 189.82963 188.87724 188.95185 189.79746 191.11607
 192.85169 194.95730 197.23091 199.60052 202.05613 204.54675 206.64536 208.49797
 210.13458 211.29019 211.52981 211.76842 211.71603 211.43164 211.07525 210.71587
 210.34348 210.06409 209.88270 209.75731 209.69592 210.03754 210.43415 210.83376
 211.63737 212.82598 214.08660 215.88021 217.81882 219.87243 221.97804 224.07166
 226.14227 228.23688 230.34449 232.46110 234.60072 236.78333 239.04994 241.43055
 244.06216 246.32378 248.33639 250.11200 251.53961 252.67322 253.50584 253.83245
 253.88006 253.66467 253.03528 251.99389 250.61051 248.78212 246.70173 244.54534
 242.34695 240.16157 237.99218 235.84179 233.71240 231.59001 229.62663 227.79424
 226.08785 224.57046 223.21107 221.99369 220.88630 219.85691 218.97152 218.12313
 217.37575 216.56636 215.67497 215.04958 214.51019 213.66052 211.65509 211.47636
 211.94620 211.87373 212.42532 214.59999 217.88490 222.66646 228.69011 233.46628
 237.23024 241.22426 245.51990 249.83528 253.90215 257.63870 260.50977 262.80005
 265.70605 268.35022 270.61926 272.77841 275.08344 277.27069 278.92587 280.44284
 282.02240 283.52319 284.94928 286.31189 287.49066 288.53336 289.48813 290.35306
 291.13669 291.83261 292.44760 293.25220
 366.78100 356.34648 345.78996 334.66744 323.08192 311.28740 299.16888 286.98336
 274.70684 262.61533 250.63581 239.94829 230.08177 221.19725 213.39073 206.40421
 200.24969 195.19917 191.79265 189.84613 188.89461 188.97009 189.81657 191.13605
 192.87253 194.97902 197.25350 199.62398 202.08046 204.57194 206.67142 208.52490
 210.16238 211.31886 211.55934 211.79882 211.74730 211.46378 211.10826 210.74974
 210.37822 210.09971 209.91919 209.79467 209.73415 210.07663 210.47411 210.87459
 211.67907 212.86855 214.13003 215.92451 217.86399 219.91847 222.02495 224.11943
 226.19091 228.28639 230.39488 232.51236 234.65284 236.83632 239.10380 241.48528
 244.11776 246.38024 248.39372 250.17020 251.59868 252.73316 253.56664 253.89412
 253.94260 253.72808 253.09957 252.05905 250.67653 248.84901 246.76949 244.61397
 242.41645 240.23193 238.06341 235.91389 233.78537 231.66385 229.70133 227.86981
 226.16429 224.64777 223.28926 222.07274 220.96622 219.93770 219.05318 218.20566
 217.45914 216.65062 215.76010 215.13558 214.59706 213.72130 211.65366 211.51395
 212.01971 211.99086 212.51430 214.59930 217.83916 222.62085 228.63275 233.38484
 237.14374 241.14006 245.43887 249.76575 253.84921 257.57315 260.43628 262.73636
 265.64111 268.27698 270.54352 272.71115 275.03165 277.23383 278.90591 280.43237
 282.00507 283.49802 284.92020 286.28262 287.46017 288.50446 289.45676 290.32443
 291.10495 291.80307 292.41745 293.22110
 366.78100 356.34732 345.79163 334.66995 323.08527 311.29158 299.17390 286.98921
 274.71353 262.62285 250.64416 239.95748 230.09180 221.20811 213.40243 206.41675
 200.26306 195.21338 191.80769 189.86201 188.91133 188.98764 189.83496 191.15528
 192.89259 194.99991 197.27522 199.64654 202.10386 204.59617 206.69649 208.55081
 210.18912 211.34644 211.58776 211.82807 211.77739 211.49470 211.14002 210.78234
 210.41165 210.13397 209.95429 209.83060 209.77092 210.11424 210.51255 210.91387
 211.71918 212.90950 214.17182 215.96713 217.90745 219.96277 222.07008 224.16540
 226.23771 228.33403 230.44335 232.56166 234.70298 236.88730 239.15561 241.53793
 244.17125 246.43456 248.44888 250.22619 251.65551 252.79083 253.62514 253.95346
 254.00278 253.78909 253.16141 252.12173 250.74004 248.91336 246.83467 244.67999
 242.48331 240.29962 238.13194 235.98326 233.85557 231.73489 229.77320 227.94252
 226.23784 224.72215 223.36447 222.14879 221.04310 220.01542 219.13174 218.28505
 217.53937 216.73168 215.84200 215.21832 214.68063 213.77997 211.65291 211.54492
 212.09404 212.10710 212.60088 214.60246 217.80960 222.57729 228.57234 233.30170
 237.05711 241.05727 245.36096 249.70134 253.79907 257.50858 260.36563 262.67752
 265.57523 268.19946 270.46429 272.64224 274.97836 277.19360 278.88348 280.42020
 281.98404 283.46915 284.88882 286.25064 287.42935 288.47348 289.42609 290.29184
 291.07321 291.77042 292.38617 293.18472
 366.78100 356.34823 345.79345 334.67268 323.08890 311.29613 299.17936 286.99558
 274.72081 262.63103 250.65326 239.96749 230.10271 221.21994 213.41516 206.43039
 200.27761 195.22884 191.82407 189.87929 188.92952 189.00674 189.85497 191.17620
 192.91442 195.02265 197.29887 199.67110 202.12933 204.62255 206.72378 208.57900
 210.21823 211.37646 211.61868 211.85991 211.81013 211.52836 211.17458 210.81781
 210.44804 210.17126 209.99249 209.86971 209.81094 210.15517 210.55439 210.95662
 211.76284 212.95407 214.21730 216.01352 217.95475 220.01097 222.11920 224.21543
 226.28865 228.38588 230.49610 232.61533 234.75755 236.94278 239.21201 241.59523
 244.22946 246.49368 248.50891 250.28714 251.71736 252.85359 253.68881 254.01804
 254.06827 253.85549 253.22872 252.18994 250.80917 248.98340 246.90562 244.75185
 242.55607 240.37330 238.20652 236.05875 233.93198 231.81220 229.85143 228.02165
 226.31788 224.80311 223.44633 222.23156 221.12678 220.10001 219.21724 218.37146
 217.62669 216.81991 215.93114 215.30837 214.77159 213.84192 211.64565 211.57515
 212.17192 212.21829 212.68243 214.60593 217.78897 222.52769 228.50940 233.22739
 236.98058 240.98146 245.28975 249.64357 253.75227 257.44287 260.29404 262.62061
 265.50629 268.11554 270.37961 272.57123 274.92429 277.15210 278.86121 280.40955
 281.96393 283.43784 284.85803 286.22015 287.39630 288.43906 289.39206 290.25766
 291.03812 291.73575 292.34814 293.15149
 366.78100 356.34876 345.79453 334.67429 323.09105 311.29882 299.18258 286.99934
 274.72511 262.63587 250.65863 239.97340 230.10916 221.22692 213.42269 206.43845
 200.28621 195.23798 191.83374 189.88950 188.94027 189.01803 189.86679 191.18856
 192.92732 195.03608 197.31285 199.68561 202.14437 204.63814 206.73990 208.59566
 210.23543 211.39419 211.63695 211.87872 211.82948 211.54824 211.19501 210.83877
 210.46953 210.19330 210.01506 209.89282 209.83459 210.17935 210.57911 210.98188
 211.78864 212.98040 214.24417 216.04093 217.98269 220.03946 222.14822 224.24498
 226.31875 228.41651 230.52727 232.64704 234.78980 236.97556 239.24533 241.62909
 244.26385 246.52862 248.54438 250.32314 251.75391 252.89067 253.72643 254.05620
 254.10696 253.89472 253.26849 252.23025 250.85001 249.02478 246.94754 244.79430
 242.59907 240.41683 238.25059 236.10336 233.97712 231.85788 229.89765 228.06841
 226.36517 224.85094 223.49470 222.28046 221.17623 220.14999 219.26775 218.42252
 217.67828 216.87204 215.98381 215.36157 214.82533 213.88528 211.66432 211.57803
 212.24988 212.33231 212.76736 214.62556 217.75604 222.48659 228.45840 233.15450
 236.89952 240.90038 245.21674 249.58763 253.70674 257.37741 260.22391 262.56848
 265.43655 268.02649 270.29236 272.49963 274.86951 277.10809 278.83920 280.40109
 281.94513 283.40878 284.82419 286.18423 287.36093 288.40280 289.35611 290.22229
 291.00098 291.69748 292.31247 293.11090
 366.78100 356.35000 345.79700 334.67800 323.09600 311.30500 299.19000 287.00800
 274.73500 262.64700 250.67100 239.98700 230.12400 221.24300 213.44000 206.45700
 200.30600 195.25900 191.85600 189.91300 188.96500 189.04400 189.89400 191.21700
 192.95700 195.06700 197.34500 199.71900 202.17900 204.67400 206.77700 208.63400
 210.27500 211.43500 211.67900 211.92200 211.87400 211.59400 211.24200 210.88700
 210.51900 210.24400 210.06700 209.94600 209.88900 210.23500 210.63600 211.04000
 211.84800 213.04100 214.30600 216.10400 218.04700 220.10500 222.21500 224.31300
 226.38800 228.48700 230.59900 232.72000 234.86400 237.05100 239.32200 241.70700
 244.34300 246.60900 248.62600 250.40600 251.83800 252.97600 253.81300 254.14400
 254.19600 253.98500 253.36000 252.32300 250.94400 249.12000 247.04400 244.89200
 242.69800 240.51700 238.35200 236.20600 234.08100 231.96300 230.00400 228.17600
 226.47400 224.96100 223.60600 222.39300 221.29000 220.26500 219.38400 218.54000
 217.79700 216.99200 216.10501 215.48401 214.94901 213.96429 211.63780 211.60721
 212.33112 212.42802 212.86176 214.64415 217.73032 222.43459 228.40463 233.08438
 236.82425 240.82784 245.15350 249.54274 253.67039 257.31754 260.15952 262.52029
 265.36328 267.93024 270.19559 272.42163 274.80914 277.05734 278.80939 280.38571
 281.91855 283.37366 284.78958 286.15094 287.32663 288.36981 289.32138 290.18500
 290.96658 291.66367 292.27551 293.07523
 366.78100 356.35096 345.79892 334.68088 323.09984 311.30981 299.19577 287.01473
 274.74269 262.65565 250.68061 239.99757 230.13553 221.25549 213.45345 206.47142
 200.32138 195.27534 191.87330 189.93126 188.98422 189.06418 189.91514 191.23910
 192.98007 195.09103 197.36999 199.74495 202.20591 204.70187 206.80583 208.66379
 210.30575 211.46671 211.71168 211.95564 211.90860 211.62956 211.27852 210.92448
 210.55744 210.28340 210.10736 209.98733 209.93129 210.27825 210.68021 211.08517
 211.89413 213.08809 214.35405 216.15301 218.09697 220.15594 222.26690 224.36586
 226.44182 228.54178 230.65474 232.77670 234.92166 237.10962 239.38159 241.76755
 244.40451 246.67147 248.68943 250.47039 251.90335 253.04231 253.88027 254.21223
 254.26520 254.05516 253.43112 252.39508 251.01704 249.19400 247.11896 244.96792
 242.77488 240.59485 238.43081 236.28577 234.16173 232.04469 230.08665 228.25961
 226.55857 225.04653 223.69249 222.48046 221.37842 220.35438 219.47434 218.63130
 217.88926 217.08522 216.19918 215.57914 215.04510 214.03111 211.63544 211.58823
 212.44638 212.54666 212.92924 214.63966 217.68681 222.39780 228.36220 233.02881
 236.75851 240.76012 245.09445 249.50095 253.63560 257.25537 260.08658 262.46964
 265.28375 267.82486 270.09494 272.34454 274.75064 277.00836 278.78622 280.37943
 281.90042 283.34427 284.75354 286.11243 287.28751 288.32825 289.28232 290.14539
 290.92462 291.62256 292.23383 293.03247
 366.78100 356.35103 345.79905 334.68108 323.10011 311.31013 299.19616 287.01519
 274.74322 262.65624 250.68127 239.99830 230.13632 221.25635 213.45438 206.47240
 200.32243 195.27646 191.87449 189.93251 188.98554 189.06557 189.91659 191.24062
 192.98165 195.09267 197.37170 199.74673 202.20776 204.70378 206.80781 208.66584
 210.30786 211.46889 211.71392 211.95794 211.91097 211.63200 211.28102 210.92705
 210.56008 210.28611 210.11013 209.99016 209.93419 210.28121 210.68324 211.08827
 211.89729 213.09132 214.35735 216.15638 218.10040 220.15943 222.27046 224.36948
 226.44551 228.54554 230.65856 232.78059 234.92562 237.11365 239.38567 241.77170
 244.40873 246.67575 248.69378 250.47481 251.90783 253.04686 253.88489 254.21691
 254.26994 254.05997 253.43600 252.40002 251.02205 249.19908 247.12410 244.97313
 242.78016 240.60018 238.43621 236.29124 234.16727 232.05029 230.09232 228.26535
 226.56437 225.05240 223.69843 222.48645 221.38448 220.36051 219.48053 218.63756
 217.89559 217.09162 216.20564 215.58567 215.05170 214.04953 211.68182 211.57217
 212.54094 212.64197 212.94525 214.65010 217.66502 222.38853 228.33447 232.97626
 236.68750 240.68777 245.03304 249.45851 253.59760 257.18665 260.01996 262.42484
 265.21036 267.72827 270.00531 272.27722 274.69675 276.96426 278.76413 280.36871
 281.87360 283.30789 284.71899 286.07910 287.25363 288.29538 289.24811 290.11298
 290.89264 291.58936 292.20035 292.99719
 366.78100 356.35045 345.79791 334.67936 323.09782 311.30727 299.19272 287.01118
 274.73863 262.65108 250.67554 239.99199 230.12945 221.24890 213.44635 206.46381
 200.31326 195.26672 191.86417 189.92162 188.97408 189.05353 189.90398 191.22744
 192.96789 195.07835 197.35680 199.73125 202.19171 204.68716 206.79062 208.64807
 210.28952 211.44998 211.69443 211.93788 211.89034 211.61079 211.25925 210.90470
 210.53715 210.26261 210.08606 209.96552 209.90897 210.25542 210.65688 211.06133
 211.86978 213.06324 214.32869 216.12715 218.07060 220.12905 222.23951 224.33796
 226.41342 228.51287 230.62532 232.74678 234.89123 237.07868 239.35014 241.73559
 244.37205 246.63850 248.65595 250.43641 251.86886 253.00732 253.84477 254.17622
 254.22868 254.01813 253.39358 252.35704 250.97849 249.15495 247.07940 244.92785
 242.73431 240.55376 238.38922 236.24367 234.11912 232.00158 230.04303 228.21548
 226.51394 225.00139 223.64685 222.43430 221.33175 220.30721 219.42666 218.58312
 217.84057 217.03602 216.14948 215.52893 214.99438 214.02826 211.74568 211.63049
 212.55502 212.65469 213.01524 214.74959 217.66016 222.27336 228.30354 232.92194
 236.61523 240.61996 244.98235 249.43111 253.58095 257.14731 259.97308 262.40280
 265.14679 267.63544 269.91403 272.20483 274.63861 276.91162 278.73517 280.35480
 281.84659 283.27094 284.67844 286.03699 287.20883 288.24863 289.20050 290.06412
 290.84399 291.54156 292.14941 292.94751
 366.78100 356.34976 345.79653 334.67729 323.09506 311.30382 299.18858 287.00635
 274.73311 262.64488 250.66864 239.98440 230.12117 221.23993 213.43670 206.45346
 200.30222 195.25499 191.85175 189.90852 188.96028 189.03904 189.88881 191.21157
 192.95134 195.06110 197.33886 199.71263 202.17239 204.66716 206.76992 208.62668
 210.26745 211.42721 211.67098 211.91374 211.86550 211.58527 211.23303 210.87780
 210.50956 210.23432 210.05709 209.93585 209.87862 210.22438 210.62514 211.02891
 211.83667 213.02944 214.29420 216.09196 218.03473 220.09249 222.20226 224.30002
 226.37478 228.47355 230.58531 232.70608 234.84984 237.03660 239.30737 241.69213
 244.32790 246.59366 248.61042 250.39019 251.82195 252.95972 253.79648 254.12724
 254.17901 253.96777 253.34254 252.30530 250.92606 249.10183 247.02559 244.87336
 242.67912 240.49788 238.33265 236.18641 234.06118 231.94294 229.98370 228.15547
 226.45323 224.94000 223.58476 222.37152 221.26829 220.24305 219.36182 218.51758
 217.77434 216.96911 216.08187 215.46064 214.92540 213.99597 211.80008 211.71613
 212.60213 212.67441 213.03415 214.80765 217.69177 222.16045 228.24696 232.85492
 236.53687 240.55260 244.93451 249.40904 253.57092 257.11548 259.94342 262.37982
 265.08026 267.53699 269.81604 272.12756 274.57086 276.84348 278.68820 280.32321
 281.80606 283.22845 284.63730 285.99588 287.16742 288.20712 289.16071 290.02512
 290.80490 291.49982 292.11020 292.90720
 366.78100 356.35037 345.79773 334.67910 323.09746 311.30683 299.19219 287.01056
 274.73793 262.65029 250.67466 239.99102 230.12839 221.24776 213.44512 206.46249
 200.31185 195.26522 191.86258 189.91995 188.97232 189.05168 189.90205 191.22541
 192.96578 195.07615 197.35451 199.72888 202.18924 204.68461 206.78797 208.64534
 210.28671 211.44707 211.69144 211.93480 211.88717 211.60753 211.25590 210.90127
 210.53363 210.25900 210.08236 209.96173 209.90510 210.25146 210.65283 211.05719
 211.86556 213.05892 214.32429 216.12266 218.06602 220.12439 222.23475 224.33312
 226.40849 228.50785 230.62022 232.74158 234.88595 237.07331 239.34468 241.73005
 244.36641 246.63278 248.65014 250.43051 251.86287 253.00124 253.83861 254.16997
 254.22234 254.01170 253.38707 252.35044 250.97180 249.14817 247.07253 244.92090
 242.72726 240.54663 238.38200 236.23636 234.11173 231.99409 230.03546 228.20782
 226.50619 224.99356 223.63892 222.42629 221.32365 220.29902 219.41839 218.57475
 217.83212 217.02748 216.14085 215.52021 214.98558 214.03160 211.77776 211.75620
 212.72762 212.79175 213.04843 214.83698 217.73402 222.09625 228.16374 232.77028
 236.44006 240.47137 244.87183 249.36668 253.53044 257.03955 259.86380 262.32852
 264.99011 267.42590 269.72260 272.05969 274.51044 276.78360 278.65472 280.30142
 281.77261 283.18961 284.59860 285.95630 287.12100 288.16202 289.11450 289.97845
 290.75699 291.45084 292.06354 292.86319
 366.78100 356.35239 345.80177 334.68516 323.10554 311.31693 299.20431 287.02470
 274.75408 262.66847 250.69485 240.01324 230.15262 221.27401 213.47339 206.49278
 200.34416 195.29955 191.89893 189.95832 189.01270 189.09409 189.94647 191.27186
 193.01424 195.12663 197.40701 199.78340 202.24578 204.74317 206.84855 208.70794
 210.35132 211.51371 211.76010 212.00548 211.95987 211.68225 211.33264 210.98002
 210.61441 210.34179 210.16718 210.04856 209.99395 210.34233 210.74572 211.15210
 211.96249 213.15787 214.42526 216.22564 218.17103 220.23141 222.34380 224.44418
 226.52157 228.62295 230.73734 232.86072 235.00711 237.19649 239.46988 241.85726
 244.49565 246.76403 248.78342 250.56581 252.00019 253.14058 253.97996 254.31335
 254.36773 254.15912 253.53650 252.50189 251.12527 249.30366 247.23004 245.08043
 242.88881 240.71020 238.54758 236.40397 234.28135 232.16574 230.20912 228.38351
 226.68389 225.17328 223.82066 222.61005 221.50943 220.48682 219.60820 218.76659
 218.02597 217.22336 216.33874 215.72013 215.18752 214.14969 211.69772 211.71892
 212.81577 212.98911 213.19658 214.91216 217.76472 222.05974 228.07603 232.67418
 236.32903 240.37601 244.79521 249.30721 253.45940 256.92123 259.75916 262.27164
 264.90836 267.33670 269.65466 272.01553 274.47101 276.75320 278.65143 280.30188
 281.75104 283.15402 284.55923 285.91165 287.07233 288.11447 289.06479 289.93030
 290.71188 291.40665 292.01965 292.81613
 366.78100 356.35300 345.80301 334.68701 323.10801 311.32002 299.20802 287.02903
 274.75903 262.67403 250.70104 240.02004 230.16004 221.28205 213.48205 206.50205
 200.35406 195.31006 191.91006 189.97007 189.02507 189.10708 189.96008 191.28608
 193.02909 195.14209 197.42309 199.80010 202.26310 204.76110 206.86711 208.72711
 210.37111 211.53412 211.78112 212.02713 211.98213 211.70513 211.35614 211.00414
 210.63914 210.36715 210.19315 210.07515 210.02116 210.37016 210.77417 211.18117
 211.99217 213.18818 214.45618 216.25718 218.20319 220.26419 222.37719 224.47820
 226.55620 228.65820 230.77321 232.89721 235.04422 237.23422 239.50822 241.89623
 244.53523 246.80423 248.82424 250.60724 252.04224 253.18325 254.02325 254.35725
 254.41226 254.20426 253.58227 252.54827 251.17227 249.35128 247.27828 245.12928
 242.93829 240.76029 238.59829 236.45530 234.33330 232.21831 230.26231 228.43731
 226.73832 225.22832 223.87632 222.66633 221.56633 220.54433 219.66634 218.82534
 218.08534 217.28335 216.39935 215.78136 215.24936 214.19707 211.71092 211.70996
 212.76517 213.06903 213.35989 215.00833 217.80461 222.05811 228.03404 232.63528
 236.26138 240.31717 244.74649 249.27104 253.41783 256.85074 259.67422 262.26422
 264.85019 267.26544 269.60406 271.98593 274.44232 276.73294 278.66412 280.32666
 281.75720 283.13345 284.51901 285.84879 286.99536 288.03354 288.98376 289.84753
 290.62439 291.31915 291.92978 292.72330
 366.78100 356.35148 345.79997 334.68245 323.10194 311.31242 299.19891 287.01839
 274.74688 262.66036 250.68585 240.00333 230.14182 221.26230 213.46079 206.47927
 200.32976 195.28424 191.88273 189.94121 188.99469 189.07518 189.92666 191.25115
 192.99263 195.10412 197.38360 199.75909 202.22057 204.71706 206.82154 208.68003
 210.32251 211.48400 211.72948 211.97397 211.92745 211.64894 211.29842 210.94490
 210.57839 210.30487 210.12936 210.00984 209.95433 210.30181 210.70430 211.10978
 211.91927 213.11375 214.38024 216.17972 218.12421 220.18369 222.29518 224.39466
 226.47114 228.57163 230.68511 232.80760 234.95308 237.14157 239.41405 241.80054
 244.43802 246.70551 248.72399 250.50548 251.93896 253.07845 253.91693 254.24942
 254.30290 254.09339 253.46987 252.43435 251.05684 249.23432 247.15981 245.00929
 242.81678 240.63726 238.47375 236.32923 234.20572 232.08920 230.13169 228.30517
 226.60466 225.09314 223.73963 222.52811 221.42660 220.40308 219.52356 218.68105
 217.93953 217.13602 216.25050 215.63099 215.09747 214.12120 211.81465 211.81390
 212.72150 213.04192 213.39699 214.98596 217.77570 222.04106 228.01463 232.61037
 236.22119 240.28458 244.72269 249.26184 253.40929 256.82959 259.66104 262.25766
 264.78555 267.18042 269.52792 271.92725 274.38623 276.67917 278.63763 280.30908
 281.73520 283.10257 284.47665 285.78870 286.93130 287.96872 288.92017 289.78162
 290.56409 291.26117 291.87747 292.68182
 366.78100 356.35074 345.79848 334.68022 323.09896 311.30870 299.19444 287.01318
 274.74091 262.65365 250.67839 239.99513 230.13287 221.25261 213.45035 206.46809
 200.31783 195.27157 191.86931 189.92705 188.97979 189.05953 189.91027 191.23400
 192.97474 195.08548 197.36422 199.73896 202.19970 204.69544 206.79918 208.65692
 210.29866 211.45940 211.70414 211.94788 211.90062 211.62136 211.27009 210.91583
 210.54857 210.27431 210.09805 209.97779 209.92153 210.26827 210.67001 211.07475
 211.88349 213.07723 214.34297 216.14171 218.08545 220.14418 222.25492 224.35366
 226.42940 228.52914 230.64188 232.76362 234.90836 237.09610 239.36784 241.75358
 244.39032 246.65706 248.67480 250.45554 251.88828 253.02701 253.86475 254.19649
 254.24923 254.03897 253.41471 252.37845 251.00019 249.17693 247.10167 244.95041
 242.75715 240.57689 238.41263 236.26737 234.14310 232.02584 230.06758 228.24032
 226.53906 225.02680 223.67254 222.46028 221.35802 220.33376 219.45350 218.61024
 217.86798 217.06372 216.17746 215.55719 215.02293 214.08105 211.85576 211.89359
 212.82730 213.12393 213.41515 214.91148 217.69545 221.98193 227.98862 232.54317
 236.16010 240.22928 244.68771 249.25076 253.40396 256.80701 259.63422 262.21686
 264.68994 267.06308 269.41440 271.82507 274.28711 276.57788 278.55157 280.23367
 281.66644 283.04364 284.42020 285.72366 286.87207 287.90964 288.85974 289.72302
 290.50308 291.20084 291.81335 292.60965
 366.78100 356.35186 345.80073 334.68359 323.10346 311.31432 299.20119 287.02105
 274.74991 262.66378 250.68964 240.00751 230.14637 221.26724 213.46610 206.48497
 200.33583 195.29069 191.88956 189.94842 189.00229 189.08315 189.93502 191.25988
 193.00174 195.11361 197.39347 199.76934 202.23120 204.72807 206.83293 208.69180
 210.33466 211.49652 211.74239 211.98725 211.94112 211.66298 211.31285 210.95971
 210.59357 210.32044 210.14530 210.02617 209.97103 210.31890 210.72176 211.12763
 211.93749 213.13235 214.39922 216.19908 218.14395 220.20381 222.31568 224.41554
 226.49240 228.59327 230.70713 232.83000 234.97586 237.16473 239.43759 241.82446
 244.46232 246.73018 248.74905 250.53091 251.96478 253.10464 253.94351 254.27637
 254.33023 254.12110 253.49796 252.46283 251.08569 249.26356 247.18942 245.03929
 242.84715 240.66801 238.50488 236.36074 234.23761 232.12147 230.16434 228.33820
 226.63806 225.12693 223.77379 222.56266 221.46152 220.43839 219.55925 218.71712
 217.97598 217.17284 216.28771 215.66857 215.13544 214.15031 211.82286 211.83202
 212.98294 213.32779 213.53952 214.93286 217.64755 221.92203 227.93193 232.43524
 236.05637 240.13708 244.62558 249.21413 253.37531 256.76260 259.58517 262.17508
 264.60745 266.96411 269.31726 271.73627 274.20111 276.48688 278.46985 280.15805
 281.59564 282.98007 284.35965 285.66171 286.80374 287.83694 288.78348 289.64545
 290.42319 291.11798 291.72659 292.50641
 366.78100 356.35259 345.80218 334.68578 323.10637 311.31796 299.20555 287.02614
 274.75574 262.67033 250.69692 240.01551 230.15510 221.27669 213.47629 206.49588
 200.34747 195.30306 191.90265 189.96225 189.01684 189.09843 189.95102 191.27661
 193.01921 195.13180 197.41239 199.78898 202.25157 204.74917 206.85476 208.71435
 210.35794 211.52053 211.76712 212.01272 211.96731 211.68990 211.34049 210.98808
 210.62268 210.35027 210.17586 210.05745 210.00304 210.35164 210.75523 211.16182
 211.97241 213.16800 214.43560 216.23619 218.18178 220.24237 222.35496 224.45556
 226.53315 228.63474 230.74933 232.87292 235.01951 237.20911 239.48270 241.87029
 244.50888 246.77747 248.79707 250.57966 252.01425 253.15484 253.99443 254.32803
 254.38262 254.17421 253.55180 252.51739 251.14099 249.31958 247.24617 245.09676
 242.90535 240.72694 238.56454 236.42113 234.29872 232.18331 230.22690 228.40150
 226.70209 225.19168 223.83927 222.62886 221.52846 220.50605 219.62764 218.78623
 218.04582 217.24342 216.35901 215.74060 215.20819 214.20184 211.82422 211.78372
 213.03416 213.46402 213.72087 215.03329 217.64433 221.88658 227.84755 232.32430
 235.93571 240.03044 244.54543 249.14735 253.30374 256.67944 259.51996 262.14148
 264.55927 266.91614 269.28473 271.70593 274.16141 276.43930 278.42230 280.10629
 281.53418 282.91974 284.30231 285.60370 286.73563 287.76047 288.70630 289.56638
 290.34293 291.03708 291.64389 292.40942
 366.78100 356.35134 345.79968 334.68202 323.10136 311.31170 299.19804 287.01738
 274.74573 262.65907 250.68441 240.00175 230.14009 221.26043 213.45877 206.47711
 200.32745 195.28179 191.88013 189.93847 188.99181 189.07215 189.92350 191.24784
 192.98918 195.10052 197.37986 199.75520 202.21654 204.71288 206.81722 208.67556
 210.31790 211.47924 211.72458 211.96892 211.92226 211.64361 211.29295 210.93929
 210.57263 210.29897 210.12331 210.00365 209.94799 210.29533 210.69767 211.10301
 211.91235 213.10669 214.37303 216.17238 218.11672 220.17606 222.28740 224.38674
 226.46308 228.56342 230.67676 232.79910 234.94444 237.13278 239.40512 241.79146
 244.42880 246.69614 248.71449 250.49583 251.92917 253.06851 253.90685 254.23919
 254.29253 254.08287 253.45921 252.42355 251.04589 249.22323 247.14857 244.99791
 242.80526 240.62560 238.46194 236.31728 234.19362 232.07696 230.11930 228.29264
 226.59198 225.08032 223.72666 222.51500 221.41334 220.38968 219.51002 218.66737
 217.92571 217.12205 216.23639 215.61673 215.08307 214.14105 211.91545 211.84702
 212.97198 213.48503 213.85954 215.11731 217.66249 221.87416 227.77676 232.25403
 235.84384 239.94363 244.46976 249.07129 253.20297 256.56967 259.42731 262.08597
 264.50681 266.88495 269.28400 271.70889 274.14688 276.41098 278.38599 280.06363
 281.48462 282.86459 284.24301 285.53714 286.65863 287.67560 288.61584 289.47256
 290.24417 290.92999 291.51529 292.22739
 366.78100 356.34985 345.79669 334.67754 323.09539 311.30424 299.18908 287.00693
 274.73378 262.64562 250.66947 239.98532 230.12216 221.24101 213.43786 206.45471
 200.30355 195.25640 191.85325 189.91009 188.96194 189.04079 189.89063 191.21348
 192.95333 195.06318 197.34102 199.71487 202.17472 204.66956 206.77241 208.62926
 210.27010 211.42995 211.67380 211.91665 211.86849 211.58834 211.23619 210.88103
 210.51288 210.23773 210.06057 209.93942 209.88227 210.22812 210.62896 211.03281
 211.84066 213.03350 214.29835 216.09620 218.03904 220.09689 222.20674 224.30459
 226.37943 228.47828 230.59013 232.71097 234.85482 237.04167 239.31251 241.69736
 244.33321 246.59906 248.61590 250.39575 251.82760 252.96544 253.80229 254.13314
 254.18498 253.97383 253.34868 252.31153 250.93237 249.10822 247.03207 244.87991
 242.68576 240.50461 238.33945 236.19330 234.06815 231.95000 229.99084 228.16269
 226.46054 224.94738 223.59223 222.37908 221.27592 220.25077 219.36962 218.52547
 217.78231 216.97716 216.09001 215.46885 214.93370 214.06181 212.00189 211.95406
 212.91994 213.46544 213.93230 215.13681 217.68484 221.87981 227.73935 232.23183
 235.79941 239.90178 244.42737 249.02103 253.13472 256.47214 259.35657 262.02377
 264.44791 266.84442 269.27005 271.68906 274.09467 276.33179 278.29068 279.95615
 281.37570 282.78793 284.18393 285.47839 286.59729 287.60797 288.54196 289.39520
 290.16101 290.83459 291.38297 292.04486
 366.78100 356.34869 345.79438 334.67407 323.09077 311.29846 299.18215 286.99884
 274.72453 262.63522 250.65792 239.97261 230.10830 221.22599 213.42168 206.43737
 200.28507 195.23676 191.83245 189.88814 188.93883 189.01652 189.86522 191.18691
 192.92560 195.03429 197.31098 199.68367 202.14237 204.63606 206.73775 208.59344
 210.23313 211.39182 211.63451 211.87621 211.82690 211.54559 211.19228 210.83597
 210.46666 210.19036 210.01205 209.88974 209.83143 210.17612 210.57581 210.97851
 211.78520 212.97689 214.24058 216.03727 217.97896 220.03566 222.14435 224.24104
 226.31473 228.41242 230.52311 232.64280 234.78550 236.97119 239.24088 241.62457
 244.25926 246.52395 248.53965 250.31834 251.74903 252.88572 253.72141 254.05110
 254.10180 253.88949 253.26318 252.22487 250.84456 249.01925 246.94195 244.78864
 242.59333 240.41102 238.24471 236.09740 233.97110 231.85179 229.89148 228.06217
 226.35886 224.84455 223.48824 222.27394 221.16963 220.14332 219.26101 218.41570
 217.67139 216.86509 215.97678 215.35447 214.81816 214.00658 212.08910 212.00749
 212.93004 213.46103 213.96252 215.11702 217.67299 221.87308 227.70993 232.21049
 235.77037 239.88083 244.40570 248.99460 253.09293 256.45554 259.31784 261.96719
 264.37335 266.78317 269.21948 271.62451 274.02429 276.25220 278.21347 279.87683
 281.32663 282.72754 284.10263 285.36777 286.47330 287.46970 288.38858 289.23550
 289.99808 290.66208 291.16995 291.77219
 366.78100 356.34698 345.79096 334.66894 323.08392 311.28990 299.17188 286.98686
 274.71084 262.61982 250.64080 239.95379 230.08777 221.20375 213.39773 206.41171
 200.25769 195.20767 191.80165 189.85563 188.90461 188.98059 189.82757 191.14755
 192.88453 194.99151 197.26649 199.63747 202.09445 204.58643 206.68641 208.54040
 210.17838 211.33536 211.57634 211.81632 211.76530 211.48228 211.12726 210.76924
 210.39822 210.12020 209.94018 209.81616 209.75614 210.09912 210.49710 210.89808
 211.70306 212.89304 214.15502 215.95000 217.88999 219.94497 222.05195 224.14693
 226.21891 228.31489 230.42387 232.54185 234.68283 236.86681 239.13479 241.51677
 244.14975 246.41273 248.42671 250.20369 251.63267 252.76765 253.60163 253.92961
 253.97860 253.76458 253.13656 252.09654 250.71452 248.88750 246.80848 244.65346
 242.45644 240.27242 238.10440 235.95538 233.82736 231.70634 229.74432 227.91330
 226.20828 224.69226 223.33424 222.11822 221.01221 219.98419 219.10017 218.25315
 217.50713 216.69911 215.80909 215.18507 214.64705 213.92877 212.23314 212.07704
 212.89291 213.43431 213.94591 215.03831 217.63771 221.87125 227.67735 232.19267
 235.74991 239.88382 244.41423 248.99588 253.11275 256.49283 259.34256 261.97940
 264.38901 266.77985 269.20090 271.60580 273.95645 276.15567 278.10196 279.78546
 281.22449 282.68552 284.08389 285.36783 286.47992 287.46844 288.38202 289.22717
 289.98294 290.57077 291.00909 291.55490
 366.78100 356.34644 345.78989 334.66733 323.08178 311.28722 299.16867 286.98311
 274.70656 262.61500 250.63544 239.94789 230.08133 221.19678 213.39022 206.40367
 200.24911 195.19856 191.79200 189.84544 188.89389 188.96933 189.81578 191.13522
 192.87167 194.97811 197.25256 199.62300 202.07944 204.57089 206.67033 208.52378
 210.16122 211.31767 211.55811 211.79756 211.74600 211.46244 211.10689 210.74833
 210.37678 210.09822 209.91767 209.79311 209.73256 210.07500 210.47244 210.87289
 211.67733 212.86678 214.12822 215.92267 217.86211 219.91656 222.02300 224.11744
 226.18889 228.28433 230.39278 232.51022 234.65067 236.83411 239.10156 241.48300
 244.11544 246.37789 248.39133 250.16778 251.59622 252.73067 253.56411 253.89156
 253.94000 253.72544 253.09689 252.05633 250.67378 248.84622 246.76667 244.61111
 242.41356 240.22900 238.06044 235.91089 233.78233 231.66078 229.69822 227.86667
 226.16111 224.64456 223.28600 222.06944 220.96289 219.93433 219.04978 218.20222
 217.45567 216.64711 215.75656 215.13200 214.59344 213.90573 212.29591 212.21873
 212.94359 213.39246 213.96968 215.06207 217.55186 221.76093 227.53224 232.03369
 235.62128 239.79834 244.36633 248.97391 253.14209 256.61478 259.56015 262.16940
 264.56946 266.96042 269.33377 271.61978 273.88562 275.99380 277.82626 279.43268
 280.97748 282.43558 283.78928 284.99783 286.05954 287.00821 287.89697 288.70746
 289.36212 289.75681 290.02502 290.36685
 366.78100 356.34805 345.79310 334.67215 323.08819 311.29524 299.17829 286.99434
 274.71939 262.62944 250.65148 239.96553 230.10058 221.21763 213.41268 206.42773
 200.27478 195.22582 191.82087 189.87592 188.92597 189.00302 189.85107 191.17211
 192.91016 195.01821 197.29426 199.66631 202.12436 204.61741 206.71845 208.57350
 210.21255 211.37060 211.61265 211.85370 211.80374 211.52179 211.16784 210.81089
 210.44094 210.16399 209.98503 209.86208 209.80313 210.14718 210.54623 210.94828
 211.75433 212.94537 214.20842 216.00447 217.94552 220.00157 222.10962 224.20566
 226.27871 228.37576 230.48581 232.60486 234.74691 236.93196 239.20100 241.58405
 244.21810 246.48215 248.49720 250.27525 251.70529 252.84134 253.67639 254.00544
 254.05549 253.84254 253.21559 252.17663 250.79568 248.96973 246.89178 244.73783
 242.54188 240.35892 238.19197 236.04402 233.91707 231.79712 229.83617 228.00622
 226.30226 224.78731 223.43036 222.21541 221.11046 220.08351 219.20055 218.35460
 217.60965 216.80270 215.91375 215.29080 214.75385 214.00951 212.28539 212.14796
 213.13367 213.59096 214.13278 215.12439 217.47040 221.65240 227.35272 231.82942
 235.44783 239.67567 244.25160 248.82584 252.99214 256.57565 259.61429 262.19357
 264.56824 266.96680 269.34888 271.59943 273.78006 275.78912 277.66556 279.43875
 280.76895 282.18787 283.50122 284.65042 285.66513 286.58621 287.42197 288.08737
 288.39731 288.63736 288.84705 289.11426
 366.78100 356.34924 345.79549 334.67573 323.09298 311.30122 299.18547 287.00271
 274.72896 262.64020 250.66344 239.97869 230.11493 221.23318 213.42942 206.44567
 200.29391 195.24616 191.84240 189.89864 188.94989 189.02813 189.87738 191.19962
 192.93887 195.04811 197.32536 199.69860 202.15784 204.65209 206.75433 208.61058
 210.25082 211.41007 211.65331 211.89556 211.84680 211.56604 211.21329 210.85753
 210.48878 210.21302 210.03527 209.91351 209.85576 210.20100 210.60124 211.00449
 211.81173 213.00398 214.26822 216.06547 218.00771 220.06496 222.17420 224.27144
 226.34569 228.44393 230.55518 232.67542 234.81867 237.00491 239.27516 241.65940
 244.29464 246.55989 248.57613 250.35538 251.78662 252.92387 253.76011 254.09035
 254.14160 253.92984 253.30409 252.26633 250.88658 249.06182 246.98507 244.83231
 242.63755 240.45580 238.29004 236.14329 234.01753 231.89878 229.93902 228.11027
 226.40751 224.89375 223.53800 222.32424 221.22049 220.19473 219.31298 218.46822
 217.72447 216.91871 216.03095 215.40920 214.87344 214.10970 212.34399 211.98477
 213.18216 213.65909 214.28366 215.37756 217.64520 221.68640 227.27496 231.76657
 235.36731 239.60016 244.17825 248.70641 252.77881 256.38504 259.56430 262.20743
 264.58603 267.01337 269.39645 271.57745 273.68134 275.59909 277.71329 279.38312
 280.72858 282.06931 283.30161 284.40985 285.40005 286.29089 287.04745 287.48999
 287.85287 288.17606 288.45834 288.81812
 366.78100 356.34754 345.79209 334.67063 323.08618 311.29272 299.17527 286.99081
 274.71536 262.62490 250.64644 239.95999 230.09453 221.21108 213.40562 206.42017
 200.26671 195.21726 191.81180 189.86634 188.91589 188.99243 189.83998 191.16052
 192.89807 195.00561 197.28116 199.65270 202.11024 204.60279 206.70333 208.55788
 210.19642 211.35397 211.59551 211.83606 211.78560 211.50314 211.14869 210.79123
 210.42078 210.14332 209.96387 209.84041 209.78096 210.12450 210.52304 210.92459
 211.73013 212.92068 214.18322 215.97877 217.91931 219.97486 222.08240 224.17794
 226.25049 228.34703 230.45658 232.57512 234.71667 236.90121 239.16976 241.55230
 244.18585 246.44939 248.46393 250.24148 251.67102 252.80657 253.64111 253.96966
 254.01920 253.80575 253.17829 252.13883 250.75738 248.93092 246.85247 244.69801
 242.50156 240.31810 238.15065 236.00219 233.87473 231.75428 229.79282 227.96237
 226.25791 224.74246 223.38500 222.16955 221.06409 220.03663 219.15318 218.30672
 217.56127 216.75381 215.86436 215.24090 214.70345 214.04942 212.52493 211.96010
 213.09152 213.71539 214.32253 215.50313 217.79805 221.73367 227.18936 231.69667
 235.31468 239.54488 244.11757 248.61861 252.66064 256.20029 259.40027 262.17059
 264.64169 267.07904 269.46027 271.66592 273.64108 275.60666 277.67554 279.31204
 280.67493 281.99222 283.18127 284.25061 285.20358 286.04831 286.72223 287.19348
 287.61734 287.99475 288.32446 288.74466
 366.78100 356.34628 345.78955 334.66683 323.08110 311.28638 299.16765 286.98193
 274.70520 262.61348 250.63376 239.94603 230.07931 221.19458 213.38786 206.40113
 200.24641 195.19568 191.78896 189.84224 188.89051 188.96579 189.81206 191.13134
 192.86761 194.97389 197.24816 199.61844 202.07471 204.56599 206.66527 208.51854
 210.15582 211.31209 211.55237 211.79164 211.73992 211.45619 211.10047 210.74175
 210.37002 210.09130 209.91057 209.78585 209.72512 210.06740 210.46467 210.86495
 211.66923 212.85850 214.11978 215.91405 217.85333 219.90760 222.01388 224.10815
 226.17943 228.27471 230.38298 232.50026 234.64053 236.82381 239.09108 241.47236
 244.10463 246.36691 248.38019 250.15646 251.58474 252.71901 253.55229 253.87956
 253.92784 253.71311 253.08439 252.04367 250.66094 248.83322 246.75349 244.59777
 242.40004 240.21532 238.04659 235.89687 233.76814 231.64642 229.68370 227.85197
 226.14625 224.62952 223.27080 222.05407 220.94735 219.91862 219.03390 218.18618
 217.43945 216.63073 215.74000 215.11528 214.57655 213.98453 212.60326 212.08919
 213.04636 213.89609 214.49388 215.58583 217.80478 221.66176 227.05841 231.51266
 235.15894 239.41292 243.98840 248.44225 252.42302 255.92151 259.08765 261.90573
 264.48383 267.02286 269.49176 271.74622 273.76404 275.62881 277.54944 279.38483
 280.84869 282.12283 283.24335 284.26373 285.17395 286.01993 286.83713 287.59665
 288.28119 288.89078 289.42331 290.10196
 366.78100 356.34714 345.79127 334.66941 323.08454 311.29068 299.17282 286.98795
 274.71209 262.62123 250.64236 239.95550 230.08963 221.20577 213.39991 206.41404
 200.26018 195.21031 191.80445 189.85859 188.90772 188.98386 189.83099 191.15113
 192.88827 194.99540 197.27054 199.64168 202.09881 204.59095 206.69108 208.54522
 210.18336 211.34049 211.58163 211.82176 211.77090 211.48804 211.13317 210.77531
 210.40445 210.12658 209.94672 209.82285 209.76299 210.10613 210.50426 210.90540
 211.71053 212.90067 214.16281 215.95794 217.89808 219.95321 222.06035 224.15549
 226.22762 228.32376 230.43290 232.55103 234.69217 236.87630 239.14444 241.52658
 244.15971 246.42285 248.43698 250.21412 251.64326 252.77839 253.61253 253.94067
 253.98980 253.77594 253.14807 252.10821 250.72635 248.89948 246.82062 244.66575
 242.46889 240.28503 238.11716 235.96830 233.84043 231.71957 229.75771 227.92684
 226.22198 224.70612 223.34825 222.13239 221.02652 219.99866 219.11480 218.26793
 217.52207 216.71420 215.82434 215.20048 214.66261 214.02722 212.54211 212.17261
 213.15112 213.98807 214.66672 215.73422 217.87074 221.63519 227.08382 231.47844
 235.10204 239.33778 243.88474 248.29533 252.22685 255.66783 258.77069 261.58234
 264.18228 266.77057 269.28146 271.62198 273.76068 275.74460 277.66818 279.52908
 281.03888 282.30914 283.45291 284.47244 285.37494 286.18427 286.94678 287.68646
 288.38708 289.01535 289.56421 290.26364
 366.78100 356.34604 345.78909 334.66613 323.08018 311.28522 299.16626 286.98031
 274.70335 262.61140 250.63144 239.94348 230.07653 221.19157 213.38462 206.39766
 200.24270 195.19175 191.78479 189.83784 188.88588 188.96093 189.80697 191.12601
 192.86206 194.96810 197.24215 199.61219 202.06823 204.55928 206.65832 208.51137
 210.14841 211.30445 211.54450 211.78354 211.73159 211.44763 211.09167 210.73272
 210.36076 210.08181 209.90085 209.77589 209.71494 210.05698 210.45403 210.85407
 211.65811 212.84716 214.10820 215.90225 217.84129 219.89534 222.00138 224.09542
 226.16647 228.26151 230.36956 232.48660 234.62664 236.80969 239.07673 241.45778
 244.08982 246.35186 248.36491 250.14095 251.56900 252.70304 253.53608 253.86313
 253.91117 253.69622 253.06726 252.02630 250.64335 248.81539 246.73544 244.57948
 242.38152 240.19657 238.02761 235.87766 233.74870 231.62674 229.66379 227.83183
 226.12588 224.60892 223.24997 222.03301 220.92605 219.89710 219.01214 218.16419
 217.41723 216.60827 215.71732 215.09236 214.55341 213.98776 212.66190 212.20396
 213.25220 213.88237 214.47672 215.66563 217.89493 221.65092 227.12872 231.58337
 235.14821 239.38222 243.91422 248.32019 252.27278 255.71812 258.76071 261.59244
 264.13007 266.66431 269.14453 271.42499 273.56036 275.57938 277.47726 279.31836
 280.90775 282.23990 283.39102 284.38879 285.27176 286.06342 286.82425 287.59180
 288.33691 289.01910 289.61505 290.37454
 366.78100 356.34474 345.78649 334.66223 323.07497 311.27872 299.15846 286.97120
 274.69294 262.59969 250.61843 239.92917 230.06092 221.17466 213.36640 206.37815
 200.22189 195.16963 191.76138 189.81312 188.85986 188.93360 189.77835 191.09609
 192.83083 194.93558 197.20832 199.57706 202.03181 204.52155 206.61929 208.47104
 210.10678 211.26152 211.50027 211.73801 211.68475 211.39949 211.04224 210.68198
 210.30872 210.02847 209.84621 209.71995 209.65770 209.99844 210.39418 210.79293
 211.59567 212.78341 214.04315 215.83590 217.77364 219.82638 221.93113 224.02387
 226.09361 228.18736 230.29410 232.40984 234.54859 236.73033 238.99607 241.37581
 244.00656 246.26730 248.27904 250.05379 251.48053 252.61327 253.44502 253.77076
 253.81750 253.60125 252.97099 251.92873 250.54448 248.71522 246.63396 244.47670
 242.27745 240.09119 237.92093 235.76968 233.63942 231.51616 229.55191 227.71865
 226.01139 224.49314 223.13288 221.91462 220.80636 219.77611 218.88985 218.04059
 217.29234 216.48208 215.58982 214.96357 214.42331 213.94777 212.83221 212.31610
 213.24779 213.66013 214.18242 215.53731 217.90050 221.68884 227.07733 231.56801
 235.15118 239.39142 243.92014 248.31203 252.27711 255.70921 258.83051 261.65924
 264.27966 266.82516 269.23163 271.47791 273.44583 275.55414 277.47763 279.11603
 280.49271 281.81955 282.99551 283.97855 284.83447 285.70560 286.57770 287.37570
 288.09344 288.73257 289.29089 290.00244
 366.78100 356.34640 345.78980 334.66720 323.08161 311.28701 299.16841 286.98281
 274.70621 262.61461 250.63502 239.94742 230.08082 221.19622 213.38962 206.40302
 200.24843 195.19783 191.79123 189.84463 188.89303 188.96843 189.81483 191.13424
 192.87064 194.97704 197.25144 199.62184 202.07824 204.56965 206.66905 208.52245
 210.15985 211.31625 211.55665 211.79605 211.74446 211.46086 211.10526 210.74666
 210.37506 210.09646 209.91587 209.79127 209.73067 210.07307 210.47047 210.87087
 211.67528 212.86468 214.12608 215.92048 217.85988 219.91428 222.02068 224.11509
 226.18649 228.28189 230.39029 232.50769 234.64809 236.83150 239.09890 241.48030
 244.11270 246.37510 248.38850 250.16491 251.59331 252.72771 253.56111 253.88851
 253.93691 253.72231 253.09372 252.05312 250.67052 248.84292 246.76332 244.60772
 242.41013 240.22553 238.05693 235.90733 233.77873 231.65713 229.69454 227.86294
 226.15734 224.64074 223.28214 222.06554 220.95894 219.93035 219.04575 218.19815
 217.45155 216.64295 215.75235 215.12776 214.58916 214.06493 212.84113 212.39615
 213.41347 213.82774 214.32054 215.64880 217.95107 221.71605 227.03001 231.44685
 235.06538 239.32915 243.88913 248.29070 252.25406 255.68375 258.75452 261.57861
 264.26819 266.86115 269.27475 271.42688 273.46594 275.62021 277.53510 279.12988
 280.35675 281.56210 282.65335 283.67215 284.80182 285.84003 286.78720 287.64532
 288.41708 289.10434 289.70471 290.46985
 366.78100 356.34694 345.79087 334.66881 323.08374 311.28968 299.17162 286.98655
 274.71049 262.61943 250.64036 239.95330 230.08723 221.20317 213.39711 206.41104
 200.25698 195.20692 191.80085 189.85479 188.90372 188.97966 189.82660 191.14653
 192.88347 194.99041 197.26534 199.63628 202.09321 204.58515 206.68509 208.53902
 210.17696 211.33390 211.57483 211.81477 211.76370 211.48064 211.12558 210.76751
 210.39645 210.11839 209.93832 209.81426 209.75419 210.09713 210.49507 210.89600
 211.70094 212.89088 214.15281 215.94775 217.88768 219.94262 222.04956 224.14449
 226.21643 228.31237 230.42130 232.53924 234.68017 236.86411 239.13205 241.51398
 244.14692 246.40986 248.42379 250.20073 251.62966 252.76460 253.59854 253.92647
 253.97541 253.76135 253.13328 252.09322 250.71115 248.88409 246.80503 244.64996
 242.45290 240.26884 238.10077 235.95171 233.82364 231.70258 229.74052 227.90945
 226.20439 224.68833 223.33026 222.11420 221.00813 219.98007 219.09601 218.24894
 217.50288 216.69482 215.80475 215.18069 214.64262 214.12729 212.90295 212.34648
 213.39070 213.94626 214.51035 215.81912 218.04333 221.74928 227.00540 231.36563
 234.98399 239.25751 243.84723 248.28447 252.25778 255.70992 258.74271 261.50668
 264.18600 266.81927 269.26218 271.42502 273.40070 275.52853 277.43826 279.02649
 280.29263 281.53775 282.65540 283.95169 285.21487 286.33246 287.35211 288.27582
 289.10663 289.84644 290.49274 291.31635
 366.78100 356.34653 345.79007 334.66760 323.08213 311.28767 299.16920 286.98373
 274.70727 262.61580 250.63633 239.94887 230.08240 221.19793 213.39147 206.40500
 200.25053 195.20007 191.79360 189.84713 188.89567 188.97120 189.81773 191.13727
 192.87380 194.98034 197.25487 199.62540 202.08194 204.57347 206.67300 208.52654
 210.16407 211.32060 211.56114 211.80067 211.74920 211.46574 211.11027 210.75180
 210.38034 210.10187 209.92140 209.79694 209.73647 210.07900 210.47654 210.87707
 211.68160 212.87114 214.13267 215.92720 217.86674 219.92127 222.02780 224.12234
 226.19387 228.28940 230.39794 232.51547 234.65600 236.83954 239.10707 241.48860
 244.12114 246.38367 248.39720 250.17374 251.60227 252.73681 253.57034 253.89787
 253.94641 253.73194 253.10347 252.06301 250.68054 248.85307 246.77361 244.61814
 242.42067 240.23621 238.06774 235.91827 233.78981 231.66834 229.70587 227.87441
 226.16894 224.65247 223.29401 222.07754 220.97107 219.94261 219.05814 218.21067
 217.46421 216.65574 215.76527 215.14081 214.60234 214.12259 212.97482 212.33626
 213.29591 213.88550 214.58919 215.99409 218.21669 221.82121 226.98877 231.31628
 234.91856 239.18999 243.74164 248.12029 252.05809 255.54439 258.62311 261.42557
 264.17014 266.86841 269.29160 271.50189 273.39676 275.43835 277.33954 278.93826
 280.31302 281.66394 282.77496 283.94656 285.04080 286.00937 286.89307 287.69363
 288.41364 289.05481 289.61493 290.32874
 366.78100 356.34684 345.79068 334.66852 323.08336 311.28920 299.17104 286.98588
 274.70972 262.61856 250.63940 239.95224 230.08608 221.20192 213.39576 206.40960
 200.25544 195.20528 191.79912 189.85296 188.90180 188.97764 189.82448 191.14432
 192.88116 194.98800 197.26284 199.63368 202.09052 204.58236 206.68220 208.53604
 210.17388 211.33072 211.57156 211.81140 211.76024 211.47708 211.12192 210.76376
 210.39260 210.11444 209.93428 209.81012 209.74996 210.09280 210.49064 210.89148
 211.69632 212.88616 214.14800 215.94284 217.88268 219.93752 222.04436 224.13920
 226.21104 228.30688 230.41572 232.53356 234.67440 236.85824 239.12608 241.50792
 244.14076 246.40360 248.41744 250.19428 251.62312 252.75796 253.59180 253.91964
 253.96848 253.75432 253.12616 252.08600 250.70384 248.87668 246.79752 244.64236
 242.44520 240.26104 238.09288 235.94372 233.81556 231.69440 229.73224 227.90108
 226.19592 224.67976 223.32160 222.10544 220.99928 219.97112 219.08696 218.23980
 217.49364 216.68548 215.79532 215.17116 214.63300 214.16824 213.03244 212.33084
 213.27444 213.88602 214.81680 216.33351 218.47954 221.94540 227.04141 231.32539
 234.85068 239.06830 243.61024 247.96066 251.79880 255.16223 258.12854 261.02457
 263.98062 266.78775 269.38776 271.64169 273.49445 275.35843 277.24493 278.80341
 279.97452 281.10114 282.19138 283.41449 284.56320 285.57950 286.50674 287.34674
 288.10223 288.77502 289.36273 290.11172
 366.78100 356.34533 345.78767 334.66400 323.07733 311.28166 299.16200 286.97533
 274.69766 262.60499 250.62433 239.93566 230.06799 221.18233 213.37466 206.38699
 200.23132 195.17966 191.77199 189.82432 188.87165 188.94599 189.79132 191.10965
 192.84498 194.95032 197.22365 199.59298 202.04832 204.53865 206.63698 208.48931
 210.12565 211.28098 211.52031 211.75864 211.70598 211.42131 211.06464 210.70498
 210.33231 210.05264 209.87097 209.74531 209.68364 210.02497 210.42130 210.82064
 211.62397 212.81230 214.07263 215.86597 217.80430 219.85763 221.96297 224.05630
 226.12663 228.22096 230.32830 232.44463 234.58396 236.76629 239.03263 241.41296
 244.04429 246.30563 248.31796 250.09329 251.52062 252.65396 253.48629 253.81262
 253.85995 253.64429 253.01462 251.97295 250.58928 248.76062 246.67995 244.52328
 242.32462 240.13895 237.96928 235.81861 233.68895 231.56628 229.60261 227.76994
 226.06328 224.54561 223.18594 221.96828 220.86061 219.83094 218.94527 218.09661
 217.34894 216.53927 215.64760 215.02194 214.48227 214.16289 213.20152 212.29146
 213.06721 213.98305 215.16190 216.63113 218.66451 221.93892 227.12894 231.42584
 234.99625 239.15521 243.58234 247.83867 251.65163 254.96956 257.87518 260.94009
 263.90320 266.55594 269.00787 271.28409 273.50238 275.58432 277.27783 278.67389
 279.88556 280.83905 281.66058 282.38193 283.00620 283.55850 284.06241 284.51892
 284.92950 285.29510 285.61450 286.02155
 366.78100 356.34273 345.78247 334.65620 323.06694 311.26867 299.14641 286.95714
 274.67688 262.58161 250.59834 239.90708 230.03681 221.14855 213.33828 206.34802
 200.18975 195.13549 191.72522 189.77495 188.81969 188.89142 189.73416 191.04989
 192.78263 194.88536 197.15610 199.52283 201.97556 204.46330 206.55903 208.40877
 210.04250 211.19524 211.43197 211.66770 211.61244 211.32517 210.96591 210.60364
 210.22838 209.94611 209.76185 209.63358 209.56931 209.90805 210.30178 210.69852
 211.49925 212.68499 213.94272 215.73346 217.66919 219.71992 221.82266 223.91339
 225.98113 228.07286 230.17760 232.29133 234.42807 236.60780 238.87153 241.24927
 243.87800 246.13674 248.14647 249.91921 251.34394 252.47468 253.30441 253.62814
 253.67288 253.45461 252.82235 251.77808 250.39182 248.56055 246.47729 244.31802
 242.11675 239.92849 237.75622 235.60296 233.47069 231.34543 229.37916 227.54390
 225.83463 224.31436 222.95210 221.73183 220.62157 219.58930 218.70104 217.84977
 217.09950 216.28724 215.39297 214.76471 214.22244 214.08537 213.40543 212.29651
 212.71823 213.89217 215.20296 216.74785 218.84074 222.09729 227.15648 231.51723
 235.09964 239.27623 243.72165 247.99319 251.82828 255.16612 258.15192 261.00873
 263.90744 266.57620 268.98523 271.30075 273.66010 275.58823 277.22397 278.51599
 279.38269 280.12558 280.76840 281.33289 281.82138 282.25357 282.64789 283.00510
 283.32639 283.61249 283.86240 284.18091
 366.78100 356.34104 345.77908 334.65112 323.06016 311.26020 299.13624 286.94528
 274.66332 262.56636 250.58140 239.88844 230.01648 221.12652 213.31456 206.32260
 200.16264 195.10668 191.69472 189.74276 188.78580 188.85584 189.69688 191.01092
 192.74196 194.84300 197.11204 199.47708 201.92812 204.41416 206.50820 208.35624
 209.98828 211.13932 211.37436 211.60840 211.55144 211.26248 210.90152 210.53756
 210.16060 209.87664 209.69068 209.56072 209.49476 209.83180 210.22384 210.61888
 211.41792 212.60196 213.85800 215.64704 217.58108 219.63012 221.73116 223.82020
 225.88624 227.97628 230.07932 232.19136 234.32640 236.50444 238.76648 241.14252
 243.76956 246.02660 248.03464 249.80568 251.22872 252.35776 253.18580 253.50784
 253.55088 253.33092 252.69696 251.65100 250.26304 248.43008 246.34512 244.18416
 241.98120 239.79123 237.61727 235.46231 233.32835 231.20139 229.23343 227.39647
 225.68551 224.16355 222.79959 221.57763 220.46567 219.43171 218.54175 217.68879
 216.93683 216.12287 215.22691 214.59695 214.05299 214.01469 213.57176 212.42168
 212.51222 213.66248 215.09032 216.77548 218.88017 222.10519 227.13278 231.50879
 235.09366 239.28818 243.74313 248.01776 251.88094 255.26472 258.23776 261.04456
 263.93622 266.64639 269.04645 271.38556 273.67081 275.52606 277.12015 278.28839
 279.10458 279.80420 280.40961 280.94116 281.40121 281.80823 282.17957 282.51596
 282.81854 283.08795 283.32333 283.62329
 366.78100 356.33990 345.77681 334.64771 323.05562 311.25452 299.12942 286.93733
 274.65423 262.55614 250.57004 239.87594 230.00285 221.11175 213.29865 206.30556
 200.14446 195.08737 191.67427 189.72117 188.76308 188.83198 189.67189 190.98479
 192.71469 194.81460 197.08250 199.44641 201.89631 204.38121 206.47412 208.32102
 209.95193 211.10183 211.33573 211.56864 211.51054 211.22045 210.85835 210.49325
 210.11516 209.83006 209.64296 209.51187 209.44477 209.78068 210.17158 210.56548
 211.36339 212.54629 213.80120 215.58910 217.52200 219.56991 221.66981 223.75772
 225.82262 227.91152 230.01343 232.12433 234.25824 236.43514 238.69604 241.07095
 243.69685 245.95275 247.95966 249.72956 251.15147 252.27937 253.10627 253.42718
 253.46908 253.24799 252.61289 251.56579 250.17670 248.34260 246.25651 244.09441
 241.89031 239.69922 237.52412 235.36803 233.23293 231.10483 229.13574 227.29764
 225.58555 224.06245 222.69735 221.47426 220.36116 219.32606 218.43497 217.58087
 216.82778 216.01268 215.11558 214.48449 213.93939 213.97224 213.67996 212.53583
 212.42213 213.42798 214.95171 216.77132 218.93654 222.18770 227.12184 231.49374
 235.07967 239.27740 243.71484 247.97459 251.83289 255.21472 258.18335 261.00037
 263.90848 266.63058 269.09882 271.49612 273.64017 275.43494 276.95609 277.87549
 278.51462 279.06244 279.53650 279.95276 280.31302 280.63171 280.92252 281.18594
 281.42285 281.63385 281.81815 282.05304
 366.78100 356.34020 345.77740 334.64860 323.05680 311.25600 299.13120 286.93940
 274.65660 262.55880 250.57300 239.87920 230.00640 221.11560 213.30280 206.31000
 200.14920 195.09240 191.67960 189.72680 188.76900 188.83821 189.67841 190.99161
 192.72181 194.82201 197.09021 199.45441 201.90461 204.38981 206.48301 208.33021
 209.96141 211.11161 211.34581 211.57901 211.52121 211.23141 210.86961 210.50481
 210.12701 209.84221 209.65541 209.52461 209.45781 209.79401 210.18521 210.57941
 211.37761 212.56081 213.81601 215.60421 217.53741 219.58561 221.68581 223.77401
 225.83921 227.92841 230.03061 232.14181 234.27601 236.45322 238.71442 241.08962
 243.71582 245.97202 247.97922 249.74942 251.17162 252.29982 253.12702 253.44822
 253.49042 253.26962 252.63482 251.58802 250.19922 248.36542 246.27962 244.11782
 241.91402 239.72322 237.54842 235.39262 233.25782 231.13002 229.16122 227.32342
 225.61162 224.08882 222.72402 221.50122 220.38842 219.35362 218.46282 217.60902
 216.85622 216.04142 215.14462 214.51382 213.96902 213.99023 213.71600 212.63081
 212.39883 213.30339 214.87852 216.71680 218.91989 222.19994 227.08299 231.46167
 235.07317 239.28404 243.72316 247.99004 251.87428 255.28943 258.27792 261.11948
 263.99841 266.67212 269.12933 271.55670 273.65018 275.37439 276.81006 278.38098
 280.33081 282.00211 283.44833 284.71823 285.81723 286.78955 287.67664 288.48029
 289.20309 289.84674 290.40903 291.12558
 366.78100 356.34060 345.77820 334.64979 323.05839 311.25799 299.13359 286.94219
 274.65979 262.56238 250.57698 239.88358 230.01118 221.12078 213.30837 206.31597
 200.15557 195.09917 191.68677 189.73437 188.77696 188.84656 189.68716 191.00076
 192.73136 194.83195 197.10055 199.46515 201.91575 204.40135 206.49495 208.34254
 209.97414 211.12474 211.35934 211.59294 211.53554 211.24613 210.88473 210.52033
 210.14293 209.85853 209.67212 209.54172 209.47532 209.81192 210.20352 210.59812
 211.39671 212.58031 213.83591 215.62451 217.55811 219.60670 221.70730 223.79590
 225.86150 227.95110 230.05370 232.16529 234.29989 236.47749 238.73909 241.11469
 243.74128 245.99788 248.00548 249.77608 251.19868 252.32728 253.15487 253.47647
 253.51907 253.29867 252.66427 251.61786 250.22946 248.39606 246.31066 244.14926
 241.94586 239.75545 237.58105 235.42565 233.29125 231.16385 229.19544 227.35804
 225.64664 224.12424 222.75984 221.53744 220.42503 219.39063 218.50023 217.64683
 216.89443 216.08002 215.18362 214.55322 214.00882 214.00539 213.74197 212.71628
 212.42955 213.33128 214.92146 216.76881 218.92741 222.16891 227.01779 231.39122
 235.03413 239.22832 243.63002 247.87767 251.74767 255.16797 258.21072 261.11969
 264.00003 266.67767 269.17831 271.55099 273.59918 275.26666 276.63678 278.25259
 280.29578 282.07211 283.60922 284.95895 286.12701 287.16043 288.10327 288.95743
 289.72565 290.40976 291.00739 291.76898
 366.78100 356.34168 345.78037 334.65305 323.06273 311.26342 299.14010 286.94979
 274.66847 262.57215 250.58784 239.89552 230.02420 221.13489 213.32357 206.33226
 200.17294 195.11762 191.70631 189.75499 188.79867 188.86936 189.71104 191.02573
 192.75741 194.85909 197.12878 199.49446 201.94614 204.43283 206.52751 208.37619
 210.00888 211.16056 211.39625 211.63093 211.57461 211.28630 210.92598 210.56266
 210.18635 209.90303 209.71772 209.58840 209.52308 209.86077 210.25345 210.64913
 211.44882 212.63350 213.89019 215.67987 217.61455 219.66424 221.76592 223.85560
 225.92229 228.01297 230.11665 232.22934 234.36502 236.54371 238.80639 241.18307
 243.81076 246.06844 248.07712 249.84881 251.27249 252.40218 253.23086 253.55354
 253.59723 253.37791 252.74459 251.69928 250.31196 248.47965 246.39533 244.23501
 242.03270 239.84338 237.67006 235.51575 233.38243 231.25612 229.28880 227.45248
 225.74217 224.22085 222.85753 221.63622 220.52490 219.49158 218.60227 217.74995
 216.99864 216.18532 215.29000 214.66069 214.11737 214.05777 213.74129 212.84344
 212.40132 213.16685 214.83859 216.85201 219.04497 222.25217 227.07607 231.41840
 235.04515 239.20598 243.55501 247.75128 251.61674 255.01639 258.07806 261.04239
 263.93567 266.68451 269.24295 271.61975 273.54593 275.10538 276.45782 277.86661
 279.83847 281.63263 283.18515 284.54837 285.72812 286.77191 287.72421 288.58691
 289.36282 290.05380 290.65741 291.42664
 366.78100 356.34342 345.78384 334.65826 323.06968 311.27210 299.15052 286.96194
 274.68236 262.58778 250.60520 239.91462 230.04504 221.15746 213.34788 206.35830
 200.20072 195.14714 191.73756 189.78798 188.83340 188.90582 189.74924 191.06566
 192.79908 194.90250 197.17392 199.54134 201.99476 204.48318 206.57960 208.43002
 210.06444 211.21786 211.45528 211.69170 211.63712 211.35054 210.99196 210.63038
 210.25580 209.97422 209.79064 209.66306 209.59948 209.93890 210.33332 210.73074
 211.53216 212.71858 213.97700 215.76842 217.70484 219.75626 221.85968 223.95110
 226.01952 228.11194 230.21736 232.33178 234.46920 236.64962 238.91404 241.29246
 243.92188 246.18130 248.19172 249.96514 251.39056 252.52198 253.35240 253.67682
 253.72224 253.50466 252.87308 251.82950 250.44392 248.61334 246.53076 244.37218
 242.17160 239.98402 237.81244 235.65986 233.52828 231.40370 229.43812 227.60354
 225.89496 224.37538 223.01380 221.79422 220.68464 219.65306 218.76548 217.91490
 217.16532 216.35374 215.46016 214.83258 214.29100 214.13660 213.69485 212.98938
 212.48108 213.02182 214.65649 216.65486 218.93471 222.32814 227.07361 231.48640
 235.11649 239.26105 243.58296 247.75893 251.61163 255.05135 258.14117 261.13602
 264.03363 266.75238 269.32718 271.64099 273.49142 275.03204 276.45172 277.77765
 279.12103 280.94067 282.54871 283.96066 285.18259 286.26370 287.25003 288.14359
 288.94724 289.66290 290.28809 291.08481
 366.78100 356.34363 345.78427 334.65890 323.07054 311.27317 299.15181 286.96344
 274.68408 262.58971 250.60734 239.91698 230.04761 221.16025 213.35088 206.36152
 200.20415 195.15078 191.74142 189.79205 188.83769 188.91032 189.75396 191.07059
 192.80423 194.90786 197.17949 199.54713 202.00076 204.48940 206.58603 208.43667
 210.07130 211.22493 211.46257 211.69920 211.64484 211.35847 211.00011 210.63874
 210.26438 209.98301 209.79964 209.67228 209.60891 209.94855 210.34318 210.74082
 211.54245 212.72909 213.98772 215.77935 217.71599 219.76762 221.87126 223.96289
 226.03153 228.12416 230.22979 232.34443 234.48206 236.66270 238.92733 241.30597
 243.93560 246.19524 248.20587 249.97950 251.40514 252.53677 253.36741 253.69204
 253.73768 253.52031 252.88894 251.84558 250.46021 248.62985 246.54748 244.38912
 242.18875 240.00139 237.83002 235.67765 233.54629 231.42192 229.45656 227.62219
 225.91383 224.39446 223.03310 221.81373 220.70436 219.67300 218.78563 217.93527
 217.18590 216.37454 215.48117 214.85380 214.31244 214.14229 213.69249 213.05730
 212.63014 213.08990 214.54987 216.44194 218.81705 222.33760 226.90724 231.42929
 235.05513 239.20819 243.51788 247.67293 251.51572 254.98648 258.13678 261.14032
 264.03671 266.77768 269.34799 271.59454 273.41486 274.93994 276.47012 277.89035
 279.05930 280.23291 281.73337 283.14005 284.35739 285.43445 286.41708 287.30731
 288.10794 288.82092 289.44376 290.23749
 366.78100 356.34372 345.78445 334.65917 323.07090 311.27362 299.15235 286.96407
 274.68480 262.59052 250.60825 239.91797 230.04870 221.16142 213.35215 206.36287
 200.20560 195.15232 191.74304 189.79377 188.83949 188.91222 189.75594 191.07267
 192.80639 194.91012 197.18184 199.54957 202.00329 204.49202 206.58874 208.43947
 210.07419 211.22792 211.46564 211.70237 211.64809 211.36181 211.00354 210.64226
 210.26799 209.98671 209.80344 209.67616 209.61289 209.95261 210.34734 210.74506
 211.54679 212.73351 213.99224 215.78396 217.72069 219.77241 221.87613 223.96786
 226.03658 228.12931 230.23503 232.34976 234.48748 236.66821 238.93293 241.31166
 243.94138 246.20111 248.21183 249.98556 251.41128 252.54301 253.37373 253.69846
 253.74418 253.52690 252.89563 251.85235 250.46708 248.63680 246.55453 244.39625
 242.19598 240.00870 237.83743 235.68515 233.55388 231.42960 229.46433 227.63005
 225.92178 224.40250 223.04122 221.82195 220.71267 219.68140 218.79412 217.94385
 217.19457 216.38330 215.49002 214.86275 214.32147 214.15488 213.71571 213.06436
 212.65297 213.20758 214.62062 216.44386 218.77599 222.27145 226.82838 231.34070
 234.96533 239.12888 243.42302 247.55209 251.38707 254.86658 258.03638 261.06320
 263.98862 266.79544 269.38943 271.59329 273.34122 274.85022 276.30219 277.71207
 278.84564 280.05869 281.54813 282.95090 284.16946 285.24756 286.23117 287.12228
 287.92371 288.63739 289.26086 290.05539
 366.78100 356.34361 345.78423 334.65884 323.07045 311.27307 299.15168 286.96329
 274.68390 262.58952 250.60713 239.91674 230.04736 221.15997 213.35058 206.36120
 200.20381 195.15042 191.74103 189.79165 188.83726 188.90987 189.75349 191.07010
 192.80371 194.90733 197.17894 199.54655 202.00016 204.48878 206.58539 208.43600
 210.07062 211.22423 211.46184 211.69846 211.64407 211.35768 210.99930 210.63791
 210.26352 209.98213 209.79875 209.67136 209.60797 209.94759 210.34220 210.73981
 211.54143 212.72804 213.98665 215.77826 217.71488 219.76649 221.87010 223.96172
 226.03033 228.12294 230.22856 232.34317 234.48078 236.66139 238.92601 241.30462
 243.93423 246.19385 248.20446 249.97807 251.40369 252.53530 253.36591 253.69052
 253.73614 253.51875 252.88736 251.84398 250.45859 248.62820 246.54582 244.38743
 242.18704 239.99966 237.82827 235.67588 233.54449 231.42011 229.45472 227.62033
 225.91195 224.39256 223.03117 221.81179 220.70240 219.67101 218.78362 217.93324
 217.18385 216.37246 215.47908 214.85169 214.31030 214.16290 213.76234 213.06783
 212.57233 213.19823 214.68364 216.54128 218.83527 222.28572 226.82591 231.32176
 234.94327 239.10329 243.38260 247.49577 251.33679 254.84100 258.04654 261.10477
 264.03796 266.82162 269.40799 271.59561 273.29904 274.80545 276.32156 277.68878
 278.69733 280.05338 281.61633 283.05252 284.29727 285.39856 286.40329 287.31354
 288.13220 288.86121 289.49808 290.30966
 366.78100 356.34213 345.78125 334.65438 323.06450 311.26563 299.14275 286.95288
 274.67200 262.57613 250.59226 239.90038 230.02951 221.14063 213.32976 206.33888
 200.18001 195.12514 191.71426 189.76339 188.80751 188.87864 189.72076 191.03589
 192.76801 194.87014 197.14027 199.50639 201.95852 204.44564 206.54077 208.38989
 210.02302 211.17514 211.41127 211.64640 211.59052 211.30265 210.94277 210.57990
 210.20402 209.92115 209.73628 209.60740 209.54253 209.88065 210.27378 210.66990
 211.47003 212.65515 213.91228 215.70241 217.63753 219.68766 221.78978 223.87991
 225.94703 228.03816 230.14228 232.25541 234.39154 236.57066 238.83379 241.21091
 243.83904 246.09716 248.10629 249.87842 251.30254 252.43267 253.26179 253.58492
 253.62904 253.41017 252.77729 251.73242 250.34555 248.51367 246.42980 244.26992
 242.06805 239.87917 237.70630 235.55242 233.41955 231.29368 229.32680 227.49093
 225.78105 224.26018 222.89730 221.67643 220.56556 219.53268 218.64381 217.79193
 217.04106 216.22818 215.33331 214.70443 214.16156 214.09410 213.86681 213.13046
 212.46902 213.04575 214.64781 216.59726 218.91330 222.32008 226.83218 231.29594
 234.92259 239.07263 243.33643 247.43237 251.28062 254.81679 258.06235 261.15607
 264.10721 266.85706 269.39191 271.58649 273.29123 274.75150 276.38943 277.80173
 278.68454 280.12476 281.67633 283.08945 284.33661 285.44000 286.44672 287.35870
 288.17892 288.90936 289.54745 290.36063
 366.78100 356.34131 345.77963 334.65194 323.06125 311.26157 299.13788 286.94719
 274.66550 262.56882 250.58413 239.89144 230.01976 221.13007 213.31838 206.32670
 200.16701 195.11132 191.69964 189.74795 188.79126 188.86157 189.70289 191.01720
 192.74851 194.84983 197.11914 199.48445 201.93577 204.42208 206.51639 208.36471
 209.99702 211.14833 211.38364 211.61796 211.56127 211.27258 210.91190 210.54821
 210.17152 209.88784 209.70215 209.57246 209.50678 209.84409 210.23640 210.63171
 211.43103 212.61534 213.87165 215.66097 217.59528 219.64459 221.74591 223.83522
 225.90153 227.99184 230.09516 232.20747 234.34278 236.52110 238.78341 241.15972
 243.78704 246.04435 248.05266 249.82398 251.24729 252.37660 253.20491 253.52723
 253.57054 253.35085 252.71717 251.67148 250.28379 248.45111 246.36642 244.20573
 242.00305 239.81336 237.63967 235.48498 233.35130 231.22461 229.25692 227.42024
 225.70955 224.18786 222.82418 221.60249 220.49080 219.45712 218.56743 217.71474
 216.96305 216.14937 215.25368 214.62399 214.08031 214.05078 213.92554 213.27528
 212.43898 212.83849 214.51468 216.57619 218.96179 222.36107 226.85895 231.29051
 234.91440 239.03271 243.26262 247.34338 251.20166 254.76920 258.06085 261.19180
 264.16058 266.88403 269.35764 271.53494 273.24930 274.70126 276.36652 277.78384
 278.72733 280.18808 281.74371 283.12817 284.38510 285.49716 286.51172 287.43088
 288.25754 288.99368 289.63675 290.45630
 366.78100 356.34117 345.77934 334.65150 323.06067 311.26084 299.13701 286.94617
 274.66434 262.56751 250.58268 239.88984 230.01801 221.12818 213.31635 206.32451
 200.16468 195.10885 191.69702 189.74518 188.78835 188.85852 189.69969 191.01385
 192.74502 194.84619 197.11536 199.48052 201.93169 204.41786 206.51203 208.36019
 209.99236 211.14353 211.37870 211.61286 211.55603 211.26720 210.90637 210.54253
 210.16570 209.88187 209.69604 209.56620 209.50037 209.83754 210.22971 210.62487
 211.42404 212.60821 213.86438 215.65354 217.58771 219.63688 221.73805 223.82721
 225.89338 227.98355 230.08672 232.19888 234.33405 236.51222 238.77439 241.15055
 243.77772 246.03489 248.04306 249.81422 251.23739 252.36656 253.19473 253.51689
 253.56006 253.34023 252.70640 251.66056 250.27273 248.43990 246.35507 244.19423
 241.99140 239.80157 237.62774 235.47290 233.33907 231.21224 229.24441 227.40757
 225.69674 224.17491 222.81108 221.58924 220.47741 219.44358 218.55375 217.70091
 216.94908 216.13525 215.23942 214.60958 214.06575 214.04669 213.95438 213.39024
 212.53215 212.75714 214.35168 216.46548 218.93381 222.38557 226.90195 231.32295
 234.92270 239.00946 243.20778 247.26306 251.11078 254.70293 258.04718 261.23495
 264.23962 266.96338 269.36005 271.46280 273.21643 274.69653 276.44009 277.82599
 278.74402 280.25729 281.82898 283.25006 284.54593 285.69247 286.73849 287.68613
 288.53842 289.29739 289.96042 290.80539
 366.78100 356.33981 345.77662 334.64743 323.05524 311.25405 299.12886 286.93667
 274.65348 262.55529 250.56909 239.87490 230.00171 221.11052 213.29733 206.30414
 200.14295 195.08576 191.67257 189.71938 188.76119 188.83000 189.66981 190.98262
 192.71243 194.81224 197.08005 199.44386 201.89367 204.37847 206.47128 208.31809
 209.94890 211.09871 211.33252 211.56533 211.50714 211.21695 210.85476 210.48957
 210.11138 209.82619 209.63900 209.50781 209.44062 209.77643 210.16724 210.56105
 211.35885 212.54166 213.79647 215.58428 217.51709 219.56490 221.66471 223.75252
 225.81733 227.90614 230.00795 232.11876 234.25257 236.42938 238.69019 241.06500
 243.69081 245.94662 247.95342 249.72323 251.14504 252.27285 253.09966 253.42047
 253.46228 253.24109 252.60590 251.55871 250.16952 248.33533 246.24914 244.08695
 241.88276 239.69157 237.51638 235.36019 233.22500 231.09680 229.12761 227.28942
 225.57723 224.05404 222.68885 221.46566 220.35247 219.31728 218.42609 217.57190
 216.81871 216.00352 215.10633 214.47514 213.92995 213.99330 214.05469 213.36713
 212.57626 212.88113 214.38530 216.41211 218.84621 222.34557 226.92639 231.33101
 234.92096 238.97536 243.14049 247.16339 250.98907 254.58902 257.97687 261.20596
 264.22983 266.96530 269.33817 271.38855 273.14056 274.83228 276.61044 277.99338
 279.01028 280.56091 282.14722 283.63773 284.95490 286.12024 287.18344 288.14664
 289.01291 289.78433 290.45825 291.31705
 366.78100 356.33820 345.77340 334.64260 323.04880 311.24600 299.11920 286.92541
 274.64061 262.54081 250.55301 239.85721 229.98241 221.08961 213.27481 206.28001
 200.11721 195.05841 191.64361 189.68881 188.72901 188.79622 189.63442 190.94562
 192.67382 194.77202 197.03822 199.40042 201.84862 204.33182 206.42302 208.26822
 209.89742 211.04562 211.27782 211.50903 211.44923 211.15743 210.79363 210.42683
 210.04703 209.76023 209.57143 209.43863 209.36983 209.70403 210.09323 210.48543
 211.28164 212.46284 213.71604 215.50224 217.43344 219.47964 221.57784 223.66404
 225.72724 227.81444 229.91464 232.02384 234.15604 236.33124 238.59045 240.96365
 243.58785 245.84205 247.84725 249.61545 251.03565 252.16185 252.98705 253.30625
 253.34645 253.12365 252.48685 251.43806 250.04726 248.21146 246.12366 243.95986
 241.75406 239.56126 237.38446 235.22666 233.08986 230.96006 228.98926 227.14946
 225.43566 223.91087 222.54407 221.31927 220.20447 219.16767 218.27487 217.41907
 216.66427 215.84747 214.94867 214.31587 213.76907 213.93134 214.16615 213.31041
 212.52280 213.00978 214.55869 216.48285 218.82756 222.32040 226.97377 231.32372
 234.93227 238.95135 243.07713 247.07614 250.87311 254.46396 257.88025 261.12073
 264.15289 266.88885 269.29440 271.29297 273.03418 274.70035 276.53000 277.84366
 279.23813 281.02866 282.69012 284.20132 285.50912 286.66617 287.72183 288.67819
 289.53830 290.30426 290.97336 291.82608
 366.78100 356.33823 345.77345 334.64268 323.04891 311.24614 299.11936 286.92559
 274.64082 262.54105 250.55327 239.85750 229.98273 221.08996 213.27518 206.28041
 200.11764 195.05887 191.64409 189.68932 188.72955 188.79678 189.63500 190.94623
 192.67446 194.77269 197.03891 199.40114 201.84937 204.33260 206.42382 208.26905
 209.89828 211.04651 211.27873 211.50996 211.45019 211.15842 210.79464 210.42787
 210.04810 209.76132 209.57255 209.43978 209.37101 209.70523 210.09446 210.48669
 211.28292 212.46414 213.71737 215.50360 217.43483 219.48105 221.57928 223.66551
 225.72874 227.81596 229.91619 232.02542 234.15765 236.33287 238.59210 240.96533
 243.58956 245.84378 247.84901 249.61724 251.03747 252.16369 252.98892 253.30815
 253.34838 253.12560 252.48883 251.44006 250.04929 248.21351 246.12574 243.96197
 241.75620 239.56342 237.38665 235.22888 233.09210 230.96233 228.99156 227.15179
 225.43801 223.91324 222.54647 221.32170 220.20692 219.17015 218.27738 217.42161
 216.66683 215.85006 214.95129 214.31852 213.77174 213.95815 214.19672 213.31236
 212.51346 213.02295 214.63531 216.53896 218.82611 222.25050 227.02570 231.32001
 234.92493 238.92451 243.02470 247.01656 250.79156 254.38831 257.84204 261.09512
 264.11749 266.86209 269.25516 271.21240 272.94678 274.57501 276.20822 277.66757
 279.61642 281.54535 283.24161 284.73105 286.02002 287.16043 288.20090 289.14349
 289.99124 290.74615 291.40564 292.24606
 366.78100 356.34013 345.77726 334.64839 323.05652 311.25565 299.13078 286.93891
 274.65605 262.55818 250.57231 239.87844 230.00557 221.11470 213.30183 206.30896
 200.14809 195.09122 191.67835 189.72548 188.76761 188.83674 189.67687 190.99001
 192.72014 194.82027 197.08840 199.45253 201.90266 204.38779 206.48092 208.32805
 209.95918 211.10931 211.34344 211.57657 211.51870 211.22883 210.86697 210.50210
 210.12423 209.83936 209.65249 209.52162 209.45475 209.79088 210.18201 210.57614
 211.37427 212.55740 213.81253 215.60066 217.53379 219.58193 221.68206 223.77019
 225.83532 227.92445 230.02658 232.13771 234.27184 236.44897 238.71010 241.08523
 243.71136 245.96749 247.97462 249.74475 251.16689 252.29502 253.12215 253.44328
 253.48541 253.26454 252.62967 251.58280 250.19393 248.36006 246.27419 244.11232
 241.90845 239.71758 237.54271 235.38685 233.25198 231.12411 229.15524 227.31737
 225.60550 224.08263 222.71776 221.49489 220.38202 219.34715 218.45628 217.60241
 216.84954 216.03467 215.13781 214.50694 213.96207 214.07472 214.14926 213.35188
 212.53735 212.93843 214.52950 216.51727 218.88884 222.25288 227.02876 231.31931
 234.92503 238.92477 243.03139 247.05444 250.83788 254.46411 257.95795 261.23312
 264.27682 267.00244 269.27979 271.18784 272.90826 274.54742 276.17734 278.04980
 280.45490 282.55978 284.38126 285.98062 287.36475 288.58932 289.70657 290.71875
 291.62906 292.43970 293.14786 294.05032
 366.78100 356.34149 345.77998 334.65247 323.06196 311.26245 299.13895 286.94844
 274.66693 262.57042 250.58591 239.89340 230.02189 221.13238 213.32087 206.32936
 200.16985 195.11434 191.70284 189.75133 188.79482 188.86531 189.70680 191.02129
 192.75278 194.85427 197.12376 199.48925 201.94074 204.42723 206.52173 208.37022
 210.00271 211.15420 211.38969 211.62418 211.56767 211.27916 210.91865 210.55514
 210.17863 209.89512 209.70962 209.58011 209.51460 209.85209 210.24458 210.64007
 211.43956 212.62405 213.88054 215.67003 217.60452 219.65401 221.75551 223.84500
 225.91149 228.00198 230.10547 232.21796 234.35345 236.53194 238.79443 241.17092
 243.79841 246.05590 248.06440 249.83589 251.25938 252.38887 253.21736 253.53985
 253.58334 253.36383 252.73032 251.68481 250.29730 248.46479 246.38029 244.21978
 242.01727 239.82776 237.65425 235.49974 233.36623 231.23972 229.27221 227.43570
 225.72519 224.20368 222.84018 221.61867 220.50716 219.47365 218.58414 217.73163
 216.98012 216.16661 215.27110 214.64159 214.09808 214.14383 214.11473 213.39362
 212.67523 213.01468 214.43694 216.29422 218.73640 222.25032 226.98335 231.33136
 234.93430 238.92636 243.02989 247.05092 250.87518 254.54021 258.06274 261.34244
 264.40616 267.14560 269.35168 271.12369 272.85123 274.63196 276.44849 278.03247
 280.16803 282.35669 284.25064 285.91364 287.35284 288.62616 289.78787 290.84030
 291.78683 292.62973 293.36609 294.30444
 366.78100 356.34091 345.77882 334.65073 323.05965 311.25956 299.13547 286.94438
 274.66229 262.56520 250.58011 239.88703 230.01494 221.12485 213.31276 206.32067
 200.16058 195.10449 191.69241 189.74032 188.78323 188.85314 189.69405 191.00796
 192.73888 194.83979 197.10870 199.47361 201.92452 204.41043 206.50434 208.35226
 209.98417 211.13508 211.36999 211.60390 211.54681 211.25772 210.89664 210.53255
 210.15546 209.87137 209.68528 209.55519 209.48910 209.82602 210.21793 210.61284
 211.41175 212.59566 213.85157 215.64048 217.57440 219.62331 221.72422 223.81313
 225.87904 227.96895 230.07186 232.18378 234.31869 236.49660 238.75851 241.13442
 243.76133 246.01824 248.02616 249.79707 251.21998 252.34889 253.17680 253.49871
 253.54163 253.32154 252.68745 251.64136 250.25327 248.42018 246.33509 244.17401
 241.97092 239.78083 237.60674 235.45165 233.31756 231.19047 229.22239 227.38530
 225.67421 224.15212 222.78803 221.56594 220.45385 219.41977 218.52968 217.67659
 216.92450 216.11041 215.21432 214.58423 214.04015 214.10464 214.15851 213.48114
 212.72543 213.03920 214.37471 216.19263 218.69810 222.33093 226.86751 231.30231
 234.87697 238.84142 242.91405 246.91032 250.74812 254.44307 257.97699 261.26877
 264.32346 267.05789 269.25381 271.05457 272.81143 274.55197 276.41336 278.09341
 279.42035 281.17270 282.86261 284.42944 285.78540 286.98511 288.07962 289.07120
 289.96301 290.75714 291.45093 292.33502
 366.78100 356.34025 345.77750 334.64876 323.05701 311.25626 299.13151 286.93977
 274.65702 262.55927 250.57352 239.87978 230.00703 221.11628 213.30353 206.31079
 200.15004 195.09329 191.68054 189.72780 188.77005 188.83930 189.67955 190.99281
 192.72306 194.82331 197.09156 199.45582 201.90607 204.39132 206.48457 208.33183
 209.96308 211.11333 211.34758 211.58084 211.52309 211.23334 210.87159 210.50684
 210.12910 209.84435 209.65760 209.52685 209.46011 209.79636 210.18761 210.58186
 211.38012 212.56337 213.81862 215.60687 217.54013 219.58838 221.68863 223.77688
 225.84214 227.93139 230.03364 232.14489 234.27915 236.45640 238.71765 241.09290
 243.71916 245.97541 247.98266 249.75291 251.17517 252.30342 253.13067 253.45192
 253.49418 253.27343 252.63868 251.59193 250.20318 248.36944 246.28369 244.12194
 241.91819 239.72745 237.55270 235.39695 233.26220 231.13446 229.16571 227.32796
 225.61621 224.09347 222.72872 221.50597 220.39322 219.35848 218.46773 217.61398
 216.86123 216.04649 215.14974 214.51899 213.97424 214.06340 214.20470 213.62045
 212.69334 212.90709 214.22206 216.10133 218.68358 222.33778 226.91525 231.32817
 234.87801 238.80341 242.84456 246.82385 250.65936 254.39168 257.96805 261.27182
 264.31165 267.01657 269.20599 270.96906 272.71777 274.51636 276.27518 277.95483
 279.32104 280.71295 282.28467 283.72406 285.02026 286.16708 287.21338 288.16125
 289.01376 289.77292 290.43610 291.28125
 366.78100 356.34061 345.77822 334.64983 323.05844 311.25806 299.13367 286.94228
 274.65989 262.56250 250.57711 239.88372 230.01133 221.12095 213.30856 206.31617
 200.15578 195.09939 191.68700 189.73461 188.77722 188.84683 189.68745 191.00106
 192.73167 194.83228 197.10089 199.46550 201.91611 204.40172 206.49533 208.34295
 209.97456 211.12517 211.35978 211.59339 211.53600 211.24661 210.88522 210.52084
 210.14345 209.85906 209.67267 209.54228 209.47589 209.81250 210.20411 210.59872
 211.39734 212.58095 213.83656 215.62517 217.55878 219.60739 221.70800 223.79661
 225.86223 227.95184 230.05445 232.16606 234.30067 236.47828 238.73989 241.11550
 243.74211 245.99873 248.00634 249.77695 251.19956 252.32817 253.15578 253.47739
 253.52000 253.29962 252.66523 251.61884 250.23045 248.39706 246.31167 244.15028
 241.94689 239.75650 237.58212 235.42673 233.29234 231.16495 229.19656 227.35917
 225.64778 224.12539 222.76100 221.53862 220.42623 219.39184 218.50145 217.64806
 216.89567 216.08128 215.18489 214.55451 214.01012 214.07709 214.19485 213.76793
 212.78990 212.77364 213.98163 215.88606 218.55437 222.28636 226.93329 231.35316
 234.91106 238.81400 242.83623 246.81039 250.65894 254.43378 258.05283 261.37302
 264.43433 267.16989 269.38147 271.05969 272.67313 274.48428 276.34610 277.97958
 279.34293 280.61819 282.12750 283.50598 284.80035 285.95624 287.01083 287.96622
 288.82547 289.59064 290.25906 291.11093
 366.78100 356.34135 345.77970 334.65206 323.06141 311.26176 299.13811 286.94746
 274.66582 262.56917 250.58452 239.89187 230.02022 221.13058 213.31893 206.32728
 200.16763 195.11198 191.70034 189.74869 188.79204 188.86239 189.70374 191.01810
 192.74945 194.85080 197.12015 199.48550 201.93686 204.42321 206.51756 208.36591
 209.99826 211.14962 211.38497 211.61932 211.56267 211.27402 210.91338 210.54973
 210.17308 209.88943 209.70378 209.57414 209.50849 209.84584 210.23819 210.63354
 211.43290 212.61725 213.87360 215.66295 217.59730 219.64665 221.74801 223.83736
 225.90371 227.99406 230.09741 232.20977 234.34512 236.52347 238.78582 241.16217
 243.78953 246.04688 248.05523 249.82658 251.24993 252.37929 253.20764 253.52999
 253.57334 253.35369 252.72005 251.67440 250.28675 248.45410 246.36945 244.20881
 242.00616 239.81651 237.64286 235.48821 233.35457 231.22792 229.26027 227.42362
 225.71297 224.19133 222.82768 221.60603 220.49438 219.46073 218.57109 217.71844
 216.96679 216.15314 215.25749 214.62785 214.08420 214.11781 214.16901 213.82849
 213.03227 212.84151 213.85252 215.68011 218.36882 222.14713 226.83685 231.26779
 234.83362 238.72301 242.73712 246.71750 250.58801 254.39610 258.03738 261.37228
 264.46817 267.24005 269.48596 271.17673 272.77280 274.61581 276.54669 278.18094
 279.42969 280.67651 282.17532 283.52408 284.77969 285.92960 286.97870 287.92911
 288.78387 289.54507 290.21005 291.05746
 366.78100 356.34120 345.77941 334.65161 323.06082 311.26102 299.13722 286.94643
 274.66463 262.56784 250.58304 239.89024 230.01845 221.12865 213.31686 206.32506
 200.16526 195.10947 191.69767 189.74588 188.78908 188.85928 189.70049 191.01469
 192.74590 194.84710 197.11630 199.48151 201.93271 204.41892 206.51312 208.36132
 209.99353 211.14473 211.37993 211.61414 211.55734 211.26855 210.90775 210.54395
 210.16716 209.88336 209.69757 209.56777 209.50197 209.83918 210.23138 210.62659
 211.42579 212.60999 213.86620 215.65540 217.58961 219.63881 221.74001 223.82922
 225.89542 227.98563 230.08883 232.20103 234.33624 236.51444 238.77665 241.15285
 243.78005 246.03726 248.04546 249.81667 251.23987 252.36907 253.19728 253.51948
 253.56269 253.34289 252.70909 251.66330 250.27550 248.44271 246.35791 244.19711
 241.99432 239.80452 237.63073 235.47593 233.34213 231.21534 229.24754 227.41075
 225.69995 224.17815 222.81436 221.59256 220.48077 219.44697 218.55717 217.70438
 216.95258 216.13879 215.24299 214.61319 214.06940 214.12511 214.20776 213.73950
 213.10309 213.01010 213.97998 215.73634 218.36880 222.11409 226.77940 231.19896
 234.74257 238.61290 242.61491 246.59714 250.47304 254.29953 257.94220 261.28058
 264.39499 267.18268 269.43314 271.13806 272.77194 274.69742 276.60614 278.19577
 279.41324 280.75998 282.28046 283.63217 284.89175 286.03589 287.07974 288.02542
 288.87595 289.63333 290.29495 291.13815
 366.78100 356.34006 345.77712 334.64818 323.05623 311.25529 299.13035 286.93841
 274.65547 262.55753 250.57159 239.87765 230.00470 221.11376 213.30082 206.30788
 200.14694 195.09000 191.67706 189.72411 188.76617 188.83523 189.67529 190.98835
 192.71841 194.81847 197.08652 199.45058 201.90064 204.38570 206.47876 208.32582
 209.95688 211.10694 211.34099 211.57405 211.51611 211.22617 210.86423 210.49929
 210.12135 209.83640 209.64946 209.51852 209.45158 209.78764 210.17870 210.57276
 211.37081 212.55387 213.80893 215.59699 217.53005 219.57811 221.67817 223.76623
 225.83128 227.92034 230.02240 232.13346 234.26752 236.44458 238.70564 241.08069
 243.70675 245.96281 247.96987 249.73993 251.16199 252.29005 253.11711 253.43816
 253.48022 253.25928 252.62434 251.57740 250.18846 248.35452 246.26857 244.10663
 241.90269 239.71175 237.53681 235.38087 233.24593 231.11798 229.14904 227.31110
 225.59916 224.07622 222.71128 221.48834 220.37540 219.34045 218.44951 217.59557
 216.84263 216.02769 215.13075 214.49981 213.95486 214.08183 214.30600 213.71324
 212.95219 213.01083 214.08212 215.86159 218.48511 222.20026 226.84258 231.23174
 234.74356 238.59346 242.58101 246.55971 250.43031 254.26215 257.90451 261.24261
 264.35159 267.12622 269.36429 271.07425 272.72562 274.68906 276.51364 278.03510
 279.27850 280.83228 282.38214 283.76337 285.04297 286.18091 287.21909 288.15961
 289.00552 289.75879 290.41684 291.25543
 366.78100 356.33904 345.77507 334.64511 323.05215 311.25019 299.12422 286.93126
 274.64730 262.54833 250.56137 239.86641 229.99245 221.10048 213.28652 206.29256
 200.13060 195.07263 191.65867 189.70471 188.74574 188.81378 189.65282 190.96486
 192.69389 194.79293 197.05997 199.42300 201.87204 204.35608 206.44812 208.29415
 209.92419 211.07323 211.30627 211.53830 211.47934 211.18838 210.82541 210.45945
 210.08049 209.79453 209.60656 209.47460 209.40664 209.74167 210.13171 210.52475
 211.32179 212.50382 213.75786 215.54490 217.47694 219.52397 221.62301 223.71005
 225.77408 227.86212 229.96316 232.07320 234.20623 236.38227 238.64231 241.01634
 243.64138 245.89642 247.90246 249.67149 251.09253 252.21957 253.04561 253.36564
 253.40668 253.18472 252.54875 251.50079 250.11083 248.27587 246.18890 244.02594
 241.82098 239.62901 237.45305 235.29609 233.16013 231.03116 229.06120 227.22224
 225.50928 223.98531 222.61935 221.39539 220.28142 219.24546 218.35350 217.49854
 216.74457 215.92861 215.03065 214.39868 213.85272 214.03232 214.38370 213.83951
 212.85330 212.83199 213.96568 215.82553 218.50462 222.24318 226.91188 231.27475
 234.77396 238.60957 242.59247 246.57063 250.43704 254.26404 257.90375 261.22812
 264.31793 267.07092 269.30670 271.05878 272.76343 274.68808 276.46298 277.96323
 279.31265 280.84760 282.37421 283.76193 285.04529 286.19092 287.23615 288.18304
 289.03470 289.79306 290.45557 291.29987
 366.78100 356.33880 345.77460 334.64441 323.05121 311.24901 299.12281 286.92962
 274.64542 262.54622 250.55902 239.86383 229.98963 221.09743 213.28323 206.28904
 200.12684 195.06864 191.65444 189.70025 188.74105 188.80885 189.64765 190.95945
 192.68826 194.78706 197.05386 199.41666 201.86547 204.34927 206.44107 208.28687
 209.91668 211.06548 211.29828 211.53008 211.47089 211.17969 210.81649 210.45029
 210.07110 209.78490 209.59670 209.46450 209.39631 209.73111 210.12091 210.51371
 211.31051 212.49232 213.74612 215.53292 217.46472 219.51153 221.61033 223.69713
 225.76093 227.84874 229.94954 232.05934 234.19214 236.36795 238.62775 241.00155
 243.62635 245.88116 247.88696 249.65576 251.07656 252.20336 253.02917 253.34897
 253.38977 253.16757 252.53138 251.48318 250.09298 248.25778 246.17059 244.00739
 241.80219 239.60999 237.43380 235.27660 233.14040 231.01120 229.04101 227.20181
 225.48861 223.96441 222.59822 221.37402 220.25982 219.22362 218.33142 217.47623
 216.72203 215.90583 215.00763 214.37544 213.82924 214.01872 214.40813 213.97557
 212.92256 212.69115 213.80377 215.72173 218.45032 222.21915 226.91844 231.26172
 234.75650 238.58339 242.57295 246.55934 250.42612 254.25117 257.88751 261.19409
 264.27017 266.98608 269.20016 271.02548 272.81894 274.67581 276.44119 277.99573
 279.36023 280.76035 282.28436 283.65955 284.91605 286.05618 287.09637 288.03873
 288.88629 289.64102 290.30035 291.14059
 366.78100 356.33997 345.77693 334.64790 323.05586 311.25483 299.12979 286.93776
 274.65473 262.55669 250.57066 239.87662 230.00359 221.11255 213.29952 206.30649
 200.14545 195.08842 191.67538 189.72235 188.76431 188.83328 189.67325 190.98621
 192.71618 194.81614 197.08411 199.44807 201.89804 204.38301 206.47597 208.32294
 209.95390 211.10387 211.33783 211.57080 211.51277 211.22273 210.86070 210.49566
 210.11763 209.83259 209.64556 209.51453 209.44749 209.78346 210.17442 210.56839
 211.36635 212.54932 213.80429 215.59225 217.52522 219.57318 221.67315 223.76111
 225.82608 227.91505 230.01701 232.12798 234.26194 236.43891 238.69987 241.07484
 243.70081 245.95677 247.96374 249.73370 251.15567 252.28363 253.11060 253.43157
 253.47353 253.25250 252.61746 251.57043 250.18139 248.34736 246.26133 244.09929
 241.89526 239.70422 237.52919 235.37315 233.23812 231.11009 229.14105 227.30302
 225.59098 224.06795 222.70291 221.47988 220.36685 219.33181 218.44078 217.58674
 216.83371 216.01867 215.12164 214.49061 213.94557 214.08507 214.36855 214.02710
 213.08931 212.72151 213.73872 215.66829 218.40547 222.17613 226.89656 231.21411
 234.69463 238.52022 242.52022 246.51811 250.37856 254.21359 257.84811 261.15460
 264.21231 266.89523 269.07907 270.95267 272.81058 274.67178 276.47870 278.00534
 279.23050 280.75763 282.27942 283.66226 284.93671 286.06970 287.10336 288.03979
 288.88202 289.63202 290.28720 291.12216
 366.78100 356.34194 345.78089 334.65383 323.06378 311.26472 299.14166 286.95161
 274.67055 262.57450 250.59044 239.89838 230.02733 221.13827 213.32722 206.33616
 200.17710 195.12205 191.71099 189.75994 188.80388 188.87482 189.71677 191.03171
 192.76366 194.86560 197.13554 199.50149 201.95343 204.44038 206.53532 208.38426
 210.01721 211.16915 211.40510 211.64004 211.58398 211.29593 210.93587 210.57282
 210.19676 209.91370 209.72865 209.59959 209.53454 209.87248 210.26542 210.66137
 211.46131 212.64626 213.90320 215.69315 217.62809 219.67803 221.77998 223.86992
 225.93687 228.02781 230.13175 232.24470 234.38064 236.55959 238.82253 241.19947
 243.82742 246.08536 248.09431 249.86625 251.29019 252.42014 253.24908 253.57203
 253.61597 253.39691 252.76386 251.71880 250.33175 248.49969 246.41563 244.25558
 242.05352 239.86447 237.69141 235.53735 233.40430 231.27824 229.31119 227.47513
 225.76507 224.24402 222.88096 221.65991 220.54885 219.51579 218.62674 217.77468
 217.02363 216.21057 215.31551 214.68646 214.14340 214.20427 214.30527 213.96689
 213.25975 212.88879 213.75027 215.63531 218.38617 222.16434 226.88974 231.17044
 234.63702 238.45529 242.47150 246.48961 250.35400 254.18661 257.82068 261.13828
 264.17639 266.82187 268.97025 270.87851 272.76257 274.58105 276.28577 277.73752
 279.29178 280.87369 282.38647 283.80713 285.06097 286.17032 287.18243 288.09933
 288.92398 289.65836 290.29987 291.11740
 366.78100 356.34219 345.78139 334.65458 323.06477 311.26597 299.14316 286.95335
 274.67255 262.57674 250.59293 239.90113 230.03032 221.14151 213.33071 206.33990
 200.18109 195.12629 191.71548 189.76467 188.80887 188.88006 189.72225 191.03745
 192.76964 194.87183 197.14203 199.50822 201.96041 204.44761 206.54280 208.39199
 210.02519 211.17738 211.41357 211.64877 211.59296 211.30515 210.94535 210.58254
 210.20673 209.92393 209.73912 209.61031 209.54551 209.88370 210.27689 210.67309
 211.47328 212.65847 213.91567 215.70586 217.64105 219.69125 221.79344 223.88363
 225.95083 228.04202 230.14621 232.25941 234.39560 236.57479 238.83799 241.21518
 243.84337 246.10157 248.11076 249.88295 251.30715 252.43734 253.26653 253.58973
 253.63392 253.41511 252.78231 251.73750 250.35069 248.51889 246.43508 244.27527
 242.07347 239.88466 237.71185 235.55805 233.42524 231.29943 229.33263 227.49682
 225.78701 224.26621 222.90340 221.68259 220.57179 219.53898 218.65017 217.79837
 217.04756 216.23475 215.33995 214.71114 214.16833 214.24365 214.33777 213.84492
 213.32185 213.07457 213.89400 215.71768 218.38341 222.13686 226.88519 231.12746
 234.58757 238.39262 242.41022 246.43047 250.31364 254.15984 257.79874 261.12302
 264.16199 266.79016 268.86237 270.67334 272.61652 274.56744 276.28439 277.74982
 278.98279 280.63123 282.03537 283.26575 284.33057 285.27261 286.13214 286.91077
 287.61108 288.23471 288.77948 289.47375
 366.78100 356.34110 345.77921 334.65131 323.06042 311.26052 299.13663 286.94573
 274.66383 262.56694 250.58204 239.88915 230.01725 221.12736 213.31546 206.32356
 200.16367 195.10777 191.69588 189.74398 188.78709 188.85719 189.69830 191.01240
 192.74350 194.84461 197.11371 199.47882 201.92992 204.41603 206.51013 208.35823
 209.99034 211.14144 211.37655 211.61065 211.55376 211.26486 210.90396 210.54007
 210.16317 209.87928 209.69338 209.56349 209.49759 209.83469 210.22680 210.62190
 211.42101 212.60511 213.86122 215.65032 217.58443 219.63353 221.73463 223.82374
 225.88984 227.97995 230.08305 232.19516 234.33026 236.50836 238.77047 241.14657
 243.77368 246.03078 248.03889 249.80999 251.23309 252.36220 253.19030 253.51241
 253.55551 253.33562 252.70172 251.65582 250.26793 248.43503 246.35014 244.18924
 241.98635 239.79645 237.62256 235.46766 233.33376 231.20687 229.23897 227.40208
 225.69118 224.16929 222.80539 221.58349 220.47160 219.43770 218.54781 217.69491
 216.94302 216.12912 215.23322 214.60333 214.05943 214.22302 214.44174 213.79724
 213.28464 213.19337 213.94080 215.73505 218.31024 222.09770 226.95337 231.13971
 234.57317 238.37221 242.37207 246.36411 250.25951 254.10788 257.75061 261.07782
 264.08331 266.61972 268.69241 270.58591 272.60571 274.52115 276.28696 277.70612
 278.89899 280.14261 281.37912 282.46484 283.40445 284.23578 284.99420 285.68130
 286.29929 286.84961 287.33032 287.94296
 366.78100 356.34140 345.77980 334.65220 323.06160 311.26200 299.13840 286.94780
 274.66620 262.56960 250.58501 239.89241 230.02081 221.13121 213.31961 206.32801
 200.16841 195.11281 191.70121 189.74961 188.79301 188.86341 189.70481 191.01921
 192.75061 194.85201 197.12141 199.48681 201.93821 204.42461 206.51902 208.36742
 209.99982 211.15122 211.38662 211.62102 211.56442 211.27582 210.91522 210.55162
 210.17502 209.89142 209.70582 209.57622 209.51062 209.84802 210.24042 210.63582
 211.43522 212.61962 213.87603 215.66543 217.59983 219.64923 221.75063 223.84003
 225.90643 227.99683 230.10023 232.21263 234.34803 236.52643 238.78883 241.16523
 243.79263 246.05003 248.05843 249.82983 251.25323 252.38263 253.21104 253.53344
 253.57684 253.35724 252.72364 251.67804 250.29044 248.45784 246.37324 244.21264
 242.01004 239.82044 237.64684 235.49224 233.35864 231.23204 229.26444 227.42784
 225.71724 224.19564 222.83205 221.61045 220.49885 219.46525 218.57565 217.72305
 216.97145 216.15785 215.26225 214.63265 214.08905 214.26630 214.48839 213.87868
 213.22044 212.87650 213.58614 215.68199 218.41423 222.13469 227.05637 231.27548
 234.70670 238.51526 242.52892 246.53043 250.43721 254.27800 257.90198 261.21573
 264.18878 266.62808 268.61703 270.58432 272.62228 274.57529 276.27567 277.70349
 278.78024 279.69263 280.48215 281.17538 281.77533 282.30612 282.79041 283.22913
 283.62369 283.97507 284.28201 284.67319
 366.78100 356.34395 345.78490 334.65985 323.07180 311.27475 299.15370 286.96565
 274.68660 262.59255 250.61050 239.92045 230.05140 221.16436 213.35531 206.36626
 200.20921 195.15616 191.74711 189.79806 188.84401 188.91696 189.76091 191.07786
 192.81181 194.91576 197.18771 199.55566 202.00961 204.49856 206.59551 208.44646
 210.08141 211.23536 211.47331 211.71026 211.65621 211.37016 211.01212 210.65107
 210.27702 209.99597 209.81292 209.68587 209.62282 209.96277 210.35772 210.75567
 211.55762 212.74457 214.00352 215.79547 217.73242 219.78437 221.88832 223.98027
 226.04922 228.14217 230.24812 232.36307 234.50102 236.68197 238.94692 241.32588
 243.95583 246.21578 248.22673 250.00068 251.42663 252.55858 253.38953 253.71448
 253.76043 253.54338 252.91233 251.86928 250.48423 248.65418 246.57213 244.41408
 242.21403 240.02698 237.85593 235.70388 233.57283 231.44878 229.48373 227.64968
 225.94164 224.42259 223.06154 221.84249 220.73344 219.70239 218.81534 217.96529
 217.21624 216.40519 215.51214 214.88509 214.34404 214.39073 214.41751 214.08708
 213.41800 212.68492 213.18163 215.15770 218.11299 222.05885 226.94658 231.28120
 234.75656 238.62387 242.69528 246.76416 250.72453 254.61414 258.31589 261.72110
 264.77716 267.34918 269.34055 271.05685 272.53964 274.47000 276.21841 277.67844
 278.78415 279.68069 280.45651 281.13776 281.72729 282.24890 282.72479 283.15591
 283.54364 283.88892 284.19055 284.57495
 366.78100 356.34501 345.78702 334.66304 323.07605 311.28006 299.16007 286.97308
 274.69510 262.60211 250.62112 239.93213 230.06414 221.17816 213.37017 206.38218
 200.22619 195.17420 191.76622 189.81823 188.86524 188.93925 189.78426 191.10227
 192.83729 194.94230 197.21531 199.58432 202.03933 204.52935 206.62736 208.47937
 210.11538 211.27039 211.50941 211.74742 211.69443 211.40944 211.05245 210.69247
 210.31948 210.03949 209.85750 209.73151 209.66953 210.01054 210.40655 210.80556
 211.60857 212.79659 214.05660 215.84961 217.78762 219.84063 221.94565 224.03866
 226.10867 228.20268 230.30969 232.42571 234.56472 236.74673 239.01274 241.39275
 244.02376 246.28478 248.29679 250.07180 251.49881 252.63182 253.46384 253.78985
 253.83686 253.62087 252.99088 251.94890 250.56491 248.73592 246.65493 244.49794
 242.29896 240.11297 237.94298 235.79199 233.66200 231.53902 229.57503 227.74204
 226.03505 224.51706 223.15708 221.93909 220.83110 219.80111 218.91512 218.06614
 217.31815 216.50816 215.61617 214.99018 214.45020 214.42796 214.34467 214.11380
 213.84723 213.10823 213.19783 214.81926 217.74493 221.75529 226.44780 230.93367
 234.40292 238.32397 242.43170 246.55647 250.57671 254.49603 258.25323 261.74326
 264.90771 267.68564 270.00031 271.83350 273.29553 274.42880 275.93994 277.46503
 278.84052 280.23364 281.63947 283.04901 284.27036 285.35092 286.33679 287.22992
 288.03317 288.74850 289.37338 290.16974
 366.78100 356.34339 345.78377 334.65816 323.06954 311.27193 299.15031 286.96170
 274.68208 262.58747 250.60485 239.91424 230.04462 221.15701 213.34739 206.35778
 200.20016 195.14655 191.73693 189.78732 188.83270 188.90509 189.74847 191.06486
 192.79824 194.90163 197.17301 199.54040 201.99378 204.48217 206.57855 208.42894
 210.06332 211.21671 211.45409 211.69048 211.63586 211.34925 210.99063 210.62902
 210.25440 209.97279 209.78917 209.66156 209.59794 209.93733 210.33171 210.72910
 211.53048 212.71687 213.97525 215.76664 217.70302 219.75441 221.85779 223.94918
 226.01756 228.10995 230.21533 232.32972 234.46710 236.64749 238.91187 241.29026
 243.91964 246.17903 248.18941 249.96280 251.38818 252.51957 253.34995 253.67434
 253.71972 253.50211 252.87049 251.82688 250.44126 248.61065 246.52803 244.36942
 242.16880 239.98119 237.80958 235.65696 233.52535 231.40073 229.43512 227.60050
 225.89189 224.37227 223.01066 221.79104 220.68143 219.64981 218.76220 217.91158
 217.16197 216.35035 215.45674 214.82912 214.28751 214.33089 214.41632 214.09863
 213.71906 213.25406 213.36597 214.85716 217.65369 221.57401 226.42787 230.61943
 234.23625 238.08293 242.16676 246.24683 250.22701 254.08217 257.77274 261.22079
 264.38284 267.21881 269.67282 271.71225 273.35437 274.69830 275.95425 277.37729
 278.83893 280.29596 281.59821 282.67014 283.66730 284.68396 285.70279 286.67868
 287.55640 288.33801 289.02081 289.89093
 366.78100 356.34170 345.78040 334.65311 323.06281 311.26351 299.14021 286.94992
 274.66862 262.57232 250.58802 239.89573 230.02443 221.13513 213.32383 206.33253
 200.17324 195.11794 191.70664 189.75534 188.79905 188.86975 189.71145 191.02615
 192.75786 194.85956 197.12926 199.49496 201.94667 204.43337 206.52807 208.37677
 210.00947 211.16118 211.39688 211.63158 211.57528 211.28699 210.92669 210.56339
 210.18709 209.90380 209.71850 209.58920 209.52390 209.86160 210.25431 210.65001
 211.44971 212.63441 213.89112 215.68082 217.61552 219.66522 221.76693 223.85663
 225.92333 228.01403 230.11773 232.23044 234.36614 236.54484 238.80754 241.18425
 243.81195 246.06965 248.07835 249.85006 251.27376 252.40346 253.23216 253.55486
 253.59857 253.37927 252.74597 251.70067 250.31338 248.48108 246.39678 244.23648
 242.03419 239.84489 237.67159 235.51729 233.38400 231.25770 229.29040 227.45410
 225.74380 224.22251 222.85921 221.63791 220.52661 219.49332 218.60402 217.75172
 217.00042 216.18713 215.29183 214.66253 214.11923 214.24945 214.53929 214.15759
 213.50252 213.09708 213.42665 214.99297 217.76668 221.67500 226.61090 230.75076
 234.31671 238.19017 242.26569 246.33275 250.26787 254.06126 257.68390 261.02307
 264.04370 266.80893 269.33069 271.47449 273.12631 274.44254 275.64807 277.11874
 278.55722 280.08047 281.63272 282.84424 283.67007 284.53424 285.44543 286.32437
 287.12442 287.83688 288.45929 289.25244
 366.78100 356.34226 345.78152 334.65478 323.06504 311.26630 299.14356 286.95382
 274.67308 262.57734 250.59360 239.90186 230.03111 221.14237 213.33163 206.34089
 200.18215 195.12741 191.71667 189.76593 188.81019 188.88145 189.72371 191.03897
 192.77123 194.87349 197.14375 199.51001 201.96227 204.44953 206.54479 208.39405
 210.02731 211.17957 211.41583 211.65109 211.59534 211.30760 210.94786 210.58512
 210.20938 209.92664 209.74190 209.61316 209.54842 209.88668 210.27994 210.67620
 211.47646 212.66172 213.91898 215.70924 217.64450 219.69476 221.79702 223.88728
 225.95454 228.04580 230.15006 232.26331 234.39957 236.57883 238.84209 241.21935
 243.84761 246.10587 248.11513 249.88739 251.31165 252.44191 253.27117 253.59443
 253.63869 253.41995 252.78721 251.74247 250.35573 248.52399 246.44025 244.28051
 242.07877 239.89003 237.71728 235.56354 233.43080 231.30506 229.33832 227.50258
 225.79284 224.27210 222.90936 221.68862 220.57788 219.54514 218.65640 217.80466
 217.05392 216.24118 215.34644 214.71770 214.17496 214.30453 214.56438 214.17938
 213.37868 212.80243 213.36787 215.18980 218.01825 221.86272 226.75725 230.97327
 234.43814 238.33904 242.42981 246.50520 250.43106 254.20248 257.79654 261.07953
 263.97171 266.60757 269.05740 271.15787 272.73618 274.03986 275.71426 277.26996
 278.62479 280.09320 281.52814 282.59271 283.63663 284.63754 285.55075 286.37802
 287.12210 287.78467 288.36349 289.10114
 366.78100 356.34492 345.78685 334.66277 323.07569 311.27961 299.15954 286.97246
 274.69438 262.60131 250.62023 239.93115 230.06308 221.17700 213.36892 206.38084
 200.22477 195.17269 191.76461 189.81654 188.86346 188.93738 189.78231 191.10023
 192.83515 194.94007 197.21300 199.58192 202.03684 204.52677 206.62469 208.47661
 210.11254 211.26746 211.50638 211.74430 211.69123 211.40615 211.04907 210.68900
 210.31592 210.03584 209.85377 209.72769 209.66561 210.00653 210.40246 210.80138
 211.60430 212.79223 214.05215 215.84507 217.78300 219.83592 221.94084 224.03376
 226.10369 228.19761 230.30453 232.42046 234.55938 236.74130 239.00723 241.38715
 244.01807 246.27899 248.29092 250.06584 251.49276 252.62569 253.45761 253.78353
 253.83046 253.61438 252.98430 251.94222 250.55815 248.72907 246.64799 244.49092
 242.29184 240.10576 237.93569 235.78461 233.65453 231.53145 229.56738 227.73430
 226.02722 224.50915 223.14907 221.93099 220.82292 219.79284 218.90676 218.05768
 217.30961 216.49953 215.60745 214.98138 214.44130 214.46033 214.48958 214.28525
 213.45171 212.60947 213.17494 215.15488 218.06827 221.93002 226.95041 231.09157
 234.54893 238.45462 242.57220 246.67294 250.61105 254.38275 257.95853 261.19888
 264.04034 266.59946 268.95615 270.91910 272.36636 274.01947 275.84076 277.35349
 278.63199 280.03424 281.48376 282.84351 284.02023 285.06137 286.01123 286.87173
 287.64566 288.33484 288.93692 289.70416
 366.78100 356.34629 345.78959 334.66688 323.08117 311.28647 299.16776 286.98205
 274.70534 262.61364 250.63393 239.94622 230.07952 221.19481 213.38810 206.40140
 200.24669 195.19598 191.78928 189.84257 188.89086 188.96615 189.81245 191.13174
 192.86803 194.97433 197.24862 199.61891 202.07521 204.56650 206.66579 208.51909
 210.15638 211.31267 211.55296 211.79226 211.74055 211.45684 211.10114 210.74243
 210.37072 210.09202 209.91131 209.78660 209.72590 210.06819 210.46548 210.86577
 211.67007 212.85936 214.12065 215.91495 217.85424 219.90853 222.01483 224.10912
 226.18041 228.27571 230.38400 232.50129 234.64158 236.82488 239.09217 241.47346
 244.10576 246.36805 248.38134 250.15764 251.58593 252.72022 253.55352 253.88081
 253.92910 253.71439 253.08569 252.04498 250.66227 248.83457 246.75486 244.59915
 242.40145 240.21674 238.04803 235.89833 233.76962 231.64791 229.68520 227.85350
 226.14779 224.63108 223.27238 222.05567 220.94896 219.92026 219.03555 218.18784
 217.44114 216.63243 215.74172 215.11702 214.57831 214.53937 214.45903 214.42816
 213.77202 212.50214 212.77025 214.80716 217.81740 221.82687 226.85483 231.05908
 234.53735 238.47505 242.63695 246.79083 250.77299 254.57918 258.19366 261.48251
 264.35193 266.87253 269.14578 271.07837 272.40594 273.94299 275.81567 277.29211
 278.56146 280.08167 281.59796 282.96033 284.13934 285.18243 286.13412 286.99631
 287.77173 288.46225 289.06546 289.83420
 366.78100 356.34601 345.78901 334.66602 323.08003 311.28504 299.16604 286.98005
 274.70306 262.61106 250.63107 239.94308 230.07609 221.19109 213.38410 206.39711
 200.24211 195.19112 191.78413 189.83714 188.88514 188.96015 189.80616 191.12516
 192.86117 194.96718 197.24119 199.61119 202.06720 204.55821 206.65721 208.51022
 210.14723 211.30324 211.54324 211.78225 211.73026 211.44626 211.09027 210.73128
 210.35929 210.08029 209.89930 209.77431 209.71331 210.05532 210.45233 210.85234
 211.65634 212.84535 214.10636 215.90036 217.83937 219.89338 221.99939 224.09339
 226.16440 228.25941 230.36741 232.48442 234.62443 236.80744 239.07444 241.45545
 244.08746 246.34946 248.36247 250.13848 251.56648 252.70049 253.53350 253.86051
 253.90851 253.69352 253.06453 252.02353 250.64054 248.81255 246.73256 244.57656
 242.37857 240.19358 238.02458 235.87459 233.74560 231.62361 229.66061 227.82862
 226.12263 224.60563 223.24664 222.02965 220.92266 219.89366 219.00867 218.16068
 217.41368 216.60469 215.71370 215.08871 214.54971 214.53885 214.49129 214.40421
 214.21440 212.83000 212.57632 214.42812 217.46092 221.55699 226.48810 230.78773
 234.29120 238.28334 242.50064 246.70532 250.73373 254.59988 258.28824 261.67493
 264.64236 267.21637 269.49554 271.52405 272.93073 273.85098 275.65469 277.19464
 278.61624 280.19870 281.73059 283.11984 284.32211 285.38583 286.35629 287.23547
 288.02621 288.73035 289.34549 290.12939
 366.78100 356.34481 345.78662 334.66243 323.07524 311.27905 299.15886 286.97167
 274.69348 262.60029 250.61910 239.92991 230.06172 221.17553 213.36734 206.37915
 200.22296 195.17077 191.76258 189.81439 188.86120 188.93501 189.77982 191.09763
 192.83244 194.93725 197.21006 199.57887 202.03368 204.52349 206.62130 208.47311
 210.10892 211.26373 211.50254 211.74035 211.68716 211.40197 211.04478 210.68459
 210.31140 210.03121 209.84902 209.72283 209.66064 210.00145 210.39726 210.79607
 211.59888 212.78669 214.04650 215.83931 217.77712 219.82993 221.93474 224.02755
 226.09736 228.19117 230.29798 232.41379 234.55260 236.73441 239.00022 241.38003
 244.01084 246.27165 248.28346 250.05827 251.48508 252.61788 253.44969 253.77550
 253.82231 253.60612 252.97593 251.93374 250.54955 248.72036 246.63917 244.48198
 242.28279 240.09660 237.92641 235.77522 233.64503 231.52184 229.55765 227.72446
 226.01727 224.49908 223.13889 221.92070 220.81251 219.78232 218.89613 218.04694
 217.29875 216.48856 215.59637 214.97018 214.42999 214.49185 214.58307 214.27568
 214.20618 213.27571 212.80968 214.37431 217.33253 221.39523 226.27188 230.57782
 234.08725 238.08716 242.30566 246.50415 250.51875 254.38745 258.10284 261.55447
 264.62402 267.30511 269.69089 271.85587 273.41531 274.36066 275.51584 277.13596
 278.80658 280.45569 282.01724 283.44156 284.68619 285.78735 286.79202 287.70218
 288.52075 289.24969 289.88651 290.69803
 366.78100 356.34452 345.78603 334.66155 323.07406 311.27758 299.15709 286.96961
 274.69113 262.59764 250.61616 239.92667 230.05819 221.17170 213.36322 206.37474
 200.21825 195.16577 191.75728 189.80880 188.85531 188.92883 189.77335 191.09086
 192.82538 194.92989 197.20241 199.57092 202.02544 204.51496 206.61247 208.46399
 210.09950 211.25402 211.49254 211.73005 211.67657 211.39108 211.03360 210.67311
 210.29963 210.01915 209.83666 209.71018 209.64769 209.98821 210.38372 210.78224
 211.58476 212.77227 214.03179 215.82430 217.76182 219.81433 221.91885 224.01137
 226.08088 228.17440 230.28091 232.39643 234.53494 236.71646 238.98198 241.36149
 243.99201 246.25252 248.26404 250.03855 251.46507 252.59759 253.42910 253.75462
 253.80113 253.58465 252.95416 251.91168 250.52720 248.69771 246.61623 244.45874
 242.25926 240.07277 237.90229 235.75081 233.62032 231.49684 229.53235 227.69887
 225.99138 224.47290 223.11242 221.89393 220.78545 219.75496 218.86848 218.01900
 217.27051 216.46003 215.56754 214.94106 214.40057 214.48064 214.62904 214.31607
 213.97130 213.19255 212.95480 214.52596 217.42413 221.42593 226.33786 230.60559
 234.10609 238.07756 242.27025 246.42711 250.38499 254.18240 257.83347 261.25946
 264.33740 267.07932 269.55670 271.76901 273.40619 274.47943 275.58722 277.19867
 278.95285 280.68573 282.26932 283.68555 284.97522 286.15027 287.22235 288.19357
 289.06705 289.84491 290.52444 291.39041
 366.78100 356.34487 345.78675 334.66262 323.07549 311.27937 299.15924 286.97211
 274.69399 262.60086 250.61973 239.93061 230.06248 221.17635 213.36823 206.38010
 200.22397 195.17185 191.76372 189.81559 188.86247 188.93634 189.78121 191.09909
 192.83396 194.93884 197.21171 199.58058 202.03546 204.52533 206.62320 208.47508
 210.11095 211.26582 211.50470 211.74257 211.68944 211.40432 211.04719 210.68706
 210.31394 210.03381 209.85168 209.72556 209.66343 210.00430 210.40018 210.79905
 211.60192 212.78980 214.04967 215.84254 217.78042 219.83329 221.93816 224.03104
 226.10091 228.19478 230.30166 232.41753 234.55640 236.73828 239.00415 241.38402
 244.01490 246.27577 248.28764 250.06252 251.48939 252.62226 253.45414 253.78001
 253.82689 253.61076 252.98063 251.93851 250.55438 248.72525 246.64413 244.48700
 242.28787 240.10175 237.93162 235.78049 233.65037 231.52724 229.56311 227.72999
 226.02286 224.50473 223.14461 221.92648 220.81835 219.78823 218.90210 218.05297
 217.30485 216.49472 215.60259 214.97647 214.43634 214.50034 214.63171 214.44963
 213.86513 212.91249 212.94640 214.57306 217.42334 221.42952 226.41481 230.69041
 234.20377 238.17410 242.37370 246.53644 250.47079 254.20033 257.76303 261.11420
 264.13635 266.84738 269.34616 271.55408 273.13153 274.24390 275.56366 277.27197
 279.09747 280.86554 282.44998 283.85645 285.07718 286.20438 287.23279 288.16446
 289.00238 289.74857 290.40039 291.23111
 366.78100 356.34560 345.78820 334.66479 323.07839 311.28299 299.16359 286.97719
 274.69978 262.60738 250.62698 239.93858 230.07117 221.18577 213.37837 206.39097
 200.23557 195.18416 191.77676 189.82936 188.87696 188.95156 189.79715 191.11575
 192.85135 194.95695 197.23055 199.60014 202.05574 204.54634 206.64494 208.49753
 210.13413 211.28973 211.52933 211.76793 211.71552 211.43112 211.07472 210.71532
 210.34292 210.06351 209.88211 209.75671 209.69531 210.03691 210.43350 210.83310
 211.63670 212.82530 214.08589 215.87949 217.81809 219.87169 221.97729 224.07088
 226.14148 228.23608 230.34368 232.46028 234.59987 236.78247 239.04907 241.42967
 244.06126 246.32286 248.33546 250.11106 251.53866 252.67225 253.50485 253.83145
 253.87905 253.66365 253.03424 251.99284 250.60944 248.78104 246.70064 244.54423
 242.34583 240.16043 237.99103 235.84062 233.71122 231.58882 229.62542 227.79302
 226.08661 224.56921 223.20981 221.99241 220.88501 219.85560 218.97020 218.12180
 217.37440 216.56500 215.67359 215.04819 214.50879 214.54597 214.62636 214.55731
 213.96002 212.77434 212.87196 214.51744 217.32481 221.35983 226.37482 230.66443
 234.19812 238.21193 242.45926 246.67682 250.65247 254.37663 257.88870 261.17279
 264.14294 266.79855 269.25705 271.45898 273.01465 274.12543 275.50858 277.22290
 279.19455 280.98471 282.57812 283.99463 285.26392 286.39743 287.43161 288.36847
 289.21109 289.96146 290.61697 291.45233
 366.78100 356.34717 345.79133 334.66950 323.08467 311.29084 299.17300 286.98817
 274.71234 262.62151 250.64267 239.95584 230.09001 221.20618 213.40034 206.41451
 200.26068 195.21085 191.80501 189.85918 188.90835 188.98452 189.83168 191.15185
 192.88902 194.99619 197.27135 199.64252 202.09969 204.59185 206.69202 208.54619
 210.18436 211.34152 211.58269 211.82286 211.77203 211.48919 211.13436 210.77653
 210.40570 210.12786 209.94803 209.82420 209.76437 210.10753 210.50570 210.90687
 211.71204 212.90220 214.16437 215.95954 217.89971 219.95487 222.06204 224.15721
 226.22937 228.32554 230.43471 232.55288 234.69404 236.87821 239.14638 241.52855
 244.16171 246.42488 248.43905 250.21622 251.64538 252.78055 253.61472 253.94289
 253.99205 253.77822 253.15039 252.11056 250.72872 248.90189 246.82306 244.66823
 242.47139 240.28756 238.11973 235.97090 233.84306 231.72223 229.76040 227.92956
 226.22473 224.70890 223.35107 222.13523 221.02940 220.00157 219.11774 218.27090
 217.52507 216.71724 215.82741 215.20357 214.66574 214.64554 214.59851 214.56775
 214.12659 212.88046 212.80522 214.37852 217.20653 221.28645 226.29262 230.54944
 234.09151 238.14966 242.45319 246.72467 250.75748 254.52881 258.06299 261.34277
 264.30209 266.94379 269.37039 271.50180 273.01965 274.23981 275.66061 277.43201
 279.34708 281.15475 282.78638 284.38150 285.76758 286.99390 288.11273 289.12634
 290.03793 290.84973 291.55890 292.46265
 366.78100 356.34801 345.79302 334.67203 323.08803 311.29504 299.17805 286.99406
 274.71907 262.62908 250.65109 239.96509 230.10010 221.21711 213.41212 206.42713
 200.27414 195.22515 191.82016 189.87516 188.92517 189.00218 189.85019 191.17120
 192.90921 195.01722 197.29322 199.66523 202.12324 204.61625 206.71726 208.57227
 210.21128 211.36928 211.61129 211.85230 211.80231 211.52032 211.16633 210.80934
 210.43935 210.16235 209.98336 209.86037 209.80138 210.14539 210.54440 210.94641
 211.75241 212.94342 214.20643 216.00244 217.94345 219.99946 222.10747 224.20347
 226.27648 228.37349 230.48350 232.60251 234.74452 236.92953 239.19853 241.58154
 244.21555 246.47956 248.49457 250.27258 251.70259 252.83860 253.67360 254.00261
 254.05262 253.83963 253.21264 252.17365 250.79266 248.96666 246.88867 244.73468
 242.53869 240.35570 238.18871 236.04072 233.91372 231.79373 229.83274 228.00275
 226.29876 224.78377 223.42678 222.21179 221.10679 220.07980 219.19681 218.35082
 217.60583 216.79884 215.90985 215.28685 214.74986 214.70682 214.59554 214.50589
 214.27266 213.14755 212.77811 214.21445 217.09671 221.21474 226.17509 230.39732
 233.93239 238.01897 242.35658 246.65915 250.72806 254.53790 258.11331 261.44647
 264.46497 267.13855 269.56085 271.72070 273.29205 274.48959 275.85037 277.57208
 279.52689 281.33862 283.00754 284.60944 285.99573 287.22223 288.34125 289.35498
 290.26672 291.07864 291.78793 292.69183
 366.78100 356.34808 345.79317 334.67225 323.08833 311.29542 299.17850 286.99459
 274.71967 262.62975 250.65184 239.96592 230.10100 221.21809 213.41317 206.42826
 200.27534 195.22642 191.82151 189.87659 188.92667 189.00376 189.85184 191.17293
 192.91101 195.01909 197.29518 199.66726 202.12534 204.61843 206.71951 208.57459
 210.21368 211.37176 211.61385 211.85493 211.80501 211.52310 211.16918 210.81226
 210.44235 210.16543 209.98652 209.86360 209.80468 210.14877 210.54785 210.94993
 211.75602 212.94710 214.21018 216.00627 217.94735 220.00344 222.11152 224.20760
 226.28069 228.37777 230.48785 232.60694 234.74902 236.93411 239.20319 241.58627
 244.22036 246.48444 248.49952 250.27761 251.70769 252.84378 253.67886 254.00794
 254.05803 253.84511 253.21819 252.17928 250.79836 248.97244 246.89453 244.74061
 242.54470 240.36178 238.19486 236.04695 233.92003 231.80011 229.83920 228.00928
 226.30537 224.79045 223.43353 222.21862 221.11370 220.08678 219.20387 218.35795
 217.61304 216.80612 215.91720 215.29429 214.75737 214.71634 214.60785 214.46136
 214.32532 213.43533 212.86160 214.11485 217.05270 221.16019 226.05627 230.25247
 233.77487 237.85165 242.17520 246.46028 250.51349 254.32022 257.91882 261.30014
 264.37753 267.11914 269.57724 271.74518 273.39926 274.67026 276.08502 277.80838
 279.71841 281.50552 283.09509 284.56491 285.93396 287.14520 288.25031 289.25143
 290.15182 290.95364 291.65408 292.54675
 366.78100 356.34813 345.79326 334.67239 323.08852 311.29565 299.17878 286.99490
 274.72003 262.63016 250.65229 239.96642 230.10155 221.21868 213.41381 206.42894
 200.27607 195.22720 191.82233 189.87745 188.92758 189.00471 189.85284 191.17397
 192.91210 195.02023 197.29636 199.66849 202.12662 204.61975 206.72088 208.57600
 210.21513 211.37326 211.61539 211.85652 211.80665 211.52478 211.17091 210.81404
 210.44417 210.16730 209.98843 209.86555 209.80668 210.15081 210.54994 210.95207
 211.75820 212.94933 214.21246 216.00859 217.94972 220.00585 222.11398 224.21010
 226.28323 228.38036 230.49049 232.60962 234.75175 236.93688 239.20601 241.58914
 244.22327 246.48740 248.50253 250.28065 251.71078 252.84691 253.68204 254.01117
 254.06130 253.84843 253.22156 252.18269 250.80182 248.97595 246.89808 244.74420
 242.54833 240.36546 238.19859 236.05072 233.92385 231.80398 229.84311 228.01324
 226.30937 224.79450 223.43763 222.22275 221.11788 220.09101 219.20814 218.36227
 217.61740 216.81053 215.92166 215.29879 214.76192 214.72433 214.62495 214.43303
 214.28410 213.52434 212.95816 214.05798 217.02335 221.16122 226.08611 230.22264
 233.72569 237.76451 242.06010 246.30884 250.32617 254.10759 257.69708 261.09396
 264.20822 266.97430 269.42365 271.54462 273.20816 274.58899 276.11826 277.94519
 279.84033 281.59659 283.13113 284.52322 285.75430 286.84695 287.84454 288.74829
 289.56110 290.28491 290.91721 291.72302
 366.78100 356.34729 345.79159 334.66988 323.08518 311.29147 299.17376 286.98906
 274.71335 262.62264 250.64394 239.95723 230.09153 221.20782 213.40211 206.41641
 200.26270 195.21299 191.80729 189.86158 188.91088 188.98717 189.83446 191.15476
 192.89205 194.99934 197.27464 199.64593 202.10323 204.59552 206.69581 208.55011
 210.18840 211.34569 211.58699 211.82728 211.77658 211.49387 211.13916 210.78146
 210.41075 210.13304 209.95334 209.82963 209.76993 210.11322 210.51151 210.91281
 211.71810 212.90839 214.17069 215.96598 217.90628 219.96157 222.06886 224.16416
 226.23645 228.33274 230.44204 232.56033 234.70163 236.88592 239.15421 241.53651
 244.16980 246.43309 248.44739 250.22468 251.65398 252.78927 253.62356 253.95186
 254.00115 253.78744 253.15974 252.12003 250.73833 248.91162 246.83291 244.67821
 242.48150 240.29779 238.13009 235.98138 233.85368 231.73297 229.77126 227.94056
 226.23585 224.72014 223.36244 222.14673 221.04103 220.01332 219.12961 218.28291
 217.53720 216.72949 215.83979 215.21608 214.67838 214.68965 214.70103 214.44679
 214.15172 213.40987 212.97427 214.02760 216.99110 221.17966 226.17126 230.27481
 233.76538 237.78081 242.07277 246.32246 250.33560 254.09109 257.64957 261.02188
 264.14651 266.93210 269.37506 271.46350 273.09988 274.51291 276.12317 277.96640
 279.89664 281.61288 283.09912 284.45319 285.65735 286.67224 287.59363 288.42831
 289.17905 289.84756 290.43155 291.17581
 366.78100 356.34695 345.79090 334.66885 323.08380 311.28975 299.17170 286.98665
 274.71060 262.61955 250.64050 239.95344 230.08739 221.20334 213.39729 206.41124
 200.25719 195.20714 191.80109 189.85504 188.90399 188.97994 189.82689 191.14684
 192.88379 194.99074 197.26569 199.63664 202.09359 204.58554 206.68549 208.53943
 210.17738 211.33433 211.57528 211.81523 211.76418 211.48113 211.12608 210.76803
 210.39698 210.11893 209.93888 209.81483 209.75478 210.09773 210.49568 210.89663
 211.70158 212.89153 214.15348 215.94843 217.88837 219.94332 222.05027 224.14522
 226.21717 228.31312 230.42207 232.54002 234.68097 236.86492 239.13287 241.51482
 244.14777 246.41072 248.42467 250.20162 251.63057 252.76552 253.59947 253.92742
 253.97637 253.76231 253.13426 252.09421 250.71216 248.88511 246.80606 244.65101
 242.45396 240.26991 238.10186 235.95281 233.82476 231.70371 229.74166 227.91061
 226.20556 224.68951 223.33146 222.11541 221.00936 219.98130 219.09725 218.25020
 217.50415 216.69610 215.80605 215.18200 214.64395 214.67714 214.74321 214.53455
 214.14604 213.29564 212.88234 213.92403 216.88919 221.12538 226.17020 230.27670
 233.77513 237.79520 242.10266 246.37262 250.40054 254.14497 257.67633 261.03442
 264.16635 266.96408 269.39810 271.48010 273.09372 274.51297 276.15479 278.01855
 279.90085 281.56662 282.95227 284.28650 285.42023 286.23236 287.16556 288.02103
 288.79044 289.47559 290.07413 290.83688
 366.78100 356.34651 345.79001 334.66752 323.08202 311.28753 299.16904 286.98354
 274.70705 262.61555 250.63606 239.94857 230.08207 221.19758 213.39108 206.40459
 200.25010 195.19960 191.79311 189.84661 188.89512 188.97062 189.81713 191.13664
 192.87314 194.97965 197.25415 199.62466 202.08117 204.57267 206.67218 208.52568
 210.16319 211.31970 211.56020 211.79971 211.74821 211.46472 211.10923 210.75073
 210.37924 210.10074 209.92025 209.79576 209.73526 210.07777 210.47527 210.87578
 211.68029 212.86979 214.13130 215.92580 217.86531 219.91981 222.02632 224.12083
 226.19233 228.28784 230.39634 232.51385 234.65436 236.83786 239.10537 241.48687
 244.11938 246.38189 248.39539 250.17190 251.60040 252.73491 253.56842 253.89592
 253.94443 253.72993 253.10144 252.06095 250.67845 248.85096 246.77146 244.61597
 242.41848 240.23398 238.06549 235.91599 233.78750 231.66600 229.70351 227.87202
 226.16652 224.65003 223.29153 222.07504 220.96855 219.94005 219.05556 218.20806
 217.46157 216.65308 215.76258 215.13809 214.59959 214.66724 214.80363 214.49413
 214.26418 213.43243 212.89088 213.85164 216.78757 221.02521 226.06360 230.18448
 233.69803 237.74547 242.07988 246.37209 250.41551 254.15558 257.67285 261.03171
 264.18387 267.00528 269.44864 271.50912 273.12781 274.58862 276.25742 278.10083
 279.92465 281.50711 282.83997 284.07755 285.19778 286.23782 287.26675 288.19888
 289.03720 289.78375 290.43591 291.26703
 366.78100 356.34486 345.78671 334.66257 323.07542 311.27928 299.15913 286.97199
 274.69384 262.60070 250.61955 239.93041 230.06226 221.17612 213.36798 206.37983
 200.22369 195.17154 191.76340 189.81525 188.86211 188.93596 189.78082 191.09867
 192.83353 194.93838 197.21124 199.58010 202.03495 204.52481 206.62266 208.47452
 210.11037 211.26523 211.50408 211.74194 211.68879 211.40365 211.04651 210.68636
 210.31322 210.03307 209.85093 209.72478 209.66264 210.00349 210.39935 210.79820
 211.60106 212.78891 214.04877 215.84163 217.77948 219.83234 221.93719 224.03005
 226.09990 228.19376 230.30061 232.41647 234.55532 236.73718 239.00303 241.38289
 244.01375 246.27460 248.28646 250.06131 251.48817 252.62102 253.45288 253.77873
 253.82559 253.60944 252.97930 251.93715 250.55301 248.72387 246.64272 244.48558
 242.28643 240.10029 237.93014 235.77900 233.64885 231.52571 229.56156 227.72842
 226.02128 224.50313 223.14299 221.92484 220.81670 219.78655 218.90041 218.05126
 217.30312 216.49297 215.60083 214.97468 214.43454 214.59534 214.93570 214.41197
 214.22806 213.60503 212.98801 213.82071 216.71721 220.93980 225.97743 230.07640
 233.60614 237.67084 242.02185 246.32498 250.37442 254.11218 257.62509 260.99271
 264.16980 267.03058 269.50797 271.60257 273.22836 274.69769 276.38327 278.20834
 279.95520 281.45786 282.72458 283.91769 285.05499 286.09970 287.11029 288.03448
 288.86569 289.60590 290.25253 291.07660
 366.78100 356.34566 345.78832 334.66498 323.07864 311.28330 299.16396 286.97762
 274.70028 262.60794 250.62760 239.93925 230.07191 221.18657 213.37923 206.39189
 200.23655 195.18521 191.77787 189.83053 188.87819 188.95285 189.79851 191.11717
 192.85283 194.95849 197.23215 199.60181 202.05747 204.54813 206.64679 208.49945
 210.13611 211.29176 211.53142 211.77008 211.71774 211.43340 211.07706 210.71772
 210.34538 210.06604 209.88470 209.75936 209.69802 210.03968 210.43634 210.83600
 211.63966 212.82832 214.08898 215.88264 217.82130 219.87496 221.98061 224.07427
 226.14493 228.23959 230.34725 232.46391 234.60357 236.78623 239.05289 241.43355
 244.06521 246.32687 248.33953 250.11519 251.54285 252.67651 253.50917 253.83583
 253.88349 253.66815 253.03881 251.99747 250.61412 248.78578 246.70544 244.54910
 242.35076 240.16542 237.99608 235.84574 233.71640 231.59406 229.63072 227.79838
 226.09204 224.57470 223.21536 221.99802 220.89068 219.86134 218.97600 218.12766
 217.38032 216.57098 215.67963 215.05429 214.51495 214.63724 214.90729 214.52278
 214.25238 213.61810 212.96930 213.75716 216.69847 220.92751 226.00194 230.03046
 233.56931 237.62479 241.98018 246.27921 250.31563 254.03633 257.53442 260.89972
 264.08685 266.97781 269.49203 271.60474 273.27344 274.75586 276.46075 278.26794
 279.94031 281.37308 282.57755 283.77469 284.88028 285.70438 286.65948 287.58014
 288.40826 289.14569 289.78989 290.61087
 366.78100 356.34652 345.79003 334.66755 323.08207 311.28759 299.16910 286.98362
 274.70714 262.61566 250.63617 239.94869 230.08221 221.19773 213.39124 206.40476
 200.25028 195.19980 191.79331 189.84683 188.89535 188.97087 189.81738 191.13690
 192.87342 194.97993 197.25445 199.62497 202.08149 204.57300 206.67252 208.52604
 210.16356 211.32007 211.56059 211.80011 211.74863 211.46514 211.10966 210.75118
 210.37970 210.10121 209.92073 209.79625 209.73576 210.07828 210.47580 210.87632
 211.68083 212.87035 214.13187 215.92639 217.86590 219.92042 222.02694 224.12146
 226.19297 228.28849 230.39701 232.51453 234.65504 236.83856 239.10608 241.48760
 244.12011 246.38263 248.39615 250.17266 251.60118 252.73570 253.56922 253.89673
 253.94525 253.73077 253.10229 252.06180 250.67932 248.85184 246.77236 244.61687
 242.41939 240.23491 238.06643 235.91694 233.78846 231.66698 229.70450 227.87301
 226.16753 224.65105 223.29256 222.07608 220.96960 219.94112 219.05663 218.20915
 217.46267 216.65419 215.76370 215.13922 214.60074 214.68776 214.87907 214.60429
 214.30719 213.43588 212.81480 213.72676 216.73138 220.96381 226.04732 230.09981
 233.59425 237.64961 242.00238 246.30833 250.34599 254.04214 257.50119 260.83176
 264.00369 266.89758 269.42624 271.55566 273.23965 274.76575 276.49863 278.25928
 279.85132 281.20081 282.33777 283.49274 284.57721 285.41345 286.36761 287.28854
 288.11679 288.85437 289.49872 290.31982
 366.78100 356.34545 345.78790 334.66434 323.07779 311.28224 299.16269 286.97614
 274.69858 262.60603 250.62548 239.93693 230.06938 221.18382 213.37627 206.38872
 200.23317 195.18162 191.77406 189.82651 188.87396 188.94841 189.79386 191.11231
 192.84775 194.95320 197.22665 199.59610 202.05155 204.54199 206.64044 208.49289
 210.12934 211.28479 211.52423 211.76268 211.71013 211.42558 211.06903 210.70947
 210.33692 210.05737 209.87582 209.75027 209.68871 210.03016 210.42661 210.82606
 211.62951 212.81795 214.07840 215.87185 217.81030 219.86375 221.96919 224.06264
 226.13309 228.22754 230.33499 232.45143 234.59088 236.77333 239.03978 241.42023
 244.05168 246.31312 248.32557 250.10102 251.52847 252.66192 253.49436 253.82081
 253.86826 253.65271 253.02316 251.98160 250.59805 248.76950 246.68895 244.53240
 242.33384 240.14829 237.97874 235.82819 233.69864 231.57608 229.61253 227.77998
 226.07343 224.55588 223.19632 221.97877 220.87122 219.84167 218.95612 218.10756
 217.36001 216.55046 215.65891 215.03336 214.49380 214.64014 214.96555 214.63461
 214.28185 213.32706 212.75848 213.69145 216.68913 220.94626 226.04987 230.10968
 233.59346 237.66743 242.04019 246.37431 250.43739 254.13342 257.56339 260.85452
 264.00690 266.90005 269.44434 271.60672 273.32074 274.88260 276.59338 278.25842
 279.72318 280.96609 282.06113 283.19437 284.26816 285.02884 285.93079 286.81006
 287.60083 288.30505 288.92023 289.70419
 366.78100 356.34659 345.79019 334.66778 323.08237 311.28796 299.16956 286.98415
 274.70774 262.61633 250.63693 239.94952 230.08311 221.19870 213.39230 206.40589
 200.25148 195.20107 191.79467 189.84826 188.89685 188.97244 189.81904 191.13863
 192.87522 194.98182 197.25641 199.62700 202.08359 204.57519 206.67478 208.52837
 210.16596 211.32256 211.56315 211.80274 211.75133 211.46793 211.11252 210.75411
 210.38270 210.10430 209.92389 209.79948 209.73907 210.08167 210.47926 210.87985
 211.68445 212.87404 214.13563 215.93022 217.86982 219.92441 222.03100 224.12559
 226.19719 228.29278 230.40137 232.51896 234.65956 236.84315 239.11074 241.49233
 244.12493 246.38752 248.40111 250.17770 251.60630 252.74089 253.57448 253.90208
 253.95067 253.73626 253.10785 252.06745 250.68504 248.85763 246.77822 244.62282
 242.42541 240.24100 238.07259 235.92319 233.79478 231.67337 229.71096 227.87956
 226.17415 224.65774 223.29933 222.08293 220.97652 219.94811 219.06371 218.21630
 217.46989 216.66148 215.77108 215.14667 214.60826 214.69691 214.90088 214.76314
 214.43164 213.45163 212.79240 213.59344 216.51762 220.79492 225.93048 229.94562
 233.49504 237.59541 241.99809 246.35196 250.43759 254.14531 257.56677 260.84183
 263.98892 266.90576 269.49875 271.72464 273.53061 275.13007 276.75531 278.31528
 279.66351 280.83920 281.88837 282.91827 284.01935 284.89182 285.73834 286.61813
 287.43668 288.16562 288.80243 289.61392
 366.78100 356.34835 345.79370 334.67305 323.08941 311.29676 299.18011 286.99646
 274.72181 262.63216 250.65451 239.96886 230.10422 221.22157 213.41692 206.43227
 200.27962 195.23097 191.82632 189.88168 188.93203 189.00938 189.85773 191.17908
 192.91743 195.02578 197.30213 199.67449 202.13284 204.62619 206.72754 208.58289
 210.22224 211.38059 211.62295 211.86430 211.81465 211.53300 211.17935 210.82270
 210.45305 210.17640 209.99776 209.87511 209.81646 210.16081 210.56016 210.96251
 211.76886 212.96022 214.22357 216.01992 217.96127 220.01762 222.12597 224.22232
 226.29567 228.39303 230.50338 232.62273 234.76508 236.95043 239.21978 241.60313
 244.23749 246.50184 248.51719 250.29554 251.72589 252.86224 253.69759 254.02695
 254.07730 253.86465 253.23800 252.19935 250.81870 248.99305 246.91540 244.76176
 242.56611 240.38346 238.21681 236.06916 233.94251 231.82286 229.86222 228.03257
 226.32892 224.81427 223.45762 222.24297 221.13832 220.11167 219.22903 218.38338
 217.63873 216.83208 215.94343 215.32078 214.78413 214.79587 214.82338 214.81949
 214.45094 213.62634 212.87549 213.50288 216.39479 220.68263 225.77481 229.81848
 233.37039 237.51320 241.93575 246.30945 250.40056 254.10310 257.50830 260.76260
 263.89267 266.80286 269.42230 271.70847 273.59488 275.28412 276.93130 278.42383
 279.69824 280.83008 281.88708 282.90588 283.86548 284.79449 285.72958 286.62250
 287.43097 288.15091 288.77982 289.58133
 366.78100 356.34787 345.79275 334.67162 323.08750 311.29437 299.17725 286.99312
 274.71799 262.62787 250.64974 239.96362 230.09849 221.21537 213.41024 206.42512
 200.27199 195.22286 191.81774 189.87261 188.92249 188.99936 189.84724 191.16811
 192.90598 195.01386 197.28973 199.66161 202.11948 204.61236 206.71323 208.56810
 210.20698 211.36485 211.60673 211.84760 211.79748 211.51535 211.16123 210.80410
 210.43397 210.15685 209.97772 209.85460 209.79547 210.13935 210.53822 210.94009
 211.74597 212.93684 214.19972 215.99559 217.93647 219.99234 222.10021 224.19609
 226.26896 228.36584 230.47571 232.59459 234.73646 236.92134 239.19021 241.57308
 244.20696 246.47083 248.48571 250.26358 251.69346 252.82933 253.66420 253.99308
 254.04295 253.82983 253.20270 252.16358 250.78245 248.95632 246.87820 244.72407
 242.52795 240.34482 238.17770 236.02957 233.90245 231.78232 229.82119 227.99107
 226.28694 224.77182 223.41469 222.19957 221.09444 220.06731 219.18419 218.33806
 217.59294 216.78581 215.89669 215.27356 214.73643 214.78822 214.89963 214.75677
 214.33864 213.54681 212.86385 213.58675 216.49550 220.74182 225.78877 229.90143
 233.39612 237.53806 241.95816 246.34319 250.44206 254.13713 257.51968 260.73773
 263.83640 266.71570 269.33820 271.65390 273.60522 275.36649 276.98425 278.38968
 279.57584 280.56470 281.44220 282.53543 283.72052 284.81287 285.88565 286.85751
 287.73160 288.50995 289.18994 290.05649
 366.78100 356.34674 345.79049 334.66823 323.08298 311.28872 299.17047 286.98521
 274.70896 262.61770 250.63845 239.95119 230.08494 221.20068 213.39443 206.40817
 200.25392 195.20366 191.79741 189.85115 188.89990 188.97564 189.82239 191.14213
 192.87888 194.98562 197.26037 199.63111 202.08786 204.57960 206.67935 208.53309
 210.17084 211.32758 211.56833 211.80807 211.75682 211.47356 211.11831 210.76005
 210.38880 210.11054 209.93029 209.80603 209.74578 210.08852 210.48627 210.88701
 211.69175 212.88150 214.14324 215.93799 217.87773 219.93248 222.03922 224.13397
 226.20571 228.30146 230.41020 232.52795 234.66869 236.85244 239.12018 241.50193
 244.13467 246.39742 248.41116 250.18791 251.61665 252.75140 253.58514 253.91289
 253.96163 253.74738 253.11912 252.07887 250.69661 248.86936 246.79010 244.63485
 242.43759 240.25334 238.08508 235.93583 233.80757 231.68632 229.72406 227.89281
 226.18755 224.67130 223.31304 222.09679 220.99053 219.96228 219.07802 218.23076
 217.48451 216.67625 215.78600 215.16174 214.62349 214.74544 214.99805 214.71207
 214.35303 213.46912 212.77731 213.61351 216.60077 220.83691 225.88190 229.98378
 233.44736 237.57028 241.98512 246.38135 250.49431 254.18593 257.54987 260.73724
 263.81482 266.67731 269.30988 271.66556 273.68842 275.47241 277.02527 278.30185
 279.26279 279.84604 280.56210 281.80936 283.04660 284.29129 285.42691 286.45566
 287.38095 288.20490 288.92468 289.84198
 366.78100 356.34673 345.79047 334.66820 323.08293 311.28867 299.17040 286.98514
 274.70887 262.61760 250.63834 239.95107 230.08480 221.20054 213.39427 206.40800
 200.25374 195.20347 191.79720 189.85094 188.89967 188.97541 189.82214 191.14187
 192.87861 194.98534 197.26007 199.63081 202.08754 204.57927 206.67901 208.53274
 210.17048 211.32721 211.56794 211.80768 211.75641 211.47314 211.11788 210.75961
 210.38834 210.11008 209.92981 209.80554 209.74528 210.08801 210.48575 210.88648
 211.69121 212.88095 214.14268 215.93741 217.87715 219.93188 222.03861 224.13335
 226.20508 228.30082 230.40955 232.52728 234.66802 236.85175 239.11948 241.50122
 244.13395 246.39668 248.41042 250.18715 251.61588 252.75062 253.58435 253.91209
 253.96082 253.74655 253.11829 252.07802 250.69575 248.86849 246.78922 244.63395
 242.43669 240.25242 238.08416 235.93489 233.80662 231.68536 229.72309 227.89182
 226.18656 224.67029 223.31202 222.09576 220.98949 219.96123 219.07696 218.22969
 217.48343 216.67516 215.78489 215.16063 214.62236 214.75818 215.02774 214.69759
 214.45615 213.49591 212.67996 213.50996 216.58846 220.84694 225.89284 229.96265
 233.42351 237.54189 241.95631 246.36327 250.48727 254.18236 257.54773 260.73557
 263.80276 266.66489 269.32220 271.72894 273.81967 275.64423 277.17511 278.38852
 278.98041 279.13123 279.77628 281.12805 282.47055 283.71164 284.84393 285.86975
 286.79233 287.61389 288.33160 289.24625
 366.78100 356.34683 345.79067 334.66850 323.08333 311.28917 299.17100 286.98583
 274.70967 262.61850 250.63934 239.95217 230.08600 221.20184 213.39567 206.40950
 200.25534 195.20517 191.79900 189.85284 188.90167 188.97750 189.82434 191.14417
 192.88101 194.98784 197.26267 199.63351 202.09034 204.58217 206.68201 208.53584
 210.17367 211.33051 211.57134 211.81117 211.76001 211.47684 211.12167 210.76351
 210.39234 210.11418 209.93401 209.80984 209.74968 210.09251 210.49034 210.89118
 211.69601 212.88584 214.14768 215.94251 217.88234 219.93718 222.04401 224.13885
 226.21068 228.30651 230.41535 232.53318 234.67401 236.85785 239.12568 241.50751
 244.14035 246.40318 248.41701 250.19385 251.62268 252.75751 253.59135 253.91918
 253.96802 253.75385 253.12568 252.08552 250.70335 248.87618 246.79702 244.64185
 242.44468 240.26052 238.09235 235.94318 233.81502 231.69385 229.73169 227.90052
 226.19535 224.67919 223.32102 222.10485 220.99869 219.97052 219.08635 218.23919
 217.49302 216.68485 215.79469 215.17052 214.63235 214.77460 215.04747 214.66838
 214.50204 213.56198 212.66960 213.42189 216.55130 220.83791 225.88246 229.93054
 233.38795 237.50093 241.91711 246.32626 250.45149 254.15259 257.51874 260.70850
 263.76828 266.63721 269.32742 271.79691 273.95663 275.79437 277.26642 278.22659
 278.41446 278.32059 279.04065 280.36948 281.76144 283.00916 284.14752 285.17880
 286.10632 286.93228 287.65381 288.57333
 366.78100 356.34568 345.78837 334.66505 323.07873 311.28341 299.16410 286.97778
 274.70046 262.60814 250.62783 239.93951 230.07219 221.18688 213.37956 206.39224
 200.23692 195.18561 191.77829 189.83097 188.87865 188.95334 189.79902 191.11770
 192.85339 194.95907 197.23275 199.60243 202.05812 204.54880 206.64748 208.50016
 210.13685 211.29253 211.53221 211.77090 211.71858 211.43426 211.07794 210.71863
 210.34631 210.06699 209.88567 209.76036 209.69904 210.04072 210.43741 210.83709
 211.64077 212.82945 214.09014 215.88382 217.82250 219.87618 221.98187 224.07555
 226.14623 228.24092 230.34860 232.46528 234.60496 236.78765 239.05433 241.43501
 244.06669 246.32838 248.34106 250.11674 251.54443 252.67811 253.51079 253.83747
 253.88516 253.66984 253.04052 251.99920 250.61589 248.78757 246.70725 244.55094
 242.35262 240.16730 237.99798 235.84767 233.71835 231.59603 229.63271 227.80040
 226.09408 224.57676 223.21745 222.00013 220.89281 219.86349 218.97818 218.12986
 217.38254 216.57322 215.68191 215.05659 214.51727 214.73567 215.13899 214.65617
 214.46718 213.61348 212.68736 213.39743 216.52863 220.80550 225.90120 229.88799
 233.34828 237.47002 241.90364 246.33409 250.45041 254.14615 257.51260 260.68454
 263.71368 266.57336 269.28445 271.80179 274.00729 275.85269 277.18518 277.81451
 277.68271 277.93134 278.90131 280.40515 281.80624 283.04584 284.17676 285.20132
 286.12280 286.94336 287.66022 288.57373
 366.78100 356.34537 345.78774 334.66410 323.07747 311.28184 299.16221 286.97558
 274.69795 262.60531 250.62468 239.93605 230.06842 221.18279 213.37516 206.38752
 200.23189 195.18026 191.77263 189.82500 188.87236 188.94673 189.79210 191.11047
 192.84584 194.95121 197.22457 199.59394 202.04931 204.53968 206.63805 208.49042
 210.12678 211.28215 211.52152 211.75989 211.70726 211.42263 211.06599 210.70636
 210.33373 210.05410 209.87247 209.74683 209.68520 210.02657 210.42294 210.82231
 211.62568 212.81404 214.07441 215.86778 217.80615 219.85952 221.96489 224.05825
 226.12862 228.22299 230.33036 232.44673 234.58609 236.76846 239.03483 241.41520
 244.04657 246.30794 248.32030 250.09567 251.52304 252.65641 253.48878 253.81515
 253.86251 253.64688 253.01725 251.97562 250.59199 248.76335 246.68272 244.52609
 242.32746 240.14183 237.97220 235.82156 233.69193 231.56930 229.60567 227.77304
 226.06641 224.54877 223.18914 221.97151 220.86388 219.83425 218.94862 218.09998
 217.35235 216.54272 215.65109 215.02546 214.48582 214.73840 215.17769 214.67830
 214.43553 213.63121 212.60786 213.26524 216.45845 220.74092 225.93518 229.92700
 233.38673 237.49892 241.93138 246.36197 250.49481 254.22130 257.59924 260.75879
 263.76059 266.60275 269.32373 271.87808 274.15836 276.00034 277.19574 277.53531
 277.24612 277.97693 279.66650 281.31833 282.74786 284.01263 285.16653 286.21191
 287.15210 287.98935 288.72073 289.65283
 366.78100 356.34536 345.78772 334.66408 323.07744 311.28180 299.16216 286.97552
 274.69788 262.60524 250.62460 239.93597 230.06833 221.18269 213.37505 206.38741
 200.23177 195.18013 191.77249 189.82485 188.87221 188.94657 189.79193 191.11029
 192.84565 194.95101 197.22437 199.59373 202.04909 204.53945 206.63781 208.49017
 210.12653 211.28190 211.52126 211.75962 211.70698 211.42234 211.06570 210.70606
 210.33342 210.05378 209.87214 209.74650 209.68486 210.02622 210.42258 210.82194
 211.62530 212.81366 214.07402 215.86738 217.80574 219.85910 221.96447 224.05783
 226.12819 228.22255 230.32991 232.44627 234.58563 236.76799 239.03435 241.41471
 244.04607 246.30743 248.31979 250.09515 251.52251 252.65587 253.48823 253.81459
 253.86195 253.64631 253.01667 251.97503 250.59140 248.76276 246.68212 244.52548
 242.32684 240.14120 237.97156 235.82092 233.69128 231.56864 229.60500 227.77236
 226.06572 224.54808 223.18844 221.97080 220.86316 219.83352 218.94788 218.09924
 217.35160 216.54196 215.65033 215.02469 214.48505 214.74797 215.19415 214.66978
 214.41904 213.68349 212.57460 213.12997 216.34090 220.65514 225.84009 229.85771
 233.34813 237.47983 241.92822 246.38409 250.54662 254.29816 257.68454 260.84000
 263.84207 266.69299 269.42554 272.01968 274.35461 276.25714 277.36517 277.43637
 277.00592 277.99387 279.23456 280.32397 281.26678 282.10092 282.86194 283.55139
 284.17145 284.72363 285.20599 285.82071
 366.78100 356.34461 345.78621 334.66182 323.07442 311.27803 299.15763 286.97024
 274.69184 262.59845 250.61705 239.92766 230.05926 221.17287 213.36447 206.37608
 200.21968 195.16729 191.75889 189.81050 188.85710 188.93071 189.77531 191.09292
 192.82752 194.93213 197.20473 199.57334 202.02794 204.51755 206.61515 208.46676
 210.10236 211.25697 211.49557 211.73318 211.67978 211.39439 211.03699 210.67660
 210.30320 210.02281 209.84041 209.71402 209.65162 209.99223 210.38783 210.78644
 211.58904 212.77665 214.03625 215.82886 217.76646 219.81907 221.92367 224.01628
 226.08588 228.17949 230.28609 232.40170 234.54030 236.72191 238.98751 241.36712
 243.99772 246.25833 248.26993 250.04454 251.47114 252.60375 253.43535 253.76096
 253.80756 253.59117 252.96077 251.91838 250.53398 248.70459 246.62319 244.46580
 242.26640 240.08001 237.90961 235.75822 233.62782 231.50443 229.54003 227.70664
 225.99924 224.48085 223.12045 221.90206 220.79366 219.76327 218.87687 218.02748
 217.27908 216.46869 215.57629 214.94990 214.40950 214.70448 215.24940 214.65175
 214.29216 213.72430 212.71576 213.21718 216.29800 220.61349 225.62491 229.73726
 233.23521 237.38043 241.85262 246.30679 250.44958 254.19452 257.60287 260.79703
 263.83386 266.72498 269.51566 272.20877 274.65714 276.67908 278.01462 278.39444
 277.69763 277.89810 279.11316 280.79572 282.25183 283.54013 284.71548 285.78027
 286.73795 287.59076 288.33575 289.28519
 366.78100 356.34555 345.78810 334.66464 323.07819 311.28274 299.16329 286.97684
 274.69939 262.60693 250.62648 239.93803 230.07058 221.18513 213.37768 206.39022
 200.23477 195.18332 191.77587 189.82842 188.87597 188.95051 189.79606 191.11461
 192.85016 194.95571 197.22926 199.59880 202.05435 204.54490 206.64345 208.49600
 210.13255 211.28809 211.52764 211.76619 211.71374 211.42929 211.07284 210.71338
 210.34093 210.06148 209.88003 209.75458 209.69313 210.03467 210.43122 210.83077
 211.63432 212.82287 214.08341 215.87696 217.81551 219.86906 221.97461 224.06816
 226.13870 228.23325 230.34080 232.45735 234.59690 236.77945 239.04599 241.42654
 244.05809 246.31964 248.33219 250.10774 251.53528 252.66883 253.50138 253.82793
 253.87548 253.66003 253.03057 251.98912 250.60567 248.77722 246.69677 244.54032
 242.34186 240.15641 237.98696 235.83651 233.70706 231.58461 229.62115 227.78870
 226.08225 224.56480 223.20535 221.98790 220.88044 219.85099 218.96554 218.11709
 217.36964 216.56019 215.66873 215.04328 214.50383 214.73331 215.20331 214.75455
 214.18564 213.50433 212.70538 213.26834 216.29649 220.61719 225.57637 229.73659
 233.24315 237.36417 241.80661 246.19835 250.28197 253.99359 257.39062 260.60388
 263.67615 266.62534 269.48715 272.24338 274.76602 276.87228 278.35031 279.07297
 278.99606 278.32001 278.88873 280.21619 281.58908 282.83026 283.96262 284.98846
 285.91110 286.73273 287.45047 288.36517
 366.78100 356.34596 345.78891 334.66587 323.07983 311.28478 299.16574 286.97970
 274.70265 262.61061 250.63057 239.94252 230.07548 221.19044 213.38339 206.39635
 200.24131 195.19026 191.78322 189.83618 188.88413 188.95909 189.80505 191.12400
 192.85996 194.96592 197.23987 199.60983 202.06579 204.55674 206.65570 208.50866
 210.14561 211.30157 211.54153 211.78048 211.72844 211.44440 211.08835 210.72931
 210.35726 210.07822 209.89718 209.77213 209.71109 210.05305 210.45000 210.84996
 211.65392 212.84287 214.10383 215.89779 217.83674 219.89070 221.99666 224.09061
 226.16157 228.25653 230.36448 232.48144 234.62140 236.80435 239.07131 241.45227
 244.08422 246.34618 248.35914 250.13509 251.56305 252.69701 253.52996 253.85692
 253.90488 253.68983 253.06079 252.01975 250.63670 248.80866 246.72862 244.57257
 242.37453 240.18949 238.02044 235.87040 233.74136 231.61931 229.65627 227.82423
 226.11818 224.60114 223.24210 222.02505 220.91801 219.88897 219.00392 218.15588
 217.40884 216.59979 215.70875 215.08371 214.54466 214.75461 215.18695 214.74719
 214.26382 213.34793 212.50368 213.16647 216.29610 220.63882 225.62839 229.80161
 233.30507 237.41075 241.84619 246.24806 250.30675 253.96170 257.31314 260.49646
 263.54739 266.48804 269.36765 272.16644 274.73138 276.88284 278.28171 278.91928
 278.84503 278.50122 278.81531 280.18060 281.50516 282.73956 283.86575 284.88602
 285.80365 286.62079 287.33463 288.24435
 366.78100 356.34452 345.78605 334.66157 323.07409 311.27761 299.15714 286.96966
 274.69118 262.59771 250.61623 239.92675 230.05827 221.17180 213.36332 206.37484
 200.21837 195.16589 191.75741 189.80894 188.85546 188.92898 189.77350 191.09103
 192.82555 194.93007 197.20260 199.57112 202.02564 204.51516 206.61269 208.46421
 210.09973 211.25426 211.49278 211.73030 211.67682 211.39135 211.03387 210.67339
 210.29992 210.01944 209.83696 209.71049 209.64801 209.98853 210.38405 210.78258
 211.58510 212.77262 214.03215 215.82467 217.76219 219.81471 221.91924 224.01176
 226.08128 228.17481 230.28133 232.39685 234.53537 236.71690 238.98242 241.36194
 243.99247 246.25299 248.26451 250.03903 251.46556 252.59808 253.42960 253.75513
 253.80165 253.58517 252.95470 251.91222 250.52774 248.69826 246.61679 244.45931
 242.25983 240.07336 237.90288 235.75140 233.62092 231.49745 229.53297 227.69949
 225.99202 224.47354 223.11306 221.89458 220.78611 219.75563 218.86915 218.01968
 217.27120 216.46072 215.56825 214.94177 214.40129 214.68536 215.27710 214.70024
 214.17372 213.32922 212.42523 213.05714 216.23210 220.60747 225.62097 229.82588
 233.34660 237.44772 241.88905 246.33044 250.41774 254.06778 257.39551 260.55023
 263.57593 266.48892 269.35684 272.17477 274.77106 276.94043 278.30408 278.86542
 278.81363 278.63150 279.00665 280.27191 281.54773 282.76593 283.87738 284.88425
 285.78983 286.59625 287.30072 288.19852
 366.78100 356.34499 345.78698 334.66297 323.07596 311.27995 299.15995 286.97294
 274.69493 262.60192 250.62091 239.93190 230.06389 221.17788 213.36987 206.38186
 200.22585 195.17385 191.76584 189.81783 188.86482 188.93881 189.78380 191.10179
 192.83678 194.94177 197.21476 199.58375 202.03875 204.52874 206.62673 208.47872
 210.11471 211.26970 211.50869 211.74668 211.69367 211.40866 211.05165 210.69164
 210.31864 210.03863 209.85662 209.73061 209.66860 210.00959 210.40558 210.80457
 211.60756 212.79555 214.05554 215.84854 217.78653 219.83952 221.94451 224.03750
 226.10749 228.20148 230.30847 232.42446 234.56345 236.74544 239.01144 241.39143
 244.02242 246.28341 248.29540 250.07039 251.49738 252.63037 253.46236 253.78835
 253.83534 253.61934 252.98933 251.94732 250.56331 248.73430 246.65329 244.49628
 242.29727 240.11126 237.94125 235.79024 233.66024 231.53723 229.57322 227.74021
 226.03320 224.51519 223.15518 221.93717 220.82916 219.79915 218.91314 218.06414
 217.31613 216.50612 215.61411 214.98810 214.44809 214.70087 215.24992 214.79802
 214.10936 213.22276 212.36276 212.92816 216.11143 220.50977 225.54558 229.76857
 233.32570 237.42104 241.85800 246.30711 250.41446 254.08238 257.42319 260.58115
 263.59265 266.49258 269.36145 272.21335 274.83328 276.99924 278.42728 279.07889
 279.13571 279.09521 279.33319 280.38428 281.56860 282.69949 283.76526 284.73080
 285.59918 286.37247 287.04800 287.90891
 366.78100 356.34476 345.78651 334.66227 323.07503 311.27879 299.15854 286.97130
 274.69306 262.59982 250.61857 239.92933 230.06109 221.17485 213.36660 206.37836
 200.22212 195.16988 191.76163 189.81339 188.86015 188.93391 189.77866 191.09642
 192.83118 194.93594 197.20869 199.57745 202.03221 204.52197 206.61972 208.47148
 210.10724 211.26200 211.50075 211.73851 211.68527 211.40003 211.04278 210.68254
 210.30930 210.02905 209.84681 209.72057 209.65833 209.99908 210.39484 210.79360
 211.59636 212.78411 214.04387 215.83663 217.77439 219.82714 221.93190 224.02466
 226.09442 228.18817 230.29493 232.41069 234.54945 236.73120 238.99696 241.37672
 244.00748 246.26823 248.27999 250.05475 251.48151 252.61426 253.44602 253.77178
 253.81854 253.60229 252.97205 251.92981 250.54557 248.71632 246.63508 244.47784
 242.27859 240.09235 237.92211 235.77087 233.64062 231.51738 229.55314 227.71990
 226.01265 224.49441 223.13417 221.91593 220.80768 219.77744 218.89120 218.04196
 217.29371 216.48347 215.59123 214.96499 214.42474 214.69138 215.26906 214.76964
 214.14622 213.19914 212.36717 212.88469 216.05072 220.44875 225.47029 229.71440
 233.28632 237.37628 241.81573 246.27126 250.37762 254.04221 257.38666 260.55362
 263.55606 266.44757 269.32785 272.21625 274.86938 277.05927 278.48502 279.15332
 279.26901 279.32492 279.59268 280.51920 281.68271 282.80496 283.86081 284.81732
 285.67761 286.44370 287.11295 287.96579
 366.78100 356.34333 345.78367 334.65800 323.06933 311.27166 299.15000 286.96133
 274.68166 262.58699 250.60433 239.91366 230.04399 221.15633 213.34666 206.35699
 200.19932 195.14566 191.73599 189.78632 188.83165 188.90399 189.74732 191.06365
 192.79699 194.90032 197.17165 199.53898 201.99232 204.48065 206.57698 208.42731
 210.06165 211.21498 211.45231 211.68865 211.63398 211.34731 210.98864 210.62698
 210.25231 209.97064 209.78697 209.65931 209.59564 209.93497 210.32931 210.72664
 211.52797 212.71430 213.97264 215.76397 217.70030 219.75163 221.85497 223.94630
 226.01463 228.10697 230.21230 232.32663 234.46396 236.64430 238.90863 241.28696
 243.91629 246.17563 248.18596 249.95929 251.38463 252.51596 253.34629 253.67062
 253.71596 253.49829 252.86662 251.82295 250.43729 248.60662 246.52395 244.36529
 242.16462 239.97695 237.80528 235.65262 233.52095 231.39628 229.43061 227.59595
 225.88728 224.36761 223.00595 221.78628 220.67661 219.64494 218.75728 217.90661
 217.15694 216.34527 215.45161 214.82394 214.28227 214.61281 215.34799 214.77904
 214.02119 213.00926 212.35043 212.86441 216.01958 220.44200 225.48776 229.71996
 233.30351 237.38133 241.80240 246.24979 250.35339 254.02063 257.37289 260.53946
 263.53897 266.43411 269.32159 272.23407 274.92038 277.09085 278.46552 279.09317
 279.26111 279.43250 279.84094 280.69971 281.80447 282.84842 283.85727 284.77740
 285.60498 286.34192 286.98572 287.80615
 366.78100 356.34282 345.78264 334.65647 323.06729 311.26911 299.14693 286.95775
 274.67757 262.58240 250.59922 239.90804 230.03786 221.14968 213.33950 206.34933
 200.19115 195.13697 191.72679 189.77661 188.82143 188.89326 189.73608 191.05190
 192.78472 194.88754 197.15836 199.52519 201.97801 204.46583 206.56165 208.41147
 210.04529 211.19812 211.43494 211.67076 211.61558 211.32840 210.96922 210.60705
 210.23187 209.94969 209.76551 209.63733 209.57316 209.91198 210.30580 210.70262
 211.50344 212.68926 213.94709 215.73791 217.67373 219.72455 221.82737 223.91819
 225.98602 228.07784 230.18266 232.29648 234.43330 236.61312 238.87695 241.25477
 243.88359 246.14241 248.15223 249.92505 251.34988 252.48070 253.31052 253.63434
 253.67916 253.46098 252.82881 251.78463 250.39845 248.56727 246.48409 244.32491
 242.12374 239.93556 237.76338 235.61020 233.47802 231.35285 229.38667 227.55149
 225.84231 224.32213 222.95995 221.73978 220.62960 219.59742 218.70924 217.85806
 217.10788 216.29571 215.40153 214.77335 214.23117 214.57304 215.36258 214.88033
 214.12224 212.95782 212.19284 212.63795 215.91306 220.40295 225.49289 229.69705
 233.33017 237.37985 241.78152 246.23865 250.35234 254.02782 257.39032 260.55704
 263.55014 266.43353 269.32413 272.21622 274.87430 277.01031 278.32986 278.90918
 279.15833 279.48553 280.06470 280.99130 282.05692 283.05328 283.96521 284.81058
 285.57578 286.25720 286.85248 287.61111
 366.78100 356.34310 345.78320 334.65730 323.06840 311.27050 299.14861 286.95971
 274.67981 262.58491 250.60201 239.91111 230.04121 221.15331 213.34341 206.35351
 200.19562 195.14172 191.73182 189.78192 188.82702 188.89912 189.74222 191.05832
 192.79142 194.89452 197.16562 199.53273 201.98583 204.47393 206.57003 208.42013
 210.05423 211.20733 211.44443 211.68053 211.62563 211.33873 210.97984 210.61794
 210.24304 209.96114 209.77724 209.64934 209.58544 209.92454 210.31864 210.71574
 211.51685 212.70295 213.96105 215.75215 217.68825 219.73935 221.84245 223.93355
 226.00165 228.09375 230.19885 232.31296 234.45006 236.63016 238.89426 241.27236
 243.90146 246.16056 248.17066 249.94376 251.36886 252.49997 253.33007 253.65417
 253.69927 253.48137 252.84947 251.80557 250.41967 248.58877 246.50587 244.34697
 242.14608 239.95818 237.78628 235.63338 233.50148 231.37658 229.41068 227.57578
 225.86688 224.34698 222.98508 221.76519 220.65529 219.62339 218.73549 217.88459
 217.13469 216.32279 215.42889 214.80099 214.25909 214.58891 215.33122 214.91934
 214.16498 212.87093 211.98129 212.58411 215.84459 220.30801 225.41148 229.71613
 233.31056 237.38821 241.79643 246.24217 250.36580 254.07034 257.45251 260.61322
 263.57483 266.42801 269.30460 272.19940 274.85156 276.89771 278.11545 278.73199
 279.18359 279.76746 280.44568 281.35580 282.43109 283.45251 284.41412 285.29004
 286.07782 286.77936 287.39221 288.17322
 366.78100 356.34321 345.78341 334.65762 323.06883 311.27104 299.14924 286.96045
 274.68066 262.58587 250.60307 239.91228 230.04249 221.15470 213.34490 206.35511
 200.19732 195.14353 191.73373 189.78394 188.82915 188.90136 189.74456 191.06077
 192.79398 194.89719 197.16839 199.53560 201.98881 204.47702 206.57322 208.42343
 210.05764 211.21085 211.44805 211.68426 211.62947 211.34268 210.98388 210.62209
 210.24730 209.96551 209.78171 209.65392 209.59013 209.92934 210.32354 210.72075
 211.52196 212.70816 213.96637 215.75758 217.69379 219.74499 221.84820 223.93941
 226.00762 228.09982 230.20503 232.31924 234.45645 236.63665 238.90086 241.27907
 243.90828 246.16748 248.17769 249.95090 251.37611 252.50731 253.33752 253.66173
 253.70694 253.48914 252.85735 251.81356 250.42777 248.59697 246.51418 244.35539
 242.15460 239.96680 237.79501 235.64222 233.51043 231.38563 229.41984 227.58505
 225.87626 224.35646 222.99467 221.77488 220.66509 219.63329 218.74550 217.89471
 217.14492 216.33312 215.43933 214.81154 214.26974 214.59940 215.32332 214.89456
 214.18567 212.95154 211.97217 212.54935 215.83044 220.27550 225.37367 229.74089
 233.33781 237.39493 241.79539 246.24187 250.34444 254.04948 257.48471 260.71570
 263.69482 266.52832 269.38528 272.26465 274.87485 276.88977 278.05048 278.70755
 279.30490 279.99661 280.86560 282.03745 283.14218 284.12198 285.01410 285.82230
 286.54916 287.19644 287.76190 288.48251
 366.78100 356.34279 345.78259 334.65638 323.06717 311.26897 299.14676 286.95755
 274.67735 262.58214 250.59893 239.90772 230.03752 221.14931 213.33910 206.34890
 200.19069 195.13648 191.72628 189.77607 188.82086 188.89266 189.73545 191.05124
 192.78404 194.88683 197.15762 199.52442 201.97721 204.46500 206.56080 208.41059
 210.04438 211.19717 211.43397 211.66976 211.61455 211.32735 210.96814 210.60593
 210.23073 209.94852 209.76431 209.63611 209.57190 209.91069 210.30449 210.70128
 211.50207 212.68787 213.94566 215.73645 217.67224 219.72304 221.82583 223.91662
 225.98442 228.07621 230.18100 232.29480 234.43159 236.61138 238.87518 241.25297
 243.88176 246.14056 248.15035 249.92314 251.34794 252.47873 253.30852 253.63232
 253.67711 253.45890 252.82669 251.78249 250.39628 248.56507 246.48187 244.32266
 242.12145 239.93325 237.76104 235.60783 233.47563 231.35042 229.38421 227.54901
 225.83980 224.31959 222.95739 221.73718 220.62697 219.59477 218.70656 217.85535
 217.10514 216.29294 215.39873 214.77052 214.22832 214.55321 215.27240 214.89027
 214.20241 212.94838 211.88460 212.42046 215.80196 220.23087 225.31792 229.75803
 233.36946 237.38269 241.77299 246.21158 250.26488 253.96291 257.46176 260.77084
 263.77274 266.60477 269.43399 272.30865 274.89630 276.84058 277.90836 278.54993
 279.27829 280.16055 281.26352 282.48367 283.54288 284.42938 285.22067 285.93753
 286.58228 287.15643 287.65799 288.29718
 354.97500 345.04800 334.58700 324.11500 313.32600 302.53700 291.65000 280.76700
 269.93100 259.19300 248.62200 238.61700 229.08700 220.35500 212.54000 205.53500
 199.46400 194.49300 191.14300 189.19000 188.08900 188.01400 188.72400 189.90600
 191.46900 193.38200 195.40300 197.55600 199.80700 202.06000 204.28800 206.47900
 208.55200 210.37800 212.02500 213.65900 214.99800 216.11800 217.17200 218.25900
 219.49400 220.64500 221.67900 222.61400 223.54500 224.98200 226.57100 228.19000
 229.79700 231.81100 233.86500 235.97200 238.24200 240.55300 242.89900 245.25300
 247.48800 249.53500 251.36600 252.84800 254.09800 255.16700 256.02700 256.25300
 256.09500 255.54300 253.93500 252.56600 251.38400 250.24500 249.05200 247.70100
 246.01600 243.99600 241.78400 239.39300 236.81300 234.22300 231.65800 229.14400
 226.74000 224.47300 222.33500 220.32500 218.44000 216.67700 214.96200 213.47200
 212.20000 211.10800 210.26000 209.63900 209.24400 209.03100 209.05800 209.33300
 209.78400 210.62600 211.33100 212.39100 213.62500 214.84668 217.72949 219.47640
 220.32566 220.86828 220.88710 220.27371 219.43733 218.84250 219.04934 220.86203
 222.60583 225.72206 229.03064 232.61777 236.12270 239.51333 242.70767 245.68587
 248.41061 250.90679 253.19353 254.91714 256.48655 257.94920 259.39966 260.69384
 261.81714 262.77997 263.71679 264.54570 265.26305 265.89772 266.47676 267.00133
 267.47312 267.89325 268.26027 268.72800
