|-------------------------------------------------------------------------|
|   File Name : in_temp.dat
|   Subject   : temperature profiles used for initial guess atmosphere
|   File Type : input of gmtr
|   Data Type : atmospherical data
|   Author/s  : WRF-Chem
|   Date      : Fri Jul 26 15:39:24 2024
|-------------------------------------------------------------------------|

 WRF-Chem temperature
#
 values of T (K)    (8f10.5)
#
 354.97500 345.04800 334.58700 324.11500 313.32600 302.53700 291.65000 280.76700
 269.93100 259.19300 248.62200 238.61700 229.08700 220.35500 212.54000 205.53500
 199.46400 194.49300 191.14300 189.19000 188.08900 188.01400 188.72400 189.90600
 191.46900 193.38200 195.40300 197.55600 199.80700 202.06000 204.28800 206.47900
 208.55200 210.37800 212.02500 213.65900 214.99800 216.11800 217.17200 218.25900
 219.49400 220.64500 221.67900 222.61400 223.54500 224.98200 226.57100 228.19000
 229.79700 231.81100 233.86500 235.97200 238.24200 240.55300 242.89900 245.25300
 247.48800 249.53500 251.36600 252.84800 254.09800 255.16700 256.02700 256.25300
 256.09500 255.54300 253.93500 252.56600 251.38400 250.24500 249.05200 247.70100
 246.01600 243.99600 241.78400 239.39300 236.81300 234.22300 231.65800 229.14400
 226.74000 224.47300 222.33500 220.32500 218.44000 216.67700 214.96200 213.47200
 212.20000 211.10800 210.26000 209.63900 209.24400 209.03100 209.05800 209.33300
 209.78400 210.62600 211.33100 212.39100 213.62500 214.84668 217.72949 219.47640
 220.32566 220.86828 220.88710 220.27371 219.43733 218.84250 219.04934 220.86203
 222.60583 225.72206 229.03064 232.61777 236.12270 239.51333 242.70767 245.68587
 248.41061 250.90679 253.19353 254.91714 256.48655 257.94920 259.39966 260.69384
 261.81714 262.77997 263.71679 264.54570 265.26305 265.89772 266.47676 267.00133
 267.47312 267.89325 268.26027 268.72800
 366.78100 356.33500 345.76700 334.63300 323.03600 311.23000 299.10000 286.90300
 274.61500 262.51200 250.52100 239.82200 229.94400 221.04800 213.23000 206.23200
 200.06600 195.00400 191.58600 189.62800 188.66500 188.72900 189.56400 190.87200
 192.59700 194.69200 196.95500 199.31400 201.75900 204.23900 206.32700 208.16900
 209.79500 210.94000 211.16900 211.39700 211.33400 211.03900 210.67200 210.30200
 209.91900 209.62900 209.43700 209.30100 209.22900 209.56000 209.94600 210.33500
 211.12800 212.30600 213.55600 215.33900 217.26700 219.31000 221.40500 223.48800
 225.54800 227.63200 229.72900 231.83500 233.96400 236.13600 238.39200 240.76200
 243.38300 245.63400 247.63600 249.40100 250.81800 251.94100 252.76300 253.07900
 253.11600 252.89000 252.25000 251.19800 249.80400 247.96500 245.87400 243.70700
 241.49800 239.30200 237.12200 234.96100 232.82100 230.68800 228.71400 226.87100
 225.15400 223.62600 222.25600 221.02800 219.91000 218.87000 217.97400 217.11500
 216.35700 215.53700 214.63500 213.99900 213.44900 212.85855 212.01316 212.61654
 214.26826 216.08686 218.14273 220.53346 223.40855 226.78828 231.49734 235.90155
 239.42278 243.28576 247.23140 251.11907 254.80144 258.23331 261.38913 264.27520
 266.89312 269.26852 271.44504 273.08845 274.58484 275.98591 277.39845 278.65879
 279.75272 280.69038 281.56708 282.34086 283.01050 283.60295 284.14348 284.63317
 285.07358 285.46577 285.80838 286.24500
 381.81900 372.39900 361.20600 349.77600 337.62200 324.85300 311.81000 298.35300
 284.86000 271.32400 258.56100 246.30400 236.08700 226.79600 218.44800 211.29000
 205.52200 200.89400 197.38100 194.84800 193.01500 192.31500 192.25000 192.43100
 192.91200 193.53700 194.13600 194.71200 195.26200 195.83100 196.39300 196.97600
 197.60400 198.14900 198.58400 199.05700 199.69500 200.37800 201.05400 201.70800
 202.31300 202.85700 203.35500 203.86200 204.56900 205.29700 206.02600 206.98700
 208.19300 209.44100 210.96900 212.57600 214.46200 216.51300 218.63000 220.85300
 223.34100 225.96200 228.73900 231.69700 234.70600 237.70600 240.69200 243.65700
 246.73700 249.69900 252.52100 255.06300 257.29000 259.23300 260.63300 261.68000
 262.46100 262.79800 262.69100 262.22400 261.06900 259.52500 257.70700 255.50700
 253.00100 250.30200 247.39800 244.45200 241.65400 239.05400 236.73300 234.59000
 232.59500 230.72500 228.83400 226.82600 224.66600 222.38700 220.10400 217.71500
 215.45900 213.06600 210.54600 208.09300 205.35400 202.08130 196.05959 200.71215
 209.01611 216.90438 223.84126 229.78593 235.00632 240.20838 245.98943 250.68668
 254.32982 257.93487 261.55666 264.96801 268.15192 271.06452 273.76717 276.25691
 278.57680 280.74479 282.77456 284.60533 286.27232 287.81705 289.31715 290.65561
 291.81734 292.81312 293.70701 294.49387 295.17482 295.77730 296.32696 296.82492
 297.27278 297.67160 298.02000 298.46400
 399.33000 389.90700 379.81300 368.66800 357.52200 345.30100 333.07400 320.22700
 307.21600 293.84800 280.37600 267.29600 254.61000 242.98700 232.15100 221.97700
 212.67200 204.28600 197.66900 192.82100 189.48600 187.45200 186.81400 187.08900
 187.78100 189.05400 190.64800 192.54200 194.63000 196.75200 198.67100 200.15800
 201.53500 202.48700 202.97500 203.34000 203.53900 203.49700 203.38500 203.24700
 203.00500 202.78600 202.60300 202.43700 202.42600 202.88800 203.42000 203.95100
 204.89500 205.99200 207.30100 208.95800 210.73800 213.10000 215.56400 218.18000
 220.96600 223.91800 226.96100 230.09200 233.29300 236.55700 239.95500 243.53700
 246.84500 249.39000 251.54200 253.47400 255.19500 256.48400 257.43100 258.05900
 258.21200 258.04000 257.58200 256.64300 255.23900 253.50700 251.40800 249.05600
 246.57600 243.99400 241.38900 238.83000 236.34400 233.98600 231.96900 230.11800
 228.42300 226.89900 225.54800 224.29700 223.10500 221.96500 220.95800 220.11300
 219.49000 218.92000 218.32500 217.88100 217.42300 216.96366 216.35568 216.80261
 217.73415 218.28582 218.64258 219.10077 220.44626 222.53987 226.38451 230.35736
 233.59734 237.39164 241.29814 245.22796 248.98002 252.51130 255.78595 258.80109
 261.54781 264.05210 266.34239 268.04198 269.58951 271.01303 272.35754 273.55718
 274.59842 275.49092 276.28989 276.99307 277.60161 278.14001 278.63122 279.07623
 279.47646 279.83287 280.14422 280.54100
 399.73800 389.78500 379.66200 368.15100 356.64100 344.35000 331.79200 318.88800
 305.72600 292.49300 279.20900 266.73800 254.69600 244.21100 234.45700 225.43300
 217.56900 210.45100 204.30000 199.30600 195.45800 192.57600 191.02700 190.38600
 190.23900 190.53400 191.16600 191.92500 192.79500 193.76600 194.73200 195.31200
 195.80000 196.05200 196.11500 196.11500 196.03900 195.72300 195.34000 194.98900
 194.75100 194.79200 195.13300 195.59800 196.50600 198.13600 199.85800 201.56600
 204.17900 206.82300 209.89300 213.28400 216.82800 220.60500 224.38700 228.20900
 232.03200 235.82500 239.56000 243.25800 246.84500 250.20100 253.70900 257.46800
 261.53000 264.22100 266.60100 268.68100 270.32900 271.74100 272.83600 273.47400
 273.89800 274.00200 273.75700 273.28800 272.37100 271.10000 269.58900 267.77900
 265.81600 263.72100 261.39300 258.91600 256.29800 253.42300 250.33100 247.11400
 243.83700 240.52900 237.24900 233.99900 230.72800 227.51500 224.25400 220.95200
 217.62700 213.65600 210.12100 206.78900 204.01000 201.99491 199.07309 198.76551
 199.40006 200.48994 201.46112 202.31912 203.45100 204.96110 207.47502 210.85391
 213.70530 217.29629 220.99574 224.72316 228.28753 231.64854 234.68024 237.40893
 239.70644 241.60899 243.46854 245.67368 247.68154 249.52395 251.24767 252.78566
 254.12057 255.26479 256.23740 257.09036 257.82852 258.48160 259.07744 259.61723
 260.10271 260.53504 260.91270 261.39400
 399.73800 389.78500 379.66200 368.15100 356.64100 344.35000 331.79200 318.88800
 305.72600 292.49300 279.20900 266.73800 254.69600 244.21100 234.45700 225.43300
 217.56900 210.45100 204.30000 199.30600 195.45800 192.57600 191.02700 190.38600
 190.23900 190.53400 191.16600 191.92500 192.79500 193.76600 194.73200 195.31200
 195.80000 196.05200 196.11500 196.11500 196.03900 195.72300 195.34000 194.98900
 194.75100 194.79200 195.13300 195.59800 196.50600 198.13600 199.85800 201.56600
 204.17900 206.82300 209.89300 213.28400 216.82800 220.60500 224.38700 228.20900
 232.03200 235.82500 239.56000 243.25800 246.84500 250.20100 253.70900 257.46800
 261.53000 264.22100 266.60100 268.68100 270.32900 271.74100 272.83600 273.47400
 273.89800 274.00200 273.75700 273.28800 272.37100 271.10000 269.58900 267.77900
 265.81600 263.72100 261.39300 258.91600 256.29800 253.42300 250.33100 247.11400
 243.83700 240.52900 237.24900 233.99900 230.72800 227.51500 224.25400 220.95200
 217.62700 213.65600 210.12100 206.78900 204.01000 201.99491 199.07309 198.76551
 199.40006 200.48994 201.46112 202.31912 203.45100 204.96110 207.47502 210.85391
 213.70530 217.29629 220.99574 224.72316 228.28753 231.64854 234.68024 237.40893
 239.70644 241.60899 243.46854 245.67368 247.68154 249.52395 251.24767 252.78566
 254.12057 255.26479 256.23740 257.09036 257.82852 258.48160 259.07744 259.61723
 260.10271 260.53504 260.91270 261.39400
 399.33000 389.90700 379.81300 368.66800 357.52200 345.30100 333.07400 320.22700
 307.21600 293.84800 280.37600 267.29600 254.61000 242.98700 232.15100 221.97700
 212.67200 204.28600 197.66900 192.82100 189.48600 187.45200 186.81400 187.08900
 187.78100 189.05400 190.64800 192.54200 194.63000 196.75200 198.67100 200.15800
 201.53500 202.48700 202.97500 203.34000 203.53900 203.49700 203.38500 203.24700
 203.00500 202.78600 202.60300 202.43700 202.42600 202.88800 203.42000 203.95100
 204.89500 205.99200 207.30100 208.95800 210.73800 213.10000 215.56400 218.18000
 220.96600 223.91800 226.96100 230.09200 233.29300 236.55700 239.95500 243.53700
 246.84500 249.39000 251.54200 253.47400 255.19500 256.48400 257.43100 258.05900
 258.21200 258.04000 257.58200 256.64300 255.23900 253.50700 251.40800 249.05600
 246.57600 243.99400 241.38900 238.83000 236.34400 233.98600 231.96900 230.11800
 228.42300 226.89900 225.54800 224.29700 223.10500 221.96500 220.95800 220.11300
 219.49000 218.92000 218.32500 217.88100 217.42300 216.96366 216.35568 216.80261
 217.73415 218.28582 218.64258 219.10077 220.44626 222.53987 226.38451 230.35736
 233.59734 237.39164 241.29814 245.22796 248.98002 252.51130 255.78595 258.80109
 261.54781 264.05210 266.34239 268.04198 269.58951 271.01303 272.35754 273.55718
 274.59842 275.49092 276.28989 276.99307 277.60161 278.14001 278.63122 279.07623
 279.47646 279.83287 280.14422 280.54100
 381.81900 372.39900 361.20600 349.77600 337.62200 324.85300 311.81000 298.35300
 284.86000 271.32400 258.56100 246.30400 236.08700 226.79600 218.44800 211.29000
 205.52200 200.89400 197.38100 194.84800 193.01500 192.31500 192.25000 192.43100
 192.91200 193.53700 194.13600 194.71200 195.26200 195.83100 196.39300 196.97600
 197.60400 198.14900 198.58400 199.05700 199.69500 200.37800 201.05400 201.70800
 202.31300 202.85700 203.35500 203.86200 204.56900 205.29700 206.02600 206.98700
 208.19300 209.44100 210.96900 212.57600 214.46200 216.51300 218.63000 220.85300
 223.34100 225.96200 228.73900 231.69700 234.70600 237.70600 240.69200 243.65700
 246.73700 249.69900 252.52100 255.06300 257.29000 259.23300 260.63300 261.68000
 262.46100 262.79800 262.69100 262.22400 261.06900 259.52500 257.70700 255.50700
 253.00100 250.30200 247.39800 244.45200 241.65400 239.05400 236.73300 234.59000
 232.59500 230.72500 228.83400 226.82600 224.66600 222.38700 220.10400 217.71500
 215.45900 213.06600 210.54600 208.09300 205.35400 202.08130 196.05959 200.71215
 209.01611 216.90438 223.84126 229.78593 235.00632 240.20838 245.98943 250.68668
 254.32982 257.93487 261.55666 264.96801 268.15192 271.06452 273.76717 276.25691
 278.57680 280.74479 282.77456 284.60533 286.27232 287.81705 289.31715 290.65561
 291.81734 292.81312 293.70701 294.49387 295.17482 295.77730 296.32696 296.82492
 297.27278 297.67160 298.02000 298.46400
 366.78100 356.35792 345.81283 334.70175 323.12766 311.34458 299.23750 287.06341
 274.79833 262.71825 250.75016 240.07408 230.21899 221.34591 213.55083 206.57574
 200.43266 195.39357 191.99849 190.06341 189.12332 189.21024 190.06816 191.39907
 193.14699 195.26490 197.55082 199.93274 202.40065 204.90357 207.01448 208.87940
 210.52832 211.69623 211.94815 212.19907 212.15898 211.88690 211.54281 211.19573
 210.83565 210.56856 210.39948 210.28639 210.23731 210.59123 211.00014 211.41206
 212.22798 213.42889 214.70181 216.50772 218.45864 220.52456 222.64247 224.74839
 226.83130 228.93822 231.05814 233.18705 235.33897 237.53389 239.81280 242.20572
 244.84963 247.12355 249.14847 250.93638 252.37630 253.52221 254.36713 254.70605
 254.76596 254.56288 253.94580 252.91671 251.54563 249.72954 247.66146 245.51738
 243.33129 241.15821 239.00112 236.86304 234.74596 232.63587 230.68479 228.86471
 227.17062 225.66554 224.31845 223.11337 222.01829 221.00120 220.12812 219.29204
 218.55695 217.75987 216.88078 216.26770 215.74062 213.90665 209.60188 208.76297
 210.04796 210.62392 211.96931 215.50482 219.87802 224.69041 230.44978 235.47168
 239.33247 243.40044 247.77789 252.09512 255.70506 258.61871 261.21539 263.86008
 266.65121 269.28732 271.86472 274.43893 276.39755 277.89853 279.30292 280.96869
 282.99698 284.78268 286.32907 287.68530 288.85898 289.89645 290.84164 291.69775
 292.46500 293.14786 293.74170 294.48114
 366.78100 356.35813 345.81325 334.70238 323.12851 311.34564 299.23876 287.06489
 274.80002 262.72014 250.75227 240.07640 230.22152 221.34865 213.55378 206.57891
 200.43603 195.39716 192.00229 190.06741 189.12754 189.21467 190.07279 191.40392
 193.15205 195.27018 197.55630 199.93843 202.40656 204.90968 207.02081 208.88594
 210.53507 211.70319 211.95532 212.20645 212.16657 211.89470 211.55083 211.20395
 210.84408 210.57721 210.40834 210.29546 210.24659 210.60072 211.00984 211.42197
 212.23810 213.43922 214.71235 216.51848 218.46961 220.53573 222.65386 224.75999
 226.84311 228.95024 231.07037 233.19950 235.35162 237.54675 239.82588 242.21900
 244.86313 247.13726 249.16238 250.95051 252.39064 253.53677 254.38189 254.72102
 254.78115 254.57827 253.96140 252.93253 251.56165 249.74578 247.67791 245.53404
 243.34816 241.17529 239.01842 236.88054 234.76367 232.65380 230.70293 228.88305
 227.18918 225.68431 224.33743 223.13256 222.03769 221.02081 220.14794 219.31207
 218.57720 217.78032 216.90145 216.28858 215.76170 213.93703 209.65250 208.81042
 210.04332 210.67068 211.99405 215.45583 219.82487 224.62904 230.38254 235.39929
 239.25949 243.32951 247.70961 252.03995 255.67972 258.62415 261.22519 263.84451
 266.62000 269.25140 271.82407 274.37836 276.30756 277.79401 279.22382 280.92596
 282.98752 284.77246 286.31784 287.67429 288.84717 289.88394 290.82849 291.68341
 292.45026 293.13300 293.72537 294.46228
 366.78100 356.35835 345.81369 334.70304 323.12939 311.34673 299.24008 287.06643
 274.80177 262.72212 250.75446 240.07881 230.22416 221.35150 213.55685 206.58220
 200.43954 195.40089 192.00624 190.07158 189.13193 189.21928 190.07762 191.40897
 193.15731 195.27566 197.56201 199.94435 202.41270 204.91605 207.02739 208.89274
 210.54209 211.71043 211.96278 212.21413 212.17447 211.90282 211.55917 211.21251
 210.85286 210.58620 210.41755 210.30490 210.25624 210.61059 211.01994 211.43228
 212.24863 213.44998 214.72332 216.52967 218.48102 220.54736 222.66571 224.77206
 226.85540 228.96275 231.08309 233.21244 235.36479 237.56013 239.83948 242.23283
 244.87717 247.15152 249.17687 250.96521 252.40556 253.55191 254.39725 254.73660
 254.79694 254.59429 253.97764 252.94898 251.57833 249.76268 247.69502 245.55137
 243.36572 241.19306 239.03641 236.89876 234.78210 232.67245 230.72180 228.90214
 227.20849 225.70383 224.35718 223.15253 222.05787 221.04122 220.16857 219.33291
 218.59826 217.80161 216.92295 216.31030 215.78365 213.96637 209.69794 208.86850
 210.05406 210.71136 211.99962 215.40971 219.77623 224.56673 230.30669 235.32700
 239.19112 243.26448 247.64442 251.98552 255.65175 258.62717 261.23465 263.83044
 266.58936 269.21365 271.77982 274.31396 276.21490 277.68839 279.14383 280.88965
 282.96899 284.75504 286.30170 287.65683 288.83041 289.86600 290.80988 291.66391
 292.42960 293.11124 293.70251 294.43634
 366.78100 356.35845 345.81389 334.70334 323.12978 311.34723 299.24067 287.06712
 274.80257 262.72301 250.75546 240.07990 230.22535 221.35279 213.55824 206.58368
 200.44113 195.40258 192.00802 190.07347 189.13391 189.22136 190.07980 191.41125
 193.15970 195.27814 197.56459 199.94703 202.41548 204.91892 207.03037 208.89581
 210.54526 211.71371 211.96615 212.21760 212.17804 211.90649 211.56293 211.21638
 210.85683 210.59027 210.42172 210.30916 210.26061 210.61505 211.02450 211.43695
 212.25339 213.45484 214.72828 216.53473 218.48617 220.55262 222.67106 224.77751
 226.86096 228.96840 231.08885 233.21829 235.37074 237.56618 239.84563 242.23908
 244.88352 247.15797 249.18341 250.97186 252.41230 253.55875 254.40419 254.74364
 254.80409 254.60153 253.98498 252.95642 251.58587 249.77031 247.70276 245.55921
 243.37365 241.20110 239.04454 236.90699 234.79043 232.68088 230.73032 228.91077
 227.21722 225.71266 224.36611 223.16155 222.06700 221.05044 220.17789 219.34234
 218.60778 217.81123 216.93267 216.32012 215.79356 213.98769 209.74481 208.93419
 210.07414 210.73969 212.00143 215.36958 219.71989 224.50372 230.23105 235.25557
 239.12337 243.20045 247.57999 251.93085 255.62418 258.63092 261.24683 263.81943
 266.55914 269.17380 271.73193 274.24512 276.12070 277.58444 279.06665 280.85657
 282.94299 284.73105 286.27673 287.63428 288.80557 289.84155 290.78436 291.63715
 292.40094 293.08359 293.67200 294.40216
 366.78100 356.35837 345.81373 334.70310 323.12946 311.34683 299.24019 287.06656
 274.80192 262.72229 250.75465 240.07902 230.22438 221.35175 213.55712 206.58248
 200.43985 195.40121 192.00658 190.07194 189.13231 189.21967 190.07804 191.40940
 193.15777 195.27613 197.56250 199.94487 202.41323 204.91660 207.02796 208.89333
 210.54269 211.71106 211.96342 212.21479 212.17515 211.90352 211.55988 211.21325
 210.85362 210.58698 210.41835 210.30571 210.25708 210.61144 211.02081 211.43317
 212.24954 213.45090 214.72427 216.53063 218.48200 220.54836 222.66673 224.77310
 226.85646 228.96383 231.08419 233.21356 235.36592 237.56129 239.84065 242.23402
 244.87838 247.15275 249.17811 250.96648 252.40685 253.55321 254.39858 254.73794
 254.79831 254.59567 253.97904 252.95040 251.57977 249.76413 247.69650 245.55286
 243.36723 241.19460 239.03796 236.90033 234.78369 232.67406 230.72342 228.90379
 227.21015 225.70552 224.35888 223.15425 222.05961 221.04298 220.17035 219.33471
 218.60008 217.80344 216.92481 216.31217 215.78554 213.99864 209.79913 209.00302
 210.09885 210.75897 212.00070 215.33572 219.66150 224.43816 230.15903 235.18471
 239.05482 243.13560 247.51639 251.87689 255.59674 258.63620 261.26224 263.81207
 266.53079 269.13327 271.68106 274.17203 276.02383 277.48157 278.99161 280.82089
 282.90994 284.69830 286.24487 287.60117 288.77310 289.80878 290.74939 291.60083
 292.36456 293.04260 293.62933 294.35538
 366.78100 356.35819 345.81339 334.70258 323.12878 311.34597 299.23916 287.06536
 274.80055 262.72075 250.75294 240.07713 230.22233 221.34952 213.55472 206.57991
 200.43710 195.39830 192.00349 190.06869 189.12888 189.21607 190.07427 191.40546
 193.15366 195.27185 197.55804 199.94024 202.40843 204.91163 207.02282 208.88801
 210.53721 211.70540 211.95760 212.20879 212.16898 211.89718 211.55337 211.20657
 210.84676 210.57995 210.41115 210.29834 210.24954 210.60373 211.01292 211.42512
 212.24131 213.44251 214.71570 216.52190 218.47309 220.53928 222.65748 224.76367
 226.84687 228.95406 231.07425 233.20345 235.35564 237.55084 239.83003 242.22322
 244.86742 247.14161 249.16681 250.95500 252.39519 253.54139 254.38658 254.72578
 254.78597 254.58316 253.96636 252.93755 251.56675 249.75094 247.68313 245.53933
 243.35352 241.18072 239.02391 236.88610 234.76930 232.65949 230.70869 228.88888
 227.19507 225.69027 224.34346 223.13866 222.04385 221.02704 220.15424 219.31843
 218.58363 217.78682 216.90801 216.29521 215.76840 214.00392 209.85588 209.07413
 210.12891 210.77187 211.99725 215.30658 219.59834 224.36838 230.08858 235.11407
 238.98662 243.07170 247.45459 251.82477 255.57054 258.64337 261.28207 263.80981
 266.50507 269.09253 271.62509 274.09326 275.92471 277.37839 278.91757 280.78104
 282.87045 284.65875 286.20505 287.56094 288.73227 289.76660 290.70493 291.55435
 292.31567 292.99295 293.58008 294.30197
 366.78100 356.35795 345.81290 334.70186 323.12781 311.34476 299.23771 287.06366
 274.79862 262.71857 250.75052 240.07447 230.21942 221.34638 213.55133 206.57628
 200.43323 195.39418 191.99914 190.06409 189.12404 189.21099 190.06894 191.39990
 193.14785 195.26580 197.55175 199.93370 202.40166 204.90461 207.01556 208.88051
 210.52946 211.69742 211.94937 212.20032 212.16027 211.88822 211.54418 211.19713
 210.83708 210.57003 210.40098 210.28794 210.23889 210.59284 211.00179 211.41374
 212.22970 213.43065 214.70360 216.50955 218.46050 220.52646 222.64441 224.75036
 226.83331 228.94026 231.06022 233.18917 235.34112 237.53607 239.81503 242.20798
 244.85193 247.12588 249.15083 250.93879 252.37874 253.52469 254.36964 254.70859
 254.76855 254.56550 253.94845 252.91940 251.54835 249.73231 247.66426 245.52021
 243.33416 241.16111 239.00407 236.86602 234.74897 232.63892 230.68787 228.86783
 227.17378 225.66873 224.32168 223.11663 222.02159 221.00454 220.13149 219.29544
 218.56039 217.76335 216.88430 216.27125 215.74420 214.00508 209.91545 209.14458
 210.15775 210.77083 211.99768 215.28966 219.53418 224.29555 230.02167 235.04843
 238.92334 243.01306 247.39761 251.77586 255.54526 258.65125 261.30478 263.81229
 266.48315 269.05130 271.56454 274.00967 275.82272 277.27505 278.84067 280.73486
 282.82294 284.60938 286.15387 287.50940 288.67966 289.71127 290.65051 291.49997
 292.25748 292.93393 293.52298 294.25781
 366.78100 356.35783 345.81265 334.70148 323.12730 311.34413 299.23695 287.06278
 274.79760 262.71743 250.74925 240.07308 230.21790 221.34473 213.54955 206.57438
 200.43120 195.39203 191.99685 190.06168 189.12150 189.20833 190.06615 191.39698
 193.14480 195.26263 197.54845 199.93028 202.39810 204.90093 207.01175 208.87658
 210.52540 211.69323 211.94505 212.19588 212.15570 211.88353 211.53935 211.19218
 210.83200 210.56483 210.39565 210.28248 210.23330 210.58713 210.99595 211.40778
 212.22360 213.42443 214.69725 216.50308 218.45390 220.51973 222.63755 224.74338
 226.82620 228.93303 231.05285 233.18168 235.33350 237.52833 239.80715 242.19998
 244.84380 247.11763 249.14245 250.93028 252.37010 253.51593 254.36075 254.69958
 254.75940 254.55623 253.93905 252.90988 251.53870 249.72253 247.65435 245.51018
 243.32401 241.15083 238.99366 236.85548 234.73831 232.62813 230.67696 228.85678
 227.16261 225.65743 224.31026 223.10508 222.00991 220.99273 220.11956 219.28338
 218.54821 217.75103 216.87186 216.25868 215.73151 214.01041 209.96234 209.23433
 210.20653 210.76503 211.98840 215.25676 219.45924 224.21893 229.95461 234.98389
 238.86195 242.95702 247.34282 251.72624 255.51704 258.65704 261.33011 263.82153
 266.46790 269.01324 271.50189 273.92374 275.72491 277.18182 278.76773 280.67966
 282.76318 284.54825 286.09210 287.44513 288.61432 289.64639 290.58496 291.43198
 292.18903 292.86530 293.45410 294.18338
 366.78100 356.35737 345.81174 334.70011 323.12548 311.34185 299.23422 287.05959
 274.79396 262.71333 250.74470 240.06807 230.21244 221.33881 213.54318 206.56756
 200.42393 195.38430 191.98867 190.05304 189.11241 189.19878 190.05615 191.38652
 193.13389 195.25126 197.53663 199.91800 202.38537 204.88774 206.99811 208.86248
 210.51085 211.67822 211.92959 212.17996 212.13933 211.86670 211.52207 211.17444
 210.81381 210.54618 210.37655 210.26293 210.21330 210.56667 210.97504 211.38641
 212.20178 213.40215 214.67452 216.47989 218.43026 220.49563 222.61300 224.71837
 226.80074 228.90711 231.02648 233.15485 235.30622 237.50059 239.77896 242.17133
 244.81470 247.08807 249.11244 250.89981 252.33918 253.48455 254.32892 254.66729
 254.72667 254.52304 253.90541 252.87578 251.50415 249.68752 247.61889 245.47426
 243.28763 241.11400 238.95637 236.81774 234.70011 232.58948 230.63785 228.81722
 227.12259 225.61696 224.26933 223.06370 221.96807 220.95044 220.07681 219.24018
 218.50455 217.70692 216.82729 216.21366 215.68604 213.99899 210.02985 209.30658
 210.26445 210.76630 211.95673 215.23257 219.38644 224.13559 229.88640 234.91931
 238.80286 242.90715 247.29527 251.68439 255.49728 258.67386 261.36780 263.84125
 266.45523 268.97177 271.43219 273.82794 275.62576 277.09360 278.69589 280.61737
 282.69302 284.47604 286.01773 287.36902 288.53613 289.56750 290.50488 291.34851
 292.10272 292.77615 293.36053 294.06995
 366.78100 356.35788 345.81275 334.70163 323.12751 311.34438 299.23726 287.06314
 274.79801 262.71789 250.74977 240.07364 230.21852 221.34540 213.55028 206.57515
 200.43203 195.39291 191.99778 190.06266 189.12254 189.20941 190.06729 191.39817
 193.14604 195.26392 197.54980 199.93167 202.39955 204.90243 207.01330 208.87818
 210.52706 211.69493 211.94681 212.19769 212.15756 211.88544 211.54132 211.19419
 210.83407 210.56695 210.39783 210.28470 210.23558 210.58946 210.99833 211.41021
 212.22609 213.42696 214.69984 216.50572 218.45659 220.52247 222.64035 224.74622
 226.82910 228.93598 231.05585 233.18473 235.33661 237.53148 239.81036 242.20324
 244.84711 247.12099 249.14587 250.93374 252.37362 253.51950 254.36438 254.70325
 254.76313 254.56001 253.94288 252.91376 251.54264 249.72651 247.65839 245.51427
 243.32814 241.15502 238.99790 236.85977 234.74265 232.63253 230.68140 228.86128
 227.16716 225.66203 224.31491 223.10979 222.01466 220.99754 220.12442 219.28830
 218.55317 217.75605 216.87693 216.26380 215.73668 214.03535 210.03252 209.42999
 210.36040 210.71950 211.91798 215.16666 219.27547 224.05115 229.82710 234.87035
 238.76309 242.87991 247.26711 251.65872 255.49438 258.70734 261.42175 263.87436
 266.45065 268.93097 271.35275 273.71811 275.50555 276.99072 278.62408 280.56070
 282.61490 284.39557 285.93326 287.28256 288.44882 289.47467 290.40863 291.25436
 292.00757 292.68048 293.26398 293.95663
 366.78100 356.35796 345.81293 334.70189 323.12786 311.34482 299.23778 287.06375
 274.79871 262.71868 250.75064 240.07460 230.21957 221.34653 213.55149 206.57646
 200.43342 195.39439 191.99935 190.06431 189.12428 189.21124 190.06921 191.40017
 193.14813 195.26610 197.55206 199.93403 202.40199 204.90495 207.01592 208.88088
 210.52985 211.69781 211.94977 212.20074 212.16070 211.88866 211.54463 211.19759
 210.83756 210.57052 210.40148 210.28845 210.23941 210.59338 211.00234 211.41430
 212.23027 213.43123 214.70420 216.51016 218.46112 220.52709 222.64505 224.75102
 226.83398 228.94094 231.06091 233.18987 235.34184 237.53680 239.81576 242.20873
 244.85269 247.12665 249.15162 250.93958 252.37955 253.52551 254.37047 254.70944
 254.76940 254.56637 253.94933 252.92029 251.54926 249.73322 247.66519 245.52115
 243.33511 241.16208 239.00504 236.86701 234.74997 232.63993 230.68890 228.86886
 227.17482 225.66979 224.32275 223.11772 222.02268 221.00564 220.13261 219.29657
 218.56154 217.76450 216.88546 216.27243 215.74539 214.05055 210.07014 209.53114
 210.50397 210.68611 211.76648 215.10530 219.20258 223.97711 229.77640 234.82713
 238.72206 242.85254 247.23445 251.62065 255.47502 258.73328 261.48700 263.93933
 266.47379 268.92029 271.30307 273.63245 275.43518 276.93582 278.56647 280.49692
 282.52994 284.30566 285.83896 287.18765 288.35217 289.37204 290.30020 291.14087
 291.89023 292.53766 293.03421 293.61551
 366.78100 356.35684 345.81067 334.69851 323.12335 311.33918 299.23102 287.05586
 274.78970 262.70853 250.73937 240.06221 230.20604 221.33188 213.53572 206.55955
 200.41539 195.37523 191.97906 190.04290 189.10174 189.18757 190.04441 191.37425
 193.12109 195.23792 197.52276 199.90360 202.37043 204.87227 206.98211 208.84594
 210.49378 211.66062 211.91145 212.16129 212.12013 211.84697 211.50180 211.15364
 210.79248 210.52431 210.35415 210.23999 210.18982 210.54266 210.95050 211.36133
 212.17617 213.37601 214.64785 216.45268 218.40252 220.46736 222.58419 224.68903
 226.77087 228.87670 230.99554 233.12338 235.27421 237.46805 239.74589 242.13772
 244.78056 247.05340 249.07724 250.86407 252.30291 253.44775 254.29158 254.62942
 254.68826 254.48409 253.86593 252.83577 251.46360 249.64644 247.57728 245.43212
 243.24495 241.07079 238.91263 236.77346 234.65530 232.54414 230.59197 228.77081
 227.07565 225.56948 224.22132 223.01516 221.91900 220.90083 220.02667 219.18951
 218.45334 217.65518 216.77502 216.16085 215.63269 214.00645 210.20157 209.54579
 210.67207 210.73772 211.61646 215.03407 219.14131 223.90430 229.72319 234.76752
 238.65891 242.81305 247.18701 251.53964 255.39865 258.70047 261.51184 264.01691
 266.53024 268.96365 271.31100 273.58981 275.42554 276.95621 278.57343 280.46921
 282.44788 284.21094 285.74017 287.07822 288.23465 289.24637 290.16940 291.00378
 291.75214 292.39392 292.86798 293.46738
 366.78100 356.35517 345.80735 334.69352 323.11670 311.33087 299.22105 287.04422
 274.77640 262.69357 250.72275 240.04392 230.18610 221.31027 213.51245 206.53462
 200.38880 195.34697 191.94915 190.01132 189.06850 189.15267 190.00785 191.33602
 193.08120 195.19637 197.47955 199.85872 202.32390 204.82407 206.93225 208.79442
 210.44060 211.60577 211.85495 212.10312 212.06030 211.78547 211.43865 211.08882
 210.72600 210.45617 210.28435 210.16852 210.11670 210.46787 210.87405 211.28322
 212.09640 213.29457 214.56475 216.36792 218.31610 220.37927 222.49445 224.59762
 226.67780 228.78197 230.89915 233.02532 235.17450 237.36667 239.64284 242.03302
 244.67419 246.94537 248.96754 250.75272 252.18989 253.33307 254.17524 254.51142
 254.56859 254.36277 253.74294 252.71112 251.33729 249.51847 247.44764 245.30082
 243.11199 240.93617 238.77634 236.63552 234.51569 232.40287 230.44904 228.62622
 226.92939 225.42157 224.07174 222.86392 221.76609 220.74627 219.87044 219.03162
 218.29379 217.49397 216.61214 215.99632 215.46649 213.93501 210.35422 209.56880
 210.65379 210.82536 211.70647 214.94299 219.05405 223.86905 229.66667 234.69598
 238.59076 242.75763 247.12331 251.44908 255.30119 258.62415 261.47577 264.01367
 266.51981 268.97058 271.33362 273.57129 275.45932 277.04077 278.63934 280.46414
 282.37625 284.12427 285.64963 286.99011 288.14862 289.15387 290.06448 290.89844
 291.65515 292.29822 292.77484 293.38223
 366.78100 356.35413 345.80527 334.69040 323.11254 311.32567 299.21481 287.03694
 274.76807 262.68421 250.71234 240.03248 230.17361 221.29675 213.49788 206.51901
 200.37215 195.32928 191.93042 189.99155 189.04769 189.13082 189.98495 191.31209
 193.05622 195.17036 197.45249 199.83063 202.29476 204.79389 206.90103 208.76216
 210.40730 211.57143 211.81957 212.06670 212.02283 211.74697 211.39910 211.04824
 210.68437 210.41350 210.24064 210.12377 210.07091 210.42104 210.82618 211.23431
 212.04644 213.24358 214.51271 216.31485 218.26198 220.32412 222.43825 224.54038
 226.61952 228.72265 230.83879 232.96392 235.11206 237.30319 239.57832 241.96746
 244.60759 246.87773 248.89886 250.68300 252.11913 253.26126 254.10240 254.43753
 254.49367 254.28680 253.66594 252.63307 251.25820 249.43834 247.36647 245.21861
 243.02874 240.85188 238.69101 236.54914 234.42828 232.31441 230.35955 228.53568
 226.83782 225.32895 223.97808 222.76922 221.67035 220.64949 219.77262 218.93276
 218.19389 217.39302 216.51016 215.89329 215.36243 213.89322 210.44946 209.65053
 210.61067 210.86887 211.81645 214.89090 218.96289 223.80965 229.60562 234.62109
 238.52782 242.70285 247.06781 251.38309 255.23175 258.56943 261.44473 263.98907
 266.48068 268.90698 271.24451 273.50430 275.42401 277.03809 278.64230 280.42651
 282.30011 284.03629 285.55847 286.88892 288.03677 289.04596 289.96930 290.81903
 291.59317 292.24466 292.66357 293.17865
 366.78100 356.35437 345.80574 334.69112 323.11349 311.32686 299.21623 287.03860
 274.76997 262.68635 250.71472 240.03509 230.17646 221.29983 213.50121 206.52258
 200.37595 195.33332 191.93469 189.99607 189.05244 189.13581 189.99018 191.31755
 193.06192 195.17630 197.45867 199.83704 202.30141 204.80078 206.90816 208.76953
 210.41490 211.57927 211.82764 212.07501 212.03139 211.75576 211.40813 211.05750
 210.69387 210.42325 210.25062 210.13399 210.08136 210.43173 210.83710 211.24548
 212.05785 213.25522 214.52459 216.32696 218.27434 220.33671 222.45108 224.55345
 226.63282 228.73620 230.85257 232.97794 235.12631 237.31768 239.59305 241.98243
 244.62280 246.89317 248.91454 250.69891 252.13529 253.27766 254.11903 254.45440
 254.51077 254.30414 253.68352 252.65089 251.27626 249.45663 247.38500 245.23738
 243.04775 240.87112 238.71049 236.56886 234.44824 232.33461 230.37998 228.55635
 226.85872 225.35009 223.99947 222.79084 221.69221 220.67158 219.79495 218.95533
 218.21670 217.41607 216.53344 215.91681 215.38618 213.92502 210.48480 209.68672
 210.60178 210.90009 211.89090 214.89734 218.89114 223.74687 229.56421 234.56818
 238.48737 242.66240 247.02541 251.33594 255.18086 258.52658 261.41321 263.95380
 266.43469 268.82407 271.11685 273.42072 275.34668 276.97214 278.58035 280.35031
 282.21649 283.94888 285.46088 286.77795 287.90933 288.92053 289.84402 290.69769
 291.46927 292.12271 292.61057 293.09308
 366.78100 356.35482 345.80665 334.69247 323.11529 311.32911 299.21894 287.04176
 274.77358 262.69040 250.71923 240.04005 230.18187 221.30569 213.50752 206.52934
 200.38316 195.34098 191.94281 190.00463 189.06145 189.14527 190.00010 191.32792
 193.07274 195.18756 197.47039 199.84921 202.31403 204.81386 206.92168 208.78350
 210.42932 211.59415 211.84297 212.09079 212.04761 211.77244 211.42526 211.07508
 210.71190 210.44173 210.26955 210.15337 210.10119 210.45202 210.85784 211.26666
 212.07948 213.27731 214.54713 216.34995 218.29777 220.36060 222.47542 224.57824
 226.65807 228.76189 230.87871 233.00453 235.15336 237.34518 239.62100 242.01082
 244.65165 246.92247 248.94429 250.72911 252.16594 253.30876 254.15058 254.48640
 254.54323 254.33705 253.71687 252.68469 251.31052 249.49134 247.42016 245.27298
 243.08381 240.90763 238.74745 236.60628 234.48610 232.37292 230.41874 228.59557
 226.89839 225.39021 224.04003 222.83186 221.73368 220.71350 219.83732 218.99815
 218.25997 217.45979 216.57761 215.96144 215.43126 213.97733 210.55373 209.68381
 210.57208 210.90656 211.99939 214.96315 218.85356 223.66714 229.50224 234.49057
 238.41519 242.59988 246.95303 251.23657 255.07611 258.44016 261.35577 263.91626
 266.39783 268.78546 271.08945 273.38245 275.31113 276.95303 278.56909 280.31247
 282.13861 283.84381 285.34717 286.66422 287.79199 288.79117 289.71350 290.57913
 291.35034 291.93198 292.32361 292.64062
 366.78100 356.35467 345.80633 334.69200 323.11466 311.32833 299.21799 287.04066
 274.77232 262.68899 250.71765 240.03832 230.17998 221.30365 213.50531 206.52698
 200.38064 195.33831 191.93997 190.00164 189.05831 189.14197 189.99664 191.32430
 193.06897 195.18363 197.46630 199.84496 202.30963 204.80929 206.91696 208.77862
 210.42429 211.58895 211.83762 212.08528 212.04195 211.76662 211.41928 211.06895
 210.70561 210.43528 210.26294 210.14661 210.09427 210.44494 210.85060 211.25927
 212.07193 213.26960 214.53926 216.34193 218.28959 220.35226 222.46692 224.56959
 226.64926 228.75292 230.86959 232.99525 235.14392 237.33558 239.61125 242.00091
 244.64158 246.91224 248.93391 250.71857 252.15524 253.29790 254.13957 254.47523
 254.53190 254.32556 253.70523 252.67290 251.29856 249.47923 247.40789 245.26056
 243.07122 240.89489 238.73455 236.59322 234.47288 232.35955 230.40521 228.58188
 226.88454 225.37621 224.02587 222.81754 221.71921 220.69887 219.82254 218.98320
 218.24487 217.44453 216.56220 215.94586 215.41553 213.99580 210.67281 209.69724
 210.48993 210.98550 212.25713 215.05389 218.79572 223.55255 229.40300 234.36450
 238.28941 242.47990 246.81877 251.06435 254.90424 258.29773 261.25885 263.86533
 266.35919 268.78391 271.15485 273.42624 275.37314 277.05060 278.64197 280.32266
 282.07922 283.74585 285.22321 286.51587 287.65692 288.68372 289.62924 290.49179
 291.26370 291.95657 292.57175 293.35574
 366.78100 356.35549 345.80798 334.69446 323.11795 311.33244 299.22293 287.04642
 274.77891 262.69639 250.72588 240.04737 230.18986 221.31435 213.51683 206.53932
 200.39381 195.35230 191.95479 190.01728 189.07476 189.15925 190.01474 191.34323
 193.08872 195.20420 197.48769 199.86718 202.33267 204.83316 206.94165 208.80413
 210.45062 211.61611 211.86560 212.11409 212.07157 211.79706 211.45055 211.10104
 210.73853 210.46902 210.29750 210.18199 210.13048 210.48197 210.88846 211.29794
 212.11143 213.30992 214.58041 216.38390 218.33239 220.39587 222.51136 224.61485
 226.69534 228.79983 230.91731 233.04380 235.19329 237.38578 239.66227 242.05276
 244.69424 246.96573 248.98822 250.77371 252.21120 253.35468 254.19717 254.53366
 254.59115 254.38564 253.76613 252.73461 251.36110 249.54259 247.47208 245.32557
 243.13705 240.96154 238.80203 236.66152 234.54201 232.42950 230.47598 228.65347
 226.95696 225.44945 224.09994 222.89242 221.79491 220.77540 219.89989 219.06138
 218.32387 217.52435 216.64284 216.02733 215.49782 214.06509 210.72041 209.65953
 210.49086 211.13828 212.43810 215.08699 218.75935 223.48044 229.32980 234.28404
 238.21782 242.41580 246.73999 250.96497 254.82628 258.24753 261.22754 263.85220
 266.33340 268.76080 271.11542 273.31909 275.31128 277.04660 278.67175 280.34857
 282.06161 283.67670 285.13550 286.45584 287.62863 288.67673 289.63916 290.51971
 291.32025 292.06299 292.71182 293.53870
 366.78100 356.35222 345.80145 334.68467 323.10489 311.31612 299.20334 287.02356
 274.75279 262.66701 250.69324 240.01146 230.15068 221.27191 213.47113 206.49035
 200.34158 195.29680 191.89602 189.95525 189.00947 189.09069 189.94292 191.26814
 193.01037 195.12259 197.40281 199.77904 202.24126 204.73848 206.84371 208.70293
 210.34615 211.50838 211.75460 211.99982 211.95405 211.67627 211.32650 210.97372
 210.60794 210.33517 210.16039 210.04161 209.98684 210.33506 210.73828 211.14451
 211.95473 213.14995 214.41718 216.21740 218.16263 220.22285 222.33507 224.43530
 226.51252 228.61374 230.72797 232.85119 234.99741 237.18664 239.45986 241.84708
 244.48531 246.75353 248.77276 250.55498 251.98920 253.12943 253.96865 254.30187
 254.35610 254.14732 253.52454 252.48977 251.11299 249.29121 247.21744 245.06766
 242.87588 240.69711 238.53433 236.39056 234.26778 232.15200 230.19523 228.36945
 226.66967 225.15890 223.80612 222.59534 221.49457 220.47179 219.59301 218.75124
 218.01046 217.20769 216.32291 215.70413 215.17136 213.92152 211.00882 209.75568
 210.36235 211.00349 212.31107 214.97762 218.71065 223.44833 229.27380 234.27190
 238.21455 242.45078 246.78888 251.02776 254.94093 258.41528 261.40051 263.97845
 266.39514 268.63321 270.99701 273.26688 275.19571 276.88184 278.49380 280.15958
 281.87152 283.47208 284.98068 286.36053 287.56064 288.62219 289.59766 290.51239
 291.34164 292.08011 292.72519 293.54730
 366.78100 356.34600 345.78901 334.66601 323.08001 311.28501 299.16602 286.98002
 274.70302 262.61102 250.63103 239.94303 230.07603 221.19103 213.38404 206.39704
 200.24204 195.19104 191.78405 189.83705 188.88505 188.96005 189.80606 191.12506
 192.86106 194.96706 197.24107 199.61107 202.06707 204.55807 206.65708 208.51008
 210.14708 211.30308 211.54309 211.78209 211.73009 211.44609 211.09010 210.73110
 210.35910 210.08010 209.89911 209.77411 209.71311 210.05511 210.45212 210.85212
 211.65612 212.84513 214.10613 215.90013 217.83913 219.89314 221.99914 224.09314
 226.16414 228.25915 230.36715 232.48415 234.62415 236.80716 239.07416 241.45516
 244.08716 246.34917 248.36217 250.13817 251.56617 252.70018 253.53318 253.86018
 253.90818 253.69319 253.06419 252.02319 250.64019 248.81220 246.73220 244.57620
 242.37820 240.19321 238.02421 235.87421 233.74521 231.62322 229.66022 227.82822
 226.12222 224.60523 223.24623 222.02923 220.92223 219.89324 219.00824 218.16024
 217.41325 216.60425 215.71325 215.08825 214.54926 213.63715 211.45723 210.08081
 210.20245 210.76622 212.25060 214.97661 218.70779 223.44930 229.28882 234.29495
 238.26500 242.53165 246.89874 251.16931 255.13509 258.65875 261.64957 264.15833
 266.34738 268.61038 270.95981 273.19684 275.10791 276.80157 278.39200 279.98441
 281.65649 282.97546 284.57516 286.13565 287.51749 288.74005 289.85547 290.86597
 291.77478 292.58408 293.29108 294.19205
 366.78100 356.34152 345.78004 334.65255 323.06207 311.26259 299.13911 286.94863
 274.66714 262.57066 250.58618 239.89370 230.02222 221.13273 213.32125 206.32977
 200.17029 195.11481 191.70332 189.75184 188.79536 188.86588 189.70740 191.02191
 192.75343 194.85495 197.12447 199.48999 201.94150 204.42802 206.52254 208.37106
 210.00358 211.15509 211.39061 211.62513 211.56865 211.28017 210.91968 210.55620
 210.17972 209.89624 209.71076 209.58127 209.51579 209.85331 210.24583 210.64135
 211.44086 212.62538 213.88190 215.67142 217.60594 219.65545 221.75697 223.84649
 225.91301 228.00353 230.10704 232.21956 234.35508 236.53360 238.79612 241.17263
 243.80015 246.05767 248.06619 249.83771 251.26122 252.39074 253.21926 253.54178
 253.58530 253.36581 252.73233 251.68685 250.29937 248.46689 246.38240 244.22192
 242.01944 239.82996 237.65648 235.50199 233.36851 231.24203 229.27455 227.43807
 225.72758 224.20610 222.84262 221.62114 220.50966 219.47617 218.58669 217.73421
 216.98273 216.16925 215.27376 214.64428 214.10080 213.45277 211.74602 210.29007
 210.11449 210.56796 212.08351 214.99565 218.70746 223.35486 229.25429 234.29976
 238.28918 242.59952 247.00517 251.32828 255.38383 259.00461 262.06152 264.57013
 266.75055 268.87134 271.07794 273.13287 274.86212 276.33069 277.96600 279.74390
 281.77661 284.00391 285.93127 287.62363 289.08823 290.38403 291.56622 292.63724
 293.60049 294.45825 295.20761 296.16254
 366.78100 356.34269 345.78237 334.65606 323.06675 311.26843 299.14612 286.95681
 274.67649 262.58118 250.59787 239.90655 230.03624 221.14792 213.33761 206.34730
 200.18898 195.13467 191.72436 189.77404 188.81873 188.89042 189.73310 191.04879
 192.78148 194.88416 197.15485 199.52154 201.97422 204.46191 206.55760 208.40728
 210.04097 211.19365 211.43034 211.66603 211.61071 211.32340 210.96409 210.60177
 210.22646 209.94415 209.75983 209.63152 209.56721 209.90589 210.29958 210.69627
 211.49695 212.68264 213.94033 215.73101 217.66670 219.71739 221.82007 223.91076
 225.97844 228.07013 230.17482 232.28850 234.42519 236.60488 238.86856 241.24625
 243.87494 246.13362 248.14331 249.91600 251.34068 252.47137 253.30106 253.62474
 253.66943 253.45112 252.81880 251.77449 250.38818 248.55686 246.47355 244.31423
 242.11292 239.92461 237.75229 235.59898 233.46667 231.34135 229.37504 227.53973
 225.83041 224.31010 222.94779 221.72747 220.61716 219.58485 218.69653 217.84522
 217.09491 216.28259 215.38828 214.75996 214.21765 213.50465 211.75568 210.56586
 210.28226 210.53767 211.94908 214.77388 218.50218 223.20178 229.08560 234.16040
 238.15248 242.46933 246.90392 251.27367 255.37547 259.06500 262.21088 264.78909
 267.05527 269.27011 271.44891 273.47534 275.27499 276.82925 278.07724 279.89685
 282.47726 284.98117 287.14789 289.05045 290.69693 292.15363 293.48267 294.68668
 295.76956 296.73386 297.57626 298.64981
 366.78100 356.34920 345.79540 334.67561 323.09281 311.30101 299.18521 287.00241
 274.72861 262.63982 250.66302 239.97822 230.11442 221.23262 213.42882 206.44503
 200.29323 195.24543 191.84163 189.89783 188.94903 189.02724 189.87644 191.19864
 192.93784 195.04704 197.32424 199.69745 202.15665 204.65085 206.75305 208.60925
 210.24945 211.40866 211.65186 211.89406 211.84526 211.56446 211.21167 210.85587
 210.48707 210.21127 210.03347 209.91167 209.85388 210.19908 210.59928 211.00248
 211.80968 213.00188 214.26609 216.06329 218.00549 220.06269 222.17189 224.26909
 226.34330 228.44150 230.55270 232.67290 234.81610 237.00230 239.27251 241.65671
 244.29191 246.55711 248.57331 250.35251 251.78372 252.92092 253.75712 254.08732
 254.13852 253.92672 253.30093 252.26313 250.88333 249.05853 246.98173 244.82894
 242.63414 240.45234 238.28654 236.13974 234.01394 231.89515 229.93535 228.10655
 226.40375 224.88995 223.53415 222.32036 221.21656 220.19076 219.30896 218.46416
 217.72036 216.91457 216.02677 215.40497 214.86917 213.80255 211.43181 210.67343
 210.73140 210.99469 212.13629 214.57234 218.24107 223.03450 228.82289 233.88580
 237.84607 242.13205 246.51678 250.81198 254.83630 258.47815 261.66467 264.43240
 266.94174 269.37378 271.68326 273.85037 275.82333 277.57291 279.03162 280.26834
 282.19113 284.14978 286.19345 287.98795 289.54089 290.91489 292.16843 293.30408
 294.32544 295.23499 296.02954 297.04211
 366.78100 356.35461 345.80621 334.69182 323.11442 311.32803 299.21764 287.04024
 274.77185 262.68846 250.71706 240.03767 230.17927 221.30288 213.50449 206.52609
 200.37970 195.33731 191.93891 190.00052 189.05712 189.14073 189.99534 191.32294
 193.06755 195.18216 197.46476 199.84337 202.30797 204.80758 206.91519 208.77679
 210.42240 211.58701 211.83561 212.08322 212.03982 211.76443 211.41704 211.06664
 210.70325 210.43286 210.26046 210.14407 210.09167 210.44228 210.84789 211.25649
 212.06910 213.26670 214.53631 216.33892 218.28652 220.34913 222.46374 224.56634
 226.64595 228.74955 230.86616 232.99177 235.14037 237.33198 239.60759 241.99719
 244.63780 246.90840 248.93001 250.71462 252.15122 253.29383 254.13544 254.47104
 254.52765 254.32125 253.70086 252.66847 251.29407 249.47468 247.40329 245.25589
 243.06650 240.89010 238.72971 236.58832 234.46792 232.35453 230.40014 228.57674
 226.87935 225.37095 224.02056 222.81217 221.71377 220.69338 219.81698 218.97759
 218.23920 217.43880 216.55641 215.94002 215.40962 214.09987 211.14407 210.39084
 210.86748 211.38405 212.50703 214.88348 218.37769 223.02060 228.70749 233.75500
 237.68443 241.94250 246.28976 250.53986 254.49834 258.05447 261.14261 263.89093
 266.49207 269.01825 271.44482 273.72229 275.79843 277.65872 279.32285 280.83646
 282.31873 283.93704 285.51331 286.94623 288.27362 289.49301 290.60553 291.61337
 292.51984 293.32706 294.03223 294.93085
 366.78100 356.35569 345.80839 334.69508 323.11877 311.33346 299.22416 287.04785
 274.78054 262.69824 250.72793 240.04962 230.19231 221.31701 213.51970 206.54239
 200.39708 195.35578 191.95847 190.02116 189.07886 189.16355 190.01924 191.34793
 193.09363 195.20932 197.49301 199.87271 202.33840 204.83909 206.94778 208.81048
 210.45717 211.62286 211.87256 212.12125 212.07894 211.80463 211.45833 211.10902
 210.74671 210.47740 210.30610 210.19079 210.13948 210.49118 210.89787 211.30756
 212.12125 213.31995 214.59064 216.39433 218.34303 220.40672 222.52241 224.62610
 226.70680 228.81149 230.92918 233.05588 235.20557 237.39826 239.67495 242.06565
 244.70734 246.97903 249.00172 250.78742 252.22511 253.36880 254.21150 254.54819
 254.60588 254.40057 253.78127 252.74996 251.37665 249.55835 247.48804 245.34173
 243.15342 240.97812 238.81881 236.67850 234.55920 232.44689 230.49358 228.67127
 226.97497 225.46766 224.11835 222.91104 221.81374 220.79443 219.91912 219.08082
 218.34351 217.54420 216.66289 216.04759 215.51828 214.19209 211.13921 210.23636
 210.74661 211.36444 212.62560 214.94479 218.31497 222.93019 228.69516 233.69865
 237.68001 241.94739 246.30707 250.57437 254.56032 258.11490 261.16122 263.81738
 266.32935 268.79205 271.16412 273.40833 275.44672 277.28482 278.98499 280.62418
 282.24673 283.88754 285.43884 286.81821 288.03134 289.12555 290.16684 291.14261
 292.02023 292.80173 293.48444 294.35449
 366.78100 356.35417 345.80534 334.69051 323.11267 311.32584 299.21501 287.03718
 274.76835 262.68452 250.71268 240.03285 230.17402 221.29719 213.49836 206.51953
 200.37270 195.32986 191.93103 189.99220 189.04837 189.13154 189.98571 191.31287
 193.05704 195.17121 197.45338 199.83155 202.29572 204.79488 206.90205 208.76322
 210.40839 211.57256 211.82073 212.06790 212.02406 211.74823 211.40040 211.04957
 210.68574 210.41491 210.24207 210.12524 210.07241 210.42258 210.82775 211.23592
 212.04809 213.24525 214.51442 216.31659 218.26376 220.32593 222.44010 224.54226
 226.62143 228.72460 230.84077 232.96594 235.11411 237.30528 239.58044 241.96961
 244.60978 246.87995 248.90112 250.68529 252.12145 253.26362 254.10479 254.43996
 254.49613 254.28930 253.66847 252.63563 251.26080 249.44097 247.36914 245.22131
 243.03148 240.85464 238.69381 236.55198 234.43115 232.31732 230.36249 228.53865
 226.84082 225.33199 223.98116 222.77233 221.67350 220.65267 219.77583 218.93600
 218.19717 217.39634 216.51351 215.89668 215.36584 214.13336 211.26796 210.28400
 210.72734 211.45444 212.69698 214.84647 218.12984 222.78264 228.68216 233.67274
 237.67676 241.95551 246.33005 250.62361 254.66125 258.26477 261.31912 263.93030
 266.37912 268.79007 271.11429 273.30008 275.26196 277.01895 278.66824 280.33356
 282.06775 283.75552 285.29932 286.66583 287.85684 288.92694 289.91675 290.82080
 291.66882 292.42401 293.08374 293.92447
 366.78100 356.35088 345.79876 334.68064 323.09952 311.30940 299.19528 287.01417
 274.74205 262.65493 250.67981 239.99669 230.13457 221.25445 213.45233 206.47021
 200.32009 195.27397 191.87185 189.92973 188.98262 189.06250 189.91338 191.23726
 192.97814 195.08902 197.36790 199.74278 202.20366 204.69954 206.80342 208.66130
 210.30319 211.46407 211.70895 211.95283 211.90571 211.62659 211.27547 210.92135
 210.55423 210.28011 210.10399 209.98387 209.92775 210.27464 210.67652 211.08140
 211.89028 213.08416 214.35004 216.14892 218.09280 220.15168 222.26256 224.36144
 226.43732 228.53720 230.65009 232.77197 234.91685 237.10473 239.37661 241.76249
 244.39937 246.66625 248.68413 250.46501 251.89789 253.03677 253.87466 254.20654
 254.25942 254.04930 253.42518 252.38906 251.01094 249.18782 247.11270 244.96158
 242.76846 240.58834 238.42422 236.27911 234.15499 232.03787 230.07975 228.25263
 226.55151 225.03939 223.68527 222.47315 221.37103 220.34691 219.46679 218.62367
 217.88156 217.07744 216.19132 215.57120 215.03708 213.97432 211.48299 210.39922
 210.60869 211.49641 212.79790 214.81076 218.00165 222.65613 228.64456 233.61639
 237.61650 241.89224 246.26239 250.55714 254.62009 258.25671 261.32944 263.93509
 266.37802 268.80283 271.14209 273.31708 275.25821 276.97894 278.60297 280.25540
 281.94553 283.58078 285.07617 286.41595 287.58105 288.62689 289.58426 290.43936
 291.23022 291.96152 292.60037 293.41449
 366.78100 356.34697 345.79093 334.66890 323.08386 311.28983 299.17179 286.98676
 274.71072 262.61969 250.64066 239.95362 230.08759 221.20355 213.39752 206.41148
 200.25745 195.20741 191.80138 189.85535 188.90431 188.98028 189.82724 191.14721
 192.88417 194.99114 197.26610 199.63707 202.09404 204.58600 206.68597 208.53993
 210.17790 211.33486 211.57583 211.81579 211.76476 211.48172 211.12669 210.76866
 210.39762 210.11959 209.93955 209.81552 209.75548 210.09845 210.49641 210.89738
 211.70235 212.89231 214.15428 215.94924 217.88921 219.94417 222.05114 224.14610
 226.21807 228.31404 230.42300 232.54097 234.68193 236.86590 239.13386 241.51583
 244.14879 246.41176 248.42573 250.20269 251.63166 252.76662 253.60059 253.92855
 253.97752 253.76348 253.13545 252.09542 250.71338 248.88635 246.80731 244.65228
 242.45524 240.27121 238.10317 235.95414 233.82611 231.70507 229.74304 227.91200
 226.20697 224.69093 223.33290 222.11686 221.01083 219.98279 219.09876 218.25173
 217.50569 216.69766 215.80762 215.18359 214.64555 213.77901 211.74013 210.60042
 210.42566 211.39331 212.82547 214.81984 217.98457 222.62413 228.60771 233.57542
 237.56972 241.82655 246.18613 250.47433 254.55304 258.20743 261.28201 263.88855
 266.35300 268.80667 271.16730 273.35422 275.28885 276.99176 278.59177 280.22473
 281.89261 283.49487 284.93134 286.19708 287.32013 288.36490 289.32376 290.18362
 290.97083 291.70831 292.35254 293.17358
 366.78100 356.34514 345.78728 334.66342 323.07657 311.28071 299.16085 286.97399
 274.69613 262.60327 250.62242 239.93356 230.06570 221.17984 213.37198 206.38412
 200.22827 195.17641 191.76855 189.82069 188.86783 188.94197 189.78712 191.10526
 192.84040 194.94554 197.21868 199.58782 202.04297 204.53311 206.63125 208.48339
 210.11953 211.27467 211.51382 211.75196 211.69910 211.41424 211.05738 210.69752
 210.32467 210.04481 209.86295 209.73709 209.67523 210.01637 210.41252 210.81166
 211.61480 212.80294 214.06308 215.85622 217.79437 219.84751 221.95265 224.04579
 226.11593 228.21007 230.31722 232.43336 234.57250 236.75464 239.02078 241.40092
 244.03207 246.29321 248.30535 250.08049 251.50763 252.64077 253.47292 253.79906
 253.84620 253.63034 253.00048 251.95862 250.57477 248.74591 246.66505 244.50819
 242.30933 240.12347 237.95362 235.80276 233.67290 231.55004 229.58618 227.75332
 226.04647 224.52861 223.16875 221.95089 220.84303 219.81317 218.92732 218.07846
 217.33060 216.52074 215.62888 215.00302 214.46317 213.69878 211.89963 210.76582
 210.36810 211.24989 212.69609 214.75597 217.99709 222.64267 228.56190 233.56187
 237.53738 241.79695 246.15105 250.45061 254.55437 258.22894 261.29764 263.89508
 266.35956 268.80142 271.16885 273.37988 275.31198 276.97372 278.52280 280.15411
 281.85089 283.45786 284.88092 286.10663 287.24863 288.30978 289.30063 290.22311
 291.07092 291.82587 292.48538 293.32587
 366.78100 356.34837 345.79375 334.67312 323.08949 311.29686 299.18024 286.99661
 274.72198 262.63236 250.65473 239.96910 230.10447 221.22185 213.41722 206.43259
 200.27997 195.23134 191.82671 189.88208 188.93246 189.00983 189.85820 191.17958
 192.91795 195.02632 197.30269 199.67507 202.13344 204.62681 206.72819 208.58356
 210.22293 211.38130 211.62368 211.86505 211.81542 211.53380 211.18017 210.82354
 210.45391 210.17729 209.99866 209.87603 209.81741 210.16178 210.56115 210.96352
 211.76990 212.96127 214.22464 216.02102 217.96239 220.01876 222.12713 224.22351
 226.29688 228.39425 230.50463 232.62400 234.76637 236.95174 239.22112 241.60449
 244.23886 246.50324 248.51861 250.29698 251.72735 252.86373 253.69910 254.02847
 254.07885 253.86622 253.23959 252.20096 250.82034 248.99471 246.91708 244.76346
 242.56783 240.38520 238.21857 236.07095 233.94432 231.82469 229.86407 228.03444
 226.33081 224.81618 223.45956 222.24493 221.14030 220.11368 219.23105 218.38542
 217.64079 216.83417 215.94554 215.32291 214.78629 213.88611 211.79570 210.81496
 210.61169 211.23199 212.54343 214.62181 217.91699 222.59413 228.46901 233.50685
 237.46777 241.74155 246.09804 250.41776 254.56931 258.28830 261.37430 263.96280
 266.42508 268.83218 271.20435 273.45428 275.36783 277.00000 278.54303 280.15131
 281.84012 283.45206 284.85437 286.16943 287.36646 288.46774 289.53879 290.51855
 291.39978 292.18451 292.87003 293.74362
 366.78100 356.35282 345.80265 334.68647 323.10730 311.31912 299.20694 287.02777
 274.75759 262.67242 250.69924 240.01807 230.15789 221.27971 213.47954 206.49936
 200.35119 195.30701 191.90683 189.96666 189.02148 189.10331 189.95613 191.28196
 193.02478 195.13760 197.41843 199.79525 202.25808 204.75590 206.86172 208.72155
 210.36537 211.52820 211.77502 212.02085 211.97567 211.69849 211.34932 210.99714
 210.63197 210.35979 210.18561 210.06744 210.01326 210.36209 210.76591 211.17273
 211.98356 213.17938 214.44721 216.24803 218.19386 220.25468 222.36750 224.46833
 226.54615 228.64798 230.76280 232.88662 235.03345 237.22327 239.49710 241.88492
 244.52375 246.79257 248.81239 250.59522 252.03004 253.17087 254.01069 254.34451
 254.39934 254.19116 253.56899 252.53481 251.15864 249.33746 247.26428 245.11511
 242.92393 240.74576 238.58358 236.44040 234.31823 232.20305 230.24688 228.42170
 226.72253 225.21235 223.86017 222.65000 221.54982 220.52765 219.64947 218.80829
 218.06812 217.26594 216.38177 215.76359 215.23141 214.14307 211.62570 210.70355
 210.97661 211.49957 212.60016 214.53120 217.77002 222.44312 228.31111 233.33105
 237.30637 241.58679 245.95299 250.28825 254.46947 258.22073 261.34003 263.96320
 266.44998 268.89899 271.34103 273.59912 275.52579 277.14548 278.65955 280.23651
 281.88754 283.48987 284.91528 286.25165 287.44751 288.54053 289.60202 290.58679
 291.47250 292.26123 292.95026 293.82834
 366.78100 356.34959 345.79617 334.67676 323.09434 311.30293 299.18751 287.00510
 274.73168 262.64327 250.66685 239.98244 230.11902 221.23761 213.43419 206.45078
 200.29937 195.25195 191.84854 189.90512 188.95671 189.03529 189.88488 191.20746
 192.94705 195.05663 197.33422 199.70780 202.16739 204.66197 206.76456 208.62114
 210.26173 211.42132 211.66490 211.90749 211.85907 211.57866 211.22624 210.87083
 210.50241 210.22700 210.04958 209.92817 209.87075 210.21634 210.61692 211.02051
 211.82810 213.02068 214.28527 216.08285 218.02544 220.08302 222.19261 224.29019
 226.36478 228.46336 230.57495 232.69553 234.83912 237.02570 239.29629 241.68087
 244.31646 246.58205 248.59863 250.37822 251.80980 252.94739 253.78397 254.11456
 254.16614 253.95473 253.32931 252.29190 250.91248 249.08807 247.01165 244.85924
 242.66483 240.48341 238.31800 236.17158 234.04617 231.92775 229.96834 228.13992
 226.43751 224.92409 223.56868 222.35526 221.25185 220.22643 219.34502 218.50061
 217.75719 216.95178 216.06436 215.44295 214.90753 213.98650 211.82216 210.66620
 210.91014 211.75821 212.89154 214.65074 217.74011 222.34898 228.22913 233.16420
 237.17401 241.43996 245.81697 250.15230 254.32678 258.06619 261.18137 263.83316
 266.35721 268.88696 271.36011 273.63876 275.59549 277.26077 278.78641 280.33459
 281.93924 283.52713 284.99796 286.34158 287.52078 288.58994 289.58597 290.47983
 291.31998 292.08411 292.75162 293.60229
 366.78100 356.34469 345.78637 334.66206 323.07475 311.27843 299.15812 286.97081
 274.69249 262.59918 250.61787 239.92855 230.06024 221.17393 213.36561 206.37730
 200.22099 195.16867 191.76036 189.81205 188.85873 188.93242 189.77711 191.09479
 192.82948 194.93417 197.20685 199.57554 202.03023 204.51991 206.61760 208.46929
 210.10497 211.25966 211.49835 211.73603 211.68272 211.39741 211.04009 210.67978
 210.30647 210.02615 209.84384 209.71753 209.65521 209.99590 210.39159 210.79027
 211.59296 212.78065 214.04033 215.83302 217.77071 219.82339 221.92808 224.02076
 226.09045 228.18414 230.29082 232.40651 234.54520 236.72688 238.99257 241.37226
 244.00294 246.26363 248.27532 250.05000 251.47669 252.60938 253.44106 253.76675
 253.81344 253.59712 252.96681 251.92450 250.54018 248.71087 246.62956 244.47224
 242.27293 240.08662 237.91630 235.76499 233.63468 231.51136 229.54705 227.71374
 226.00642 224.48811 223.12780 221.90948 220.80117 219.77086 218.88454 218.03523
 217.28692 216.47660 215.58429 214.95798 214.41766 213.72232 212.07938 210.89001
 210.56725 211.59035 213.03989 214.83446 217.82860 222.38623 228.27843 233.12062
 237.16190 241.40141 245.76765 250.08325 254.25839 257.98401 261.06799 263.69543
 266.23914 268.80121 271.28989 273.59085 275.56555 277.25198 278.81027 280.38794
 282.01242 283.57916 285.00998 286.26508 287.36383 288.43781 289.45209 290.24850
 290.90659 291.50342 291.92303 292.39160
 366.78100 356.34673 345.79046 334.66819 323.08292 311.28864 299.17037 286.98510
 274.70883 262.61756 250.63829 239.95102 230.08475 221.20048 213.39420 206.40793
 200.25366 195.20339 191.79712 189.85085 188.89958 188.97531 189.82204 191.14176
 192.87849 194.98522 197.25995 199.63068 202.08741 204.57914 206.67887 208.53260
 210.17032 211.32705 211.56778 211.80751 211.75624 211.47297 211.11770 210.75943
 210.38815 210.10988 209.92961 209.80534 209.74507 210.08780 210.48553 210.88626
 211.69099 212.88071 214.14244 215.93717 217.87690 219.93163 222.03836 224.13309
 226.20482 228.30055 230.40927 232.52700 234.66773 236.85146 239.11919 241.50092
 244.13365 246.39638 248.41011 250.18683 251.61556 252.75029 253.58402 253.91175
 253.96048 253.74621 253.11794 252.07767 250.69539 248.86812 246.78885 244.63358
 242.43631 240.25204 238.08377 235.93450 233.80623 231.68495 229.72268 227.89141
 226.18614 224.66987 223.31160 222.09533 220.98906 219.96079 219.07651 218.22924
 217.48297 216.67470 215.78443 215.16016 214.62189 213.83330 211.97018 211.10324
 210.56906 211.40720 212.95412 214.83400 217.85266 222.41483 228.31308 233.13658
 237.17769 241.41588 245.76994 250.06236 254.23035 257.94186 261.00391 263.60959
 266.16296 268.72058 271.19238 273.48865 275.45422 277.13715 278.74347 280.37994
 282.04562 283.61703 285.04486 286.30127 287.33185 288.32468 289.40207 290.20554
 290.76926 291.25925 291.66006 291.93451
 366.78100 356.34976 345.79652 334.67728 323.09504 311.30381 299.18857 287.00633
 274.73309 262.64485 250.66861 239.98437 230.12113 221.23989 213.43666 206.45342
 200.30218 195.25494 191.85170 189.90846 188.96022 189.03898 189.88874 191.21151
 192.95127 195.06103 197.33879 199.71255 202.17231 204.66707 206.76983 208.62659
 210.26736 211.42712 211.67088 211.91364 211.86540 211.58516 211.23292 210.87768
 210.50944 210.23421 210.05697 209.93573 209.87849 210.22425 210.62501 211.02877
 211.83653 213.02929 214.29405 216.09182 218.03458 220.09234 222.20210 224.29986
 226.37462 228.47338 230.58514 232.70590 234.84967 237.03643 239.30719 241.69195
 244.32771 246.59347 248.61023 250.38999 251.82175 252.95952 253.79628 254.12704
 254.17880 253.96756 253.34232 252.30508 250.92584 249.10160 247.02537 244.87313
 242.67889 240.49765 238.33241 236.18617 234.06093 231.94269 229.98345 228.15522
 226.45298 224.93974 223.58450 222.37126 221.26802 220.24278 219.36154 218.51730
 217.77407 216.96883 216.08159 215.46035 214.92511 214.01173 211.85378 211.16263
 210.75963 211.38533 212.85622 214.74745 217.81075 222.39642 228.29398 233.11751
 237.15884 241.41020 245.76787 250.06200 254.23605 257.94937 261.00876 263.59970
 266.14813 268.68530 271.13016 273.41479 275.33286 276.96060 278.57684 280.26801
 282.02356 283.64883 285.07574 286.27121 287.24139 288.29846 289.33472 289.92850
 290.42426 290.88565 291.28030 291.66199
 366.78100 356.34756 345.79211 334.67067 323.08623 311.29279 299.17534 286.99090
 274.71546 262.62502 250.64657 239.96013 230.09469 221.21125 213.40580 206.42036
 200.26692 195.21748 191.81203 189.86659 188.91615 188.99271 189.84026 191.16082
 192.89838 195.00594 197.28149 199.65305 202.11061 204.60317 206.70372 208.55828
 210.19684 211.35440 211.59595 211.83651 211.78607 211.50362 211.14918 210.79174
 210.42130 210.14385 209.96441 209.84097 209.78153 210.12508 210.52364 210.92520
 211.73076 212.92131 214.18387 215.97943 217.91999 219.97554 222.08310 224.17866
 226.25122 228.34777 230.45733 232.57589 234.71745 236.90200 239.17056 241.55312
 244.18668 246.45023 248.46479 250.24235 251.67190 252.80746 253.64202 253.97058
 254.02013 253.80669 253.17925 252.13981 250.75836 248.93192 246.85348 244.69904
 242.50259 240.31915 238.15171 236.00327 233.87582 231.75538 229.79394 227.96350
 226.25905 224.74361 223.38617 222.17073 221.06528 220.03784 219.15440 218.30796
 217.56251 216.75507 215.86563 215.24219 214.70474 213.93915 212.13867 211.08627
 210.76950 211.37653 212.73711 214.67024 217.78671 222.34787 228.17874 233.12137
 237.07693 241.37651 245.73909 250.05620 254.21654 257.94626 261.05380 263.68530
 266.17310 268.63568 271.05011 273.30984 275.24820 276.91968 278.52560 280.16995
 281.82571 283.38171 284.76950 286.00104 287.11310 288.04330 288.91827 289.58682
 289.98480 290.33163 290.63461 291.02075
 366.78100 356.34408 345.78515 334.66023 323.07231 311.27538 299.15446 286.96654
 274.68762 262.59369 250.61177 239.92185 230.05292 221.16600 213.35708 206.36815
 200.21123 195.15831 191.74938 189.80046 188.84654 188.91961 189.76369 191.08077
 192.81485 194.91892 197.19100 199.55908 202.01315 204.50223 206.59931 208.45038
 210.08546 211.23954 211.47761 211.71469 211.66077 211.37485 211.01692 210.65600
 210.28208 210.00115 209.81823 209.69131 209.62838 209.96846 210.36354 210.76161
 211.56369 212.75077 214.00984 215.80192 217.73900 219.79108 221.89515 223.98723
 226.05631 228.14938 230.25546 232.37054 234.50861 236.68969 238.95477 241.33384
 243.96392 246.22400 248.23508 250.00915 251.43523 252.56731 253.39838 253.72346
 253.76954 253.55261 252.92169 251.87877 250.49384 248.66392 246.58200 244.42407
 242.22415 240.03723 237.86631 235.71438 233.58346 231.45954 229.49461 227.66069
 225.95277 224.43384 223.07292 221.85400 220.74507 219.71415 218.82723 217.97730
 217.22838 216.41746 215.52454 214.89761 214.35669 213.82034 212.46805 211.05978
 210.75494 211.37567 212.70059 214.71469 217.90428 222.42462 228.18855 233.11438
 237.07855 241.38484 245.75494 250.10359 254.26695 257.98349 261.11014 263.79376
 266.27527 268.67899 271.03214 273.21921 275.12311 276.86423 278.56232 280.27585
 281.90237 283.37128 284.82370 286.28473 287.62622 288.81311 289.89594 290.87692
 291.75922 292.54489 293.23123 294.10593
 366.78100 356.35107 345.79913 334.68120 323.10027 311.31033 299.19640 287.01547
 274.74353 262.65660 250.68166 239.99873 230.13680 221.25686 213.45493 206.47300
 200.32306 195.27713 191.87520 189.93326 188.98633 189.06640 189.91746 191.24153
 192.98260 195.09366 197.37273 199.74780 202.20886 204.70493 206.80899 208.66706
 210.30913 211.47019 211.71526 211.95933 211.91239 211.63346 211.28253 210.92859
 210.56166 210.28773 210.11179 209.99186 209.93593 210.28299 210.68506 211.09012
 211.89919 213.09326 214.35932 216.15839 218.10246 220.16152 222.27259 224.37166
 226.44772 228.54779 230.66086 232.78292 234.92799 237.11606 239.38812 241.77419
 244.41126 246.67832 248.69639 250.47745 251.91052 253.04959 253.88765 254.21972
 254.27279 254.06285 253.43892 252.40299 251.02505 249.20212 247.12719 244.97625
 242.78332 240.60339 238.43945 236.29452 234.17058 232.05365 230.09572 228.26878
 226.56785 225.05592 223.70198 222.49005 221.38812 220.36418 219.48425 218.64132
 217.89938 217.09545 216.20952 215.58958 215.05565 214.19984 212.19009 211.07430
 211.06297 211.45470 212.73668 214.71359 217.82935 222.36411 228.15477 233.02597
 236.97498 241.27831 245.64442 250.01468 254.22603 257.97540 261.12988 263.85980
 266.41141 268.85260 271.22498 273.49899 275.46603 277.17896 278.81985 280.45154
 282.01404 283.55847 285.15894 286.72269 288.11859 289.35361 290.48038 291.50116
 292.41925 293.23679 293.95099 294.86115
 366.78100 356.35655 345.81009 334.69764 323.12219 311.33774 299.22928 287.05383
 274.78738 262.70593 250.73647 240.05902 230.20257 221.32811 213.53166 206.55521
 200.41076 195.37030 191.97385 190.03740 189.09595 189.18149 190.03804 191.36759
 193.11414 195.23068 197.51523 199.89578 202.36232 204.86387 206.97342 208.83697
 210.48451 211.65106 211.90161 212.15116 212.10970 211.83625 211.49080 211.14234
 210.78089 210.51244 210.34199 210.22753 210.17708 210.52963 210.93718 211.34772
 212.16227 213.36182 214.63336 216.43791 218.38746 220.45201 222.56855 224.67310
 226.75465 228.86020 230.97874 233.10629 235.25684 237.45038 239.72793 242.11948
 244.76203 247.03457 249.05812 250.84467 252.28322 253.42776 254.27131 254.60886
 254.66741 254.46295 253.84450 252.81405 251.44159 249.62414 247.55469 245.40924
 243.22178 241.04733 238.88888 236.74943 234.63097 232.51952 230.56707 228.74561
 227.05016 225.54371 224.19526 222.98880 221.89235 220.87390 219.99945 219.16199
 218.42554 217.62709 216.74663 216.13218 215.60373 214.49232 211.91434 210.97943
 211.40378 211.50037 212.61905 214.70036 217.79953 222.22072 227.89462 232.79533
 236.73914 241.02126 245.39127 249.71881 253.84396 257.55215 260.75928 263.60294
 266.28189 268.85522 271.31949 273.64890 275.72900 277.53296 279.19946 280.82053
 282.38144 283.83109 285.16785 286.45538 287.64883 288.73596 289.77417 290.74881
 291.62540 292.40598 293.08789 293.95691
 366.78100 356.35553 345.80806 334.69460 323.11813 311.33266 299.22319 287.04672
 274.77926 262.69679 250.72632 240.04785 230.19038 221.31492 213.51745 206.53998
 200.39451 195.35304 191.95558 190.01811 189.07564 189.16017 190.01570 191.34424
 193.08977 195.20530 197.48883 199.86836 202.33390 204.83443 206.94296 208.80549
 210.45202 211.61756 211.86709 212.11562 212.07315 211.79868 211.45221 211.10275
 210.74028 210.47081 210.29934 210.18387 210.13241 210.48394 210.89047 211.30000
 212.11353 213.31207 214.58260 216.38613 218.33466 220.39819 222.51373 224.61726
 226.69779 228.80232 230.91985 233.04639 235.19592 237.38845 239.66498 242.05551
 244.69705 246.96858 248.99111 250.77664 252.21417 253.35771 254.20024 254.53677
 254.59430 254.38883 253.76937 252.73790 251.36443 249.54596 247.47549 245.32903
 243.14056 240.96509 238.80562 236.66515 234.54569 232.43322 230.47975 228.65728
 226.96081 225.45335 224.10388 222.89641 221.79894 220.77947 219.90401 219.06554
 218.32807 217.52860 216.64713 216.03167 215.50220 214.45155 211.98659 210.96492
 211.54802 211.82674 212.73787 214.63638 217.72261 222.11079 227.77112 232.57547
 236.59071 240.86397 245.25217 249.57985 253.70952 257.41293 260.60495 263.44751
 266.16489 268.79199 271.29776 273.65381 275.72919 277.50696 279.12338 280.69577
 282.24637 283.72192 285.07303 286.33044 287.50519 288.56274 289.54367 290.43835
 291.25195 291.99564 292.64529 293.47321
 366.78100 356.35178 345.80056 334.68335 323.10313 311.31391 299.20069 287.02047
 274.74925 262.66304 250.68882 240.00660 230.14538 221.26616 213.46495 206.48373
 200.33451 195.28929 191.88807 189.94685 189.00064 189.08142 189.93320 191.25798
 192.99976 195.11155 197.39133 199.76711 202.22889 204.72567 206.83045 208.68924
 210.33202 211.49380 211.73958 211.98436 211.93815 211.65993 211.30971 210.95649
 210.59027 210.31705 210.14184 210.02262 209.96740 210.31518 210.71796 211.12375
 211.93353 213.12831 214.39509 216.19487 218.13965 220.19944 222.31122 224.41100
 226.48778 228.58856 230.70235 232.82513 234.97091 237.15969 239.43247 241.81925
 244.45704 246.72482 248.74360 250.52538 251.95916 253.09895 253.93773 254.27051
 254.32429 254.11507 253.49185 252.45664 251.07942 249.25720 247.18298 245.03276
 242.84055 240.66133 238.49811 236.35389 234.23067 232.11445 230.15724 228.33102
 226.63080 225.11958 223.76636 222.55515 221.45393 220.43071 219.55149 218.70927
 217.96805 217.16484 216.27962 215.66040 215.12718 214.29240 212.31583 210.94591
 211.11707 211.69807 212.80960 214.73975 217.82352 222.16975 227.75539 232.62228
 236.58041 240.87608 245.27066 249.61415 253.74059 257.45715 260.68533 263.56531
 266.28677 268.87427 271.36142 273.71774 275.77005 277.52420 279.11362 280.65036
 282.16116 283.59998 284.96063 286.28146 287.47012 288.53925 289.53857 290.49350
 291.35233 292.11713 292.78522 293.63666
 366.78100 356.34849 345.79398 334.67346 323.08995 311.29744 299.18093 286.99742
 274.72290 262.63339 250.65588 239.97037 230.10586 221.22334 213.41883 206.43432
 200.28181 195.23330 191.82879 189.88427 188.93476 189.01225 189.86074 191.18223
 192.92071 195.02920 197.30569 199.67818 202.13667 204.63015 206.73164 208.58713
 210.22662 211.38511 211.62759 211.86908 211.81957 211.53806 211.18455 210.82803
 210.45852 210.18201 210.00350 209.88099 209.82247 210.16696 210.56645 210.96894
 211.77543 212.96691 214.23040 216.02689 217.96838 220.02487 222.13336 224.22984
 226.30333 228.40082 230.51131 232.63080 234.77328 236.95877 239.22826 241.61175
 244.24624 246.51072 248.52621 250.30470 251.73519 252.87168 253.70716 254.03665
 254.08714 253.87463 253.24812 252.20960 250.82909 249.00358 246.92607 244.77256
 242.57704 240.39453 238.22802 236.08051 233.95400 231.83448 229.87397 228.04446
 226.34095 224.82644 223.46993 222.25541 221.15090 220.12439 219.24188 218.39637
 217.65185 216.84534 215.95683 215.33432 214.79781 214.15756 212.58907 210.91809
 210.76431 211.66629 212.93285 214.86090 217.89122 222.21103 227.76477 232.66081
 236.59729 240.89384 245.29413 249.64275 253.77417 257.48822 260.70053 263.55353
 266.28305 268.86517 271.32889 273.70779 275.79211 277.59299 279.21976 280.73514
 282.22034 283.62289 284.95859 286.28970 287.49081 288.60452 289.69745 290.68756
 291.57806 292.37103 293.06378 293.94662
 366.78100 356.35056 345.79811 334.67967 323.09823 311.30779 299.19334 287.01190
 274.73946 262.65201 250.67657 239.99313 230.13069 221.25024 213.44780 206.46536
 200.31491 195.26847 191.86603 189.92359 188.97614 189.05570 189.90626 191.22981
 192.97037 195.08093 197.35949 199.73404 202.19460 204.69016 206.79371 208.65127
 210.29283 211.45339 211.69794 211.94150 211.89406 211.61461 211.26317 210.90873
 210.54129 210.26684 210.09040 209.96996 209.91351 210.26007 210.66163 211.06619
 211.87474 213.06830 214.33386 216.13241 218.07597 220.13453 222.24509 224.34364
 226.41920 228.51876 230.63131 232.75287 234.89743 237.08499 239.35654 241.74210
 244.37866 246.64521 248.66277 250.44333 251.87589 253.01444 253.85200 254.18356
 254.23611 254.02567 253.40123 252.36479 250.98634 249.16290 247.08746 244.93601
 242.74257 240.56213 238.39769 236.25224 234.12780 232.01036 230.05191 228.22447
 226.52303 225.01059 223.65614 222.44370 221.34126 220.31681 219.43637 218.59293
 217.85049 217.04604 216.15960 215.53916 215.00471 214.26303 212.50198 211.09427
 210.58679 211.57204 213.14064 215.01447 217.89012 222.13222 227.73730 232.59258
 236.53876 240.82285 245.22588 249.56534 253.67117 257.35321 260.54517 263.40436
 266.13177 268.73306 271.22839 273.64273 275.78885 277.65146 279.33307 280.91812
 282.40222 283.78137 285.08374 286.37677 287.56067 288.63211 289.64548 290.59113
 291.44778 292.21063 292.87704 293.72632
 366.78100 356.35315 345.80331 334.68746 323.10861 311.32077 299.20892 287.03008
 274.76023 262.67538 250.70254 240.02169 230.16184 221.28400 213.48415 206.50430
 200.35646 195.31261 191.91276 189.97292 189.02807 189.11023 189.96338 191.28953
 193.03269 195.14584 197.42699 199.80415 202.26730 204.76545 206.87161 208.73176
 210.37591 211.53907 211.78622 212.03238 211.98753 211.71068 211.36184 211.00999
 210.64514 210.37330 210.19945 210.08160 210.02776 210.37691 210.78106 211.18822
 211.99937 213.19553 214.46368 216.26483 218.21099 220.27214 222.38529 224.48645
 226.56460 228.66675 230.78191 232.90606 235.05322 237.24337 239.51752 241.90568
 244.54483 246.81398 248.83414 250.61729 252.05244 253.19360 254.03375 254.36790
 254.42306 254.21521 253.59337 252.55952 251.18367 249.36283 247.28998 245.14113
 242.95029 240.77244 238.61059 236.46775 234.34590 232.23105 230.27521 228.45036
 226.75152 225.24167 223.88982 222.67998 221.58013 220.55828 219.68044 218.83959
 218.09974 217.29790 216.41405 215.79620 215.26436 214.39651 212.34833 211.18042
 210.71953 211.63620 213.18977 214.99286 217.80081 222.05151 227.74944 232.50652
 236.50468 240.76881 245.18219 249.52248 253.63795 257.31332 260.48599 263.32730
 266.05869 268.67810 271.15869 273.54340 275.65039 277.45465 279.14621 280.79382
 282.35007 283.77234 285.08609 286.31763 287.45898 288.51230 289.48050 290.33157
 291.01959 291.59982 292.05789 292.64166
 366.78100 356.35708 345.81115 334.69923 323.12431 311.34039 299.23246 287.05754
 274.79162 262.71069 250.74177 240.06485 230.20892 221.33500 213.53908 206.56316
 200.41923 195.37931 191.98339 190.04746 189.10654 189.19262 190.04970 191.37977
 193.12685 195.24393 197.52900 199.91008 202.37716 204.87924 206.98931 208.85339
 210.50147 211.66854 211.91962 212.16970 212.12877 211.85585 211.51093 211.16301
 210.80208 210.53416 210.36424 210.25031 210.20039 210.55347 210.96155 211.37262
 212.18770 213.38778 214.65985 216.46493 218.41501 220.48009 222.59716 224.70224
 226.78432 228.89039 231.00947 233.13755 235.28862 237.48270 239.76078 242.15286
 244.79593 247.06901 249.09309 250.88016 252.31924 253.46432 254.30840 254.64647
 254.70555 254.50163 253.88370 252.85378 251.48186 249.66493 247.59601 245.45109
 243.26417 241.09024 238.93232 236.79340 234.67547 232.56455 230.61263 228.79171
 227.09678 225.59086 224.24294 223.03701 221.94109 220.92317 220.04925 219.21232
 218.47640 217.67848 216.79855 216.18463 215.65671 214.62134 212.18201 211.15105
 211.01909 211.57423 212.91736 214.93666 217.84520 222.08113 227.74118 232.52536
 236.49660 240.76506 245.17502 249.51306 253.62735 257.30063 260.48145 263.34311
 266.09634 268.70807 271.16330 273.53915 275.65540 277.44980 279.06012 280.61475
 282.13474 283.57385 284.91855 286.15234 287.25653 288.28781 289.26196 290.06403
 290.63480 291.03571 291.34381 291.73645
 366.78100 356.36018 345.81736 334.70854 323.13672 311.35590 299.25108 287.07926
 274.81644 262.73862 250.77279 240.09897 230.24615 221.37533 213.58251 206.60969
 200.46887 195.43205 192.03923 190.10641 189.16859 189.25777 190.11795 191.45113
 193.20131 195.32149 197.60967 199.99385 202.46403 204.96921 207.08238 208.94956
 210.60074 211.77092 212.02510 212.27828 212.24046 211.97064 211.62882 211.28400
 210.92618 210.66136 210.49454 210.38372 210.33690 210.69308 211.10426 211.51844
 212.33662 213.53980 214.81497 216.62315 218.57633 220.64451 222.76469 224.87287
 226.95805 229.06723 231.18941 233.32059 235.47477 237.67195 239.95313 242.34831
 244.99449 247.27067 249.29785 251.08803 252.53021 253.67839 254.52556 254.86674
 254.92892 254.72810 254.11328 253.08646 251.71764 249.90382 247.83800 245.69618
 243.51236 241.34154 239.18672 237.05090 234.93608 232.82826 230.87944 229.06162
 227.36980 225.86698 224.52215 223.31933 222.22651 221.21169 220.34087 219.50705
 218.77423 217.97941 217.10259 216.49177 215.96695 214.81787 212.13237 211.07886
 211.18384 211.54443 212.91713 214.93130 217.85161 222.04214 227.61307 232.44763
 236.38571 240.67259 245.07796 249.41534 253.50027 257.16153 260.38788 263.34955
 266.18192 268.83704 271.33496 273.70111 275.79907 277.59195 279.17230 280.64651
 282.10706 283.50720 284.82397 286.02423 287.09311 288.07990 289.01318 289.87253
 290.66852 291.37735 291.99658 292.78571
 366.78100 356.35605 345.80911 334.69616 323.12022 311.33527 299.22633 287.05038
 274.78343 262.70149 250.73154 240.05360 230.19665 221.32171 213.52476 206.54781
 200.40287 195.36192 191.96498 190.02803 189.08609 189.17114 190.02719 191.35625
 193.10230 195.21836 197.50241 199.88247 202.34852 204.84957 206.95863 208.82168
 210.46874 211.63479 211.88485 212.13390 212.09195 211.81801 211.47206 211.12312
 210.76117 210.49223 210.32128 210.20633 210.15539 210.50744 210.91450 211.32455
 212.13861 213.33766 214.60871 216.41277 218.36182 220.42588 222.54193 224.64599
 226.72704 228.83209 230.95015 233.07720 235.22726 237.42031 239.69737 242.08842
 244.73047 247.00253 249.02558 250.81164 252.24969 253.39375 254.23680 254.57385
 254.63191 254.42696 253.80802 252.77707 251.40413 249.58618 247.51623 245.37029
 243.18234 241.00740 238.84845 236.70851 234.58956 232.47761 230.52467 228.70272
 227.00678 225.49983 224.15089 222.94394 221.84699 220.82805 219.95310 219.11516
 218.37821 217.57927 216.69832 216.08337 215.55443 214.62556 212.43257 210.96941
 210.92905 211.80389 213.22488 215.00237 217.81654 221.97792 227.51653 232.30818
 236.25568 240.53404 244.93324 249.24493 253.27628 256.90216 260.15836 263.20322
 266.12595 268.86908 271.43964 273.86942 276.03354 277.87994 279.46140 280.87317
 282.25275 283.58649 284.85590 286.02365 287.02795 288.03738 289.00327 289.89600
 290.72971 291.47211 292.12067 292.94717
 366.78100 356.35413 345.80526 334.69040 323.11253 311.32566 299.21479 287.03692
 274.76806 262.68419 250.71232 240.03245 230.17358 221.29672 213.49785 206.51898
 200.37211 195.32924 191.93038 189.99151 189.04764 189.13077 189.98490 191.31204
 193.05617 195.17030 197.45243 199.83056 202.29470 204.79383 206.90096 208.76209
 210.40722 211.57136 211.81949 212.06662 212.02275 211.74688 211.39902 211.04815
 210.68428 210.41341 210.24054 210.12368 210.07081 210.42094 210.82607 211.23420
 212.04633 213.24347 214.51260 216.31473 218.26186 220.32399 222.43813 224.54026
 226.61939 228.72252 230.83865 232.96379 235.11192 237.30305 239.57818 241.96731
 244.60745 246.87758 248.89871 250.68284 252.11897 253.26111 254.10224 254.43737
 254.49350 254.28663 253.66577 252.63290 251.25803 249.43816 247.36629 245.21843
 243.02856 240.85169 238.69082 236.54895 234.42809 232.31422 230.35935 228.53548
 226.83761 225.32875 223.97788 222.76901 221.67014 220.64927 219.77241 218.93254
 218.19367 217.39280 216.50993 215.89307 215.36220 214.52048 212.53122 211.06183
 210.68298 211.80450 213.38643 215.13564 217.89316 222.02080 227.57498 232.28033
 236.25189 240.50752 244.90166 249.19162 253.18416 256.76245 259.97754 262.98840
 265.90036 268.67166 271.28909 273.78323 276.03210 277.96039 279.62119 281.08206
 282.43439 283.72253 284.95303 286.10620 287.11057 288.02948 288.96783 289.82428
 290.59259 291.27841 291.88348 292.65460
 366.78100 356.35570 345.80841 334.69511 323.11882 311.33352 299.22422 287.04793
 274.78063 262.69834 250.72804 240.04975 230.19245 221.31715 213.51986 206.54256
 200.39727 195.35597 191.95867 190.02138 189.07908 189.16379 190.01949 191.34819
 193.09390 195.20960 197.49331 199.87301 202.33871 204.83942 206.94812 208.81083
 210.45753 211.62324 211.87294 212.12164 212.07935 211.80505 211.45876 211.10946
 210.74716 210.47787 210.30657 210.19128 210.13998 210.49168 210.89839 211.30809
 212.12180 213.32050 214.59120 216.39491 218.34361 220.40732 222.52302 224.62673
 226.70743 228.81213 230.92984 233.05654 235.20625 237.39895 239.67565 242.06636
 244.70806 246.97977 249.00247 250.78817 252.22588 253.36958 254.21229 254.54899
 254.60669 254.40140 253.78210 252.75081 251.37751 249.55922 247.48892 245.34262
 243.15433 240.97903 238.81974 236.67944 234.56014 232.44785 230.49455 228.67226
 226.97596 225.46866 224.11937 222.91207 221.81478 220.79548 219.92018 219.08189
 218.34459 217.54530 216.66400 216.04871 215.51941 214.60136 212.43236 211.13141
 210.74765 211.72343 213.28168 215.06398 217.84596 222.03325 227.65268 232.30116
 236.28442 240.53052 244.94115 249.25555 253.27174 256.84137 260.00424 262.93484
 265.78403 268.47504 271.03400 273.54282 275.81546 277.77463 279.49078 281.01471
 282.41461 283.71750 284.94241 286.08981 287.11090 288.01306 288.84863 289.70700
 290.47824 291.05148 291.50903 292.17416
 366.78100 356.35660 345.81020 334.69781 323.12241 311.33801 299.22961 287.05421
 274.78782 262.70642 250.73702 240.05962 230.20322 221.32882 213.53243 206.55603
 200.41163 195.37123 191.97483 190.03844 189.09704 189.18264 190.03924 191.36884
 193.11545 195.23205 197.51665 199.89725 202.36385 204.86546 206.97506 208.83866
 210.48626 211.65286 211.90347 212.15307 212.11167 211.83827 211.49287 211.14447
 210.78308 210.51468 210.34428 210.22988 210.17948 210.53209 210.93969 211.35029
 212.16489 213.36449 214.63610 216.44070 218.39030 220.45490 222.57150 224.67611
 226.75771 228.86331 230.98191 233.10951 235.26012 237.45372 239.73132 242.12292
 244.76552 247.03812 249.06173 250.84833 252.28693 253.43153 254.27513 254.61274
 254.67134 254.46694 253.84854 252.81814 251.44575 249.62835 247.55895 245.41355
 243.22615 241.05176 238.89336 236.75396 234.63556 232.52416 230.57177 228.75037
 227.05497 225.54857 224.20017 222.99377 221.89738 220.87898 220.00458 219.16718
 218.43078 217.63239 216.75199 216.13759 215.60919 214.65796 212.41058 211.09999
 210.91502 211.74498 213.18622 214.98488 217.77968 222.00409 227.64105 232.27428
 236.25597 240.49841 244.91901 249.24799 253.28065 256.86349 260.03494 262.96545
 265.81149 268.45392 270.94135 273.42734 275.68274 277.62552 279.31027 280.81778
 282.23206 283.54858 284.79227 285.96191 287.01035 287.93875 288.75864 289.53101
 290.28519 290.83017 291.15631 291.75858
 366.78100 356.35633 345.80965 334.69698 323.12130 311.33663 299.22795 287.05228
 274.78560 262.70393 250.73425 240.05658 230.19991 221.32523 213.52856 206.55188
 200.40721 195.36653 191.96986 190.03318 189.09151 189.17683 190.03316 191.36248
 193.10881 195.22514 197.50946 199.88979 202.35611 204.85744 206.96676 208.83009
 210.47741 211.64374 211.89406 212.14339 212.10172 211.82804 211.48237 211.13369
 210.77202 210.50334 210.33267 210.21799 210.16732 210.51964 210.92697 211.33730
 212.15162 213.35095 214.62227 216.42660 218.37592 220.44025 222.55657 224.66090
 226.74222 228.84755 230.96587 233.09320 235.24353 237.43685 239.71418 242.10550
 244.74783 247.02015 249.04348 250.82980 252.26813 253.41245 254.25578 254.59311
 254.65143 254.44676 253.82808 252.79741 251.42473 249.60706 247.53738 245.39171
 243.20403 241.02936 238.87069 236.73101 234.61234 232.50066 230.54799 228.72631
 227.03064 225.52396 224.17529 222.96861 221.87194 220.85326 219.97859 219.14092
 218.40424 217.60557 216.72489 216.11022 215.58154 214.66972 212.51703 211.07819
 210.90623 211.71489 213.18881 215.04405 217.83792 222.00499 227.55855 232.29156
 236.16792 240.44135 244.85466 249.18042 253.19696 256.77325 259.95370 262.91919
 265.78052 268.46249 270.98865 273.43262 275.68390 277.65027 279.33859 280.80957
 282.13623 283.37024 284.53323 285.61728 286.60120 287.59787 288.56757 289.45847
 290.30524 291.07684 291.75089 292.60989
 366.78100 356.35776 345.81253 334.70129 323.12706 311.34382 299.23659 287.06235
 274.79711 262.71688 250.74864 240.07241 230.21717 221.34394 213.54870 206.57347
 200.43023 195.39099 191.99576 190.06052 189.12029 189.20705 190.06482 191.39558
 193.14334 195.26111 197.54687 199.92864 202.39640 204.89917 207.00993 208.87469
 210.52346 211.69122 211.94299 212.19375 212.15352 211.88128 211.53704 211.18981
 210.82957 210.56234 210.39310 210.27987 210.23063 210.58440 210.99316 211.40492
 212.22069 213.42145 214.69422 216.49998 218.45075 220.51651 222.63427 224.74004
 226.82280 228.92957 231.04933 233.17810 235.32986 237.52462 239.80339 242.19615
 244.83992 247.11368 249.13845 250.92621 252.36597 253.51174 254.35650 254.69527
 254.75503 254.55180 253.93456 252.90533 251.53409 249.71785 247.64962 245.50538
 243.31915 241.14591 238.98868 236.85044 234.73320 232.62297 230.67173 228.85150
 227.15726 225.65203 224.30479 223.09955 222.00432 220.98708 220.11385 219.27761
 218.54238 217.74514 216.86590 216.25267 215.72543 214.78667 212.56766 211.10802
 210.88680 211.67616 213.25311 215.19994 217.98677 222.09076 227.51517 232.24973
 236.11844 240.39682 244.81290 249.13176 253.12144 256.67178 259.85815 262.87100
 265.75781 268.44788 271.02255 273.49438 275.75763 277.75162 279.45981 280.94510
 282.26379 283.46802 284.52744 285.74884 287.08957 288.35345 289.50656 290.55118
 291.49072 292.32736 293.05826 293.98969
 366.78100 356.35905 345.81510 334.70515 323.13221 311.35026 299.24431 287.07136
 274.80741 262.72846 250.76151 240.08657 230.23262 221.36067 213.56672 206.59277
 200.45082 195.41287 192.01893 190.08498 189.14603 189.23408 190.09313 191.42518
 193.17423 195.29329 197.58034 199.96339 202.43244 204.93649 207.04854 208.91459
 210.56465 211.73370 211.98675 212.23880 212.19985 211.92890 211.58595 211.24001
 210.88106 210.61511 210.44716 210.33521 210.28726 210.64231 211.05236 211.46542
 212.28247 213.48452 214.75857 216.56562 218.51767 220.58472 222.70378 224.81083
 226.89488 229.00293 231.12398 233.25403 235.40708 237.60314 239.88319 242.27724
 244.92229 247.19734 249.22339 251.01244 252.45350 253.60055 254.44660 254.78665
 254.84770 254.64575 254.02980 253.00186 251.63191 249.81696 247.75001 245.60706
 243.42211 241.25016 239.09422 236.95727 234.84132 232.73237 230.78242 228.96347
 227.27052 225.76658 224.42063 223.21668 222.12273 221.10678 220.23483 219.39988
 218.66594 217.86999 216.99204 216.38009 215.85414 214.87431 212.54716 210.99191
 210.95067 211.66852 213.30453 215.36301 218.08865 222.10155 227.50563 232.21046
 236.07872 240.36382 244.79680 249.13461 253.13133 256.65457 259.80161 262.80338
 265.70499 268.38092 270.94147 273.47324 275.84116 277.93283 279.71823 281.24503
 282.52158 283.64066 284.96512 286.36551 287.78891 289.10037 290.29694 291.38089
 292.35580 293.22400 293.98239 294.94891
 366.78100 356.35650 345.81001 334.69751 323.12202 311.33752 299.22903 287.05353
 274.78704 262.70554 250.73605 240.05855 230.20206 221.32756 213.53107 206.55457
 200.41008 195.36958 191.97308 190.03659 189.09509 189.18060 190.03710 191.36661
 193.11311 195.22962 197.51412 199.89463 202.36113 204.86264 206.97214 208.83565
 210.48315 211.64966 211.90016 212.14967 212.10817 211.83467 211.48918 211.14068
 210.77919 210.51069 210.34020 210.22570 210.17521 210.52771 210.93522 211.34572
 212.16023 213.35973 214.63124 216.43574 218.38525 220.44975 222.56625 224.67076
 226.75226 228.85777 230.97627 233.10378 235.25428 237.44779 239.72529 242.11680
 244.75930 247.03181 249.05531 250.84182 252.28032 253.42483 254.26833 254.60584
 254.66434 254.45984 253.84135 252.81085 251.43836 249.62086 247.55137 245.40587
 243.21838 241.04388 238.88539 236.74589 234.62740 232.51590 230.56341 228.74191
 227.04642 225.53992 224.19142 222.98493 221.88843 220.86994 219.99544 219.15795
 218.42145 217.62296 216.74246 216.12797 215.59947 214.71777 212.62843 211.00322
 210.80292 211.45482 213.16574 215.41270 218.21429 222.14081 227.51628 232.22318
 236.07739 240.35448 244.77339 249.08954 253.05655 256.56607 259.71201 262.68933
 265.57138 268.28445 270.83737 273.29437 275.57870 277.62811 279.45389 281.08627
 282.52899 283.80365 284.96335 286.09174 287.19049 288.20151 289.12830 289.97629
 290.75403 291.44662 292.05164 292.82269
 366.78100 356.35489 345.80679 334.69268 323.11557 311.32947 299.21936 287.04226
 274.77415 262.69104 250.71994 240.04083 230.18272 221.30662 213.50851 206.53041
 200.38430 195.34219 191.94409 190.00598 189.06287 189.14677 190.00166 191.32956
 193.07445 195.18934 197.47224 199.85113 202.31602 204.81592 206.92381 208.78570
 210.43160 211.59649 211.84539 212.09328 212.05017 211.77507 211.42796 211.07785
 210.71475 210.44464 210.27254 210.15643 210.10432 210.45522 210.86111 211.27000
 212.08290 213.28079 214.55068 216.35358 218.30147 220.36437 222.47926 224.58215
 226.66205 228.76594 230.88283 233.00873 235.15762 237.34952 239.62541 242.01530
 244.65620 246.92709 248.94898 250.73388 252.17077 253.31367 254.15556 254.49145
 254.54835 254.34224 253.72213 252.69003 251.31592 249.49681 247.42571 245.27860
 243.08950 240.91339 238.75328 236.61218 234.49207 232.37896 230.42486 228.60175
 226.90465 225.39654 224.04643 222.83833 221.74022 220.72011 219.84401 219.00490
 218.26679 217.46669 216.58458 215.96848 215.43837 214.60333 212.63048 211.20195
 210.89220 211.41214 213.02997 215.28717 218.12520 222.10336 227.56303 232.13737
 236.03799 240.31255 244.74986 249.08481 253.04277 256.49728 259.58362 262.55386
 265.47540 268.22656 270.78226 273.25174 275.55557 277.58679 279.36484 280.92471
 282.31836 283.54425 284.64905 285.69617 286.71057 287.65265 288.50446 289.29465
 290.04486 290.71072 291.29010 292.00586
 366.78100 356.35443 345.80585 334.69128 323.11370 311.32713 299.21655 287.03898
 274.77041 262.68683 250.71526 240.03568 230.17711 221.30053 213.50196 206.52339
 200.37681 195.33424 191.93566 189.99709 189.05351 189.13694 189.99137 191.31879
 193.06322 195.17764 197.46007 199.83849 202.30292 204.80235 206.90977 208.77120
 210.41662 211.58105 211.82947 212.07690 212.03333 211.75775 211.41018 211.05960
 210.69603 210.42545 210.25288 210.13631 210.08373 210.43416 210.83958 211.24801
 212.06043 213.25786 214.52729 216.32971 218.27714 220.33956 222.45399 224.55641
 226.63584 228.73927 230.85569 232.98112 235.12954 237.32097 239.59639 241.98582
 244.62625 246.89667 248.91810 250.70252 252.13895 253.28137 254.12280 254.45823
 254.51465 254.30808 253.68750 252.65493 251.28035 249.46078 247.38921 245.24163
 243.05206 240.87548 238.71491 236.57333 234.45276 232.33919 230.38461 228.56104
 226.86346 225.35489 224.00431 222.79574 221.69717 220.67659 219.80002 218.96044
 218.22187 217.42129 216.53872 215.92215 215.39157 214.57939 212.66051 211.14653
 210.98801 211.46480 213.02567 215.27725 218.09261 222.08679 227.54709 232.08832
 235.97679 240.25595 244.70596 249.05135 253.00641 256.44144 259.51617 262.49432
 265.43176 268.17514 270.71411 273.19595 275.53650 277.63321 279.45923 281.01941
 282.36298 283.52969 284.54532 285.49527 286.45258 287.36905 288.17834 288.99048
 289.75751 290.44629 291.05051 291.81155
 366.78100 356.35380 345.80459 334.68939 323.11119 311.32398 299.21278 287.03458
 274.76537 262.68117 250.70897 240.02876 230.16956 221.29236 213.49315 206.51395
 200.36675 195.32354 191.92434 189.98514 189.04093 189.12373 189.97753 191.30433
 193.04812 195.16192 197.44372 199.82151 202.28531 204.78411 206.89090 208.75170
 210.39650 211.56029 211.80809 212.05489 212.01068 211.73448 211.38628 211.03507
 210.67087 210.39967 210.22646 210.10926 210.05606 210.40585 210.81065 211.21845
 212.03024 213.22704 214.49584 216.29763 218.24443 220.30623 222.42002 224.52182
 226.60062 228.70341 230.81921 232.94401 235.09180 237.28260 239.55740 241.94619
 244.58599 246.85579 248.87659 250.66038 252.09618 253.23798 254.07877 254.41357
 254.46937 254.26216 253.64096 252.60776 251.23255 249.41235 247.34015 245.19194
 243.00174 240.82454 238.66333 236.52113 234.39993 232.28572 230.33052 228.50632
 226.80811 225.29891 223.94771 222.73850 221.63930 220.61810 219.74089 218.90069
 218.16149 217.36028 216.47708 215.85988 215.32867 214.55287 212.71996 211.10548
 210.92747 211.47784 213.10474 215.35873 218.12068 222.10962 227.55074 232.08208
 235.93864 240.21921 244.67433 249.02359 252.97609 256.40768 259.48962 262.48114
 265.43344 268.17328 270.68689 273.14389 275.48093 277.60461 279.45560 281.00830
 282.32449 283.45657 284.41809 285.32413 286.26865 287.15256 288.03101 288.88242
 289.66022 290.35635 290.96490 291.73242
 366.78100 356.35384 345.80468 334.68952 323.11136 311.32420 299.21305 287.03489
 274.76573 262.68157 250.70941 240.02925 230.17009 221.29293 213.49377 206.51461
 200.36745 195.32429 191.92514 189.98598 189.04182 189.12466 189.97850 191.30534
 193.04918 195.16302 197.44486 199.82270 202.28654 204.78538 206.89223 208.75307
 210.39791 211.56175 211.80959 212.05643 212.01227 211.73611 211.38795 211.03679
 210.67263 210.40147 210.22832 210.11116 210.05800 210.40784 210.81268 211.22052
 212.03236 213.22920 214.49804 216.29988 218.24672 220.30856 222.42241 224.52425
 226.60309 228.70593 230.82177 232.94661 235.09445 237.28529 239.56013 241.94897
 244.58881 246.85865 248.87950 250.66334 252.09918 253.24102 254.08186 254.41670
 254.47254 254.26538 253.64422 252.61106 251.23590 249.41574 247.34359 245.19543
 243.00527 240.82811 238.66695 236.52479 234.40363 232.28947 230.33431 228.51015
 226.81199 225.30283 223.95168 222.74252 221.64336 220.62220 219.74504 218.90488
 218.16572 217.36456 216.48140 215.86424 215.33308 214.55365 212.71217 211.25771
 210.81531 211.40955 213.11256 215.35251 218.13321 222.14299 227.56940 232.07884
 235.92274 240.19682 244.65536 249.00041 252.92978 256.32767 259.40161 262.41504
 265.40021 268.16251 270.68408 273.12714 275.44113 277.55222 279.40125 280.94855
 282.25156 283.36041 284.27618 285.15216 286.08957 286.96832 287.89334 288.74768
 289.51648 290.20627 290.80792 291.58270
 366.78100 356.35350 345.80399 334.68849 323.10998 311.32248 299.21097 287.03247
 274.76296 262.67846 250.70595 240.02545 230.16594 221.28844 213.48894 206.50943
 200.36193 195.31842 191.91892 189.97941 189.03491 189.11740 189.97090 191.29739
 193.04089 195.15438 197.43588 199.81338 202.27687 204.77537 206.88186 208.74236
 210.38685 211.55035 211.79784 212.04434 211.99983 211.72333 211.37482 211.02332
 210.65882 210.38731 210.21381 210.09630 210.04280 210.39229 210.79679 211.20428
 212.01578 213.21227 214.48077 216.28226 218.22876 220.29026 222.40375 224.50525
 226.58374 228.68624 230.80173 232.92623 235.07372 237.26422 239.53871 241.92721
 244.56670 246.83620 248.85670 250.64019 252.07569 253.21718 254.05768 254.39217
 254.44767 254.24016 253.61866 252.58515 251.20965 249.38914 247.31664 245.16814
 242.97763 240.80013 238.63862 236.49612 234.37461 232.26011 230.30460 228.48010
 226.78159 225.27209 223.92058 222.71108 221.61158 220.59007 219.71257 218.87206
 218.13256 217.33105 216.44755 215.83004 215.29854 214.53203 212.72107 211.39009
 210.82150 211.33678 213.05223 215.26749 218.11528 222.15210 227.57539 232.05894
 235.92084 240.19157 244.65923 249.00945 252.92336 256.28604 259.33203 262.34109
 265.32874 268.09579 270.63339 273.08780 275.39783 277.50137 279.35410 280.91177
 282.20892 283.29462 284.16507 285.00095 285.93530 286.82523 287.73590 288.58722
 289.35553 290.04288 290.64508 291.41620
 366.78100 356.35176 345.80052 334.68328 323.10304 311.31380 299.20056 287.02032
 274.74908 262.66284 250.68860 240.00637 230.14513 221.26589 213.46465 206.48341
 200.33417 195.28893 191.88769 189.94645 189.00021 189.08097 189.93273 191.25749
 192.99925 195.11101 197.39077 199.76653 202.22829 204.72505 206.82981 208.68857
 210.33133 211.49310 211.73886 211.98362 211.93738 211.65914 211.30890 210.95566
 210.58942 210.31618 210.14094 210.02170 209.96646 210.31422 210.71698 211.12274
 211.93250 213.12726 214.39402 216.19378 218.13854 220.19830 222.31006 224.40983
 226.48659 228.58735 230.70111 232.82387 234.96963 237.15839 239.43115 241.81791
 244.45567 246.72343 248.74219 250.52395 251.95771 253.09747 253.93623 254.26899
 254.32275 254.11351 253.49027 252.45503 251.07779 249.25556 247.18132 245.03108
 242.83884 240.65960 238.49636 236.35212 234.22888 232.11264 230.15540 228.32916
 226.62892 225.11768 223.76444 222.55320 221.45196 220.42872 219.54948 218.70724
 217.96600 217.16276 216.27752 215.65829 215.12505 214.44350 212.83328 211.36990
 210.90558 211.33534 213.00841 215.19859 218.06898 222.12311 227.55046 232.01707
 235.90863 240.17809 244.66118 249.02736 252.94855 256.29892 259.32169 262.30994
 265.27362 268.01529 270.54190 273.00064 275.32089 277.43036 279.29385 280.86551
 282.15381 283.20764 284.03769 284.84943 285.79312 286.71063 287.61652 288.46869
 289.23993 289.93143 290.53317 291.30658
 366.78100 356.34994 345.79688 334.67782 323.09575 311.30469 299.18963 287.00757
 274.73451 262.64645 250.67039 239.98632 230.12326 221.24220 213.43914 206.45608
 200.30502 195.25796 191.85489 189.91183 188.96377 189.04271 189.89265 191.21559
 192.95553 195.06546 197.34340 199.71734 202.17728 204.67222 206.77516 208.63210
 210.27303 211.43297 211.67691 211.91985 211.87179 211.59173 211.23967 210.88460
 210.51654 210.24148 210.06442 209.94336 209.88630 210.23224 210.63317 211.03711
 211.84505 213.03799 214.30293 216.10087 218.04381 220.10174 222.21168 224.30962
 226.38456 228.48350 230.59544 232.71637 234.86031 237.04725 239.31819 241.70313
 244.33907 246.60501 248.62194 250.40188 251.83382 252.97176 253.80870 254.13964
 254.19158 253.98051 253.35545 252.31839 250.93933 249.11527 247.03921 244.88715
 242.69308 240.51202 238.34696 236.20090 234.07584 231.95778 229.99872 228.17065
 226.46859 224.95553 223.60047 222.38741 221.28435 220.25929 219.37822 218.53416
 217.79110 216.98604 216.09898 215.47792 214.94286 214.35162 212.95477 211.34981
 210.94505 211.35962 212.99825 215.18083 218.01424 222.08798 227.51717 231.97997
 235.87929 240.14754 244.64287 249.02003 252.94827 256.29599 259.31311 262.29791
 265.24951 267.97098 270.47110 272.90991 275.22849 277.33911 279.21024 280.78821
 282.06357 283.09518 283.89890 284.70377 285.65277 286.59686 287.51450 288.36975
 289.14221 289.83258 290.43762 291.22150
 366.78100 356.34906 345.79512 334.67517 323.09223 311.30029 299.18435 287.00141
 274.72747 262.63852 250.66158 239.97664 230.11270 221.23076 213.42681 206.44287
 200.29093 195.24299 191.83905 189.89510 188.94616 189.02422 189.87328 191.19534
 192.93440 195.04345 197.32051 199.69357 202.15263 204.64669 206.74874 208.60480
 210.24486 211.40392 211.64698 211.88903 211.84009 211.55915 211.20621 210.85027
 210.48133 210.20538 210.02744 209.90550 209.84756 210.19262 210.59267 210.99573
 211.80279 212.99485 214.25891 216.05596 217.99802 220.05508 222.16414 224.26120
 226.33526 228.43331 230.54437 232.66443 234.80749 236.99355 239.26360 241.64766
 244.28272 246.54778 248.56384 250.34289 251.77395 252.91101 253.74707 254.07713
 254.12819 253.91624 253.29030 252.25236 250.87242 249.04748 246.97053 244.81759
 242.62265 240.44071 238.27477 236.12782 234.00188 231.88294 229.92300 228.09406
 226.39112 224.87717 223.52123 222.30729 221.20335 220.17741 219.29546 218.45052
 217.70658 216.90064 216.01270 215.39075 214.85481 214.30429 213.00362 211.44237
 210.93869 211.33092 212.94997 215.17389 217.99185 222.07635 227.49809 231.96965
 235.85248 240.12297 244.62415 249.00594 252.92781 256.26218 259.27960 262.27997
 265.24146 267.96219 270.43964 272.84274 275.13556 277.22720 279.08594 280.65436
 281.91962 282.93649 283.73770 284.56268 285.55237 286.51736 287.42703 288.28006
 289.05344 289.74496 290.35318 291.15179
 366.78100 356.34922 345.79544 334.67567 323.09289 311.30111 299.18533 287.00256
 274.72878 262.64000 250.66322 239.97845 230.11467 221.23289 213.42911 206.44533
 200.29356 195.24578 191.84200 189.89822 188.94945 189.02767 189.87689 191.19911
 192.93834 195.04756 197.32478 199.69800 202.15722 204.65145 206.75367 208.60989
 210.25011 211.40934 211.65256 211.89478 211.84600 211.56523 211.21245 210.85667
 210.48789 210.21211 210.03434 209.91256 209.85478 210.20000 210.60023 211.00345
 211.81067 213.00289 214.26712 216.06434 218.00656 220.06378 222.17300 224.27023
 226.34445 228.44267 230.55389 232.67412 234.81734 237.00356 239.27378 241.65801
 244.29323 246.55845 248.57467 250.35389 251.78512 252.92234 253.75856 254.08878
 254.14001 253.92823 253.30245 252.26467 250.88490 249.06012 246.98334 244.83056
 242.63578 240.45401 238.28823 236.14145 234.01567 231.89690 229.93712 228.10834
 226.40556 224.89179 223.53601 222.32223 221.21845 220.19267 219.31090 218.46612
 217.72234 216.91656 216.02879 215.40701 214.87123 214.30826 212.97816 211.61652
 210.96626 211.24593 212.84044 215.12213 217.97751 222.08472 227.50169 231.99042
 235.84264 240.11775 244.62213 249.00684 252.91724 256.23199 259.24707 262.26694
 265.24277 267.96985 270.43546 272.79910 275.04742 277.09393 278.91873 280.45898
 281.70905 282.72412 283.55826 284.44101 285.42419 286.42438 287.36490 288.22610
 289.01129 289.71210 290.32846 291.12384
 366.78100 356.34897 345.79495 334.67492 323.09190 311.29987 299.18385 287.00082
 274.72679 262.63777 250.66074 239.97572 230.11169 221.22967 213.42564 206.44162
 200.28959 195.24156 191.83754 189.89351 188.94449 189.02246 189.87144 191.19341
 192.93238 195.04136 197.31833 199.69131 202.15028 204.64426 206.74623 208.60221
 210.24218 211.40115 211.64413 211.88610 211.83708 211.55605 211.20303 210.84700
 210.47797 210.20195 210.02392 209.90190 209.84387 210.18885 210.58882 210.99179
 211.79877 212.99074 214.25472 216.05169 217.99367 220.05064 222.15962 224.25659
 226.33056 228.42854 230.53951 232.65949 234.80246 236.98844 239.25841 241.64238
 244.27736 246.54233 248.55831 250.33728 251.76826 252.90523 253.74120 254.07118
 254.12215 253.91013 253.28410 252.24608 250.86605 249.04103 246.96400 244.81097
 242.61595 240.43392 238.26790 236.12087 233.99485 231.87582 229.91579 228.08677
 226.38374 224.86972 223.51369 222.29967 221.19564 220.16962 219.28759 218.44256
 217.69854 216.89251 216.00449 215.38246 214.84644 214.29550 212.99385 211.72150
 211.04887 211.24153 212.67641 214.98878 217.96056 222.08673 227.48233 232.01736
 235.82912 240.11575 244.61719 248.99918 252.89758 256.20880 259.23257 262.26718
 265.24771 267.98575 270.45605 272.79132 274.98767 276.98468 278.76193 280.26901
 281.49103 282.48300 283.33765 284.28354 285.38559 286.42456 287.37793 288.24890
 289.04425 289.75772 290.39093 291.20816
 366.78100 356.34875 345.79450 334.67425 323.09100 311.29875 299.18250 286.99925
 274.72500 262.63575 250.65850 239.97325 230.10900 221.22675 213.42250 206.43825
 200.28600 195.23775 191.83350 189.88925 188.94000 189.01775 189.86650 191.18825
 192.92700 195.03576 197.31251 199.68526 202.14401 204.63776 206.73951 208.59526
 210.23501 211.39376 211.63651 211.87826 211.82901 211.54776 211.19451 210.83826
 210.46901 210.19276 210.01451 209.89226 209.83401 210.17876 210.57851 210.98126
 211.78801 212.97976 214.24351 216.04026 217.98201 220.03876 222.14751 224.24426
 226.31801 228.41576 230.52651 232.64626 234.78901 236.97476 239.24451 241.62826
 244.26301 246.52776 248.54351 250.32226 251.75301 252.88976 253.72551 254.05526
 254.10601 253.89376 253.26752 252.22927 250.84902 249.02377 246.94652 244.79327
 242.59802 240.41577 238.24952 236.10227 233.97602 231.85677 229.89652 228.06727
 226.36402 224.84977 223.49352 222.27927 221.17502 220.14877 219.26652 218.42127
 217.67702 216.87077 215.98252 215.36027 214.82402 214.29034 213.02736 211.78032
 211.13962 211.29306 212.57355 214.85178 217.91103 222.06026 227.43401 232.03851
 235.82469 240.11992 244.61029 248.97079 252.85014 256.18015 259.24026 262.28995
 265.25833 267.99747 270.48981 272.81680 274.97101 276.92542 278.66068 280.13541
 281.33676 282.30795 283.18356 284.19623 285.36911 286.42239 287.39093 288.28140
 289.10645 289.92224 290.64267 291.56076
 366.78100 356.34841 345.79381 334.67322 323.08963 311.29704 299.18044 286.99685
 274.72226 262.63266 250.65507 239.96948 230.10489 221.22229 213.41770 206.43311
 200.28051 195.23192 191.82733 189.88274 188.93314 189.01055 189.85896 191.18037
 192.91877 195.02718 197.30359 199.67599 202.13440 204.62781 206.72922 208.58462
 210.22403 211.38244 211.62484 211.86625 211.81666 211.53507 211.18147 210.82488
 210.45529 210.17869 210.00010 209.87751 209.81892 210.16332 210.56273 210.96514
 211.77154 212.96295 214.22636 216.02277 217.96417 220.02058 222.12899 224.22540
 226.29880 228.39621 230.50662 232.62602 234.76843 236.95384 239.22325 241.60665
 244.24106 246.50547 248.52087 250.29928 251.72969 252.86610 253.70150 254.03091
 254.08132 253.86872 253.24213 252.20354 250.82295 248.99735 246.91976 244.76617
 242.57057 240.38798 238.22139 236.07380 233.94720 231.82761 229.86702 228.03743
 226.33383 224.81924 223.46265 222.24805 221.14346 220.11687 219.23428 218.38868
 217.64409 216.83750 215.94890 215.32631 214.78972 214.27739 213.06032 211.86096
 211.20235 211.31210 212.49895 214.73354 217.84940 222.02841 227.39749 232.04195
 235.82686 240.12709 244.61281 248.96014 252.81918 256.14062 259.20966 262.27228
 265.24277 267.98325 270.48517 272.80701 274.93369 276.85938 278.59357 280.09305
 281.32672 282.33466 283.26376 284.27103 285.36856 286.41461 287.39304 288.31152
 289.22565 290.05865 290.78635 291.71375
 366.78100 356.34815 345.79330 334.67245 323.08860 311.29574 299.17889 286.99504
 274.72019 262.63034 250.65249 239.96664 230.10179 221.21894 213.41408 206.42923
 200.27638 195.22753 191.82268 189.87783 188.92798 189.00513 189.85327 191.17442
 192.91257 195.02072 197.29687 199.66902 202.12717 204.62032 206.72147 208.57661
 210.21576 211.37391 211.61606 211.85721 211.80736 211.52551 211.17166 210.81481
 210.44495 210.16810 209.98925 209.86640 209.80755 210.15170 210.55085 210.95300
 211.75915 212.95029 214.21344 216.00959 217.95074 220.00689 222.11504 224.21119
 226.28434 228.38148 230.49163 232.61078 234.75293 236.93808 239.20723 241.59038
 244.22453 246.48868 248.50382 250.28197 251.71212 252.84827 253.68342 254.01257
 254.06272 253.84987 253.22302 252.18416 250.80331 248.97746 246.89961 244.74576
 242.54991 240.36706 238.20021 236.05235 233.92550 231.80565 229.84480 228.01495
 226.31110 224.79625 223.43940 222.22455 221.11969 220.09284 219.20999 218.36414
 217.61929 216.81244 215.92359 215.30074 214.76389 214.27400 213.09982 211.93021
 211.30060 211.15691 212.29115 214.65099 217.85948 222.03651 227.37547 232.04385
 235.84187 240.14336 244.62444 248.94598 252.77840 256.09698 259.19189 262.25510
 265.20590 267.92487 270.42645 272.73526 274.81973 276.70007 278.41666 279.92734
 281.19342 282.24567 283.19089 284.37430 285.56863 286.65668 287.72369 288.75583
 289.68414 290.51077 291.23291 292.15320
 366.78100 356.34749 345.79198 334.67046 323.08595 311.29244 299.17493 286.99041
 274.71490 262.62439 250.64588 239.95936 230.09385 221.21034 213.40483 206.41932
 200.26580 195.21629 191.81078 189.86527 188.91475 188.99124 189.83873 191.15922
 192.89670 195.00419 197.27968 199.65117 202.10866 204.60114 206.70163 208.55612
 210.19461 211.35209 211.59358 211.83407 211.78356 211.50104 211.14653 210.78902
 210.41851 210.14100 209.96148 209.83797 209.77846 210.12195 210.52043 210.92192
 211.72741 212.91790 214.18038 215.97587 217.91636 219.97185 222.07934 224.17482
 226.24731 228.34380 230.45329 232.57177 234.71326 236.89775 239.16624 241.54872
 244.18221 246.44570 248.46019 250.23768 251.66716 252.80265 253.63714 253.96563
 254.01511 253.80160 253.17409 252.13458 250.75306 248.92655 246.84804 244.69353
 242.49702 240.31350 238.14599 235.99748 233.86997 231.74945 229.78794 227.95743
 226.25292 224.73740 223.37989 222.16438 221.05887 220.03136 219.14784 218.30133
 217.55582 216.74831 215.85879 215.23528 214.69777 214.24950 213.16110 211.94386
 211.34665 211.10223 212.19930 214.63507 217.89204 222.06418 227.39125 232.06267
 235.87164 240.17471 244.66783 249.00294 252.83731 256.13287 259.21613 262.28470
 265.22522 267.91086 270.38348 272.66733 274.67612 276.45691 278.08838 279.51691
 280.74521 281.91461 283.18912 284.55573 285.76642 286.87973 288.00256 289.02316
 289.94107 290.75848 291.47253 292.38254
 366.78100 356.34693 345.79086 334.66879 323.08372 311.28966 299.17159 286.98652
 274.71045 262.61938 250.64031 239.95324 230.08717 221.20311 213.39704 206.41097
 200.25690 195.20683 191.80076 189.85469 188.90362 188.97956 189.82649 191.14642
 192.88335 194.99028 197.26521 199.63614 202.09307 204.58500 206.68494 208.53887
 210.17680 211.33373 211.57466 211.81459 211.76352 211.48045 211.12539 210.76732
 210.39625 210.11818 209.93811 209.81404 209.75397 210.09690 210.49484 210.89577
 211.70070 212.89063 214.15256 215.94749 217.88742 219.94235 222.04928 224.14422
 226.21615 228.31208 230.42101 232.53894 234.67987 236.86380 239.13173 241.51367
 244.14660 246.40953 248.42346 250.20039 251.62932 252.76425 253.59818 253.92612
 253.97505 253.76098 253.13291 252.09284 250.71077 248.88370 246.80463 244.64957
 242.45250 240.26843 238.10036 235.95129 233.82322 231.70215 229.74008 227.90901
 226.20395 224.68788 223.32981 222.11374 221.00767 219.97960 219.09553 218.24846
 217.50240 216.69433 215.80426 215.18019 214.64212 214.20645 213.16962 212.08847
 211.49008 211.09784 212.08655 214.51692 217.79437 222.01199 227.37872 232.04982
 235.87912 240.18239 244.65886 248.99217 252.84201 256.17517 259.25842 262.31509
 265.24561 267.93948 270.39868 272.63052 274.58487 276.30771 277.87790 279.28284
 280.51166 281.68906 282.90076 284.16708 285.33951 286.39722 287.37881 288.28909
 289.19135 289.99954 290.70560 291.60535
 366.78100 356.34582 345.78865 334.66547 323.07930 311.28412 299.16495 286.97877
 274.70160 262.60942 250.62925 239.94107 230.07390 221.18872 213.38154 206.39437
 200.23919 195.18802 191.78084 189.83367 188.88149 188.95632 189.80214 191.12097
 192.85679 194.96262 197.23644 199.60627 202.06209 204.55291 206.65174 208.50456
 210.14139 211.29721 211.53704 211.77586 211.72369 211.43951 211.08334 210.72416
 210.35199 210.07281 209.89163 209.76646 209.70528 210.04711 210.44393 210.84376
 211.64758 212.83641 214.09723 215.89106 217.82988 219.88371 221.98953 224.08335
 226.15418 228.24900 230.35683 232.47365 234.61348 236.79630 239.06313 241.44395
 244.07578 246.33760 248.35043 250.12625 251.55408 252.68790 253.52072 253.84755
 253.89537 253.68020 253.05102 252.00985 250.62667 248.79850 246.71832 244.56215
 242.36397 240.17880 238.00962 235.85944 233.73027 231.60809 229.64492 227.81274
 226.10657 224.58939 223.23022 222.01304 220.90587 219.87669 218.99152 218.14334
 217.39617 216.58699 215.69581 215.07064 214.53146 214.15158 213.24568 212.15031
 211.65443 211.18710 212.00009 214.33879 217.62834 221.90611 227.31535 231.99272
 235.82977 240.14163 244.62215 248.94786 252.77016 256.08157 259.17801 262.27823
 265.23395 267.93579 270.39667 272.63022 274.57367 276.26361 277.81168 279.21765
 280.46448 281.61023 282.70612 283.87997 285.05756 286.11572 287.10025 288.01031
 288.90741 289.72787 290.44464 291.35806
 366.78100 356.34477 345.78654 334.66231 323.07508 311.27886 299.15863 286.97140
 274.69317 262.59994 250.61871 239.92948 230.06125 221.17502 213.36679 206.37857
 200.22234 195.17011 191.76188 189.81365 188.86042 188.93419 189.77896 191.09673
 192.83150 194.93628 197.20905 199.57782 202.03259 204.52236 206.62013 208.47190
 210.10767 211.26244 211.50121 211.73899 211.68576 211.40053 211.04330 210.68307
 210.30984 210.02961 209.84738 209.72115 209.65892 209.99970 210.39547 210.79424
 211.59701 212.78478 214.04455 215.83732 217.77509 219.82786 221.93263 224.02541
 226.09518 228.18895 230.29572 232.41149 234.55026 236.73203 238.99780 241.37757
 244.00835 246.26912 248.28089 250.05566 251.48243 252.61520 253.44697 253.77274
 253.81951 253.60328 252.97306 251.93083 250.54660 248.71737 246.63614 244.47891
 242.27968 240.09345 237.92322 235.77199 233.64177 231.51854 229.55431 227.72108
 226.01385 224.49562 223.13539 221.91716 220.80893 219.77870 218.89248 218.04325
 217.29502 216.48479 215.59256 214.96633 214.42610 214.12173 213.35460 212.17715
 211.56650 211.10326 212.03021 214.38086 217.68040 221.93008 227.31575 232.02501
 235.85982 240.16373 244.64130 248.93028 252.71881 256.02097 259.17365 262.29929
 265.25198 267.94144 270.39355 272.59747 274.48904 276.15015 277.67947 279.08578
 280.39532 281.60281 282.72940 284.01993 285.23749 286.42218 287.57892 288.62686
 289.56937 290.40866 291.14188 292.07626
 366.78100 356.34587 345.78874 334.66561 323.07948 311.28435 299.16522 286.97909
 274.70196 262.60983 250.62970 239.94157 230.07444 221.18932 213.38219 206.39506
 200.23993 195.18880 191.78167 189.83454 188.88241 188.95728 189.80315 191.12202
 192.85789 194.96376 197.23763 199.60750 202.06337 204.55424 206.65311 208.50598
 210.14285 211.29872 211.53859 211.77746 211.72533 211.44121 211.08508 210.72595
 210.35382 210.07469 209.89356 209.76843 209.70730 210.04917 210.44604 210.84591
 211.64978 212.83865 214.09952 215.89339 217.83226 219.88613 221.99200 224.08587
 226.15674 228.25161 230.35948 232.47635 234.61622 236.79910 239.06597 241.44684
 244.07871 246.34058 248.35345 250.12932 251.55719 252.69106 253.52393 253.85080
 253.89867 253.68354 253.05441 252.01328 250.63015 248.80202 246.72189 244.56576
 242.36763 240.18250 238.01337 235.86324 233.73411 231.61199 229.64886 227.81673
 226.11060 224.59347 223.23434 222.01721 220.91008 219.88095 218.99582 218.14769
 217.40056 216.59143 215.70030 215.07517 214.53604 214.19437 213.32938 212.24048
 211.61801 211.13747 212.09511 214.44243 217.73286 221.95552 227.36377 232.04776
 235.89896 240.19699 244.69099 248.99338 252.77075 256.02917 259.17780 262.32974
 265.28635 267.97000 270.40057 272.54889 274.35861 275.94540 277.43610 278.77609
 279.93344 281.37912 282.91638 284.33466 285.73367 287.00235 288.15985 289.20844
 290.15155 290.99136 291.72504 292.66000
 366.78100 356.34743 345.79187 334.67030 323.08573 311.29217 299.17460 286.99003
 274.71447 262.62390 250.64533 239.95877 230.09320 221.20963 213.40407 206.41850
 200.26493 195.21536 191.80980 189.86423 188.91366 188.99010 189.83753 191.15796
 192.89540 195.00283 197.27826 199.64970 202.10713 204.59956 206.70000 208.55443
 210.19286 211.35030 211.59173 211.83216 211.78160 211.49903 211.14446 210.78690
 210.41633 210.13876 209.95920 209.83563 209.77606 210.11949 210.51793 210.91936
 211.72479 212.91523 214.17766 215.97309 217.91353 219.96896 222.07639 224.17183
 226.24426 228.34069 230.45013 232.56856 234.70999 236.89443 239.16286 241.54529
 244.17873 246.44216 248.45659 250.23403 251.66346 252.79889 253.63333 253.96176
 254.01119 253.79762 253.17006 252.13049 250.74892 248.92236 246.84379 244.68922
 242.49266 240.30909 238.14152 235.99296 233.86539 231.74482 229.78326 227.95269
 226.24812 224.73256 223.37499 222.15942 221.05386 220.02629 219.14272 218.29616
 217.55059 216.74302 215.85346 215.22989 214.69232 214.28040 213.27386 212.28619
 211.74133 211.17020 212.00966 214.34026 217.65323 221.90820 227.30861 232.01965
 235.88269 240.18829 244.67973 248.97208 252.72914 255.98250 259.13440 262.32901
 265.31689 268.01913 270.44791 272.56207 274.28647 275.74057 277.06671 278.19867
 279.68921 281.17642 282.68268 284.06146 285.36301 286.56464 287.66095 288.65411
 289.54736 290.34280 291.03769 291.92325
 366.78100 356.34653 345.79006 334.66758 323.08211 311.28764 299.16917 286.98369
 274.70722 262.61575 250.63628 239.94881 230.08233 221.19786 213.39139 206.40492
 200.25044 195.19997 191.79350 189.84703 188.89556 188.97108 189.81761 191.13714
 192.87367 194.98019 197.25472 199.62525 202.08178 204.57331 206.67283 208.52636
 210.16389 211.32042 211.56094 211.80047 211.74900 211.46553 211.11005 210.75158
 210.38011 210.10164 209.92117 209.79669 209.73622 210.07875 210.47628 210.87680
 211.68133 212.87086 214.13239 215.92692 217.86644 219.92097 222.02750 224.12203
 226.19355 228.28908 230.39761 232.51514 234.65567 236.83919 239.10672 241.48825
 244.12078 246.38330 248.39683 250.17336 251.60189 252.73642 253.56994 253.89747
 253.94600 253.73153 253.10305 252.06258 250.68011 248.85264 246.77317 244.61769
 242.42022 240.23575 238.06728 235.91780 233.78933 231.66786 229.70539 227.87392
 226.16844 224.65197 223.29350 222.07703 220.97055 219.94208 219.05761 218.21014
 217.46367 216.65519 215.76472 215.14025 214.60178 214.23627 213.33968 212.30228
 211.80095 211.17300 211.86421 214.19098 217.54111 221.83740 227.22993 231.96677
 235.83562 240.14462 244.61588 248.87877 252.62492 255.91779 259.11572 262.34244
 265.36124 268.09131 270.53409 272.64548 274.32095 275.67072 276.90439 278.10648
 279.59015 280.80551 282.24258 283.60056 284.81955 286.00742 287.14615 288.17780
 289.10562 289.93185 290.65366 291.57349
 366.78100 356.34497 345.78693 334.66290 323.07586 311.27983 299.15980 286.97276
 274.69473 262.60169 250.62066 239.93163 230.06359 221.17756 213.36952 206.38149
 200.22546 195.17342 191.76539 189.81735 188.86432 188.93829 189.78325 191.10122
 192.83618 194.94115 197.21412 199.58308 202.03805 204.52801 206.62598 208.47795
 210.11391 211.26888 211.50784 211.74581 211.69278 211.40774 211.05071 210.69067
 210.31764 210.03761 209.85557 209.72954 209.66751 210.00847 210.40444 210.80340
 211.60637 212.79434 214.05430 215.84727 217.78523 219.83820 221.94317 224.03613
 226.10610 228.20006 230.30703 232.42300 234.56196 236.74393 239.00989 241.38986
 244.02083 246.28179 248.29376 250.06872 251.49569 252.62866 253.46062 253.78659
 253.83355 253.61752 252.98749 251.94545 250.56142 248.73238 246.65135 244.49432
 242.29528 240.10925 237.93921 235.78818 233.65815 231.53511 229.57108 227.73804
 226.03101 224.51298 223.15294 221.93491 220.82687 219.79684 218.91081 218.06177
 217.31374 216.50370 215.61167 214.98564 214.44560 214.14240 213.41190 212.45612
 211.75334 211.11026 211.79314 214.10912 217.46826 221.78781 227.21710 231.91977
 235.80795 240.11487 244.55727 248.79738 252.53748 255.85126 259.05704 262.27716
 265.32071 268.08163 270.56174 272.70218 274.39114 275.72366 276.95401 278.20813
 279.48416 280.81430 282.11069 283.35495 284.53125 285.59760 286.60327 287.60547
 288.54071 289.37357 290.10114 291.02835
 366.78100 356.34498 345.78695 334.66293 323.07590 311.27988 299.15985 286.97283
 274.69480 262.60178 250.62075 239.93173 230.06370 221.17768 213.36965 206.38163
 200.22560 195.17358 191.76555 189.81753 188.86450 188.93848 189.78345 191.10143
 192.83640 194.94138 197.21435 199.58333 202.03830 204.52828 206.62625 208.47823
 210.11420 211.26918 211.50815 211.74613 211.69310 211.40808 211.05105 210.69103
 210.31800 210.03798 209.85595 209.72993 209.66790 210.00888 210.40485 210.80383
 211.60680 212.79478 214.05475 215.84773 217.78570 219.83868 221.94365 224.03663
 226.10660 228.20058 230.30755 232.42353 234.56250 236.74448 239.01045 241.39043
 244.02140 246.28238 248.29435 250.06933 251.49630 252.62928 253.46125 253.78723
 253.83420 253.61818 252.98815 251.94613 250.56210 248.73308 246.65205 244.49503
 242.29600 240.10998 237.93995 235.78893 233.65890 231.53588 229.57185 227.73883
 226.03180 224.51378 223.15375 221.93573 220.82770 219.79768 218.91165 218.06263
 217.31460 216.50458 215.61255 214.98653 214.44650 214.12642 213.37019 212.62782
 211.97458 211.16592 211.63318 213.94234 217.32913 221.71071 227.24637 231.85008
 235.80408 240.09995 244.55240 248.81966 252.55118 255.82254 258.97888 262.20102
 265.22571 267.92963 270.37558 272.51282 274.23642 275.62766 276.96323 278.32193
 279.69952 281.03906 282.28900 283.47583 284.52844 285.54572 286.46329 287.22943
 287.95557 288.64624 289.29129 290.12378
 366.78100 356.34575 345.78850 334.66525 323.07900 311.28375 299.16450 286.97825
 274.70100 262.60874 250.62849 239.94024 230.07299 221.18774 213.38049 206.39324
 200.23799 195.18674 191.77949 189.83224 188.87999 188.95474 189.80049 191.11924
 192.85499 194.96074 197.23448 199.60423 202.05998 204.55073 206.64948 208.50223
 210.13898 211.29473 211.53448 211.77323 211.72098 211.43673 211.08048 210.72123
 210.34898 210.06973 209.88848 209.76322 209.70197 210.04372 210.44047 210.84022
 211.64397 212.83272 214.09347 215.88722 217.82597 219.87972 221.98547 224.07922
 226.14997 228.24472 230.35247 232.46922 234.60896 236.79171 239.05846 241.43921
 244.07096 246.33271 248.34546 250.12121 251.54896 252.68271 253.51546 253.84221
 253.88996 253.67471 253.04546 252.00421 250.62096 248.79270 246.71245 244.55620
 242.35795 240.17270 238.00345 235.85320 233.72395 231.60170 229.63845 227.80620
 226.09995 224.58270 223.22345 222.00620 220.89895 219.86970 218.98444 218.13619
 217.38894 216.57969 215.68844 215.06319 214.52394 214.19373 213.40440 212.56085
 212.07346 211.06845 211.58066 213.97601 217.36844 221.71367 227.16817 231.90152
 235.77512 240.07904 244.50291 248.72009 252.46220 255.81308 259.05014 262.24832
 265.22568 267.89877 270.27823 272.30508 273.91504 275.27423 276.64624 278.14819
 279.68799 281.15338 282.46628 283.61472 284.70554 285.77380 286.76984 287.71747
 288.59595 289.37823 290.06165 290.93253
 366.78100 356.34371 345.78441 334.65912 323.07083 311.27353 299.15224 286.96395
 274.68465 262.59036 250.60807 239.91777 230.04848 221.16119 213.35189 206.36260
 200.20531 195.15201 191.74272 189.79343 188.83913 188.91184 189.75555 191.07225
 192.80596 194.90967 197.18137 199.54908 202.00279 204.49149 206.58820 208.43891
 210.07361 211.22732 211.46503 211.70174 211.64744 211.36115 211.00286 210.64156
 210.26727 209.98598 209.80268 209.67539 209.61210 209.95180 210.34651 210.74422
 211.54592 212.73263 213.99134 215.78304 217.71975 219.77146 221.87516 223.96687
 226.03558 228.12828 230.23399 232.34870 234.48640 236.66711 238.93182 241.31052
 243.94023 246.19994 248.21064 249.98435 251.41006 252.54176 253.37247 253.69718
 253.74288 253.52559 252.89430 251.85100 250.46571 248.63542 246.55312 244.39483
 242.19454 240.00724 237.83595 235.68366 233.55236 231.42807 229.46278 227.62848
 225.92019 224.40090 223.03960 221.82031 220.71102 219.67972 218.79243 217.94214
 217.19284 216.38155 215.48826 214.86096 214.31967 214.13147 213.59706 212.42336
 211.94572 211.35411 211.90767 214.07076 217.39458 221.70280 227.13121 231.85484
 235.73741 240.03993 244.48845 248.70259 252.42833 255.77669 259.08115 262.36169
 265.37308 268.05240 270.40671 272.35403 273.84943 275.14502 276.57861 278.15945
 279.78510 281.26315 282.78067 284.20886 285.62454 286.95087 288.16095 289.25720
 290.24316 291.12115 291.88815 292.86560
 366.78100 356.34250 345.78201 334.65551 323.06602 311.26752 299.14503 286.95553
 274.67504 262.57954 250.59605 239.90455 230.03406 221.14556 213.33507 206.34457
 200.18608 195.13158 191.72109 189.77059 188.81510 188.88660 189.72911 191.04461
 192.77711 194.87962 197.15012 199.51663 201.96913 204.45664 206.55214 208.40165
 210.03515 211.18766 211.42416 211.65967 211.60417 211.31668 210.95718 210.59469
 210.21919 209.93670 209.75220 209.62371 209.55921 209.89772 210.29122 210.68772
 211.48823 212.67373 213.93124 215.72174 217.65725 219.70775 221.81026 223.90076
 225.96827 228.05977 230.16428 232.27778 234.41429 236.59379 238.85730 241.23480
 243.86331 246.12181 248.13132 249.90382 251.32833 252.45883 253.28833 253.61184
 253.65634 253.43785 252.80535 251.76086 250.37436 248.54287 246.45937 244.29988
 242.09838 239.90989 237.73739 235.58390 233.45140 231.32591 229.35941 227.52392
 225.81442 224.29393 222.93143 221.71094 220.60044 219.56794 218.67945 217.82795
 217.07746 216.26496 215.37047 214.74197 214.19948 214.05254 213.67175 212.63675
 211.67349 211.16483 211.79401 213.97002 217.31912 221.66289 227.10175 231.84698
 235.74294 240.03976 244.43210 248.61226 252.35062 255.74144 259.03336 262.27863
 265.30673 268.00894 270.36038 272.32510 273.88904 275.26743 276.77975 278.44855
 280.11008 281.64569 283.06058 284.41196 285.61639 286.67764 287.72906 288.74350
 289.65591 290.46838 291.17816 292.08267
 366.78100 356.34364 345.78427 334.65891 323.07054 311.27318 299.15181 286.96345
 274.68408 262.58972 250.60735 239.91699 230.04762 221.16026 213.35089 206.36153
 200.20416 195.15080 191.74144 189.79207 188.83771 188.91034 189.75398 191.07061
 192.80425 194.90788 197.17952 199.54715 202.00079 204.48942 206.58606 208.43669
 210.07133 211.22497 211.46260 211.69924 211.64487 211.35851 211.00014 210.63878
 210.26441 209.98305 209.79968 209.67232 209.60895 209.94859 210.34322 210.74086
 211.54249 212.72913 213.98777 215.77940 217.71604 219.76767 221.87131 223.96294
 226.03158 228.12421 230.22985 232.34448 234.48212 236.66275 238.92739 241.30602
 243.93566 246.19529 248.20593 249.97957 251.40520 252.53684 253.36747 253.69211
 253.73774 253.52038 252.88901 251.84565 250.46028 248.62992 246.54755 244.38919
 242.18882 240.00146 237.83010 235.67773 233.54637 231.42200 229.45664 227.62227
 225.91391 224.39454 223.03318 221.81381 220.70445 219.67308 218.78572 217.93535
 217.18599 216.37462 215.48126 214.85390 214.31253 214.09055 213.56514 212.99173
 211.89400 211.09903 211.64664 213.81409 217.16412 221.55373 227.07368 231.75325
 235.71724 240.00116 244.39647 248.59137 252.34140 255.73375 259.00952 262.24097
 265.25052 267.89908 270.17532 272.07605 273.63089 275.05450 276.66928 278.49768
 280.27786 281.83890 283.15787 284.37601 285.51520 286.43881 287.36414 288.24173
 289.06174 289.82980 290.50076 291.35583
 366.78100 356.34291 345.78282 334.65673 323.06763 311.26954 299.14745 286.95836
 274.67827 262.58318 250.60009 239.90900 230.03890 221.15081 213.34072 206.35063
 200.19254 195.13845 191.72836 189.77826 188.82317 188.89508 189.73799 191.05390
 192.78681 194.88972 197.16063 199.52753 201.98044 204.46835 206.56426 208.41417
 210.04808 211.20099 211.43790 211.67380 211.61871 211.33162 210.97253 210.61044
 210.23535 209.95326 209.76916 209.64107 209.57698 209.91589 210.30980 210.70671
 211.50762 212.69353 213.95143 215.74234 217.67825 219.72916 221.83207 223.92298
 225.99089 228.08279 230.18770 232.30161 234.43852 236.61843 238.88234 241.26025
 243.88916 246.14806 248.15797 249.93088 251.35579 252.48670 253.31661 253.64052
 253.68543 253.46733 252.83524 251.79115 250.40506 248.57397 246.49088 244.33179
 242.13069 239.94260 237.77051 235.61742 233.48533 231.36024 229.39415 227.55906
 225.84996 224.32987 222.96778 221.74769 220.63760 219.60551 218.71742 217.86632
 217.11623 216.30414 215.41005 214.78196 214.23987 214.06848 213.65477 213.07112
 211.87384 210.97940 211.55731 213.75531 217.14969 221.54005 227.02179 231.77475
 235.68117 239.98863 244.37601 248.54948 252.30194 255.73622 259.07169 262.33731
 265.35651 267.98685 270.20496 272.04428 273.56647 274.99722 276.67334 278.51123
 280.25937 281.84265 283.26440 284.55469 285.63272 286.65372 287.63055 288.59247
 289.46008 290.23273 290.90768 291.76782
 366.78100 356.34203 345.78105 334.65408 323.06410 311.26513 299.14215 286.95218
 274.67120 262.57523 250.59125 239.89928 230.02830 221.13933 213.32835 206.33738
 200.17840 195.12343 191.71245 189.76148 188.80550 188.87653 189.71855 191.03358
 192.76560 194.86763 197.13765 199.50368 201.95570 204.44273 206.53775 208.38678
 210.01980 211.17183 211.40785 211.64288 211.58690 211.29893 210.93895 210.57598
 210.20000 209.91703 209.73205 209.60308 209.53810 209.87613 210.26915 210.66518
 211.46520 212.65023 213.90725 215.69728 217.63230 219.68233 221.78435 223.87438
 225.94140 228.03243 230.13645 232.24948 234.38550 236.56453 238.82755 241.20458
 243.83260 246.09063 248.09965 249.87168 251.29570 252.42573 253.25475 253.57778
 253.62180 253.40283 252.76985 251.72488 250.33790 248.50593 246.42195 244.26198
 242.06000 239.87103 237.69805 235.54408 233.41110 231.28513 229.31815 227.48218
 225.77220 224.25123 222.88825 221.66728 220.55630 219.52333 218.63435 217.78238
 217.03140 216.21843 215.32345 214.69448 214.15150 214.05737 213.78529 213.06868
 211.95308 211.02994 211.59406 213.85350 217.26353 221.60638 227.06728 231.79784
 235.69060 239.98424 244.38715 248.56516 252.29790 255.70932 259.04422 262.31622
 265.36203 268.03412 270.26920 272.09360 273.65002 275.23947 276.99438 278.83365
 280.51404 282.11325 283.67014 285.06848 286.37827 287.53711 288.59436 289.55215
 290.41357 291.18069 291.85083 292.70483
 366.78100 356.34100 345.77900 334.65100 323.06000 311.26000 299.13600 286.94500
 274.66300 262.56600 250.58100 239.88799 230.01599 221.12599 213.31399 206.32199
 200.16199 195.10599 191.69399 189.74199 188.78499 188.85499 189.69599 191.00999
 192.74099 194.84199 197.11099 199.47599 201.92699 204.41299 206.50699 208.35498
 209.98698 211.13798 211.37298 211.60698 211.54998 211.26098 210.89998 210.53598
 210.15898 209.87498 209.68898 209.55898 209.49298 209.82998 210.22198 210.61698
 211.41598 212.59998 213.85598 215.64497 217.57897 219.62797 221.72897 223.81797
 225.88397 227.97397 230.07697 232.18897 234.32397 236.50197 238.76397 241.13997
 243.76697 246.02397 248.03197 249.80297 251.22597 252.35497 253.18297 253.50496
 253.54796 253.32796 252.69396 251.64796 250.25996 248.42696 246.34196 244.18096
 241.97796 239.78796 237.61396 235.45896 233.32496 231.19796 229.22996 227.39296
 225.68196 224.15996 222.79596 221.57395 220.46195 219.42795 218.53795 217.68495
 216.93295 216.11895 215.22295 214.59295 214.04895 214.06609 213.89197 212.94785
 212.01814 211.19211 211.61670 213.91911 217.29871 221.53125 227.03986 231.77943
 235.65703 239.93234 244.28618 248.42300 252.18906 255.69057 259.08047 262.34613
 265.38004 268.08185 270.32422 272.15805 273.77634 275.49246 277.48514 279.42773
 281.63699 283.87354 285.80890 287.50830 288.97897 290.28015 291.46729 292.54272
 293.50998 294.37131 295.12378 296.08267
 366.78100 356.33954 345.77609 334.64663 323.05418 311.25272 299.12726 286.93481
 274.65135 262.55290 250.56644 239.87199 229.99853 221.10707 213.29362 206.30016
 200.13871 195.08125 191.66779 189.71434 188.75588 188.82443 189.66397 190.97651
 192.70606 194.80560 197.07315 199.43669 201.88624 204.37078 206.46332 208.30987
 209.94041 211.08996 211.32350 211.55604 211.49759 211.20713 210.84468 210.47922
 210.10076 209.81531 209.62785 209.49640 209.42894 209.76449 210.15503 210.54857
 211.34612 212.52866 213.78321 215.57075 217.50329 219.55084 221.65038 223.73793
 225.80247 227.89101 229.99256 232.10310 234.23665 236.41319 238.67374 241.04828
 243.67382 245.92937 247.93591 249.70546 251.12700 252.25454 253.08109 253.40163
 253.44318 253.22172 252.58626 251.53881 250.14935 248.31490 246.22844 244.06599
 241.86153 239.67007 237.49462 235.33816 233.20271 231.07425 229.10479 227.26634
 225.55388 224.03043 222.66497 221.44151 220.32806 219.29260 218.40115 217.54669
 216.79324 215.97778 215.08032 214.44887 213.90341 214.04524 213.95052 212.84833
 212.03992 211.20058 211.74066 213.99814 217.30357 221.56642 226.89345 231.68306
 235.56570 239.83870 244.16890 248.28958 252.10057 255.69434 259.16071 262.46927
 265.53958 268.27325 270.53296 272.27927 273.82941 275.71640 278.24713 281.33463
 284.04364 286.36569 288.37506 290.13943 291.66632 293.01724 294.24976 295.36630
 296.37054 297.26480 298.04602 299.04160
 366.78100 356.34048 345.77796 334.64944 323.05792 311.25740 299.13288 286.94136
 274.65884 262.56132 250.57579 239.88227 230.00975 221.11923 213.30671 206.31419
 200.15367 195.09715 191.68463 189.73211 188.77459 188.84407 189.68455 190.99803
 192.72851 194.82899 197.09747 199.46195 201.91243 204.39790 206.49138 208.33886
 209.97034 211.12082 211.35530 211.58878 211.53126 211.24174 210.88022 210.51570
 210.13818 209.85366 209.66714 209.53662 209.47010 209.80658 210.19806 210.59254
 211.39102 212.57449 213.82997 215.61845 217.55193 219.60041 221.70089 223.78937
 225.85485 227.94433 230.04681 232.15829 234.29277 236.47025 238.73173 241.10721
 243.73369 245.99017 247.99765 249.76813 251.19060 252.31908 253.14656 253.46804
 253.51052 253.29000 252.65548 251.60896 250.22044 248.38692 246.30140 244.13988
 241.93636 239.74584 237.57132 235.41580 233.28128 231.15376 229.18524 227.34771
 225.63619 224.11367 222.74915 221.52663 220.41411 219.37959 218.48907 217.63555
 216.88303 216.06851 215.17199 214.54147 213.99695 214.08415 213.96222 212.86201
 212.05431 211.36644 211.78918 214.03667 217.35022 221.56198 226.85863 231.62552
 235.50436 239.76602 244.07103 248.16124 251.95917 255.58228 259.10233 262.45935
 265.51575 268.13635 270.17148 271.87659 273.71579 276.04221 278.72681 281.58694
 284.16528 286.37531 288.28772 289.96695 291.42020 292.70593 293.87897 294.94165
 295.89743 296.74857 297.49210 298.43964
 366.78100 356.34398 345.78496 334.65995 323.07193 311.27491 299.15389 286.96587
 274.68686 262.59284 250.61082 239.92080 230.05178 221.16477 213.35575 206.36673
 200.20971 195.15669 191.74768 189.79866 188.84464 188.91762 189.76160 191.07859
 192.81257 194.91655 197.18853 199.55651 202.01050 204.49948 206.59646 208.44744
 210.08242 211.23641 211.47439 211.71137 211.65735 211.37133 211.01332 210.65230
 210.27828 209.99726 209.81424 209.68723 209.62421 209.96419 210.35917 210.75715
 211.55914 212.74612 214.00510 215.79708 217.73406 219.78605 221.89003 223.98201
 226.05099 228.14397 230.24996 232.36494 234.50292 236.68390 238.94888 241.32787
 243.95785 246.21783 248.22881 250.00279 251.42877 252.56076 253.39174 253.71672
 253.76270 253.54568 252.91467 251.87165 250.48663 248.65661 246.57459 244.41658
 242.21656 240.02954 237.85852 235.70650 233.57549 231.45147 229.48645 227.65243
 225.94441 224.42540 223.06438 221.84536 220.73634 219.70532 218.81831 217.96829
 217.21927 216.40825 215.51523 214.88822 214.34720 214.23486 213.88013 213.08311
 212.05746 211.43477 211.70692 213.92815 217.33292 221.56596 226.88252 231.60516
 235.48119 239.73259 244.02892 248.08153 251.82765 255.44426 258.99860 262.43243
 265.63101 268.34042 270.39590 271.74911 273.16425 275.22964 277.69757 280.30606
 282.88492 285.09540 287.00818 288.68777 290.14130 291.42731 292.60059 293.66351
 294.61948 295.47076 296.21445 297.16217
 366.78100 356.34577 345.78854 334.66530 323.07907 311.28384 299.16461 286.97838
 274.70114 262.60891 250.62868 239.94045 230.07322 221.18798 213.38075 206.39352
 200.23829 195.18706 191.77982 189.83259 188.88036 188.95513 189.80090 191.11966
 192.85543 194.96120 197.23497 199.60474 202.06050 204.55127 206.65004 208.50281
 210.13958 211.29534 211.53511 211.77388 211.72165 211.43742 211.08118 210.72195
 210.34972 210.07049 209.88926 209.76403 209.70279 210.04456 210.44133 210.84110
 211.64487 212.83363 214.09440 215.88817 217.82694 219.88071 221.98647 224.08024
 226.15101 228.24578 230.35355 232.47031 234.61008 236.79285 239.05962 241.44039
 244.07215 246.33392 248.34669 250.12246 251.55023 252.68399 253.51676 253.84353
 253.89130 253.67607 253.04683 252.00560 250.62237 248.79414 246.71391 244.55767
 242.35944 240.17421 238.00498 235.85475 233.72551 231.60328 229.64005 227.80782
 226.10159 224.58435 223.22512 222.00789 220.90066 219.87143 218.98619 218.13796
 217.39073 216.58150 215.69027 215.06503 214.52580 214.34290 213.86890 213.20612
 212.02383 211.23402 211.72945 213.85762 217.22377 221.55905 226.84612 231.60957
 235.47661 239.71384 243.98624 248.03920 251.80919 255.43198 258.97461 262.39603
 265.61566 268.38678 270.51956 272.00314 273.41238 275.07562 277.84064 281.13525
 283.99481 286.44589 288.56689 290.42932 292.04105 293.46704 294.76804 295.94666
 297.00668 297.95065 298.77527 299.82617
 366.78100 356.34492 345.78684 334.66276 323.07568 311.27960 299.15952 286.97244
 274.69436 262.60128 250.62020 239.93112 230.06304 221.17696 213.36888 206.38080
 200.22472 195.17264 191.76456 189.81648 188.86340 188.93732 189.78224 191.10016
 192.83508 194.94000 197.21292 199.58184 202.03676 204.52668 206.62460 208.47652
 210.11244 211.26736 211.50628 211.74420 211.69112 211.40604 211.04896 210.68888
 210.31580 210.03572 209.85364 209.72756 209.66548 210.00640 210.40232 210.80124
 211.60416 212.79208 214.05200 215.84492 217.78284 219.83577 221.94069 224.03361
 226.10353 228.19745 230.30437 232.42029 234.55921 236.74113 239.00705 241.38697
 244.01789 246.27881 248.29073 250.06565 251.49257 252.62549 253.45741 253.78333
 253.83025 253.61417 252.98409 251.94201 250.55793 248.72885 246.64777 244.49069
 242.29161 240.10553 237.93545 235.78437 233.65429 231.53121 229.56713 227.73405
 226.02697 224.50889 223.14881 221.93073 220.82265 219.79257 218.90649 218.05741
 217.30933 216.49925 215.60717 214.98109 214.44101 214.33723 213.93433 213.22713
 212.00679 211.02083 211.59190 213.73125 217.11591 221.56030 226.86526 231.63768
 235.51576 239.76260 244.05611 248.14684 251.95126 255.59290 259.10092 262.45679
 265.63184 268.43497 270.62091 272.20172 273.52466 275.62045 279.34604 282.78323
 285.76657 288.32376 290.53656 292.47958 294.16110 295.64880 297.00610 298.23572
 299.34164 300.32648 301.18677 302.28317
 366.78100 356.34324 345.78347 334.65771 323.06894 311.27118 299.14941 286.96065
 274.68089 262.58612 250.60336 239.91259 230.04283 221.15506 213.34530 206.35554
 200.19777 195.14401 191.73424 189.78448 188.82971 188.90195 189.74518 191.06142
 192.79466 194.89789 197.16913 199.53636 201.98960 204.47783 206.57407 208.42431
 210.05854 211.21178 211.44901 211.68525 211.63048 211.34372 210.98496 210.62319
 210.24843 209.96666 209.78290 209.65513 209.59137 209.93061 210.32484 210.72208
 211.52331 212.70955 213.96778 215.75902 217.69526 219.74649 221.84973 223.94096
 226.00920 228.10143 230.20667 232.32090 234.45814 236.63838 238.90261 241.28085
 243.91008 246.16932 248.17955 249.95279 251.37803 252.50926 253.33950 253.66373
 253.70897 253.49120 252.85944 251.81568 250.42991 248.59915 246.51638 244.35762
 242.15685 239.96909 237.79733 235.64456 233.51280 231.38803 229.42227 227.58750
 225.87874 224.35898 222.99721 221.77745 220.66768 219.63592 218.74815 217.89739
 217.14763 216.33586 215.44210 214.81433 214.27257 214.28964 214.00587 213.24364
 212.20808 210.98027 211.48431 213.65927 216.98671 221.48413 226.78888 231.56815
 235.45529 239.70976 244.03053 248.15424 252.00745 255.71759 259.28638 262.64590
 265.79929 268.60529 270.89389 272.52496 273.73987 276.73050 280.51077 283.88373
 286.81134 289.32074 291.49222 293.39893 295.04901 296.50891 297.84085 299.04752
 300.13275 301.09918 301.94342 303.01932
 366.78100 356.34325 345.78349 334.65774 323.06899 311.27123 299.14948 286.96073
 274.68098 262.58622 250.60347 239.91272 230.04296 221.15521 213.34546 206.35570
 200.19795 195.14420 191.73445 189.78469 188.82994 188.90219 189.74543 191.06168
 192.79493 194.89817 197.16942 199.53667 201.98992 204.47816 206.57441 208.42466
 210.05890 211.21215 211.44940 211.68564 211.63089 211.34414 210.98538 210.62363
 210.24888 209.96713 209.78337 209.65562 209.59187 209.93111 210.32536 210.72261
 211.52385 212.71010 213.96835 215.75960 217.69584 219.74709 221.85034 223.94158
 226.00983 228.10208 230.20732 232.32157 234.45882 236.63907 238.90331 241.28156
 243.91081 246.17005 248.18030 249.95355 251.37879 252.51004 253.34029 253.66453
 253.70978 253.49203 252.86028 251.81652 250.43077 248.60002 246.51726 244.35851
 242.15776 239.97000 237.79825 235.64550 233.51375 231.38899 229.42324 227.58849
 225.87973 224.35998 222.99823 221.77847 220.66872 219.63697 218.74922 217.89846
 217.14871 216.33696 215.44320 214.81545 214.27370 214.29169 214.04503 213.19263
 212.29494 211.11795 211.52922 213.69377 217.06897 221.35214 226.67862 231.46109
 235.34395 239.58394 243.85153 247.92903 251.77870 255.55258 259.22104 262.70413
 265.95477 268.78860 270.97470 272.66357 274.29276 276.83472 280.19342 283.35425
 286.09772 288.44931 290.48419 292.27100 293.81732 295.18539 296.43359 297.56433
 298.58133 299.48697 300.27814 301.28635
 366.78100 356.34506 345.78711 334.66317 323.07623 311.28028 299.16034 286.97340
 274.69545 262.60251 250.62157 239.93262 230.06468 221.17874 213.37080 206.38285
 200.22691 195.17497 191.76702 189.81908 188.86614 188.94019 189.78525 191.10331
 192.83836 194.94342 197.21648 199.58553 202.04059 204.53065 206.62870 208.48076
 210.11682 211.27187 211.51093 211.74899 211.69605 211.41110 211.05416 210.69422
 210.32127 210.04133 209.85939 209.73344 209.67150 210.01256 210.40861 210.80767
 211.61073 212.79878 214.05884 215.85190 217.78995 219.84301 221.94807 224.04112
 226.11118 228.20524 230.31230 232.42835 234.56741 236.74947 239.01552 241.39558
 244.02664 246.28769 248.29975 250.07481 251.50186 252.63492 253.46698 253.79303
 253.84009 253.62415 252.99420 251.95226 250.56832 248.73937 246.65843 244.50149
 242.30255 240.11660 237.94666 235.79572 233.66577 231.54283 229.57889 227.74594
 226.03900 224.52106 223.16111 221.94317 220.83523 219.80528 218.91934 218.07040
 217.32245 216.51251 215.62057 214.99462 214.45468 214.34984 214.00764 213.25626
 212.36931 211.47015 211.46858 213.67001 217.12555 221.39017 226.65521 231.44125
 235.30542 239.50893 243.73697 247.78362 251.60384 255.33910 258.99063 262.44934
 265.65765 268.47290 270.79700 272.68539 274.40845 276.33270 278.60266 280.97491
 283.26492 285.24591 286.96008 288.46530 289.76791 290.92038 291.97183 292.92441
 293.78113 294.54404 295.21048 296.05981
 366.78100 356.34593 345.78885 334.66578 323.07971 311.28464 299.16556 286.97949
 274.70242 262.61035 250.63027 239.94220 230.07513 221.19006 213.38298 206.39591
 200.24084 195.18976 191.78269 189.83562 188.88355 188.95847 189.80440 191.12333
 192.85926 194.96518 197.23911 199.60904 202.06497 204.55589 206.65482 208.50775
 210.14467 211.30060 211.54053 211.77946 211.72738 211.44331 211.08724 210.72817
 210.35609 210.07702 209.89595 209.77088 209.70980 210.05173 210.44866 210.84858
 211.65251 212.84144 214.10237 215.89629 217.83522 219.88915 221.99508 224.08900
 226.15993 228.25486 230.36279 232.47971 234.61964 236.80257 239.06949 241.45042
 244.08235 246.34428 248.35720 250.13313 251.56106 252.69499 253.52791 253.85484
 253.90277 253.68769 253.05862 252.01755 250.63448 248.80640 246.72633 244.57026
 242.37219 240.18711 238.01804 235.86797 233.73890 231.61682 229.65375 227.82168
 226.11560 224.59853 223.23946 222.02239 220.91531 219.88624 219.00117 218.15310
 217.40602 216.59695 215.70588 215.08081 214.54173 214.38466 213.98503 213.34946
 212.29771 211.59651 211.68346 213.48418 216.94209 221.38840 226.53253 231.42889
 235.27534 239.47765 243.69933 247.74580 251.57440 255.30746 258.94995 262.38876
 265.59106 268.43195 270.80222 272.72284 274.38782 276.12564 278.09094 279.99008
 281.47577 283.39099 285.15030 286.69510 288.03198 289.21481 290.29395 291.27155
 292.15082 292.93381 293.61780 294.48947
 366.78100 356.34613 345.78925 334.66638 323.08051 311.28564 299.16676 286.98089
 274.70402 262.61215 250.63227 239.94440 230.07753 221.19266 213.38578 206.39891
 200.24404 195.19317 191.78629 189.83942 188.88755 188.96267 189.80880 191.12793
 192.86406 194.97018 197.24431 199.61444 202.07057 204.56169 206.66082 208.51395
 210.15108 211.30720 211.54733 211.78646 211.73459 211.45071 211.09484 210.73597
 210.36409 210.08522 209.90435 209.77948 209.71860 210.06073 210.45786 210.85799
 211.66211 212.85124 214.11237 215.90650 217.84562 219.89975 222.00588 224.10001
 226.17113 228.26626 230.37439 232.49151 234.63164 236.81477 239.08190 241.46302
 244.09515 246.35728 248.37041 250.14653 251.57466 252.70879 253.54192 253.86904
 253.91717 253.70230 253.07343 252.03255 250.64968 248.82181 246.74193 244.58606
 242.38819 240.20332 238.03444 235.88457 233.75570 231.63383 229.67095 227.83908
 226.13321 224.61634 223.25746 222.04059 220.93372 219.90485 219.01997 218.17210
 217.42523 216.61635 215.72548 215.10061 214.56174 214.41402 214.02275 213.37572
 212.29579 211.50415 211.63638 213.55750 216.96289 221.30017 226.52307 231.36591
 235.22868 239.43407 243.66862 247.74007 251.59880 255.36671 259.02838 262.45123
 265.62134 268.43472 270.79034 272.67621 274.32773 276.03113 277.90289 279.68777
 281.42242 283.52637 285.39233 287.03079 288.44873 289.70325 290.84781 291.88470
 292.81726 293.64771 294.37317 295.29770
 366.78100 356.34449 345.78598 334.66147 323.07396 311.27744 299.15693 286.96942
 274.69091 262.59740 250.61589 239.92638 230.05787 221.17136 213.36284 206.37433
 200.21782 195.16531 191.75680 189.80829 188.85478 188.92827 189.77276 191.09024
 192.82473 194.92922 197.20171 199.57020 202.02469 204.51418 206.61167 208.46316
 210.09864 211.25313 211.49162 211.72911 211.67560 211.39009 211.03258 210.67207
 210.29856 210.01804 209.83553 209.70902 209.64651 209.98700 210.38249 210.78098
 211.58347 212.77096 214.03044 215.82293 217.76042 219.81291 221.91740 224.00989
 226.07938 228.17287 230.27936 232.39484 234.53333 236.71482 238.98031 241.35980
 243.99029 246.25078 248.26227 250.03676 251.46324 252.59573 253.42722 253.75271
 253.79920 253.58269 252.95218 251.90967 250.52516 248.69564 246.61413 244.45662
 242.25711 240.07060 237.90009 235.74858 233.61807 231.49455 229.53004 227.69653
 225.98902 224.47051 223.11000 221.89149 220.78298 219.75247 218.86595 218.01644
 217.26793 216.45742 215.56491 214.93840 214.39789 214.35669 214.13487 213.33784
 212.30840 211.39758 211.65457 213.70996 216.98010 221.25739 226.48431 231.31400
 235.18385 239.39684 243.64404 247.72932 251.60422 255.40189 259.08752 262.52032
 265.70401 268.52097 270.86823 272.75357 274.35007 275.91370 277.72141 279.52808
 281.49789 283.56717 285.40262 287.01428 288.40903 289.64301 290.76886 291.78879
 292.70609 293.52295 294.23657 295.14597
 366.78100 356.34264 345.78228 334.65592 323.06656 311.26820 299.14584 286.95649
 274.67613 262.58077 250.59741 239.90605 230.03569 221.14733 213.33697 206.34661
 200.18825 195.13389 191.72353 189.77317 188.81781 188.88946 189.73210 191.04774
 192.78038 194.88302 197.15366 199.52030 201.97294 204.46058 206.55622 208.40586
 210.03950 211.19214 211.42879 211.66443 211.60907 211.32171 210.96235 210.59999
 210.22463 209.94227 209.75791 209.62955 209.56519 209.90383 210.29747 210.69411
 211.49476 212.68040 213.93804 215.72868 217.66432 219.71496 221.81760 223.90824
 225.97588 228.06752 230.17216 232.28580 234.42244 236.60208 238.86573 241.24337
 243.87201 246.13065 248.14029 249.91293 251.33757 252.46821 253.29785 253.62149
 253.66613 253.44777 252.81541 251.77106 250.38470 248.55334 246.46998 244.31062
 242.10926 239.92090 237.74854 235.59518 233.46282 231.33746 229.37110 227.53574
 225.82638 224.30603 222.94367 221.72331 220.61295 219.58059 218.69223 217.84087
 217.09051 216.27815 215.38379 214.75543 214.21307 214.26562 214.26414 213.36142
 212.27669 211.34526 211.68643 213.77512 217.01962 221.28639 226.40427 231.27254
 235.13686 239.34828 243.58119 247.65718 251.53827 255.33760 259.03598 262.50259
 265.70016 268.54752 270.93173 272.87143 274.48355 275.99042 277.73898 279.59082
 281.32285 283.11411 284.80209 286.40179 287.78619 289.01102 290.12848 291.14084
 292.05136 292.86215 293.57047 294.47311
 366.78100 356.34251 345.78202 334.65553 323.06604 311.26755 299.14506 286.95557
 274.67508 262.57959 250.59610 239.90461 230.03412 221.14563 213.33514 206.34465
 200.18616 195.13167 191.72118 189.77069 188.81520 188.88671 189.72922 191.04473
 192.77724 194.87975 197.15026 199.51677 201.96928 204.45679 206.55230 208.40181
 210.03532 211.18783 211.42434 211.65985 211.60436 211.31687 210.95738 210.59489
 210.21940 209.93691 209.75242 209.62393 209.55944 209.89795 210.29146 210.68797
 211.48848 212.67399 213.93150 215.72201 217.65752 219.70803 221.81054 223.90105
 225.96856 228.06007 230.16458 232.27809 234.41460 236.59411 238.85762 241.23513
 243.86364 246.12215 248.13166 249.90417 251.32868 252.45919 253.28870 253.61221
 253.65672 253.43823 252.80574 251.76125 250.37476 248.54327 246.45978 244.30029
 242.09880 239.91031 237.73782 235.58433 233.45184 231.32635 229.35986 227.52437
 225.81488 224.29439 222.93190 221.71141 220.60092 219.56843 218.67994 217.82845
 217.07796 216.26547 215.37098 214.74249 214.20000 214.25357 214.31033 213.50659
 212.24788 211.23460 211.51067 213.63551 216.97050 221.24380 226.42987 231.23114
 235.10635 239.30029 243.52037 247.59132 251.47092 255.27734 258.98776 262.45270
 265.64417 268.49591 270.92084 272.93076 274.58969 276.06073 277.73297 279.53589
 281.23700 282.79422 284.34824 285.73129 287.00125 288.17346 289.24295 290.21182
 291.08322 291.85919 292.53708 293.40094
 366.78100 356.34312 345.78325 334.65737 323.06850 311.27062 299.14874 286.95987
 274.67999 262.58512 250.60224 239.91137 230.04149 221.15361 213.34374 206.35386
 200.19599 195.14211 191.73223 189.78236 188.82748 188.89961 189.74273 191.05886
 192.79198 194.89510 197.16623 199.53335 201.98648 204.47460 206.57072 208.42085
 210.05497 211.20810 211.44522 211.68134 211.62647 211.33959 210.98072 210.61884
 210.24397 209.96209 209.77821 209.65034 209.58646 209.92559 210.31971 210.71683
 211.51796 212.70408 213.96221 215.75333 217.68946 219.74058 221.84370 223.93483
 226.00295 228.09508 230.20020 232.31432 234.45145 236.63157 238.89570 241.27382
 243.90294 246.16207 248.17219 249.94532 251.37044 252.50157 253.33169 253.65581
 253.70094 253.48306 252.85119 251.80731 250.42143 248.59056 246.50768 244.34881
 242.14793 239.96005 237.78818 235.63530 233.50343 231.37855 229.41268 227.57780
 225.86892 224.34905 222.98717 221.76730 220.65742 219.62554 218.73767 217.88679
 217.13692 216.32504 215.43117 214.80329 214.26141 214.29843 214.32416 213.58456
 212.28223 211.23662 211.45746 213.54120 216.92317 221.23213 226.44968 231.21698
 235.09355 239.28151 243.49809 247.57367 251.45795 255.27556 258.98557 262.43015
 265.60074 268.43842 270.87811 272.93863 274.64066 276.14777 277.78345 279.49683
 281.13834 282.64340 284.18823 285.57645 286.84766 288.00378 289.05859 290.01416
 290.87357 291.63892 292.30746 293.15948
 366.78100 356.34348 345.78396 334.65843 323.06991 311.27239 299.15087 286.96234
 274.68282 262.58830 250.60578 239.91525 230.04573 221.15821 213.34869 206.35916
 200.20164 195.14812 191.73860 189.78907 188.83455 188.90703 189.75051 191.06698
 192.80046 194.90394 197.17542 199.54289 201.99637 204.48485 206.58133 208.43180
 210.06628 211.21976 211.45724 211.69371 211.63919 211.35267 210.99415 210.63262
 210.25810 209.97658 209.79306 209.66553 209.60201 209.94149 210.33597 210.73344
 211.53492 212.72140 213.97988 215.77135 217.70783 219.75931 221.86279 223.95426
 226.02274 228.11522 230.22070 232.33517 234.47265 236.65313 238.91761 241.29608
 243.92556 246.18504 248.19552 249.96899 251.39447 252.52595 253.35643 253.68090
 253.72638 253.50886 252.87734 251.83381 250.44829 248.61777 246.53525 244.37672
 242.17620 239.98868 237.81716 235.66463 233.53311 231.40859 229.44307 227.60855
 225.90002 224.38050 223.01898 221.79946 220.68993 219.65841 218.77089 217.92037
 217.17084 216.35932 215.46580 214.83828 214.29675 214.34335 214.36610 213.58118
 212.29219 211.26747 211.55154 213.58522 216.93935 221.24136 226.48305 231.20456
 235.08113 239.26355 243.47755 247.55782 251.45357 255.28094 258.98105 262.41229
 265.55865 268.38272 270.84598 272.95007 274.67499 276.21082 277.80515 279.46362
 281.05588 282.68561 284.32480 285.84714 287.17590 288.35153 289.42410 290.39581
 291.26971 292.04794 292.72781 293.59418
 366.78100 356.34466 345.78632 334.66198 323.07464 311.27830 299.15796 286.97062
 274.69228 262.59894 250.61761 239.92827 230.05993 221.17359 213.36525 206.37691
 200.22057 195.16823 191.75989 189.81155 188.85821 188.93187 189.77653 191.09419
 192.82885 194.93351 197.20617 199.57483 202.02950 204.51916 206.61682 208.46848
 210.10414 211.25880 211.49746 211.73512 211.68178 211.39644 211.03910 210.67876
 210.30542 210.02508 209.84274 209.71640 209.65406 209.99472 210.39038 210.78905
 211.59171 212.77937 214.03903 215.83169 217.76935 219.82201 221.92667 224.01933
 226.08899 228.18265 230.28931 232.40497 234.54363 236.72529 238.99095 241.37061
 244.00127 246.26194 248.27360 250.04826 251.47492 252.60758 253.43924 253.76490
 253.81156 253.59522 252.96488 251.92254 250.53820 248.70886 246.62752 244.47018
 242.27084 240.08450 237.91416 235.76283 233.63249 231.50915 229.54481 227.71147
 226.00413 224.48579 223.12545 221.90711 220.79877 219.76843 218.88209 218.03275
 217.28441 216.47407 215.58173 214.95539 214.41505 214.43208 214.37163 213.59372
 212.32803 211.29292 211.60580 213.58490 216.89560 221.19205 226.48228 231.18121
 235.03984 239.21025 243.41841 247.50436 251.42911 255.27837 258.98056 262.40991
 265.55161 268.37109 270.84933 272.98523 274.72473 276.19110 277.68900 279.28757
 281.09076 282.97931 284.74466 286.31595 287.67578 288.87888 289.97650 290.97092
 291.86523 292.66165 293.35739 294.24402
 366.78100 356.34611 345.78921 334.66632 323.08042 311.28553 299.16663 286.98074
 274.70384 262.61195 250.63206 239.94416 230.07727 221.19237 213.38548 206.39858
 200.24369 195.19279 191.78590 189.83901 188.88711 188.96222 189.80832 191.12743
 192.86353 194.96964 197.24374 199.61385 202.06996 204.56106 206.66017 208.51327
 210.15038 211.30648 211.54659 211.78569 211.73380 211.44991 211.09401 210.73512
 210.36322 210.08433 209.90343 209.77854 209.71764 210.05975 210.45686 210.85696
 211.66107 212.85017 214.11128 215.90538 217.84449 219.89859 222.00470 224.09881
 226.16991 228.26502 230.37312 232.49023 234.63033 236.81344 239.08054 241.46165
 244.09376 246.35586 248.36897 250.14507 251.57318 252.70728 253.54039 253.86749
 253.91560 253.70071 253.07181 252.03092 250.64802 248.82013 246.74023 244.58434
 242.38644 240.20155 238.03266 235.88276 233.75387 231.63197 229.66908 227.83718
 226.13129 224.61439 223.25550 222.03861 220.93171 219.90282 219.01792 218.17003
 217.42313 216.61424 215.72334 215.09845 214.55956 214.53334 214.36943 213.61015
 212.38722 211.32402 211.58821 213.51588 216.81845 221.11961 226.46465 231.15399
 235.00270 239.16577 243.37325 247.46342 251.39719 255.26714 258.98587 262.41394
 265.54022 268.36295 270.87997 273.07739 274.79797 276.17459 277.54669 279.12717
 281.24243 283.19424 284.95352 286.49832 287.83517 289.01797 290.09711 291.07471
 291.95395 292.73694 293.42093 294.29260
 366.78100 356.34607 345.78914 334.66621 323.08028 311.28535 299.16643 286.98050
 274.70357 262.61164 250.63171 239.94378 230.07685 221.19192 213.38499 206.39806
 200.24313 195.19221 191.78528 189.83835 188.88642 188.96149 189.80756 191.12663
 192.86270 194.96877 197.24284 199.61291 202.06899 204.56006 206.65913 208.51220
 210.14927 211.30534 211.54541 211.78448 211.73255 211.44862 211.09269 210.73377
 210.36184 210.08291 209.90198 209.77705 209.71612 210.05819 210.45526 210.85533
 211.65940 212.84847 214.10955 215.90362 217.84269 219.89676 222.00283 224.09690
 226.16797 228.26304 230.37111 232.48818 234.62825 236.81133 239.07840 241.45947
 244.09154 246.35361 248.36668 250.14275 251.57082 252.70489 253.53796 253.86503
 253.91311 253.69818 253.06925 252.02832 250.64539 248.81746 246.73753 244.58160
 242.38367 240.19874 238.02981 235.87989 233.75096 231.62903 229.66610 227.83417
 226.12824 224.61131 223.25238 222.03545 220.92852 219.89959 219.01467 218.16674
 217.41981 216.61088 215.71995 215.09502 214.55609 214.55067 214.42538 213.59949
 212.42456 211.28035 211.60130 213.58752 216.84157 221.13533 226.40536 231.13211
 234.98357 239.14293 243.34317 247.43135 251.36693 255.23575 258.96194 262.39841
 265.54019 268.38092 270.92062 273.14191 274.89966 276.26157 277.58902 278.97394
 280.84464 282.68524 284.42444 285.98557 287.33661 288.53189 289.62244 290.61038
 291.49893 292.29019 292.98145 293.86234
 366.78100 356.34576 345.78851 334.66527 323.07902 311.28378 299.16454 286.97829
 274.70105 262.60880 250.62856 239.94032 230.07307 221.18783 213.38058 206.39334
 200.23810 195.18685 191.77961 189.83236 188.88012 188.95488 189.80063 191.11939
 192.85514 194.96090 197.23466 199.60441 202.06017 204.55092 206.64968 208.50244
 210.13919 211.29495 211.53470 211.77346 211.72121 211.43697 211.08073 210.72148
 210.34924 210.06999 209.88875 209.76351 209.70226 210.04402 210.44077 210.84053
 211.64429 212.83304 214.09380 215.88755 217.82631 219.88007 221.98582 224.07958
 226.15033 228.24509 230.35285 232.46960 234.60936 236.79211 239.05887 241.43963
 244.07138 246.33314 248.34589 250.12165 251.54941 252.68316 253.51592 253.84267
 253.89043 253.67519 253.04594 252.00470 250.62145 248.79321 246.71297 244.55672
 242.35848 240.17323 238.00399 235.85375 233.72450 231.60226 229.63901 227.80677
 226.10053 224.58328 223.22404 222.00679 220.89955 219.87031 218.98506 218.13682
 217.38957 216.58033 215.68909 215.06384 214.52460 214.55098 214.49892 213.59225
 212.44545 211.25293 211.57129 213.61995 216.84090 221.10736 226.33656 231.08261
 234.93851 239.09850 243.29700 247.38724 251.32318 255.19525 258.93665 262.38760
 265.53558 268.39200 270.95590 273.20309 274.97150 276.33817 277.67365 279.06375
 280.44952 282.03961 283.64453 285.20062 286.55222 287.74805 288.83905 289.82745
 290.71637 291.50797 292.19949 293.08078
 366.78100 356.34547 345.78795 334.66442 323.07789 311.28237 299.16284 286.97631
 274.69879 262.60626 250.62573 239.93721 230.06968 221.18415 213.37663 206.38910
 200.23357 195.18205 191.77452 189.82699 188.87447 188.94894 189.79441 191.11289
 192.84836 194.95383 197.22731 199.59678 202.05225 204.54273 206.64120 208.49367
 210.13015 211.28562 211.52509 211.76357 211.71104 211.42652 211.06999 210.71046
 210.33794 210.05841 209.87688 209.75136 209.68983 210.03130 210.42778 210.82725
 211.63072 212.81920 214.07967 215.87314 217.81162 219.86509 221.97056 224.06404
 226.13451 228.22898 230.33646 232.45293 234.59240 236.77488 239.04135 241.42182
 244.05330 246.31477 248.32724 250.10272 251.53019 252.66366 253.49614 253.82261
 253.87008 253.65456 253.02503 251.98350 250.59998 248.77145 246.69092 244.53440
 242.33587 240.15034 237.98082 235.83029 233.70076 231.57824 229.61471 227.78218
 226.07566 224.55813 223.19860 221.98108 220.87355 219.84402 218.95850 218.10997
 217.36244 216.55292 215.66139 215.03586 214.49634 214.55072 214.57655 213.61803
 212.37592 211.26559 211.47388 213.55658 216.82352 221.08905 226.31386 231.06522
 234.92477 239.08989 243.29391 247.38477 251.30457 255.16982 258.91089 262.36115
 265.50928 268.37140 270.96695 273.28192 275.10690 276.48535 277.77649 279.15033
 280.55014 281.75586 283.02472 284.46036 285.81448 287.01257 288.10562 289.09589
 289.98648 290.77957 291.47241 292.35535
 366.78100 356.34635 345.78969 334.66704 323.08139 311.28674 299.16808 286.98243
 274.70578 262.61413 250.63447 239.94682 230.08017 221.19551 213.38886 206.40221
 200.24756 195.19690 191.79025 189.84360 188.89194 188.96729 189.81364 191.13299
 192.86933 194.97568 197.25003 199.62038 202.07672 204.56807 206.66742 208.52076
 210.15811 211.31446 211.55481 211.79415 211.74250 211.45885 211.10320 210.74454
 210.37289 210.09424 209.91358 209.78893 209.72828 210.07063 210.46797 210.86832
 211.67267 212.86202 214.12336 215.91771 217.85706 219.91140 222.01775 224.11210
 226.18345 228.27879 230.38714 232.50449 234.64483 236.82818 239.09553 241.47688
 244.10922 246.37157 248.38492 250.16127 251.58961 252.72396 253.55731 253.88465
 253.93300 253.71835 253.08970 252.04904 250.66639 248.83874 246.75909 244.60343
 242.40578 240.22113 238.05247 235.90282 233.77417 231.65252 229.68986 227.85821
 226.15256 224.63591 223.27725 222.06060 220.95395 219.92529 219.04064 218.19299
 217.44634 216.63768 215.74703 215.12238 214.58372 214.58893 214.56693 213.85130
 212.21274 210.92441 211.20255 213.39549 216.79485 221.08353 226.38116 231.08069
 234.96086 239.12334 243.32150 247.40501 251.33104 255.17110 258.87970 262.31723
 265.45432 268.31595 270.91391 273.23297 275.12207 276.60431 277.92471 279.24124
 280.62411 281.86969 282.86044 283.93698 285.11978 286.12622 287.10492 287.99155
 288.78897 289.49908 290.11945 290.90997
 366.78100 356.34761 345.79222 334.67082 323.08643 311.29304 299.17565 286.99126
 274.71586 262.62547 250.64708 239.96069 230.09530 221.21190 213.40651 206.42112
 200.26773 195.21833 191.81294 189.86755 188.91716 188.99377 189.84137 191.16198
 192.89959 195.00720 197.28281 199.65441 202.11202 204.60463 206.70524 208.55985
 210.19845 211.35606 211.59767 211.83828 211.78789 211.50549 211.15110 210.79371
 210.42332 210.14593 209.96653 209.84314 209.78375 210.12736 210.52596 210.92757
 211.73318 212.92379 214.18640 215.98200 217.92261 219.97822 222.08583 224.18144
 226.25404 228.35065 230.46026 232.57887 234.72048 236.90508 239.17369 241.55630
 244.18991 246.45352 248.46812 250.24573 251.67534 252.81095 253.64556 253.97416
 254.02377 253.81038 253.18299 252.14359 250.76220 248.93581 246.85742 244.70303
 242.50663 240.32324 238.15585 236.00746 233.88007 231.75967 229.79828 227.96789
 226.26350 224.74811 223.39071 222.17532 221.06993 220.04254 219.15915 218.31275
 217.56736 216.75997 215.87058 215.24719 214.70979 214.65598 214.52028 214.00125
 212.41611 210.74652 210.95953 213.22078 216.72641 221.05061 226.41455 231.04878
 234.96956 239.12990 243.33252 247.42087 251.35159 255.17657 258.86774 262.28790
 265.40222 268.24966 270.85672 273.18823 275.10217 276.61523 277.94455 279.26648
 280.59619 281.78494 282.70935 283.64194 284.79633 285.77924 286.54968 287.38162
 288.15891 288.85107 289.45572 290.22629
 366.78100 356.34753 345.79206 334.67059 323.08612 311.29266 299.17519 286.99072
 274.71525 262.62478 250.64631 239.95984 230.09437 221.21090 213.40543 206.41997
 200.26650 195.21703 191.81156 189.86609 188.91562 188.99215 189.83968 191.16021
 192.89774 195.00528 197.28081 199.65234 202.10987 204.60240 206.70293 208.55746
 210.19599 211.35352 211.59505 211.83559 211.78512 211.50265 211.14818 210.79071
 210.42024 210.14277 209.96330 209.83983 209.78037 210.12390 210.52243 210.92396
 211.72949 212.92002 214.18255 215.97808 217.91861 219.97414 222.08168 224.17721
 226.24974 228.34627 230.45580 232.57433 234.71586 236.90039 239.16892 241.55145
 244.18499 246.44852 248.46305 250.24058 251.67011 252.80564 253.64017 253.96870
 254.01823 253.80476 253.17730 252.13783 250.75636 248.92989 246.85142 244.69695
 242.50048 240.31701 238.14954 236.00108 233.87361 231.75314 229.79167 227.96120
 226.25673 224.74126 223.38379 222.16832 221.06285 220.03539 219.15192 218.30545
 217.55998 216.75251 215.86304 215.23957 214.70210 214.66901 214.58257 213.93065
 212.56300 210.71617 210.84544 213.16832 216.70654 221.04543 226.42192 231.04485
 234.96822 239.12811 243.33492 247.42870 251.36201 255.18254 258.86752 262.27658
 265.37704 268.21552 270.83075 273.18652 275.11099 276.62033 277.94952 279.24237
 280.56604 281.73334 282.61911 283.34186 284.14313 285.19495 286.02783 286.81122
 287.61688 288.33432 288.96106 289.75977
 366.78100 356.34733 345.79166 334.66999 323.08532 311.29165 299.17397 286.98930
 274.71363 262.62296 250.64429 239.95762 230.09195 221.20828 213.40261 206.41694
 200.26326 195.21359 191.80792 189.86225 188.91158 188.98791 189.83524 191.15557
 192.89290 195.00023 197.27555 199.64688 202.10421 204.59654 206.69687 208.55120
 210.18953 211.34686 211.58819 211.82852 211.77784 211.49517 211.14050 210.78283
 210.41216 210.13449 209.95482 209.83115 209.77148 210.11481 210.51313 210.91446
 211.71979 212.91012 214.17245 215.96778 217.90811 219.96344 222.07077 224.16610
 226.23842 228.33475 230.44408 232.56241 234.70374 236.88807 239.15640 241.53873
 244.17206 246.43539 248.44971 250.22704 251.65637 252.79170 253.62603 253.95436
 254.00369 253.79002 253.16235 252.12268 250.74100 248.91433 246.83566 244.68099
 242.48432 240.30065 238.13298 235.98431 233.85664 231.73597 229.77429 227.94362
 226.23895 224.72328 223.36561 222.14994 221.04427 220.01660 219.13293 218.28626
 217.54058 216.73291 215.84324 215.21957 214.68190 214.67258 214.64713 213.90065
 212.67351 210.66757 210.67970 213.11688 216.71671 221.06995 226.44489 231.04887
 234.97429 239.13100 243.33633 247.42677 251.35478 255.16803 258.84793 262.25510
 265.35318 268.19229 270.81479 273.18008 275.12137 276.64212 277.97006 279.24994
 280.51944 281.61505 282.38449 282.92245 283.65988 284.68692 285.67044 286.30148
 287.09000 287.82397 288.46518 289.28229
 366.78100 356.34791 345.79281 334.67172 323.08763 311.29453 299.17744 286.99335
 274.71825 262.62816 250.65007 239.96398 230.09888 221.21579 213.41070 206.42560
 200.27251 195.22342 191.81832 189.87323 188.92314 189.00004 189.84795 191.16886
 192.90676 195.01467 197.29058 199.66248 202.12039 204.61330 206.71421 208.56911
 210.20802 211.36593 211.60783 211.84874 211.79865 211.51655 211.16246 210.80537
 210.43527 210.15818 209.97909 209.85599 209.79690 210.14081 210.53972 210.94162
 211.74753 212.93844 214.20134 215.99725 217.93816 219.99406 222.10197 224.19788
 226.27078 228.36769 230.47760 232.59650 234.73841 236.92332 239.19222 241.57513
 244.20904 246.47295 248.48785 250.26576 251.69567 252.83157 253.66648 253.99539
 254.04529 253.83220 253.20511 252.16601 250.78492 248.95883 246.88073 244.72664
 242.53055 240.34745 238.18036 236.03227 233.90518 231.78508 229.82399 227.99390
 226.28980 224.77471 223.41762 222.20252 221.09743 220.07034 219.18724 218.34115
 217.59606 216.78896 215.89987 215.27678 214.73969 214.71362 214.65207 213.91914
 212.75702 210.66553 210.55725 213.03253 216.67853 221.05295 226.43837 231.02907
 234.96501 239.12244 243.32869 247.41551 251.33780 255.14642 258.82471 262.23346
 265.33249 268.17175 270.79388 273.16229 275.12189 276.66171 277.99136 279.25198
 280.45364 281.43698 282.05997 282.53796 283.31592 284.39053 285.39951 286.06616
 286.70810 287.44241 288.08865 288.91223
 366.78100 356.34885 345.79469 334.67454 323.09139 311.29924 299.18308 286.99993
 274.72578 262.63663 250.65947 239.97432 230.11017 221.22801 213.42386 206.43971
 200.28756 195.23940 191.83525 189.89110 188.94194 189.01979 189.86864 191.19049
 192.92933 195.03818 197.31503 199.68788 202.14672 204.64057 206.74242 208.59826
 210.23811 211.39696 211.63981 211.88165 211.83250 211.55135 211.19820 210.84204
 210.47289 210.19674 210.01858 209.89643 209.83828 210.18313 210.58297 210.98582
 211.79267 212.98452 214.24836 216.04521 217.98706 220.04390 222.15275 224.24960
 226.32345 228.42129 230.53214 232.65199 234.79483 236.98068 239.25053 241.63438
 244.26922 246.53407 248.54992 250.32877 251.75961 252.89646 253.73231 254.06215
 254.11300 253.90085 253.27470 252.23654 250.85639 249.03124 246.95409 244.80093
 242.60578 240.42363 238.25747 236.11032 233.98417 231.86502 229.90486 228.07571
 226.37256 224.85841 223.50225 222.28810 221.18395 220.15779 219.27564 218.43049
 217.68634 216.88018 215.99203 215.36988 214.83372 214.77403 214.63301 213.95749
 212.75694 210.65280 210.51208 213.00485 216.63751 221.00592 226.41533 231.01678
 234.95386 239.11823 243.32957 247.41789 251.33794 255.14114 258.81287 262.22070
 265.31735 268.15225 270.76819 273.13391 275.10309 276.67270 278.01309 279.25455
 280.39981 281.26694 281.72528 282.15369 283.06461 284.11871 285.12744 286.02478
 286.80832 287.52206 288.15240 288.95572
 366.78100 356.34945 345.79589 334.67634 323.09378 311.30223 299.18667 287.00412
 274.73056 262.64201 250.66545 239.98090 230.11734 221.23579 213.43223 206.44868
 200.29712 195.24957 191.84601 189.90246 188.95390 189.03235 189.88179 191.20424
 192.94368 195.05313 197.33057 199.70402 202.16346 204.65791 206.76035 208.61680
 210.25724 211.41669 211.66013 211.90258 211.85402 211.57347 211.22091 210.86536
 210.49680 210.22125 210.04369 209.92214 209.86458 210.21003 210.61047 211.01392
 211.82136 213.01381 214.27825 216.07570 218.01814 220.07559 222.18503 224.28248
 226.35692 228.45537 230.56682 232.68726 234.83071 237.01715 239.28760 241.67204
 244.30749 246.57293 248.58938 250.36882 251.80027 252.93771 253.77416 254.10460
 254.15605 253.94449 253.31894 252.28138 250.90183 249.07727 247.00072 244.84816
 242.65361 240.47205 238.30650 236.15994 234.03439 231.91583 229.95628 228.12772
 226.42517 224.91161 223.55606 222.34250 221.23895 220.21339 219.33184 218.48728
 217.74373 216.93817 216.05062 215.42906 214.89351 214.81580 214.63223 213.98860
 212.73436 210.61996 210.49945 213.00073 216.59772 220.95709 226.39597 231.01479
 234.94838 239.12135 243.33891 247.42973 251.34828 255.14290 258.80316 262.20822
 265.29843 268.12469 270.72977 273.08417 275.06091 276.66776 278.03323 279.27469
 280.38278 281.16888 281.55069 281.93680 282.67551 283.71927 284.71353 285.61325
 286.40710 287.12936 287.76700 288.57959
 366.78100 356.34974 345.79649 334.67723 323.09497 311.30372 299.18846 287.00620
 274.73294 262.64469 250.66843 239.98417 230.12092 221.23966 213.43640 206.45315
 200.30189 195.25463 191.85138 189.90812 188.95986 189.03860 189.88835 191.21109
 192.95083 195.06058 197.33832 199.71206 202.17181 204.66655 206.76929 208.62604
 210.26678 211.42652 211.67027 211.91301 211.86475 211.58449 211.23224 210.87698
 210.50872 210.23347 210.05621 209.93495 209.87770 210.22344 210.62418 211.02793
 211.83567 213.02841 214.29315 216.09090 218.03364 220.09138 222.20113 224.29887
 226.37361 228.47236 230.58410 232.70484 234.84859 237.03533 239.30607 241.69081
 244.32656 246.59230 248.60904 250.38879 251.82053 252.95827 253.79502 254.12576
 254.17750 253.96625 253.34099 252.30373 250.92448 249.10022 247.02396 244.87170
 242.67745 240.49619 238.33093 236.18468 234.05942 231.94116 229.98191 228.15365
 226.45139 224.93814 223.58288 222.36962 221.26636 220.24111 219.35985 218.51559
 217.77234 216.96708 216.07982 215.45857 214.92331 214.83722 214.63382 213.99971
 212.74991 210.63313 210.44603 212.95711 216.53548 220.90315 226.39102 231.00032
 234.94542 239.12628 243.34880 247.43785 251.35202 255.13872 258.79288 262.19824
 265.28235 268.09708 270.68503 273.02615 275.01028 276.64963 278.04031 279.26981
 280.35324 281.07028 281.46130 281.86737 282.51184 283.20383 284.05692 284.97336
 285.85059 286.57297 287.22748 288.06161
 366.78100 356.35007 345.79715 334.67822 323.09629 311.30537 299.19044 287.00851
 274.73559 262.64766 250.67173 239.98780 230.12488 221.24395 213.44102 206.45810
 200.30717 195.26024 191.85732 189.91439 188.96646 189.04554 189.89561 191.21868
 192.95876 195.06883 197.34690 199.72097 202.18105 204.67612 206.77919 208.63627
 210.27734 211.43741 211.68149 211.92456 211.87663 211.59671 211.24478 210.88985
 210.52193 210.24700 210.07007 209.94915 209.89222 210.23829 210.63936 211.04344
 211.85151 213.04458 214.30966 216.10773 218.05080 220.10888 222.21895 224.31702
 226.39210 228.49117 230.60324 232.72432 234.86839 237.05546 239.32653 241.71161
 244.34768 246.61375 248.63083 250.41090 251.84297 252.98105 253.81812 254.14919
 254.20127 253.99034 253.36541 252.32849 250.94956 249.12563 247.04970 244.89778
 242.70385 240.52292 238.35800 236.21207 234.08714 231.96922 230.01029 228.18236
 226.48044 224.96751 223.61258 222.39966 221.29673 220.27180 219.39088 218.54695
 217.80402 216.99909 216.11217 215.49124 214.95631 214.85973 214.63153 213.98994
 212.81670 210.68956 210.44872 212.91193 216.46553 220.84312 226.37743 230.97128
 234.93460 239.12206 243.34865 247.43494 251.34558 255.12668 258.77988 262.18921
 265.26855 268.07452 270.64874 272.97491 274.96164 276.62445 278.02905 279.24051
 280.32477 280.99908 281.32089 281.64114 282.27588 283.04089 283.96555 284.85587
 285.69290 286.42426 287.05164 287.87283
 366.78100 356.35026 345.79753 334.67879 323.09706 311.30632 299.19158 287.00985
 274.73711 262.64938 250.67364 239.98990 230.12717 221.24643 213.44370 206.46096
 200.31022 195.26349 191.86075 189.91802 188.97028 189.04954 189.89981 191.22307
 192.96334 195.07360 197.35186 199.72613 202.18639 204.68166 206.78492 208.64218
 210.28345 211.44371 211.68798 211.93124 211.88351 211.60377 211.25203 210.89730
 210.52956 210.25483 210.07809 209.95735 209.90062 210.24688 210.64815 211.05241
 211.86067 213.05394 214.31920 216.11747 218.06073 220.11899 222.22926 224.32752
 226.40279 228.50205 230.61431 232.73558 234.87984 237.06711 239.33837 241.72363
 244.35990 246.62616 248.64343 250.42369 251.85595 252.99422 253.83148 254.16275
 254.21501 254.00427 253.37954 252.34280 250.96407 249.14033 247.06459 244.91286
 242.71912 240.53839 238.37365 236.22791 234.10318 231.98544 230.02671 228.19897
 226.49723 224.98450 223.62976 222.41703 221.31429 220.28955 219.40882 218.56508
 217.82235 217.01761 216.13087 215.51014 214.97540 214.87845 214.64938 213.96016
 212.87048 210.72398 210.38095 212.85616 216.40979 220.79662 226.34541 230.95839
 234.91403 239.11388 243.34573 247.43475 251.34558 255.11963 258.76514 262.17581
 265.25232 268.05197 270.61322 272.91116 274.88956 276.57208 277.99429 279.21039
 280.28073 280.93970 281.23904 281.54144 282.16260 282.92743 283.82867 284.71283
 285.53549 286.27118 286.91098 287.73883
 366.78100 356.35020 345.79739 334.67859 323.09679 311.30598 299.19118 287.00938
 274.73657 262.64877 250.67297 239.98916 230.12636 221.24556 213.44275 206.45995
 200.30915 195.26234 191.85954 189.91674 188.96893 189.04813 189.89833 191.22152
 192.96172 195.07192 197.35012 199.72431 202.18451 204.67971 206.78290 208.64010
 210.28130 211.44149 211.68569 211.92889 211.88108 211.60128 211.24948 210.89467
 210.52687 210.25207 210.07526 209.95446 209.89766 210.24385 210.64505 211.04925
 211.85744 213.05064 214.31584 216.11403 218.05723 220.11543 222.22562 224.32382
 226.39902 228.49821 230.61041 232.73161 234.87580 237.06300 239.33420 241.71939
 244.35559 246.62179 248.63898 250.41918 251.85138 252.98957 253.82677 254.15797
 254.21017 253.99936 253.37456 252.33776 250.95895 249.13515 247.05935 244.90754
 242.71374 240.53294 238.36813 236.22233 234.09753 231.97972 230.02092 228.19312
 226.49131 224.97851 223.62371 222.41090 221.30810 220.28330 219.40249 218.55869
 217.81589 217.01108 216.12428 215.50348 214.96867 214.88414 214.68440 213.93140
 212.89230 210.73129 210.29491 212.80051 216.38040 220.76703 226.31412 230.96112
 234.89574 239.10971 243.34688 247.44101 251.35182 255.11913 258.75461 262.16495
 265.23969 268.03137 270.57114 272.82776 274.79108 276.48709 277.93271 279.17130
 280.21985 280.85519 281.15610 281.47751 282.07544 282.85065 283.74622 284.62875
 285.44983 286.19592 286.87775 287.74765
 366.78100 356.35013 345.79726 334.67839 323.09653 311.30566 299.19079 287.00892
 274.73605 262.64818 250.67231 239.98844 230.12558 221.24471 213.44184 206.45897
 200.30810 195.26123 191.85836 189.91549 188.96763 189.04676 189.89689 191.22002
 192.96015 195.07028 197.34841 199.72254 202.18268 204.67781 206.78094 208.63807
 210.27920 211.43933 211.68346 211.92659 211.87873 211.59886 211.24699 210.89212
 210.52425 210.24938 210.07251 209.95164 209.89478 210.24091 210.64204 211.04617
 211.85430 213.04743 214.31256 216.11070 218.05383 220.11196 222.22209 224.32022
 226.39535 228.49448 230.60661 232.72775 234.87188 237.05901 239.33014 241.71527
 244.35140 246.61753 248.63466 250.41480 251.84693 252.98506 253.82219 254.15332
 254.20545 253.99458 253.36971 252.33285 250.95398 249.13011 247.05424 244.90237
 242.70850 240.52763 238.36276 236.21690 234.09203 231.97416 230.01529 228.18742
 226.48555 224.97268 223.61781 222.40495 221.30208 220.27721 219.39634 218.55247
 217.80960 217.00473 216.11787 215.49700 214.96213 214.88864 214.71503 213.91786
 212.91489 210.72151 210.22932 212.76598 216.35446 220.73648 226.28040 230.95670
 234.87495 239.10104 243.34392 247.44135 251.35112 255.11426 258.74493 262.15799
 265.23273 268.01392 270.52560 272.74219 274.68634 276.39047 277.85303 279.10858
 280.12589 280.74646 281.03943 281.37506 281.99683 282.82358 283.76321 284.65686
 285.48831 286.26154 286.95200 287.83194
 366.78100 356.34995 345.79691 334.67786 323.09582 311.30477 299.18973 287.00768
 274.73464 262.64659 250.67055 239.98650 230.12346 221.24241 213.43937 206.45632
 200.30528 195.25823 191.85519 189.91214 188.96410 189.04305 189.89301 191.21596
 192.95592 195.06587 197.34383 199.71778 202.17774 204.67269 206.77565 208.63260
 210.27356 211.43351 211.67747 211.92042 211.87238 211.59233 211.24029 210.88524
 210.51720 210.24215 210.06511 209.94406 209.88701 210.23297 210.63392 211.03788
 211.84583 213.03879 214.30374 216.10170 218.04465 220.10261 222.21256 224.31052
 226.38547 228.48443 230.59638 232.71734 234.86129 237.04825 239.31920 241.70416
 244.34011 246.60607 248.62302 250.40298 251.83493 252.97289 253.80984 254.14080
 254.19275 253.98171 253.35666 252.31962 250.94057 249.11653 247.04048 244.88844
 242.69439 240.51335 238.34830 236.20226 234.07721 231.95917 230.00012 228.17208
 226.47003 224.95698 223.60194 222.38889 221.28585 220.26080 219.37976 218.53571
 217.79267 216.98762 216.10058 215.47953 214.94449 214.88631 214.74887 213.90224
 212.93665 210.71225 210.21820 212.73569 216.33101 220.70538 226.24496 230.94316
 234.84985 239.08524 243.33488 247.43683 251.34810 255.11090 258.74109 262.15854
 265.23535 268.00357 270.48196 272.65665 274.57898 276.28452 277.75848 279.02167
 280.00854 280.62399 280.88104 281.23471 281.93448 282.84927 283.81580 284.71725
 285.56656 286.36008 287.05585 287.94254
 366.78100 356.34976 345.79652 334.67728 323.09504 311.30380 299.18856 287.00632
 274.73308 262.64484 250.66860 239.98436 230.12112 221.23988 213.43664 206.45340
 200.30216 195.25492 191.85168 189.90844 188.96020 189.03896 189.88872 191.21148
 192.95124 195.06100 197.33876 199.71252 202.17228 204.66704 206.76980 208.62656
 210.26732 211.42708 211.67084 211.91360 211.86536 211.58512 211.23288 210.87764
 210.50940 210.23416 210.05692 209.93568 209.87844 210.22420 210.62496 211.02872
 211.83648 213.02924 214.29400 216.09176 218.03452 220.09228 222.20204 224.29980
 226.37456 228.47332 230.58508 232.70584 234.84960 237.03636 239.30712 241.69188
 244.32764 246.59340 248.61016 250.38992 251.82168 252.95944 253.79620 254.12696
 254.17872 253.96748 253.34224 252.30500 250.92576 249.10152 247.02528 244.87304
 242.67880 240.49756 238.33232 236.18608 234.06084 231.94260 229.98336 228.15512
 226.45288 224.93964 223.58440 222.37116 221.26792 220.24268 219.36144 218.51720
 217.77396 216.96872 216.08148 215.46024 214.92500 214.87936 214.77151 213.90318
 212.94106 210.72014 210.20590 212.70435 216.30196 220.66806 226.21211 230.91333
 234.82361 239.06786 243.32613 247.43297 251.34502 255.10931 258.74460 262.17249
 265.24893 267.99756 270.43698 272.56744 274.46503 276.16956 277.65042 278.90182
 279.85507 280.45566 280.75186 281.18317 281.95032 282.89285 283.86276 284.76889
 285.62634 286.42090 287.11560 288.00089
 366.78100 356.34979 345.79657 334.67736 323.09515 311.30393 299.18872 287.00651
 274.73329 262.64508 250.66887 239.98465 230.12144 221.24023 213.43701 206.45380
 200.30259 195.25537 191.85216 189.90895 188.96073 189.03952 189.88930 191.21209
 192.95188 195.06166 197.33945 199.71324 202.17302 204.66781 206.77060 208.62738
 210.26817 211.42796 211.67174 211.91453 211.86632 211.58610 211.23389 210.87868
 210.51046 210.23525 210.05804 209.93682 209.87961 210.22540 210.62618 211.02997
 211.83776 213.03054 214.29533 216.09312 218.03590 220.09369 222.20348 224.30126
 226.37605 228.47484 230.58662 232.70741 234.85119 237.03798 239.30877 241.69355
 244.32934 246.59513 248.61191 250.39170 251.82349 252.96127 253.79806 254.12885
 254.18063 253.96942 253.34421 252.30699 250.92778 249.10357 247.02735 244.87514
 242.68093 240.49971 238.33450 236.18829 234.06307 231.94486 229.98565 228.15743
 226.45522 224.94201 223.58679 222.37358 221.27037 220.24515 219.36394 218.51973
 217.77651 216.97130 216.08408 215.46287 214.92766 214.88058 214.76935 213.92392
 212.95888 210.74561 210.17749 212.66481 216.24478 220.61020 226.18063 230.87215
 234.79332 239.04810 243.31567 247.42564 251.33708 255.10390 258.74881 262.19128
 265.26694 267.99420 270.39542 272.48117 274.35068 276.04846 277.52792 278.75833
 279.70425 280.34598 280.77039 281.28207 282.03314 282.96158 283.92722 284.83890
 285.69357 286.45944 287.12579 287.97498
 366.78100 356.35008 345.79716 334.67824 323.09632 311.30540 299.19048 287.00856
 274.73564 262.64772 250.67180 239.98788 230.12496 221.24404 213.44112 206.45820
 200.30728 195.26036 191.85744 189.91452 188.96660 189.04568 189.89576 191.21884
 192.95892 195.06900 197.34708 199.72116 202.18124 204.67632 206.77940 208.63648
 210.27757 211.43765 211.68173 211.92481 211.87689 211.59697 211.24505 210.89013
 210.52221 210.24729 210.07037 209.94945 209.89253 210.23861 210.63969 211.04377
 211.85185 213.04493 214.31001 216.10809 218.05117 220.10925 222.21933 224.31741
 226.39249 228.49157 230.60365 232.72473 234.86881 237.05589 239.32697 241.71205
 244.34813 246.61421 248.63129 250.41137 251.84345 252.98153 253.81861 254.14969
 254.20177 253.99085 253.36593 252.32901 250.95009 249.12617 247.05025 244.89833
 242.70441 240.52349 238.35857 236.21265 234.08773 231.96981 230.01089 228.18297
 226.48105 224.96813 223.61321 222.40029 221.29737 220.27245 219.39154 218.54762
 217.80470 216.99978 216.11286 215.49194 214.95702 214.89600 214.75183 213.94753
 213.00334 210.77298 210.15936 212.61475 216.17693 220.55788 226.14246 230.82617
 234.75700 239.02101 243.29874 247.41444 251.32547 255.09648 258.75327 262.21094
 265.28531 267.99170 270.35873 272.39948 274.23651 275.91821 277.39200 278.62637
 279.61792 280.35666 280.89499 281.45154 282.19492 283.05316 284.01401 284.92493
 285.76761 286.52139 287.18054 288.02054
 366.78100 356.35024 345.79747 334.67871 323.09694 311.30618 299.19142 287.00965
 274.73689 262.64912 250.67336 239.98960 230.12683 221.24607 213.44331 206.46054
 200.30978 195.26301 191.86025 189.91749 188.96972 189.04896 189.89919 191.22243
 192.96267 195.07290 197.35114 199.72537 202.18561 204.68085 206.78408 208.64132
 210.28256 211.44279 211.68703 211.93026 211.88250 211.60274 211.25097 210.89621
 210.52844 210.25368 210.07692 209.95615 209.89939 210.24562 210.64686 211.05110
 211.85933 213.05257 214.31781 216.11604 218.05928 220.11751 222.22775 224.32599
 226.40122 228.50046 230.61269 232.73393 234.87817 237.06540 239.33664 241.72187
 244.35811 246.62435 248.64158 250.42182 251.85406 252.99229 253.82953 254.16076
 254.21300 254.00224 253.37747 252.34071 250.96194 249.13818 247.06242 244.91065
 242.71689 240.53612 238.37136 236.22560 234.10083 231.98307 230.02431 228.19654
 226.49478 224.98201 223.62725 222.41449 221.31172 220.28696 219.40619 218.56243
 217.81967 217.01490 216.12814 215.50737 214.97261 214.90793 214.75513 213.93593
 213.09520 210.77881 210.12523 212.60950 216.13278 220.50160 226.08971 230.79114
 234.71346 238.98785 243.27489 247.40018 251.31723 255.09705 258.76590 262.22998
 265.30521 267.99567 270.32446 272.31735 274.11411 275.77444 277.25272 278.52829
 279.57886 280.37860 280.94553 281.52286 282.32037 283.26657 284.24738 285.14941
 285.97308 286.72607 287.38385 288.22214
 366.78100 356.35002 345.79704 334.67806 323.09608 311.30510 299.19012 287.00814
 274.73516 262.64717 250.67119 239.98721 230.12423 221.24325 213.44027 206.45729
 200.30631 195.25933 191.85635 189.91337 188.96539 189.04441 189.89443 191.21745
 192.95747 195.06749 197.34551 199.71952 202.17954 204.67456 206.77758 208.63460
 210.27562 211.43564 211.67966 211.92268 211.87470 211.59472 211.24274 210.88776
 210.51978 210.24480 210.06782 209.94684 209.88985 210.23587 210.63689 211.04091
 211.84893 213.04195 214.30697 216.10499 218.04801 220.10603 222.21605 224.31407
 226.38909 228.48811 230.60013 232.72115 234.86517 237.05219 239.32320 241.70822
 244.34424 246.61026 248.62728 250.40730 251.83932 252.97734 253.81436 254.14538
 254.19740 253.98642 253.36144 252.32446 250.94548 249.12150 247.04552 244.89353
 242.69955 240.51857 238.35359 236.20761 234.08263 231.96465 230.00567 228.17769
 226.47571 224.96273 223.60775 222.39477 221.29179 220.26681 219.38583 218.54185
 217.79887 216.99388 216.10690 215.48592 214.95094 214.90207 214.78432 213.90965
 213.11607 210.87819 210.14551 212.48137 216.06544 220.48605 226.03871 230.76308
 234.67435 238.96165 243.26442 247.40176 251.32358 255.10744 258.78751 262.25659
 265.32782 267.99197 270.27444 272.22537 273.99493 275.64719 277.14975 278.46555
 279.52509 280.33011 280.93939 281.58188 282.41208 283.43954 284.43707 285.35315
 286.19229 286.94196 287.59683 288.43143
 366.78100 356.34962 345.79624 334.67686 323.09448 311.30310 299.18773 287.00535
 274.73197 262.64359 250.66721 239.98283 230.11945 221.23807 213.43469 206.45131
 200.29993 195.25255 191.84918 189.90580 188.95742 189.03604 189.88566 191.20828
 192.94790 195.05752 197.33514 199.70876 202.16838 204.66301 206.76563 208.62225
 210.26287 211.42249 211.66611 211.90873 211.86035 211.57997 211.22759 210.87221
 210.50383 210.22846 210.05108 209.92970 209.87232 210.21794 210.61856 211.02218
 211.82980 213.02242 214.28704 216.08466 218.02729 220.08491 222.19453 224.29215
 226.36677 228.46539 230.57701 232.69763 234.84125 237.02787 239.29849 241.68311
 244.31874 246.58436 248.60098 250.38060 251.81222 252.94984 253.78646 254.11708
 254.16870 253.95732 253.33194 252.29457 250.91519 249.09081 247.01443 244.86205
 242.66767 240.48629 238.32091 236.17453 234.04915 231.93077 229.97139 228.14302
 226.44064 224.92726 223.57188 222.35850 221.25512 220.22974 219.34836 218.50398
 217.76060 216.95522 216.06785 215.44647 214.91109 214.88493 214.81404 213.90398
 213.08655 210.95560 210.18640 212.38136 215.98903 220.44943 225.99881 230.73592
 234.64597 238.94562 243.26100 247.40741 251.33409 255.12074 258.80536 262.27264
 265.33969 267.98862 270.23657 272.14111 273.87543 275.52219 277.05081 278.37546
 279.39755 280.21451 280.91098 281.66354 282.55826 283.57489 284.56686 285.49847
 286.36746 287.14133 287.81735 288.67886
 366.78100 356.34910 345.79519 334.67529 323.09239 311.30048 299.18458 287.00168
 274.72777 262.63887 250.66197 239.97706 230.11316 221.23126 213.42735 206.44345
 200.29155 195.24364 191.83974 189.89583 188.94693 189.02503 189.87412 191.19622
 192.93532 195.04441 197.32151 199.69461 202.15370 204.64780 206.74990 208.60599
 210.24609 211.40519 211.64828 211.89038 211.84148 211.56057 211.20767 210.85177
 210.48286 210.20696 210.02906 209.90715 209.84925 210.19435 210.59444 210.99754
 211.80464 212.99673 214.26083 216.05793 218.00002 220.05712 222.16622 224.26331
 226.33741 228.43550 230.54660 232.66670 234.80979 236.99589 239.26599 241.65008
 244.28518 246.55028 248.56637 250.34547 251.77657 252.91366 253.74976 254.07986
 254.13095 253.91905 253.29315 252.25524 250.87534 249.05044 246.97353 244.82063
 242.62573 240.44382 238.27792 236.13102 234.00511 231.88621 229.92631 228.09740
 226.39450 224.88060 223.52469 222.31079 221.20689 220.18098 219.29908 218.45417
 217.71027 216.90437 216.01646 215.39456 214.85866 214.86012 214.84785 213.89972
 213.04671 211.02272 210.22652 212.22757 215.96341 220.48853 225.96852 230.70035
 234.60892 238.91989 243.24525 247.38220 251.29117 255.08469 258.81433 262.32300
 265.39130 267.99829 270.18887 272.04910 273.75992 275.39545 276.93317 278.25201
 279.26465 280.13461 280.92087 281.78314 282.78513 283.85187 284.89630 285.84622
 286.70325 287.46643 288.13315 288.98279
 366.78100 356.34831 345.79362 334.67292 323.08923 311.29654 299.17985 286.99615
 274.72146 262.63177 250.65408 239.96838 230.10369 221.22100 213.41631 206.43161
 200.27892 195.23023 191.82554 189.88084 188.93115 189.00846 189.85677 191.17807
 192.91638 195.02469 197.30100 199.67330 202.13161 204.62492 206.72623 208.58153
 210.22084 211.37915 211.62146 211.86276 211.81307 211.53138 211.17769 210.82099
 210.45130 210.17461 209.99592 209.87322 209.81453 210.15884 210.55815 210.96045
 211.76676 212.95807 214.22138 216.01768 217.95899 220.01530 222.12361 224.21992
 226.29322 228.39053 230.50084 232.62015 234.76245 236.94776 239.21707 241.60038
 244.23468 246.49899 248.51430 250.29261 251.72291 252.85922 253.69453 254.02384
 254.07414 253.86145 253.23476 252.19607 250.81537 248.98968 246.91199 244.75830
 242.56260 240.37991 238.21322 236.06553 233.93883 231.81914 229.85845 228.02876
 226.32506 224.81037 223.45368 222.23899 221.13429 220.10760 219.22491 218.37922
 217.63452 216.82783 215.93914 215.31645 214.77975 214.79407 214.80716 213.91794
 213.04192 211.08543 210.26299 212.09137 215.97139 220.55333 225.93649 230.65581
 234.56654 238.89229 243.23209 247.35858 251.24702 255.04846 258.82675 262.37573
 265.43649 267.99686 270.13593 271.95856 273.63980 275.25031 276.79532 278.11594
 279.14752 280.05972 280.95615 281.92334 282.95840 284.05139 285.10849 286.01740
 286.83371 287.56064 288.19568 289.00494
 366.78100 356.34743 345.79186 334.67029 323.08572 311.29215 299.17457 286.99000
 274.71443 262.62386 250.64529 239.95872 230.09315 221.20958 213.40401 206.41844
 200.26487 195.21529 191.80972 189.86415 188.91358 188.99001 189.83744 191.15787
 192.89530 195.00273 197.27816 199.64959 202.10701 204.59944 206.69987 208.55430
 210.19273 211.35016 211.59159 211.83202 211.78145 211.49888 211.14431 210.78673
 210.41616 210.13859 209.95902 209.83545 209.77588 210.11931 210.51774 210.91917
 211.72460 212.91503 214.17745 215.97288 217.91331 219.96874 222.07617 224.17160
 226.24403 228.34046 230.44989 232.56832 234.70975 236.89417 239.16260 241.54503
 244.17846 246.44189 248.45632 250.23375 251.66318 252.79861 253.63304 253.96147
 254.01090 253.79732 253.16975 252.13018 250.74861 248.92204 246.84347 244.68890
 242.49233 240.30876 238.14119 235.99262 233.86504 231.74447 229.78290 227.95233
 226.24776 224.73219 223.37462 222.15905 221.05348 220.02591 219.14234 218.29576
 217.55019 216.74262 215.85305 215.22948 214.69191 214.71039 214.73306 213.95270
 213.08243 211.14915 210.29184 212.00340 215.96820 220.57703 225.89713 230.60870
 234.52853 238.87206 243.22917 247.35213 251.22540 255.03146 258.84061 262.41226
 265.46353 267.99255 270.09860 271.89343 273.54486 275.13336 276.68451 278.00870
 279.05127 279.99750 280.99658 282.05130 283.14203 284.25757 285.30801 286.17950
 286.96335 287.66135 288.27112 289.04819
 366.78100 356.34669 345.79038 334.66807 323.08276 311.28845 299.17014 286.98483
 274.70851 262.61720 250.63789 239.95058 230.08427 221.19996 213.39365 206.40734
 200.25303 195.20272 191.79641 189.85010 188.89879 188.97448 189.82117 191.14086
 192.87754 194.98423 197.25892 199.62961 202.08630 204.57799 206.67768 208.53137
 210.16906 211.32575 211.56644 211.80613 211.75482 211.47151 211.11620 210.75788
 210.38657 210.10826 209.92795 209.80364 209.74333 210.08602 210.48371 210.88440
 211.68909 212.87878 214.14047 215.93516 217.87485 219.92954 222.03622 224.13091
 226.20260 228.29829 230.40698 232.52467 234.66536 236.84905 239.11674 241.49843
 244.13112 246.39381 248.40750 250.18419 251.61288 252.74757 253.58125 253.90894
 253.95763 253.74332 253.11501 252.07470 250.69239 248.86508 246.78577 244.63046
 242.43315 240.24884 238.08053 235.93122 233.80291 231.68159 229.71928 227.88797
 226.18266 224.66635 223.30804 222.09173 220.98542 219.95711 219.07280 218.22549
 217.47918 216.67087 215.78056 215.15625 214.61794 214.63100 214.64510 214.02924
 213.22653 211.26227 210.34653 211.98769 215.98654 220.60004 225.87250 230.57640
 234.49890 238.86346 243.23715 247.35257 251.20636 255.01534 258.84985 262.43555
 265.47403 267.97498 270.05533 271.83182 273.46225 275.03171 276.58032 277.91058
 278.95834 279.93646 281.03088 282.17169 283.28741 284.47623 285.57452 286.01678
 286.41458 286.76883 287.07828 287.47263
 354.97500 345.04800 334.58700 324.11500 313.32600 302.53700 291.65000 280.76700
 269.93100 259.19300 248.62200 238.61700 229.08700 220.35500 212.54000 205.53500
 199.46400 194.49300 191.14300 189.19000 188.08900 188.01400 188.72400 189.90600
 191.46900 193.38200 195.40300 197.55600 199.80700 202.06000 204.28800 206.47900
 208.55200 210.37800 212.02500 213.65900 214.99800 216.11800 217.17200 218.25900
 219.49400 220.64500 221.67900 222.61400 223.54500 224.98200 226.57100 228.19000
 229.79700 231.81100 233.86500 235.97200 238.24200 240.55300 242.89900 245.25300
 247.48800 249.53500 251.36600 252.84800 254.09800 255.16700 256.02700 256.25300
 256.09500 255.54300 253.93500 252.56600 251.38400 250.24500 249.05200 247.70100
 246.01600 243.99600 241.78400 239.39300 236.81300 234.22300 231.65800 229.14400
 226.74000 224.47300 222.33500 220.32500 218.44000 216.67700 214.96200 213.47200
 212.20000 211.10800 210.26000 209.63900 209.24400 209.03100 209.05800 209.33300
 209.78400 210.62600 211.33100 212.39100 213.62500 214.84668 217.72949 219.47640
 220.32566 220.86828 220.88710 220.27371 219.43733 218.84250 219.04934 220.86203
 222.60583 225.72206 229.03064 232.61777 236.12270 239.51333 242.70767 245.68587
 248.41061 250.90679 253.19353 254.91714 256.48655 257.94920 259.39966 260.69384
 261.81714 262.77997 263.71679 264.54570 265.26305 265.89772 266.47676 267.00133
 267.47312 267.89325 268.26027 268.72800
