|-------------------------------------------------------------------------|
|   File Name : in_temp.dat
|   Subject   : temperature profiles used for initial guess atmosphere
|   File Type : input of gmtr
|   Data Type : atmospherical data
|   Author/s  : WRF-Chem
|   Date      : Fri Jul 26 15:39:24 2024
|-------------------------------------------------------------------------|

 WRF-Chem temperature
#
 values of T (K)    (8f10.5)
#
 354.97500 345.04800 334.58700 324.11500 313.32600 302.53700 291.65000 280.76700
 269.93100 259.19300 248.62200 238.61700 229.08700 220.35500 212.54000 205.53500
 199.46400 194.49300 191.14300 189.19000 188.08900 188.01400 188.72400 189.90600
 191.46900 193.38200 195.40300 197.55600 199.80700 202.06000 204.28800 206.47900
 208.55200 210.37800 212.02500 213.65900 214.99800 216.11800 217.17200 218.25900
 219.49400 220.64500 221.67900 222.61400 223.54500 224.98200 226.57100 228.19000
 229.79700 231.81100 233.86500 235.97200 238.24200 240.55300 242.89900 245.25300
 247.48800 249.53500 251.36600 252.84800 254.09800 255.16700 256.02700 256.25300
 256.09500 255.54300 253.93500 252.56600 251.38400 250.24500 249.05200 247.70100
 246.01600 243.99600 241.78400 239.39300 236.81300 234.22300 231.65800 229.14400
 226.74000 224.47300 222.33500 220.32500 218.44000 216.67700 214.96200 213.47200
 212.20000 211.10800 210.26000 209.63900 209.24400 209.03100 209.05800 209.33300
 209.78400 210.62600 211.33100 212.39100 213.62500 214.84668 217.72949 219.47640
 220.32566 220.86828 220.88710 220.27371 219.43733 218.84250 219.04934 220.86203
 222.60583 225.72206 229.03064 232.61777 236.12270 239.51333 242.70767 245.68587
 248.41061 250.90679 253.19353 254.91714 256.48655 257.94920 259.39966 260.69384
 261.81714 262.77997 263.71679 264.54570 265.26305 265.89772 266.47676 267.00133
 267.47312 267.89325 268.26027 268.72800
 366.78100 356.33500 345.76700 334.63300 323.03600 311.23000 299.10000 286.90300
 274.61500 262.51200 250.52100 239.82200 229.94400 221.04800 213.23000 206.23200
 200.06600 195.00400 191.58600 189.62800 188.66500 188.72900 189.56400 190.87200
 192.59700 194.69200 196.95500 199.31400 201.75900 204.23900 206.32700 208.16900
 209.79500 210.94000 211.16900 211.39700 211.33400 211.03900 210.67200 210.30200
 209.91900 209.62900 209.43700 209.30100 209.22900 209.56000 209.94600 210.33500
 211.12800 212.30600 213.55600 215.33900 217.26700 219.31000 221.40500 223.48800
 225.54800 227.63200 229.72900 231.83500 233.96400 236.13600 238.39200 240.76200
 243.38300 245.63400 247.63600 249.40100 250.81800 251.94100 252.76300 253.07900
 253.11600 252.89000 252.25000 251.19800 249.80400 247.96500 245.87400 243.70700
 241.49800 239.30200 237.12200 234.96100 232.82100 230.68800 228.71400 226.87100
 225.15400 223.62600 222.25600 221.02800 219.91000 218.87000 217.97400 217.11500
 216.35700 215.53700 214.63500 213.99900 213.44900 212.85855 212.01316 212.61654
 214.26826 216.08686 218.14273 220.53346 223.40855 226.78828 231.49734 235.90155
 239.42278 243.28576 247.23140 251.11907 254.80144 258.23331 261.38913 264.27520
 266.89312 269.26852 271.44504 273.08845 274.58484 275.98591 277.39845 278.65879
 279.75272 280.69038 281.56708 282.34086 283.01050 283.60295 284.14348 284.63317
 285.07358 285.46577 285.80838 286.24500
 381.81900 372.39900 361.20600 349.77600 337.62200 324.85300 311.81000 298.35300
 284.86000 271.32400 258.56100 246.30400 236.08700 226.79600 218.44800 211.29000
 205.52200 200.89400 197.38100 194.84800 193.01500 192.31500 192.25000 192.43100
 192.91200 193.53700 194.13600 194.71200 195.26200 195.83100 196.39300 196.97600
 197.60400 198.14900 198.58400 199.05700 199.69500 200.37800 201.05400 201.70800
 202.31300 202.85700 203.35500 203.86200 204.56900 205.29700 206.02600 206.98700
 208.19300 209.44100 210.96900 212.57600 214.46200 216.51300 218.63000 220.85300
 223.34100 225.96200 228.73900 231.69700 234.70600 237.70600 240.69200 243.65700
 246.73700 249.69900 252.52100 255.06300 257.29000 259.23300 260.63300 261.68000
 262.46100 262.79800 262.69100 262.22400 261.06900 259.52500 257.70700 255.50700
 253.00100 250.30200 247.39800 244.45200 241.65400 239.05400 236.73300 234.59000
 232.59500 230.72500 228.83400 226.82600 224.66600 222.38700 220.10400 217.71500
 215.45900 213.06600 210.54600 208.09300 205.35400 202.08130 196.05959 200.71215
 209.01611 216.90438 223.84126 229.78593 235.00632 240.20838 245.98943 250.68668
 254.32982 257.93487 261.55666 264.96801 268.15192 271.06452 273.76717 276.25691
 278.57680 280.74479 282.77456 284.60533 286.27232 287.81705 289.31715 290.65561
 291.81734 292.81312 293.70701 294.49387 295.17482 295.77730 296.32696 296.82492
 297.27278 297.67160 298.02000 298.46400
 399.33000 389.90700 379.81300 368.66800 357.52200 345.30100 333.07400 320.22700
 307.21600 293.84800 280.37600 267.29600 254.61000 242.98700 232.15100 221.97700
 212.67200 204.28600 197.66900 192.82100 189.48600 187.45200 186.81400 187.08900
 187.78100 189.05400 190.64800 192.54200 194.63000 196.75200 198.67100 200.15800
 201.53500 202.48700 202.97500 203.34000 203.53900 203.49700 203.38500 203.24700
 203.00500 202.78600 202.60300 202.43700 202.42600 202.88800 203.42000 203.95100
 204.89500 205.99200 207.30100 208.95800 210.73800 213.10000 215.56400 218.18000
 220.96600 223.91800 226.96100 230.09200 233.29300 236.55700 239.95500 243.53700
 246.84500 249.39000 251.54200 253.47400 255.19500 256.48400 257.43100 258.05900
 258.21200 258.04000 257.58200 256.64300 255.23900 253.50700 251.40800 249.05600
 246.57600 243.99400 241.38900 238.83000 236.34400 233.98600 231.96900 230.11800
 228.42300 226.89900 225.54800 224.29700 223.10500 221.96500 220.95800 220.11300
 219.49000 218.92000 218.32500 217.88100 217.42300 216.96366 216.35568 216.80261
 217.73415 218.28582 218.64258 219.10077 220.44626 222.53987 226.38451 230.35736
 233.59734 237.39164 241.29814 245.22796 248.98002 252.51130 255.78595 258.80109
 261.54781 264.05210 266.34239 268.04198 269.58951 271.01303 272.35754 273.55718
 274.59842 275.49092 276.28989 276.99307 277.60161 278.14001 278.63122 279.07623
 279.47646 279.83287 280.14422 280.54100
 399.73800 389.78500 379.66200 368.15100 356.64100 344.35000 331.79200 318.88800
 305.72600 292.49300 279.20900 266.73800 254.69600 244.21100 234.45700 225.43300
 217.56900 210.45100 204.30000 199.30600 195.45800 192.57600 191.02700 190.38600
 190.23900 190.53400 191.16600 191.92500 192.79500 193.76600 194.73200 195.31200
 195.80000 196.05200 196.11500 196.11500 196.03900 195.72300 195.34000 194.98900
 194.75100 194.79200 195.13300 195.59800 196.50600 198.13600 199.85800 201.56600
 204.17900 206.82300 209.89300 213.28400 216.82800 220.60500 224.38700 228.20900
 232.03200 235.82500 239.56000 243.25800 246.84500 250.20100 253.70900 257.46800
 261.53000 264.22100 266.60100 268.68100 270.32900 271.74100 272.83600 273.47400
 273.89800 274.00200 273.75700 273.28800 272.37100 271.10000 269.58900 267.77900
 265.81600 263.72100 261.39300 258.91600 256.29800 253.42300 250.33100 247.11400
 243.83700 240.52900 237.24900 233.99900 230.72800 227.51500 224.25400 220.95200
 217.62700 213.65600 210.12100 206.78900 204.01000 201.99491 199.07309 198.76551
 199.40006 200.48994 201.46112 202.31912 203.45100 204.96110 207.47502 210.85391
 213.70530 217.29629 220.99574 224.72316 228.28753 231.64854 234.68024 237.40893
 239.70644 241.60899 243.46854 245.67368 247.68154 249.52395 251.24767 252.78566
 254.12057 255.26479 256.23740 257.09036 257.82852 258.48160 259.07744 259.61723
 260.10271 260.53504 260.91270 261.39400
 399.73800 389.78500 379.66200 368.15100 356.64100 344.35000 331.79200 318.88800
 305.72600 292.49300 279.20900 266.73800 254.69600 244.21100 234.45700 225.43300
 217.56900 210.45100 204.30000 199.30600 195.45800 192.57600 191.02700 190.38600
 190.23900 190.53400 191.16600 191.92500 192.79500 193.76600 194.73200 195.31200
 195.80000 196.05200 196.11500 196.11500 196.03900 195.72300 195.34000 194.98900
 194.75100 194.79200 195.13300 195.59800 196.50600 198.13600 199.85800 201.56600
 204.17900 206.82300 209.89300 213.28400 216.82800 220.60500 224.38700 228.20900
 232.03200 235.82500 239.56000 243.25800 246.84500 250.20100 253.70900 257.46800
 261.53000 264.22100 266.60100 268.68100 270.32900 271.74100 272.83600 273.47400
 273.89800 274.00200 273.75700 273.28800 272.37100 271.10000 269.58900 267.77900
 265.81600 263.72100 261.39300 258.91600 256.29800 253.42300 250.33100 247.11400
 243.83700 240.52900 237.24900 233.99900 230.72800 227.51500 224.25400 220.95200
 217.62700 213.65600 210.12100 206.78900 204.01000 201.99491 199.07309 198.76551
 199.40006 200.48994 201.46112 202.31912 203.45100 204.96110 207.47502 210.85391
 213.70530 217.29629 220.99574 224.72316 228.28753 231.64854 234.68024 237.40893
 239.70644 241.60899 243.46854 245.67368 247.68154 249.52395 251.24767 252.78566
 254.12057 255.26479 256.23740 257.09036 257.82852 258.48160 259.07744 259.61723
 260.10271 260.53504 260.91270 261.39400
 399.33000 389.90700 379.81300 368.66800 357.52200 345.30100 333.07400 320.22700
 307.21600 293.84800 280.37600 267.29600 254.61000 242.98700 232.15100 221.97700
 212.67200 204.28600 197.66900 192.82100 189.48600 187.45200 186.81400 187.08900
 187.78100 189.05400 190.64800 192.54200 194.63000 196.75200 198.67100 200.15800
 201.53500 202.48700 202.97500 203.34000 203.53900 203.49700 203.38500 203.24700
 203.00500 202.78600 202.60300 202.43700 202.42600 202.88800 203.42000 203.95100
 204.89500 205.99200 207.30100 208.95800 210.73800 213.10000 215.56400 218.18000
 220.96600 223.91800 226.96100 230.09200 233.29300 236.55700 239.95500 243.53700
 246.84500 249.39000 251.54200 253.47400 255.19500 256.48400 257.43100 258.05900
 258.21200 258.04000 257.58200 256.64300 255.23900 253.50700 251.40800 249.05600
 246.57600 243.99400 241.38900 238.83000 236.34400 233.98600 231.96900 230.11800
 228.42300 226.89900 225.54800 224.29700 223.10500 221.96500 220.95800 220.11300
 219.49000 218.92000 218.32500 217.88100 217.42300 216.96366 216.35568 216.80261
 217.73415 218.28582 218.64258 219.10077 220.44626 222.53987 226.38451 230.35736
 233.59734 237.39164 241.29814 245.22796 248.98002 252.51130 255.78595 258.80109
 261.54781 264.05210 266.34239 268.04198 269.58951 271.01303 272.35754 273.55718
 274.59842 275.49092 276.28989 276.99307 277.60161 278.14001 278.63122 279.07623
 279.47646 279.83287 280.14422 280.54100
 381.81900 372.39900 361.20600 349.77600 337.62200 324.85300 311.81000 298.35300
 284.86000 271.32400 258.56100 246.30400 236.08700 226.79600 218.44800 211.29000
 205.52200 200.89400 197.38100 194.84800 193.01500 192.31500 192.25000 192.43100
 192.91200 193.53700 194.13600 194.71200 195.26200 195.83100 196.39300 196.97600
 197.60400 198.14900 198.58400 199.05700 199.69500 200.37800 201.05400 201.70800
 202.31300 202.85700 203.35500 203.86200 204.56900 205.29700 206.02600 206.98700
 208.19300 209.44100 210.96900 212.57600 214.46200 216.51300 218.63000 220.85300
 223.34100 225.96200 228.73900 231.69700 234.70600 237.70600 240.69200 243.65700
 246.73700 249.69900 252.52100 255.06300 257.29000 259.23300 260.63300 261.68000
 262.46100 262.79800 262.69100 262.22400 261.06900 259.52500 257.70700 255.50700
 253.00100 250.30200 247.39800 244.45200 241.65400 239.05400 236.73300 234.59000
 232.59500 230.72500 228.83400 226.82600 224.66600 222.38700 220.10400 217.71500
 215.45900 213.06600 210.54600 208.09300 205.35400 202.08130 196.05959 200.71215
 209.01611 216.90438 223.84126 229.78593 235.00632 240.20838 245.98943 250.68668
 254.32982 257.93487 261.55666 264.96801 268.15192 271.06452 273.76717 276.25691
 278.57680 280.74479 282.77456 284.60533 286.27232 287.81705 289.31715 290.65561
 291.81734 292.81312 293.70701 294.49387 295.17482 295.77730 296.32696 296.82492
 297.27278 297.67160 298.02000 298.46400
 366.78100 356.34315 345.78330 334.65745 323.06860 311.27075 299.14890 286.96005
 274.68020 262.58535 250.60251 239.91166 230.04181 221.15396 213.34411 206.35426
 200.19641 195.14256 191.73271 189.78286 188.82801 188.90016 189.74331 191.05946
 192.79261 194.89576 197.16691 199.53406 201.98721 204.47537 206.57152 208.42167
 210.05582 211.20897 211.44612 211.68227 211.62742 211.34057 210.98172 210.61987
 210.24502 209.96317 209.77932 209.65147 209.58762 209.92677 210.32092 210.71808
 211.51923 212.70538 213.96353 215.75468 217.69083 219.74198 221.84513 223.93628
 226.00443 228.09658 230.20173 232.31588 234.45303 236.63318 238.89733 241.27548
 243.90463 246.16378 248.17394 249.94709 251.37224 252.50339 253.33354 253.65769
 253.70284 253.48499 252.85314 251.80929 250.42344 248.59259 246.50974 244.35089
 242.15004 239.96219 237.79034 235.63749 233.50564 231.38080 229.41495 227.58010
 225.87125 224.35140 222.98955 221.76970 220.65985 219.62800 218.74015 217.88930
 217.13945 216.32760 215.43375 214.80590 214.26405 213.36246 211.23470 210.34045
 210.97865 212.63026 214.79863 216.69656 219.27408 223.51210 229.31572 234.44711
 238.31725 242.09828 245.85698 249.73860 253.78314 257.36371 260.08353 262.08542
 264.89102 267.70636 270.04135 271.92523 273.71548 275.49060 277.10019 278.74023
 280.46768 282.06934 283.53796 284.89291 286.07440 287.12244 288.08170 288.95502
 289.74417 290.45203 291.07516 291.90427
 366.78100 356.34300 345.78299 334.65699 323.06798 311.26998 299.14797 286.95897
 274.67896 262.58396 250.60095 239.90995 230.03994 221.15194 213.34193 206.35193
 200.19393 195.13992 191.72992 189.77991 188.82491 188.89690 189.73990 191.05589
 192.78889 194.89188 197.16288 199.52987 201.98287 204.47087 206.56686 208.41686
 210.05085 211.20385 211.44084 211.67684 211.62183 211.33483 210.97582 210.61382
 210.23881 209.95681 209.77280 209.64480 209.58080 209.91979 210.31379 210.71078
 211.51178 212.69777 213.95577 215.74676 217.68276 219.73375 221.83675 223.92774
 225.99574 228.08774 230.19273 232.30673 234.44372 236.62372 238.88771 241.26571
 243.89470 246.15370 248.16369 249.93669 251.36168 252.49268 253.32267 253.64667
 253.69167 253.47366 252.84166 251.79765 250.41165 248.58064 246.49764 244.33863
 242.13763 239.94962 237.77762 235.62461 233.49261 231.36760 229.40160 227.56660
 225.85759 224.33759 222.97558 221.75558 220.64557 219.61357 218.72556 217.87456
 217.12455 216.31255 215.41854 214.79054 214.24854 213.37897 211.32635 210.43286
 211.05165 212.71953 214.88719 216.74048 219.25053 223.44592 229.25829 234.36748
 238.22151 241.99371 245.75327 249.65303 253.74602 257.29025 259.96240 261.98413
 264.80078 267.63300 269.98236 271.85056 273.60172 275.35077 276.98007 278.63873
 280.37167 281.97131 283.43857 284.79416 285.97556 287.02432 287.98282 288.85803
 289.64709 290.35355 290.97974 291.80826
 366.78100 356.34271 345.78242 334.65612 323.06683 311.26854 299.14625 286.95695
 274.67666 262.58137 250.59808 239.90678 230.03649 221.14820 213.33791 206.34761
 200.18932 195.13503 191.72474 189.77444 188.81915 188.89086 189.73357 191.04927
 192.78198 194.88469 197.15540 199.52210 201.97481 204.46252 206.55823 208.40793
 210.04164 211.19435 211.43106 211.66676 211.61147 211.32418 210.96489 210.60260
 210.22730 209.94501 209.76072 209.63243 209.56813 209.90684 210.30055 210.69726
 211.49796 212.68367 213.94138 215.73209 217.66779 219.71850 221.82121 223.91192
 225.97962 228.07133 230.17604 232.28975 234.42645 236.60616 238.86987 241.24758
 243.87628 246.13499 248.14470 249.91741 251.34211 252.47282 253.30253 253.62624
 253.67095 253.45265 252.82036 251.77607 250.38978 248.55848 246.47519 244.31590
 242.11461 239.92631 237.75402 235.60073 233.46844 231.34314 229.37685 227.54156
 225.83227 224.31197 222.94968 221.72939 220.61910 219.58680 218.69851 217.84722
 217.09693 216.28463 215.39034 214.76205 214.21976 213.38660 211.41957 210.53207
 211.12143 212.81845 214.98029 216.77861 219.22134 223.38565 229.20065 234.28766
 238.12347 241.88664 245.64725 249.56744 253.70752 257.21408 259.83807 261.88135
 264.70584 267.55469 269.91922 271.77625 273.49304 275.21777 276.86493 278.54266
 280.27908 281.87729 283.34354 284.69781 285.88150 286.92905 287.88968 288.76389
 289.55334 290.26196 290.88660 291.71777
 366.78100 356.34239 345.78177 334.65516 323.06554 311.26693 299.14431 286.95470
 274.67408 262.57847 250.59485 239.90324 230.03262 221.14401 213.33339 206.34278
 200.18416 195.12955 191.71894 189.76832 188.81271 188.88409 189.72648 191.04186
 192.77425 194.87663 197.14702 199.51340 201.96579 204.45317 206.54856 208.39794
 210.03133 211.18372 211.42010 211.65549 211.59987 211.31226 210.95264 210.59003
 210.21441 209.93180 209.74718 209.61857 209.55395 209.89234 210.28572 210.68211
 211.48249 212.66788 213.92527 215.71565 217.65104 219.70142 221.80381 223.89419
 225.96158 228.05296 230.15735 232.27073 234.40712 236.58650 238.84989 241.22727
 243.85566 246.11404 248.12343 249.89582 251.32020 252.45059 253.27997 253.60336
 253.64774 253.42913 252.79651 251.75190 250.36528 248.53367 246.45005 244.29044
 242.08882 239.90021 237.72760 235.57398 233.44137 231.31575 229.34914 227.51352
 225.80391 224.28329 222.92068 221.70006 220.58945 219.55683 218.66822 217.81660
 217.06599 216.25337 215.35876 214.73015 214.18753 213.39113 211.51056 210.63506
 211.19711 212.91730 215.07138 216.82858 219.18636 223.32568 229.14290 234.20894
 238.02528 241.77773 245.54066 249.48225 253.66550 257.13287 259.71179 261.77783
 264.60599 267.46802 269.84995 271.69797 273.38721 275.09384 276.75876 278.45343
 280.19122 281.78900 283.25345 284.60919 285.79126 286.84015 287.80118 288.67474
 289.46542 290.17441 290.80090 291.63116
 366.78100 356.34204 345.78108 334.65412 323.06416 311.26520 299.14224 286.95228
 274.67132 262.57536 250.59140 239.89944 230.02848 221.13952 213.32856 206.33760
 200.17864 195.12367 191.71271 189.76175 188.80579 188.87683 189.71887 191.03391
 192.76595 194.86799 197.13803 199.50407 201.95611 204.44315 206.53819 208.38723
 210.02027 211.17231 211.40835 211.64339 211.58743 211.29947 210.93951 210.57655
 210.20059 209.91763 209.73267 209.60371 209.53875 209.87679 210.26983 210.66587
 211.46591 212.65094 213.90798 215.69802 217.63306 219.68310 221.78514 223.87518
 225.94222 228.03326 230.13730 232.25034 234.38638 236.56542 238.82846 241.20550
 243.83354 246.09158 248.10062 249.87266 251.29670 252.42674 253.25578 253.57882
 253.62286 253.40390 252.77094 251.72598 250.33902 248.50706 246.42310 244.26314
 242.06118 239.87222 237.69925 235.54529 233.41233 231.28637 229.31941 227.48345
 225.77349 224.25253 222.88957 221.66861 220.55765 219.52469 218.63573 217.78377
 217.03281 216.21985 215.32489 214.69593 214.15297 213.39319 211.59882 210.73880
 211.28325 213.01353 215.15814 216.89154 219.15059 223.26224 229.08513 234.12894
 237.92537 241.66809 245.43683 249.40152 253.62177 257.04797 259.58246 261.67178
 264.49957 267.37122 269.76981 271.61456 273.28680 274.98196 276.66455 278.37369
 280.10989 281.70734 283.16977 284.52481 285.70828 286.75732 287.71710 288.59222
 289.38440 290.09274 290.71921 291.55035
 366.78100 356.34167 345.78034 334.65302 323.06269 311.26336 299.14003 286.94971
 274.66838 262.57205 250.58772 239.89539 230.02407 221.13474 213.32341 206.33208
 200.17276 195.11743 191.70610 189.75477 188.79845 188.86912 189.71079 191.02546
 192.75713 194.85881 197.12848 199.49415 201.94582 204.43250 206.52717 208.37584
 210.00851 211.16018 211.39586 211.63053 211.57420 211.28587 210.92555 210.56222
 210.18589 209.90256 209.71724 209.58791 209.52258 209.86025 210.25292 210.64860
 211.44827 212.63294 213.88961 215.67929 217.61396 219.66363 221.76530 223.85497
 225.92165 228.01232 230.11599 232.22866 234.36434 236.54301 238.80568 241.18235
 243.81002 246.06770 248.07637 249.84804 251.27171 252.40139 253.23006 253.55273
 253.59640 253.37708 252.74375 251.69842 250.31109 248.47876 246.39444 244.23411
 242.03178 239.84245 237.66913 235.51480 233.38147 231.25514 229.28781 227.45149
 225.74116 224.21983 222.85650 221.63518 220.52385 219.49052 218.60119 217.74886
 216.99754 216.18421 215.28888 214.65955 214.11623 213.39311 211.68512 210.84587
 211.37418 213.10966 215.24416 216.95288 219.12532 223.19756 229.02536 234.04375
 237.82333 241.55867 245.33815 249.32808 253.57652 256.96045 259.45221 261.56467
 264.38699 267.26291 269.67694 271.52283 273.18976 274.88263 276.58081 278.30084
 280.03586 281.63141 283.09235 284.44705 285.63040 286.67917 287.64114 288.51465
 289.30756 290.01566 290.64532 291.47702
 366.78100 356.34121 345.77943 334.65164 323.06085 311.26107 299.13728 286.94649
 274.66471 262.56792 250.58313 239.89035 230.01856 221.12877 213.31699 206.32520
 200.16541 195.10963 191.69784 189.74606 188.78927 188.85948 189.70070 191.01491
 192.74612 194.84734 197.11655 199.48176 201.93298 204.41919 206.51340 208.36162
 209.99383 211.14504 211.38026 211.61447 211.55768 211.26890 210.90811 210.54432
 210.16754 209.88375 209.69796 209.56818 209.50239 209.83960 210.23182 210.62703
 211.42624 212.61046 213.86667 215.65588 217.59010 219.63931 221.74053 223.82974
 225.89595 227.98617 230.08938 232.20159 234.33681 236.51502 238.77723 241.15345
 243.78066 246.03787 248.04609 249.81730 251.24051 252.36973 253.19794 253.52015
 253.56337 253.34358 252.70979 251.66401 250.27622 248.44343 246.35865 244.19786
 241.99507 239.80529 237.63150 235.47671 233.34293 231.21614 229.24835 227.41157
 225.70078 224.17900 222.81521 221.59342 220.48164 219.44785 218.55806 217.70528
 216.95349 216.13970 215.24392 214.61413 214.07034 213.38731 211.77380 210.95183
 211.47006 213.20216 215.32794 217.01709 219.10725 223.14111 228.96568 233.95123
 237.71463 241.44641 245.24310 249.26112 253.52922 256.87262 259.32578 261.46002
 264.26953 267.14212 269.56857 271.41998 273.09451 274.79666 276.50876 278.23523
 279.96875 281.56076 283.02164 284.37811 285.56027 286.60999 287.57135 288.44699
 289.23700 289.94748 290.57730 291.41043
 366.78100 356.34078 345.77856 334.65034 323.05911 311.25889 299.13467 286.94345
 274.66123 262.56401 250.57879 239.88556 230.01334 221.12312 213.31090 206.31868
 200.15846 195.10224 191.69001 189.73779 188.78057 188.85035 189.69113 191.00491
 192.73569 194.83646 197.10524 199.47002 201.92080 204.40658 206.50036 208.34814
 209.97991 211.13069 211.36547 211.59925 211.54203 211.25281 210.89159 210.52736
 210.15014 209.86592 209.67970 209.54948 209.48326 209.82003 210.21181 210.60659
 211.40537 212.58915 213.84493 215.63371 217.56748 219.61626 221.71704 223.80582
 225.87160 227.96138 230.06416 232.17593 234.31071 236.48849 238.75027 241.12605
 243.75283 246.00961 248.01738 249.78816 251.21094 252.33972 253.16750 253.48928
 253.53206 253.31183 252.67761 251.63139 250.24317 248.40995 246.32473 244.16351
 241.96028 239.77006 237.59584 235.44062 233.30640 231.17918 229.21096 227.37373
 225.66251 224.14029 222.77607 221.55385 220.44163 219.40741 218.51718 217.66396
 216.91174 216.09752 215.20130 214.57108 214.02686 213.38208 211.85880 211.05841
 211.56746 213.30161 215.41382 217.07167 219.10406 223.08887 228.90045 233.85106
 237.60178 241.33340 245.15283 249.19931 253.47903 256.78290 259.20224 261.36057
 264.14941 267.00961 269.44534 271.30750 273.00079 274.72379 276.44894 278.17667
 279.90875 281.49509 282.95691 284.31354 285.49680 286.54718 287.50931 288.38306
 289.17563 289.88666 290.51422 291.35226
 366.78100 356.34043 345.77787 334.64930 323.05774 311.25717 299.13261 286.94104
 274.65848 262.56091 250.57535 239.88178 230.00922 221.11865 213.30608 206.31352
 200.15295 195.09639 191.68382 189.73126 188.77369 188.84313 189.68356 190.99700
 192.72743 194.82787 197.09630 199.46073 201.91117 204.39660 206.49004 208.33747
 209.96891 211.11934 211.35378 211.58721 211.52965 211.24008 210.87852 210.51395
 210.13638 209.85182 209.66525 209.53469 209.46812 209.80456 210.19599 210.59043
 211.38886 212.57230 213.82773 215.61617 217.54960 219.59803 221.69847 223.78690
 225.85234 227.94177 230.04421 232.15564 234.29008 236.46751 238.72895 241.10438
 243.73082 245.98725 247.99469 249.76512 251.18755 252.31599 253.14342 253.46486
 253.50729 253.28673 252.65216 251.60560 250.21703 248.38347 246.29790 244.13634
 241.93277 239.74220 237.56764 235.41207 233.27751 231.14994 229.18138 227.34381
 225.63225 224.10968 222.74512 221.52255 220.40999 219.37542 218.48485 217.63129
 216.87872 216.06416 215.16759 214.53703 213.99246 213.38101 211.93639 211.17004
 211.67149 213.38795 215.50664 217.13019 219.09238 223.04401 228.83720 233.75031
 237.48795 241.22076 245.06717 249.14339 253.42508 256.69250 259.08698 261.27142
 264.03006 266.86868 269.30890 271.18280 272.90375 274.65707 276.39246 278.11835
 279.85052 281.43350 282.89972 284.25482 285.43991 286.48880 287.45065 288.32596
 289.11960 289.82916 290.45810 291.29822
 366.78100 356.33969 345.77639 334.64708 323.05478 311.25347 299.12816 286.93586
 274.65255 262.55425 250.56794 239.87363 230.00033 221.10902 213.29572 206.30241
 200.14110 195.08380 191.67049 189.71719 188.75888 188.82757 189.66727 190.97996
 192.70966 194.80935 197.07704 199.44074 201.89043 204.37512 206.46782 208.31451
 209.94521 211.09490 211.32859 211.56129 211.50298 211.21268 210.85037 210.48506
 210.10676 209.82145 209.63415 209.50284 209.43553 209.77123 210.16192 210.55562
 211.35331 212.53600 213.79070 215.57839 217.51109 219.55878 221.65847 223.74617
 225.81086 227.89956 230.00125 232.11194 234.24564 236.42233 238.68303 241.05772
 243.68341 245.93911 247.94580 249.71550 251.13719 252.26488 253.09158 253.41227
 253.45397 253.23266 252.59735 251.55005 250.16074 248.32643 246.24013 244.07782
 241.87352 239.68221 237.50690 235.35060 233.21529 231.08699 229.11768 227.27937
 225.56707 224.04376 222.67846 221.45515 220.34184 219.30654 218.41523 217.56093
 216.80762 215.99231 215.09501 214.46370 213.91840 213.35863 212.03615 211.27556
 211.77243 213.46861 215.58302 217.18785 219.10593 223.00708 228.76613 233.64220
 237.37169 241.11157 244.98990 249.09528 253.37076 256.60352 258.98029 261.19217
 263.91211 266.71954 269.15872 271.04694 272.80295 274.59369 276.33887 278.05869
 279.78989 281.37119 282.84570 284.20303 285.38666 286.43829 287.39893 288.27441
 289.06714 289.77957 290.40884 291.24927
 366.78100 356.33837 345.77374 334.64310 323.04947 311.24684 299.12021 286.92657
 274.64194 262.54231 250.55468 239.85904 229.98441 221.09178 213.27715 206.28251
 200.11988 195.06125 191.64662 189.69198 188.73235 188.79972 189.63809 190.94945
 192.67782 194.77619 197.04256 199.40492 201.85329 204.33666 206.42803 208.27339
 209.90276 211.05113 211.28350 211.51486 211.45523 211.16360 210.79997 210.43333
 210.05370 209.76707 209.57844 209.44580 209.37717 209.71154 210.10091 210.49327
 211.28964 212.47101 213.72438 215.51074 217.44211 219.48848 221.58685 223.67321
 225.73658 227.82395 229.92432 232.03368 234.16605 236.34142 238.60079 240.97415
 243.59852 245.85289 247.85826 249.62662 251.04699 252.17336 252.99873 253.31809
 253.35846 253.13583 252.49920 251.45056 250.05993 248.22430 246.13667 243.97303
 241.76740 239.57477 237.39814 235.24050 233.10387 230.97424 229.00361 227.16397
 225.45034 223.92571 222.55908 221.33444 220.21981 219.18318 218.29055 217.43491
 216.68028 215.86365 214.96502 214.33238 213.78575 213.30386 212.16533 211.39854
 211.81514 213.55302 215.69957 217.24214 219.11070 222.96803 228.70418 233.54318
 237.26068 241.00853 244.92065 249.05144 253.31206 256.50705 258.86938 261.11179
 263.79105 266.56003 268.99707 270.90411 272.70450 274.54147 276.29547 278.00632
 279.73096 281.31140 282.79645 284.15488 285.33783 286.39014 287.35175 288.22552
 289.02060 289.73218 290.36047 291.20575
 366.78100 356.33813 345.77326 334.64239 323.04852 311.24564 299.11877 286.92490
 274.64003 262.54016 250.55229 239.85642 229.98155 221.08868 213.27380 206.27893
 200.11606 195.05719 191.64232 189.68745 188.72758 188.79471 189.63284 190.94396
 192.67209 194.77022 197.03635 199.39848 201.84661 204.32974 206.42087 208.26599
 209.89512 211.04325 211.27538 211.50651 211.44664 211.15477 210.79090 210.42403
 210.04415 209.75728 209.56841 209.43554 209.36667 209.70080 210.08993 210.48206
 211.27819 212.45931 213.71244 215.49857 217.42970 219.47583 221.57396 223.66009
 225.72322 227.81035 229.91047 232.01960 234.15173 236.32686 238.58599 240.95912
 243.58325 245.83738 247.84251 249.61063 251.03076 252.15689 252.98202 253.30115
 253.34128 253.11841 252.48154 251.43266 250.04179 248.20592 246.11805 243.95418
 241.74831 239.55544 237.37857 235.22070 233.08382 230.95395 228.98308 227.14321
 225.42934 223.90447 222.53760 221.31273 220.19786 219.16098 218.26811 217.41224
 216.65737 215.84050 214.94163 214.30876 213.76189 213.30583 212.22836 211.49966
 211.96936 213.59872 215.77292 217.33766 219.14429 222.94655 228.62018 233.42064
 237.13246 240.89662 244.85051 249.00914 253.24680 256.40421 258.75946 261.03641
 263.67273 266.39877 268.83310 270.76379 272.61240 274.49823 276.26089 277.95917
 279.67676 281.25485 282.74991 284.10864 285.29291 286.34344 287.30478 288.18179
 288.97403 289.68567 290.31543 291.16431
 366.78100 356.33734 345.77169 334.64003 323.04537 311.24172 299.11406 286.91940
 274.63375 262.53309 250.54443 239.84778 229.97212 221.07846 213.26280 206.26715
 200.10349 195.04383 191.62818 189.67252 188.71186 188.77821 189.61555 190.92589
 192.65324 194.75058 197.01592 199.37727 201.82461 204.30695 206.39730 208.24164
 209.86998 211.01733 211.24867 211.47901 211.41835 211.12570 210.76104 210.39338
 210.01273 209.72507 209.53541 209.40176 209.33210 209.66544 210.05379 210.44513
 211.24047 212.42082 213.67316 215.45850 217.38885 219.43419 221.53153 223.61688
 225.67922 227.76556 229.86491 231.97325 234.10459 236.27893 238.53728 240.90962
 243.53296 245.78631 247.79065 249.55799 250.97734 252.10268 252.92702 253.24537
 253.28471 253.06105 252.42340 251.37374 249.98208 248.14543 246.05677 243.89211
 241.68546 239.49180 237.31414 235.15548 233.01783 230.88717 228.91551 227.07486
 225.36020 223.83454 222.46689 221.24123 220.12557 219.08792 218.19426 217.33760
 216.58195 215.76429 214.86463 214.23098 213.68332 213.28098 212.33040 211.57140
 212.01826 213.81879 215.91792 217.35464 219.12285 222.85887 228.53873 233.30690
 237.00803 240.79456 244.79327 248.97580 253.18460 256.30893 258.66257 260.97345
 263.56274 266.24042 268.66888 270.62283 272.51843 274.45215 276.22171 277.90610
 279.61826 281.19382 282.70819 284.06943 285.25247 286.30374 287.26642 288.14093
 288.93488 289.64810 290.27994 291.12729
 366.78100 356.33657 345.77014 334.63771 323.04228 311.23785 299.10942 286.91399
 274.62757 262.52614 250.53671 239.83928 229.96285 221.06842 213.25199 206.25556
 200.09113 195.03070 191.61427 189.65784 188.69641 188.76198 189.59855 190.90812
 192.63470 194.73127 196.99584 199.35641 201.80298 204.28455 206.37412 208.21769
 209.84526 210.99183 211.22240 211.45197 211.39054 211.09711 210.73168 210.36325
 209.98183 209.69340 209.50297 209.36854 209.29811 209.63068 210.01825 210.40882
 211.20339 212.38296 213.63453 215.41910 217.34867 219.39324 221.48981 223.57439
 225.63596 227.72153 229.82010 231.92767 234.05824 236.23181 238.48938 240.86095
 243.48352 245.73609 247.73966 249.50623 250.92480 252.04937 252.87294 253.19052
 253.22909 253.00466 252.36623 251.31580 249.92337 248.08594 245.99651 243.83108
 241.62365 239.42922 237.25079 235.09136 232.95293 230.82150 228.84907 227.00765
 225.29222 223.76579 222.39736 221.17093 220.05450 219.01607 218.12164 217.26421
 216.50778 215.68935 214.78892 214.15449 213.60606 213.25519 212.42621 211.67892
 212.05943 213.98135 216.05284 217.38873 219.10658 222.77045 228.47104 233.20453
 236.89404 240.70558 244.74785 248.95021 253.12206 256.21472 258.56940 260.91302
 263.45490 266.08032 268.50000 270.47784 272.42181 274.40540 276.18152 277.84958
 279.55536 281.13660 282.66705 284.02917 285.21475 286.26578 287.22794 288.10263
 288.89868 289.61191 290.24210 291.09558
 366.78100 356.33608 345.76916 334.63624 323.04032 311.23540 299.10648 286.91056
 274.62364 262.52172 250.53180 239.83388 229.95696 221.06204 213.24512 206.24820
 200.08328 195.02236 191.60544 189.64852 188.68660 188.75168 189.58775 190.89683
 192.62291 194.71899 196.98307 199.34315 201.78923 204.27031 206.35939 208.20247
 209.82955 210.97563 211.20571 211.43479 211.37287 211.07895 210.71303 210.34411
 209.96219 209.67327 209.48235 209.34743 209.27651 209.60859 209.99567 210.38575
 211.17983 212.35891 213.60999 215.39407 217.32315 219.36723 221.46331 223.54739
 225.60847 227.69355 229.79163 231.89871 234.02879 236.20187 238.45895 240.83003
 243.45210 245.70418 247.70726 249.47334 250.89142 252.01550 252.83858 253.15566
 253.19374 252.96882 252.32990 251.27898 249.88606 248.04814 245.95822 243.79230
 241.58438 239.38946 237.21054 235.05062 232.91170 230.77978 228.80686 226.96494
 225.24902 223.72210 222.35318 221.12626 220.00934 218.97042 218.07550 217.21758
 216.46066 215.64174 214.74082 214.10590 213.55698 213.24284 212.50064 211.78738
 212.15164 214.09998 216.14259 217.43559 219.11794 222.69696 228.40730 233.10414
 236.78523 240.62468 244.70972 248.92719 253.05440 256.11359 258.47141 260.84686
 263.34381 265.91861 268.32962 270.33398 272.32886 274.36447 276.14832 277.79962
 279.49759 281.08798 282.62366 283.98840 285.17505 286.22745 287.18829 288.06470
 288.86133 289.57425 290.20493 291.05960
 366.78100 356.33554 345.76807 334.63461 323.03815 311.23269 299.10322 286.90676
 274.61930 262.51683 250.52637 239.82791 229.95045 221.05498 213.23752 206.24006
 200.07459 195.01313 191.59567 189.63821 188.67574 188.74028 189.57582 190.88435
 192.60989 194.70543 196.96897 199.32850 201.77404 204.25458 206.34311 208.18565
 209.81219 210.95773 211.18726 211.41580 211.35334 211.05887 210.69241 210.32295
 209.94049 209.65102 209.45956 209.32410 209.25264 209.58417 209.97071 210.36025
 211.15378 212.33232 213.58286 215.36640 217.29493 219.33847 221.43401 223.51754
 225.57808 227.66262 229.76016 231.86669 233.99623 236.16877 238.42530 240.79584
 243.41738 245.66892 247.67145 249.43699 250.85453 251.97806 252.80060 253.11714
 253.15468 252.92921 252.28975 251.23829 249.84482 248.00636 245.91590 243.74944
 241.54097 239.34551 237.16605 235.00558 232.86612 230.73366 228.76020 226.91773
 225.20127 223.67381 222.30434 221.07688 219.95942 218.91996 218.02449 217.16603
 216.40857 215.58910 214.68764 214.05218 213.50272 213.22733 212.57668 211.88907
 212.26578 214.20967 216.20828 217.48250 219.13712 222.64168 228.33932 233.00351
 236.68130 240.55061 244.67711 248.90576 252.98015 256.00363 258.36499 260.77347
 263.23199 265.75989 268.16504 270.19934 272.24533 274.32959 276.12100 277.75516
 279.44284 281.04129 282.57947 283.94583 285.13235 286.18558 287.14969 288.02536
 288.82092 289.53616 290.16431 291.02414
 366.78100 356.33483 345.76666 334.63249 323.03532 311.22915 299.09898 286.90182
 274.61365 262.51048 250.51931 239.82014 229.94197 221.04580 213.22763 206.22946
 200.06329 195.00112 191.58295 189.62479 188.66162 188.72545 189.56028 190.86811
 192.59294 194.68777 196.95060 199.30943 201.75426 204.23409 206.32192 208.16376
 209.78959 210.93442 211.16325 211.39108 211.32791 211.03274 210.66557 210.29540
 209.91223 209.62206 209.42989 209.29373 209.22156 209.55239 209.93822 210.32705
 211.11988 212.29771 213.54754 215.33037 217.25820 219.30103 221.39586 223.47870
 225.53853 227.62236 229.71919 231.82502 233.95385 236.12568 238.38151 240.75134
 243.37217 245.62300 247.62483 249.38967 250.80650 251.92933 252.75116 253.06699
 253.10382 252.87765 252.23748 251.18531 249.79114 247.95197 245.86080 243.69364
 241.48447 239.28830 237.10813 234.94696 232.80679 230.67362 228.69945 226.85628
 225.13911 223.61094 222.24077 221.01261 219.89444 218.85427 217.95810 217.09893
 216.34076 215.52059 214.61842 213.98225 213.43208 213.20259 212.66040 211.99425
 212.37494 214.31773 216.27113 217.52461 219.15662 222.60332 228.27115 232.90565
 236.58432 240.48439 244.64934 248.88335 252.89742 255.88231 258.24969 260.69244
 263.12152 265.60919 268.01242 270.08023 272.17154 274.29916 276.09406 277.71335
 279.38672 280.99530 282.53653 283.90387 285.08954 286.14395 287.10870 287.98468
 288.77951 289.49503 290.12671 290.98590
 366.78100 356.33399 345.76497 334.62996 323.03194 311.22493 299.09391 286.89590
 274.60688 262.50287 250.51085 239.81084 229.93182 221.03481 213.21579 206.21678
 200.04977 194.98675 191.56774 189.60872 188.64471 188.70769 189.54168 190.84866
 192.57265 194.66663 196.92862 199.28660 201.73059 204.20957 206.29656 208.13755
 209.76253 210.90652 211.13450 211.36149 211.29747 211.00146 210.63344 210.26243
 209.87841 209.58740 209.39438 209.25737 209.18436 209.51434 209.89933 210.28731
 211.07930 212.25628 213.50527 215.28725 217.21424 219.25622 221.35021 223.43219
 225.49118 227.57416 229.67015 231.77514 233.90312 236.07411 238.32909 240.69808
 243.31806 245.56805 247.56903 249.33302 250.74900 251.87099 252.69197 253.00696
 253.04294 252.81593 252.17492 251.12190 249.72689 247.88687 245.79486 243.62684
 241.41683 239.21981 237.03880 234.87678 232.73577 230.60175 228.62674 226.78272
 225.06471 223.53570 222.16468 220.93567 219.81665 218.77564 217.87862 217.01861
 216.25959 215.43858 214.53556 213.89855 213.34753 213.16985 212.75002 212.10744
 212.47905 214.42133 216.32721 217.56169 219.17810 222.57079 228.20705 232.81238
 236.49525 240.42513 244.62451 248.85826 252.80452 255.74979 258.12619 260.60599
 263.01553 265.47046 267.87399 269.97684 272.10797 274.26929 276.06604 277.67181
 279.33224 280.94919 282.49319 283.85999 285.04813 286.10229 287.06616 287.94485
 288.73965 289.45392 290.08636 290.94794
 366.78100 356.33306 345.76312 334.62718 323.02825 311.22031 299.08837 286.88943
 274.59949 262.49455 250.50161 239.80068 229.92074 221.02280 213.20286 206.20292
 200.03498 194.97104 191.55111 189.59117 188.62623 188.68829 189.52135 190.82741
 192.55047 194.64354 196.90460 199.26166 201.70472 204.18278 206.26884 208.10890
 209.73297 210.87603 211.10309 211.32915 211.26421 210.96727 210.59833 210.22640
 209.84146 209.54952 209.35558 209.21764 209.14370 209.47276 209.85683 210.24389
 211.03495 212.21101 213.45907 215.24013 217.16619 219.20726 221.30032 223.38138
 225.43944 227.52150 229.61656 231.72062 233.84769 236.01775 238.27181 240.63987
 243.25893 245.50799 247.50805 249.27112 250.68618 251.80724 252.62730 252.94136
 252.97642 252.74848 252.10655 251.05261 249.65667 247.81573 245.72279 243.55385
 241.34291 239.14498 236.96304 234.80010 232.65816 230.52322 228.54728 226.70234
 224.98341 223.45347 222.08153 220.85159 219.73165 218.68971 217.79177 216.93084
 216.17090 215.34896 214.44502 213.80708 213.25514 213.13243 212.84251 212.22882
 212.58414 214.51607 216.36467 217.59079 219.21037 222.54176 228.14882 232.72552
 236.41463 240.37384 244.60135 248.82748 252.70030 255.60678 257.99619 260.51297
 262.91278 265.34311 267.75043 269.88785 272.05283 274.24103 276.03732 277.63031
 279.27951 280.90463 282.44931 283.81653 285.00638 286.06073 287.02332 287.90198
 288.69882 289.41400 290.04581 290.91107
 366.78100 356.33210 345.76119 334.62429 323.02438 311.21548 299.08257 286.88267
 274.59176 262.48586 250.49195 239.79005 229.90914 221.01024 213.18934 206.18843
 200.01953 194.95462 191.53372 189.57281 188.60691 188.66800 189.50010 190.80519
 192.52729 194.61938 196.87948 199.23558 201.67767 204.15477 206.23986 208.07896
 209.70205 210.84415 211.07024 211.29534 211.22943 210.93153 210.56162 210.18872
 209.80282 209.50991 209.31501 209.17610 209.10120 209.42929 209.81239 210.19848
 210.98858 212.16367 213.41077 215.19086 217.11596 219.15606 221.24815 223.32825
 225.38534 227.46644 229.56053 231.66363 233.78972 235.95882 238.21191 240.57901
 243.19710 245.44520 247.44430 249.20639 250.62049 251.74058 252.55968 252.87277
 252.90687 252.67796 252.03506 250.98015 249.58325 247.74134 245.64744 243.47754
 241.26563 239.06673 236.88382 234.71992 232.57701 230.44111 228.46420 226.61830
 224.89839 223.36749 221.99458 220.76368 219.64278 218.59987 217.70097 216.83906
 216.07816 215.25525 214.35035 213.71144 213.15854 213.09224 212.93561 212.35974
 212.69606 214.59610 216.37431 217.61562 219.25119 222.51831 228.09578 232.64799
 236.34563 240.33177 244.58023 248.79198 252.58798 255.45847 257.86163 260.41110
 262.80945 265.22461 267.63959 269.81180 272.00702 274.21527 276.01041 277.59241
 279.22778 280.86038 282.40573 283.77454 284.96265 286.01855 286.98181 287.85873
 288.65613 289.37213 290.00537 290.86926
 366.78100 356.33111 345.75921 334.62132 323.02043 311.21054 299.07664 286.87575
 274.58386 262.47697 250.48207 239.77918 229.89729 220.99740 213.17550 206.17361
 200.00372 194.93783 191.51593 189.55404 188.58715 188.64726 189.47836 190.78247
 192.50358 194.59468 196.85379 199.20890 201.65001 204.12611 206.21022 208.04833
 209.67044 210.81154 211.03665 211.26076 211.19387 210.89497 210.52408 210.15019
 209.76330 209.46940 209.27351 209.13362 209.05772 209.38483 209.76694 210.15205
 210.94115 212.11526 213.36137 215.14048 217.06458 219.10369 221.19480 223.27391
 225.33001 227.41012 229.50323 231.60534 233.73044 235.89855 238.15066 240.51677
 243.13387 245.38098 247.37909 249.14019 250.55330 251.67241 252.49052 252.80262
 252.83573 252.60584 251.96195 250.90605 249.50816 247.66527 245.57038 243.39948
 241.18659 238.98670 236.80281 234.63791 232.49402 230.35713 228.37923 226.53234
 224.81145 223.27956 221.90566 220.67377 219.55188 218.50799 217.60809 216.74520
 215.98331 215.15942 214.25352 213.61363 213.05974 213.05049 213.02866 212.50172
 212.81306 214.66100 216.35869 217.63004 219.29417 222.49876 228.04984 232.58321
 236.28804 240.29968 244.56410 248.75468 252.47115 255.30688 257.72131 260.29572
 262.69928 265.11072 267.54004 269.75055 271.97452 274.19629 275.99008 277.56094
 279.18524 280.81683 282.36188 283.73090 284.92050 285.97427 286.94037 287.81769
 288.61462 289.33023 289.96445 290.82706
 366.78100 356.33009 345.75718 334.61827 323.01636 311.20545 299.07054 286.86863
 274.57572 262.46781 250.47190 239.76799 229.88508 220.98417 213.16126 206.15835
 199.98744 194.92053 191.49762 189.53471 188.56680 188.62589 189.45598 190.75906
 192.47915 194.56924 196.82733 199.18142 201.62151 204.09660 206.17969 208.01678
 209.63787 210.77796 211.00205 211.22514 211.15723 210.85732 210.48541 210.11050
 209.72259 209.42768 209.23077 209.08986 209.01295 209.33904 209.72013 210.10422
 210.89231 212.06540 213.31049 215.08858 217.01167 219.04976 221.13985 223.21794
 225.27303 227.35212 229.44421 231.54530 233.66939 235.83648 238.08757 240.45266
 243.06875 245.31484 247.31193 249.07201 250.48410 251.60219 252.41928 252.73037
 252.76246 252.53155 251.88664 250.82973 249.43082 247.58691 245.49100 243.31909
 241.10518 238.90427 236.71936 234.55345 232.40854 230.27063 228.29172 226.44381
 224.72190 223.18899 221.81408 220.58117 219.45826 218.41335 217.51244 216.64853
 215.88562 215.06071 214.15380 213.51289 212.95798 213.00743 213.12428 212.64958
 212.94124 214.71014 216.31311 217.63600 219.33167 222.48682 228.01183 232.53154
 236.24341 240.27937 244.55437 248.71805 252.35144 255.15009 257.57114 260.16397
 262.58020 264.99991 267.45251 269.70596 271.95633 274.18506 275.97513 277.53491
 279.15338 280.77469 282.32083 283.68866 284.87845 285.93286 286.89835 287.77652
 288.57379 289.28830 289.92413 290.78671
 366.78100 356.32926 345.75552 334.61578 323.01304 311.20129 299.06555 286.86281
 274.56907 262.46033 250.46359 239.75885 229.87511 220.97336 213.14962 206.14588
 199.97414 194.90640 191.48266 189.51892 188.55018 188.60843 189.43769 190.73995
 192.45921 194.54847 196.80573 199.15899 201.59825 204.07250 206.15476 207.99102
 209.61128 210.75054 210.97380 211.19606 211.12732 210.82657 210.45383 210.07809
 209.68935 209.39361 209.19587 209.05413 208.97639 209.30165 209.68190 210.06516
 210.85242 212.02468 213.26894 215.04620 216.96846 219.00572 221.09497 223.17223
 225.22649 227.30475 229.39601 231.49627 233.61953 235.78579 238.03604 240.40030
 243.01556 245.26082 247.25708 249.01634 250.42760 251.54486 252.36111 252.67137
 252.70263 252.47089 251.82515 250.76741 249.36767 247.52293 245.42618 243.25344
 241.03870 238.83696 236.65122 234.48448 232.33874 230.20000 228.22026 226.37151
 224.64877 223.11503 221.73929 220.50555 219.38181 218.33607 217.43433 216.56958
 215.80584 214.98010 214.07236 213.43062 212.87488 212.97466 213.21040 212.81665
 213.05798 214.73849 216.26419 217.63570 219.37311 222.47583 227.98479 232.49376
 236.21211 240.27223 244.55324 248.68384 252.22934 254.98772 257.41119 260.01660
 262.45148 264.89035 267.37219 269.67047 271.94604 274.17352 275.95236 277.50247
 279.12082 280.73517 282.28076 283.65009 284.84015 285.89441 286.85962 287.73853
 288.53564 289.25308 289.88422 290.75006
 366.78100 356.32780 345.75260 334.61140 323.00721 311.19401 299.05681 286.85261
 274.55741 262.44721 250.44902 239.74282 229.85762 220.95442 213.12922 206.12402
 199.95083 194.88163 191.45643 189.49123 188.52103 188.57783 189.40563 190.70644
 192.42424 194.51204 196.76784 199.11964 201.55744 204.03025 206.11105 207.94585
 209.56465 210.70245 210.92425 211.14505 211.07486 210.77266 210.39846 210.02126
 209.63106 209.33386 209.13467 208.99147 208.91227 209.23607 209.61487 209.99667
 210.78248 211.95328 213.19608 214.97188 216.89268 218.92848 221.01628 223.09209
 225.14489 227.22169 229.31149 231.41029 233.53209 235.69690 237.94570 240.30850
 242.92230 245.16610 247.16090 248.91870 250.32851 251.44431 252.25911 252.56791
 252.59771 252.36451 251.71732 250.65812 249.25692 247.41072 245.31252 243.13832
 240.92213 238.71893 236.53173 234.36353 232.21633 230.07613 228.09493 226.24474
 224.52054 222.98534 221.60814 220.37294 219.24774 218.20055 217.29735 216.43115
 215.66595 214.83875 213.92955 213.28635 212.72916 212.91284 213.34683 212.93253
 213.19495 214.77986 216.18007 217.62480 219.41655 222.47578 227.96202 232.46410
 236.19382 240.27914 244.56209 248.65302 252.10812 254.82332 257.24542 259.85492
 262.31061 264.77573 267.29291 269.63507 271.93332 274.15567 275.91916 277.46021
 279.07962 280.69888 282.24615 283.61536 284.80411 285.85965 286.82465 287.70328
 288.50085 289.21661 289.84937 290.71136
 366.78100 356.32694 345.75088 334.60882 323.00376 311.18970 299.05164 286.84658
 274.55052 262.43946 250.44040 239.73334 229.84728 220.94321 213.11715 206.11109
 199.93703 194.86697 191.44091 189.47485 188.50379 188.55973 189.38667 190.68661
 192.40355 194.49049 196.74543 199.09637 201.53331 204.00525 206.08519 207.91913
 209.53707 210.67401 210.89495 211.11489 211.04383 210.74077 210.36570 209.98764
 209.59658 209.29852 209.09846 208.95440 208.87434 209.19728 209.57522 209.95616
 210.74110 211.91104 213.15298 214.92792 216.84786 218.88280 220.96974 223.04468
 225.09662 227.17256 229.26150 231.35944 233.48038 235.64432 237.89225 240.25419
 242.86713 245.11007 247.10401 248.86095 250.26989 251.38483 252.19877 252.50671
 252.53565 252.30159 251.65353 250.59347 249.19141 247.34435 245.24529 243.07023
 240.85317 238.64911 236.46105 234.29199 232.14393 230.00287 228.02081 226.16974
 224.44468 222.90862 221.53056 220.29450 219.16844 218.12038 217.21632 216.34926
 215.58320 214.75514 213.84508 213.20102 212.64296 212.88033 213.44112 213.14194
 213.26944 214.75449 216.11147 217.61177 219.45541 222.48402 227.95839 232.45572
 236.19562 240.30482 244.58253 248.62454 251.98358 254.64893 257.06436 259.67288
 262.15240 264.65417 267.21283 269.60251 271.92462 274.14059 275.88959 277.42041
 279.01834 280.67996 282.22134 283.58569 284.77463 285.82846 286.79291 287.67288
 288.46851 289.18463 289.81848 290.67773
 366.78100 356.32742 345.75184 334.61026 323.00568 311.19210 299.05452 286.84994
 274.55436 262.44378 250.44521 239.73863 229.85305 220.94947 213.12389 206.11831
 199.94473 194.87515 191.44957 189.48399 188.51341 188.56983 189.39725 190.69767
 192.41509 194.50251 196.75793 199.10935 201.54678 204.01920 206.09962 207.93404
 209.55246 210.68988 210.91130 211.13172 211.06114 210.75856 210.38398 210.00640
 209.61582 209.31824 209.11866 208.97508 208.89550 209.21892 209.59735 209.97877
 210.76419 211.93461 213.17703 214.95245 216.87287 218.90829 220.99571 223.07113
 225.12355 227.19997 229.28939 231.38781 233.50923 235.67365 237.92207 240.28449
 242.89792 245.14134 247.13576 248.89318 250.30260 251.41802 252.23244 252.54086
 252.57028 252.33670 251.68912 250.62954 249.22796 247.38138 245.28280 243.10822
 240.89164 238.68806 236.50049 234.33191 232.18433 230.04375 228.06217 226.21159
 224.48701 222.95143 221.57385 220.33827 219.21269 218.16511 217.26153 216.39495
 215.62937 214.80179 213.89221 213.24863 212.69106 212.91196 213.43382 213.47330
 213.39091 214.62097 215.94496 217.63274 219.58098 222.50386 227.95801 232.45581
 236.20406 240.33632 244.60023 248.58150 251.83643 254.44794 256.85910 259.47046
 261.98337 264.53439 267.14230 269.58344 271.92853 274.13654 275.87360 277.39328
 278.96854 280.65625 282.19693 283.55966 284.74603 285.79941 286.76276 287.64169
 288.43790 289.15488 289.78586 290.64673
 366.78100 356.32643 345.74985 334.60728 323.00171 311.18713 299.04856 286.84298
 274.54641 262.43484 250.43526 239.72769 229.84112 220.93654 213.10997 206.10339
 199.92882 194.85825 191.43167 189.46510 188.49353 188.54895 189.37538 190.67480
 192.39123 194.47766 196.73208 199.08251 201.51894 203.99036 206.06979 207.90321
 209.52064 210.65707 210.87749 211.09692 211.02535 210.72177 210.34620 209.96763
 209.57605 209.27748 209.07690 208.93233 208.85176 209.17418 209.55161 209.93204
 210.71646 211.88589 213.12731 214.90174 216.82117 218.85559 220.94202 223.01645
 225.06787 227.14330 229.23172 231.32915 233.44958 235.61300 237.86043 240.22186
 242.83428 245.07671 247.07014 248.82656 250.23499 251.34941 252.16284 252.47027
 252.49869 252.26412 251.61555 250.55497 249.15240 247.30482 245.20525 243.02968
 240.81210 238.60753 236.41896 234.24938 232.10081 229.95923 227.97666 226.12509
 224.39951 222.86294 221.48437 220.24779 219.12122 218.07264 217.16807 216.30050
 215.53392 214.70535 213.79478 213.15020 212.59163 212.87517 213.54503 213.69624
 213.45622 214.51251 215.84830 217.67946 219.70587 222.55475 227.95201 232.44911
 236.21115 240.36679 244.61049 248.52226 251.67023 254.23216 256.64645 259.26505
 261.81885 264.42642 267.08801 269.57983 271.94275 274.13708 275.85931 277.36798
 278.92899 280.63068 282.17130 283.53418 284.71915 285.77261 286.73553 287.61267
 288.40936 289.12515 289.75455 290.61295
 366.78100 356.32524 345.74749 334.60373 322.99697 311.18122 299.04146 286.83470
 274.53695 262.42419 250.42343 239.71468 229.82692 220.92116 213.09341 206.08565
 199.90989 194.83814 191.41038 189.44263 188.46987 188.52411 189.34936 190.64760
 192.36284 194.44809 196.70133 199.05057 201.48582 203.95606 206.03430 207.86655
 209.48279 210.61803 210.83728 211.05552 210.98276 210.67801 210.30125 209.92149
 209.52874 209.22898 209.02722 208.88147 208.79971 209.12095 209.49720 209.87644
 210.65968 211.82793 213.06817 214.84141 216.75966 218.79290 220.87815 222.95139
 225.00163 227.07588 229.16312 231.25936 233.37861 235.54085 237.78709 240.14734
 242.75858 244.99982 246.99207 248.74731 250.15455 251.26780 252.08004 252.38628
 252.41353 252.17777 251.52801 250.46626 249.06250 247.21374 245.11299 242.93623
 240.71747 238.51172 236.32196 234.15120 232.00145 229.85869 227.87493 226.02218
 224.29542 222.75767 221.37791 220.14015 219.01240 217.96264 217.05688 216.18813
 215.42037 214.59061 213.67886 213.03310 212.47334 212.83302 213.68283 213.82593
 213.54970 214.48175 215.81284 217.69485 219.77083 222.60863 227.93126 232.43182
 236.21631 240.39725 244.61604 248.45413 251.49965 254.01930 256.44092 259.06656
 261.66495 264.33041 267.04431 269.58081 271.95520 274.12982 275.83356 277.33508
 278.89182 280.60394 282.14542 283.50760 284.69119 285.74445 286.70715 287.58545
 288.38248 289.09741 289.72720 290.58270
 366.78100 356.32485 345.74670 334.60254 322.99539 311.17924 299.03909 286.83193
 274.53378 262.42063 250.41948 239.71032 229.82217 220.91602 213.08787 206.07971
 199.90356 194.83141 191.40326 189.43510 188.46195 188.51580 189.34065 190.63850
 192.35334 194.43819 196.69104 199.03989 201.47473 203.94458 206.02243 207.85428
 209.47012 210.60497 210.82382 211.04167 210.96851 210.66336 210.28621 209.90606
 209.51290 209.21275 209.01060 208.86445 208.78230 209.10314 209.47899 209.85784
 210.64069 211.80853 213.04838 214.82123 216.73908 218.77192 220.85677 222.92962
 224.97947 227.05331 229.14016 231.23601 233.35486 235.51670 237.76255 240.12240
 242.73325 244.97410 246.96594 248.72079 250.12764 251.24049 252.05233 252.35818
 252.38503 252.14888 251.49872 250.43657 249.03242 247.18327 245.08211 242.90496
 240.68581 238.47966 236.28950 234.11835 231.96820 229.82505 227.84089 225.98774
 224.26059 222.72244 221.34229 220.10413 218.97598 217.92583 217.01968 216.15052
 215.38237 214.55222 213.64007 212.99391 212.43376 212.83322 213.77696 213.94316
 213.67937 214.49364 215.78821 217.67245 219.79543 222.65347 227.90263 232.41727
 236.22511 240.43051 244.62135 248.38335 251.33118 253.81262 256.24133 258.87311
 261.51596 264.24005 267.00311 269.57898 271.96085 274.11429 275.79861 277.29489
 278.84888 280.57822 282.12042 283.48315 284.66504 285.71725 286.68039 287.55777
 288.35352 289.06992 289.69693 290.55148
 366.78100 356.32509 345.74718 334.60327 322.99636 311.18045 299.04054 286.83363
 274.53572 262.42281 250.42190 239.71299 229.82508 220.91917 213.09126 206.08335
 199.90744 194.83553 191.40762 189.43971 188.46680 188.52089 189.34598 190.64407
 192.35916 194.44425 196.69734 199.04643 201.48152 203.95161 206.02970 207.86179
 209.47788 210.61297 210.83206 211.05015 210.97724 210.67233 210.29542 209.91551
 209.52260 209.22269 209.02078 208.87487 208.79296 209.11405 209.49014 209.86923
 210.65232 211.82041 213.06050 214.83359 216.75168 218.78477 220.86986 222.94295
 224.99304 227.06713 229.15422 231.25031 233.36940 235.53149 237.77758 240.13767
 242.74876 244.98986 246.98195 248.73704 250.14413 251.25722 252.06931 252.37540
 252.40249 252.16658 251.51667 250.45476 249.05085 247.20194 245.10103 242.92412
 240.70521 238.49930 236.30939 234.13848 231.98857 229.84566 227.86175 226.00884
 224.28193 222.74402 221.36411 220.12620 218.99829 217.94838 217.04247 216.17356
 215.40565 214.57574 213.66383 213.01792 212.45801 212.86726 213.83414 214.07246
 213.81638 214.52361 215.77063 217.63606 219.80280 222.69193 227.87328 232.40842
 236.23836 240.46465 244.62270 248.30432 251.15811 253.60413 256.04202 258.68082
 261.36884 264.15125 266.96106 269.56961 271.95816 274.09274 275.76059 277.25760
 278.83319 280.54260 282.08591 283.44962 284.63495 285.68744 286.65082 287.52707
 288.32489 289.03860 289.66742 290.52057
 366.78100 356.32561 345.74822 334.60483 322.99844 311.18306 299.04367 286.83728
 274.53989 262.42750 250.42711 239.71872 229.83133 220.92594 213.09855 206.09117
 199.91578 194.84439 191.41700 189.44961 188.47722 188.53183 189.35744 190.65605
 192.37166 194.45728 196.71089 199.06050 201.49611 203.96672 206.04533 207.87794
 209.49455 210.63016 210.84977 211.06839 210.99600 210.69161 210.31522 209.93583
 209.54344 209.24405 209.04266 208.89727 208.81588 209.13750 209.51411 209.89372
 210.67733 211.84594 213.08655 214.86016 216.77877 218.81238 220.89799 222.97161
 225.02222 227.09683 229.18444 231.28105 233.40066 235.56327 237.80988 240.17049
 242.78210 245.02372 247.01633 248.77194 250.17955 251.29316 252.10577 252.41238
 252.43999 252.20460 251.55521 250.49383 249.09044 247.24205 245.14166 242.96527
 240.74688 238.54149 236.35210 234.18171 232.03233 229.88994 227.90655 226.05416
 224.32777 222.79038 221.41099 220.17360 219.04621 217.99682 217.09144 216.22305
 215.45566 214.62627 213.71488 213.06949 212.51010 212.91679 213.87761 214.20116
 213.95467 214.56737 215.76756 217.60422 219.80103 222.72411 227.84572 232.40202
 236.25273 240.49385 244.61316 248.20940 250.97273 253.38815 255.84000 258.49033
 261.22583 264.06595 266.91727 269.55551 271.95023 274.06909 275.72604 277.22598
 278.82419 280.50000 282.04819 283.41513 284.60193 285.65460 286.61835 287.49582
 288.29025 289.00650 289.63486 290.48087
 366.78100 356.32620 345.74940 334.60661 323.00081 311.18601 299.04721 286.84141
 274.54461 262.43282 250.43302 239.72522 229.83842 220.93362 213.10683 206.10003
 199.92523 194.85443 191.42763 189.46083 188.48904 188.54424 189.37044 190.66964
 192.38584 194.47205 196.72625 199.07645 201.51265 203.98385 206.06306 207.89626
 209.51346 210.64966 210.86986 211.08906 211.01727 210.71347 210.33767 209.95887
 209.56707 209.26828 209.06748 208.92268 208.84188 209.16408 209.54128 209.92149
 210.70569 211.87489 213.11609 214.89029 216.80950 218.84370 220.92990 223.00410
 225.05530 227.13050 229.21871 231.31591 233.43611 235.59931 237.84651 240.20772
 242.81992 245.06212 247.05532 248.81152 250.21972 251.33393 252.14713 252.45433
 252.48253 252.24773 251.59894 250.53814 249.13534 247.28754 245.18774 243.01194
 240.79415 238.58935 236.40055 234.23075 232.08195 229.94016 227.95736 226.10556
 224.37976 222.84296 221.46417 220.22737 219.10057 218.05177 217.14697 216.27917
 215.51238 214.68358 213.77278 213.12798 212.56918 212.97118 213.92093 214.31671
 214.09782 214.62291 215.78409 217.58344 219.79408 222.74994 227.82063 232.39445
 236.26588 240.51518 244.58876 248.09517 250.77351 253.16440 255.63600 258.30420
 261.08868 263.98267 266.87097 269.53482 271.93573 274.04169 275.68942 277.19431
 278.79633 280.47198 282.01941 283.38788 284.57529 285.62842 286.59290 287.47339
 288.27292 288.99091 289.62411 290.46576
 366.78100 356.32681 345.75062 334.60843 323.00324 311.18905 299.05086 286.84567
 274.54948 262.43829 250.43910 239.73191 229.84572 220.94153 213.11534 206.10915
 199.93496 194.86477 191.43858 189.47239 188.50120 188.55701 189.38382 190.68363
 192.40044 194.48725 196.74206 199.09287 201.52968 204.00149 206.08130 207.91511
 209.53292 210.66973 210.89054 211.11035 211.03916 210.73597 210.36078 209.98259
 209.59140 209.29321 209.09302 208.94883 208.86864 209.19145 209.56926 209.95007
 210.73488 211.90468 213.14649 214.92130 216.84111 218.87592 220.96273 223.03754
 225.08935 227.16516 229.25397 231.35178 233.47259 235.63640 237.88421 240.24602
 242.85883 245.10164 247.09545 248.85226 250.26107 251.37588 252.18969 252.49750
 252.52631 252.29212 251.64393 250.58374 249.18155 247.33436 245.23517 243.05998
 240.84279 238.63860 236.45041 234.28122 232.13303 229.99184 228.00965 226.15846
 224.43327 222.89708 221.51889 220.28270 219.15651 218.10832 217.20413 216.33694
 215.57075 214.74256 213.83237 213.18818 212.62999 213.02776 213.96753 214.41713
 214.24423 214.68694 215.81366 217.58223 219.79301 222.76799 227.79768 232.38541
 236.27596 240.52521 244.54601 247.95863 250.55740 252.93129 255.43121 258.12668
 260.96176 263.90500 266.82220 269.50635 271.91257 274.00790 275.65015 277.16815
 278.77328 280.44058 281.98630 283.35687 284.54333 285.59769 286.56281 287.44296
 288.24173 288.96078 289.59207 290.43362
 366.78100 356.32753 345.75207 334.61060 323.00613 311.19267 299.05520 286.85073
 274.55526 262.44480 250.44633 239.73986 229.85440 220.95093 213.12546 206.12000
 199.94653 194.87706 191.45159 189.48613 188.51566 188.57219 189.39973 190.70026
 192.41779 194.50533 196.76086 199.11239 201.54992 204.02246 206.10299 207.93752
 209.55606 210.69359 210.91512 211.13566 211.06519 210.76272 210.38825 210.01079
 209.62032 209.32285 209.12339 208.97992 208.90045 209.22399 209.60252 209.98405
 210.76958 211.94012 213.18265 214.95818 216.87872 218.91425 221.00178 223.07732
 225.12985 227.20638 229.29591 231.39445 233.51598 235.68051 237.92905 240.29158
 242.90511 245.14865 247.14318 248.90071 250.31024 251.42578 252.24031 252.54884
 252.57838 252.34491 251.69744 250.63798 249.23651 247.39004 245.29157 243.11711
 240.90064 238.69717 236.50971 234.34124 232.19377 230.05331 228.07184 226.22137
 224.49690 222.96144 221.58397 220.34850 219.22304 218.17557 217.27210 216.40564
 215.64017 214.81270 213.90324 213.25977 212.70230 213.09164 214.01152 214.50908
 214.38736 214.76073 215.86734 217.59615 219.79082 222.78401 227.77748 232.37511
 236.28145 240.52309 244.48053 247.79427 250.32053 252.68958 255.22942 257.96356
 260.85126 263.83798 266.77621 269.47409 271.88174 273.96356 275.60480 277.13626
 278.74561 280.40533 281.95129 283.32028 284.50769 285.56180 286.52570 287.40616
 288.20532 288.92404 289.55386 290.39526
 366.78100 356.32849 345.75398 334.61347 323.00996 311.19745 299.06095 286.85744
 274.56293 262.45342 250.45591 239.75040 229.86589 220.96338 213.13887 206.13436
 199.96186 194.89335 191.46884 189.50433 188.53482 188.59231 189.42080 190.72229
 192.44078 194.52927 196.78576 199.13826 201.57675 204.05024 206.13173 207.96722
 209.58671 210.72520 210.94769 211.16918 211.09967 210.79817 210.42466 210.04815
 209.65864 209.36213 209.16362 209.02111 208.94260 209.26709 209.64658 210.02907
 210.81557 211.98706 213.23055 215.00704 216.92853 218.96502 221.05351 223.13000
 225.18349 227.26098 229.35148 231.45097 233.57346 235.73895 237.98844 240.35193
 242.96642 245.21091 247.20640 248.96489 250.37539 251.49188 252.30737 252.61686
 252.64735 252.41484 251.76833 250.70982 249.30931 247.46380 245.36629 243.19279
 240.97728 238.77477 236.58826 234.42075 232.27424 230.13473 228.15422 226.30471
 224.58120 223.04670 221.67019 220.43568 219.31117 218.26466 217.36215 216.49664
 215.73213 214.90562 213.99711 213.35460 212.79810 213.16884 214.04477 214.59712
 214.53192 214.84184 215.92374 217.63643 219.81511 222.79295 227.75531 232.36263
 236.28221 240.50656 244.39133 247.60342 250.06593 252.44321 255.03308 257.81439
 260.75555 263.78021 266.73117 269.43588 271.84497 273.91376 275.55609 277.10022
 278.70987 280.36389 281.90903 283.27783 284.46460 285.51938 286.48355 287.36325
 288.16385 288.87900 289.51035 290.34668
 366.78100 356.32963 345.75626 334.61689 323.01452 311.20315 299.06778 286.86541
 274.57204 262.46367 250.46730 239.76293 229.87956 220.97819 213.15482 206.15145
 199.98008 194.91271 191.48933 189.52596 188.55759 188.61622 189.44585 190.74848
 192.46811 194.55774 196.81537 199.16900 201.60863 204.08326 206.16589 208.00252
 209.62315 210.76278 210.98641 211.20904 211.14067 210.84030 210.46793 210.09256
 209.70419 209.40882 209.21145 209.07008 208.99271 209.31834 209.69897 210.08260
 210.87023 212.04286 213.28749 215.06512 216.98775 219.02538 221.11500 223.19263
 225.24726 227.32589 229.41752 231.51815 233.64178 235.80841 238.05904 240.42367
 243.03930 245.28493 247.28156 249.04119 250.45282 251.57045 252.38708 252.69771
 252.72934 252.49797 251.85260 250.79523 249.39586 247.55149 245.45512 243.28275
 241.06838 238.86701 236.68164 234.51527 232.36990 230.23153 228.25216 226.40379
 224.68142 223.14805 221.77267 220.53930 219.41593 218.37056 217.46919 216.60482
 215.84145 215.01608 214.10871 213.46734 212.91197 213.25580 214.06816 214.67976
 214.67372 214.93121 215.99767 217.68529 219.83130 222.81525 227.74229 232.35510
 236.28024 240.47812 244.28075 247.38695 249.79353 252.18835 254.83530 257.67148
 260.66757 263.72528 266.68317 269.39301 271.80811 273.87259 275.52054 277.06924
 278.67410 280.31253 281.85641 283.22531 284.41235 285.46579 286.43048 287.31079
 288.10822 288.82632 289.45529 290.29633
 366.78100 356.33096 345.75892 334.62087 323.01983 311.20979 299.07575 286.87470
 274.58266 262.47562 250.48058 239.77754 229.89549 220.99545 213.17341 206.17137
 200.00133 194.93528 191.51324 189.55120 188.58416 188.64411 189.47507 190.77903
 192.49999 194.59095 196.84990 199.20486 201.64582 204.12178 206.20574 208.04369
 209.66565 210.80661 211.03157 211.25552 211.18848 210.88944 210.51840 210.14436
 209.75731 209.46327 209.26723 209.12719 209.05115 209.37810 209.76006 210.14502
 210.93398 212.10793 213.35389 215.13285 217.05681 219.09577 221.18672 223.26568
 225.32164 227.40160 229.49456 231.59651 233.72147 235.88943 238.14139 240.50734
 243.12430 245.37126 247.36922 249.13018 250.54313 251.66209 252.48005 252.79201
 252.82496 252.59492 251.95088 250.89484 249.49680 247.65375 245.55871 243.38767
 241.17463 238.97459 236.79054 234.62550 232.48146 230.34442 228.36637 226.51933
 224.79829 223.26625 221.89221 220.66016 219.53812 218.49408 217.59404 216.73100
 215.96895 215.14491 214.23887 213.59883 213.04478 213.35379 214.08385 214.74376
 214.84784 215.02179 216.06339 217.74986 219.87080 222.83092 227.72679 232.34824
 236.27391 240.43533 244.14667 247.14600 249.50742 251.93005 254.64131 257.53876
 260.59024 263.67569 266.63428 269.34717 271.77023 273.84177 275.50018 277.04721
 278.63553 280.25061 281.79233 283.16016 284.34869 285.40195 286.36450 287.24545
 288.04382 288.76099 289.39117 290.22681
 366.78100 356.33310 345.76319 334.62729 323.02839 311.22048 299.08858 286.88968
 274.59977 262.49487 250.50197 239.80106 229.92116 221.02325 213.20335 206.20345
 200.03554 194.97164 191.55174 189.59183 188.62693 188.68903 189.52212 190.82822
 192.55132 194.64441 196.90551 199.26261 201.70570 204.18380 206.26990 208.10999
 209.73409 210.87719 211.10428 211.33038 211.26547 210.96857 210.59967 210.22776
 209.84286 209.55096 209.35705 209.21915 209.14525 209.47434 209.85844 210.24554
 211.03663 212.21273 213.46083 215.24192 217.16802 219.20912 221.30221 223.38331
 225.44140 227.52350 229.61860 231.72269 233.84979 236.01989 238.27398 240.64208
 243.26118 245.51027 247.51037 249.27347 250.68856 251.80966 252.62976 252.94385
 252.97895 252.75105 252.10914 251.05524 249.65934 247.81843 245.72553 243.55662
 241.34572 239.14782 236.96591 234.80301 232.66111 230.52620 228.55030 226.70540
 224.98649 223.45659 222.08469 220.85478 219.73488 218.69298 217.79507 216.93417
 216.17427 215.35236 214.44846 213.81056 213.25865 213.49370 214.04904 214.83940
 215.01778 215.12059 216.16373 217.81895 219.86926 222.82729 227.71979 232.34760
 236.26544 240.38072 243.99370 246.88811 249.21602 251.67462 254.45399 257.41806
 260.52515 263.63190 266.58539 269.29739 271.72839 273.80988 275.48779 277.03763
 278.60220 280.17923 281.71719 283.08603 284.27130 285.32626 286.29016 287.17072
 287.96909 288.68637 289.31488 290.15509
 366.78100 356.33545 345.76790 334.63435 323.03780 311.23225 299.10270 286.90615
 274.61860 262.51605 250.52550 239.82695 229.94940 221.05385 213.23630 206.23876
 200.07321 195.01166 191.59411 189.63656 188.67401 188.73846 189.57391 190.88236
 192.60781 194.70326 196.96671 199.32616 201.77161 204.25206 206.34051 208.18296
 209.80941 210.95486 211.18431 211.41276 211.35021 211.05566 210.68911 210.31956
 209.93701 209.64746 209.45591 209.32036 209.24881 209.58027 209.96672 210.35617
 211.14962 212.32807 213.57852 215.36197 217.29042 219.33387 221.42932 223.51277
 225.57322 227.65767 229.75512 231.86157 233.99102 236.16347 238.41992 240.79037
 243.41182 245.66327 247.66572 249.43117 250.84862 251.97207 252.79452 253.11097
 253.14842 252.92287 252.28333 251.23178 249.83823 247.99968 245.90913 243.74258
 241.53403 239.33848 237.15893 234.99838 232.85883 230.72628 228.75273 226.91018
 225.19363 223.66608 222.29653 221.06898 219.95143 218.91188 218.01633 217.15778
 216.40023 215.58068 214.67913 214.04358 213.49403 213.64603 214.00510 214.90967
 215.23526 215.21841 216.23750 217.89908 219.92691 222.79808 227.71242 232.35620
 236.25496 240.31216 243.81889 246.60710 248.91150 251.41306 254.26634 257.30444
 260.46808 263.59308 266.53809 269.24802 271.68564 273.77814 275.48035 277.04041
 278.57880 280.10471 281.63715 283.00497 284.19156 285.24524 286.21017 287.08936
 287.88913 288.60852 289.23874 290.07239
 366.78100 356.33674 345.77048 334.63823 323.04297 311.23871 299.11045 286.91520
 274.62894 262.52768 250.53842 239.84117 229.96491 221.07065 213.25439 206.25814
 200.09388 195.03362 191.61736 189.66111 188.69985 188.76559 189.60233 190.91208
 192.63882 194.73556 197.00030 199.36105 201.80779 204.28953 206.37927 208.22302
 209.85076 210.99750 211.22824 211.45799 211.39673 211.10347 210.73821 210.36996
 209.98870 209.70044 209.51018 209.37593 209.30567 209.63841 210.02615 210.41690
 211.21164 212.39138 213.64312 215.42787 217.35761 219.40235 221.49909 223.58383
 225.64558 227.73132 229.83006 231.93780 234.06855 236.24229 238.50003 240.87177
 243.49452 245.74726 247.75100 249.51774 250.93649 252.06123 252.88497 253.20271
 253.24146 253.01720 252.37894 251.32868 249.93643 248.09917 246.00991 243.84465
 241.63740 239.44314 237.26488 235.10562 232.96737 230.83611 228.86385 227.02259
 225.30734 223.78108 222.41282 221.18656 220.07031 219.03205 218.13779 217.28053
 216.52428 215.70602 214.80576 214.17150 213.62325 213.74670 214.03838 214.90582
 215.40349 215.37730 216.28845 217.96570 219.98676 222.86932 227.71660 232.36024
 236.23981 240.22803 243.62302 246.30661 248.59785 251.14929 254.08128 257.19949
 260.41983 263.56064 266.49615 269.20175 271.64694 273.75247 275.47784 277.04819
 278.55591 280.02979 281.55643 282.92416 284.11014 285.16391 286.12778 287.00851
 287.80847 288.52698 289.15881 289.99216
 366.78100 356.33811 345.77323 334.64234 323.04846 311.24557 299.11868 286.92480
 274.63991 262.54003 250.55214 239.85625 229.98137 221.08848 213.27360 206.27871
 200.11583 195.05694 191.64205 189.68717 188.72728 188.79440 189.63251 190.94362
 192.67174 194.76985 197.03597 199.39808 201.84619 204.32931 206.42042 208.26554
 209.89465 211.04276 211.27488 211.50599 211.44611 211.15422 210.79033 210.42345
 210.04356 209.75668 209.56779 209.43490 209.36602 209.70013 210.08925 210.48136
 211.27748 212.45859 213.71170 215.49782 217.42893 219.47505 221.57316 223.65927
 225.72239 227.80950 229.90962 232.01873 234.15084 236.32596 238.58507 240.95819
 243.58230 245.83641 247.84153 249.60964 251.02976 252.15587 252.98098 253.30010
 253.34021 253.11733 252.48044 251.43155 250.04067 248.20478 246.11690 243.95301
 241.74713 239.55424 237.37735 235.21947 233.08258 230.95270 228.98181 227.14192
 225.42804 223.90315 222.53627 221.31138 220.19649 219.15961 218.26672 217.41084
 216.65595 215.83906 214.94018 214.30729 213.76041 213.85165 214.06725 214.90097
 215.58766 215.51205 216.32433 218.02771 220.03624 222.97285 227.73251 232.36205
 236.21506 240.12918 243.41296 245.99907 248.28752 250.89185 253.90263 257.10284
 260.37671 263.52966 266.45129 269.15359 271.60849 273.73346 275.48517 277.06540
 278.54205 279.95679 281.47421 282.84167 284.02673 285.07962 286.04361 286.92325
 287.72351 288.44366 289.07559 289.90863
 366.78100 356.33985 345.77671 334.64756 323.05541 311.25427 299.12912 286.93697
 274.65383 262.55568 250.56954 239.87539 230.00224 221.11110 213.29795 206.30480
 200.14366 195.08651 191.67336 189.72022 188.76207 188.83092 189.67078 190.98363
 192.71349 194.81334 197.08119 199.44505 201.89490 204.37975 206.47261 208.31946
 209.95031 211.10017 211.33402 211.56687 211.50873 211.21858 210.85644 210.49129
 210.11314 209.82800 209.64085 209.50970 209.44256 209.77841 210.16926 210.56312
 211.36097 212.54382 213.79868 215.58653 217.51939 219.56724 221.66709 223.75495
 225.81980 227.90865 230.01051 232.12136 234.25521 236.43207 238.69292 241.06777
 243.69363 245.94948 247.95634 249.72619 251.14804 252.27590 253.10275 253.42360
 253.46546 253.24431 252.60916 251.56202 250.17287 248.33872 246.25258 244.09043
 241.88629 239.69514 237.51999 235.36385 233.22870 231.10055 229.13141 227.29326
 225.58111 224.05797 222.69282 221.46967 220.35653 219.32138 218.43024 217.57609
 216.82294 216.00780 215.11065 214.47950 213.93436 213.97630 214.07542 214.89584
 215.78682 215.63361 216.36859 218.10732 220.07768 223.04895 227.75424 232.36374
 236.18536 240.02646 243.20175 245.69603 247.98439 250.64030 253.72675 257.00903
 260.33298 263.49316 266.40079 269.10120 271.56952 273.71899 275.50092 277.09305
 278.54758 279.92276 281.39194 282.75378 283.93924 284.99234 285.95502 286.83661
 287.63837 288.35764 288.99094 289.82440
 366.78100 356.34179 345.78057 334.65336 323.06314 311.26393 299.14072 286.95050
 274.66929 262.57307 250.58886 239.89665 230.02543 221.13622 213.32500 206.33379
 200.17458 195.11936 191.70815 189.75693 188.80072 188.87150 189.71329 191.02808
 192.75986 194.86165 197.13143 199.49722 201.94901 204.43579 206.53058 208.37936
 210.01215 211.16394 211.39972 211.63451 211.57829 211.29008 210.92987 210.56665
 210.19044 209.90722 209.72201 209.59280 209.52758 209.86537 210.25815 210.65394
 211.45373 212.63851 213.89530 215.68508 217.61987 219.66965 221.77144 223.86123
 225.92801 228.01880 230.12258 232.23537 234.37116 236.54994 238.81273 241.18951
 243.81730 246.07509 248.08387 249.85566 251.27944 252.40923 253.23802 253.56080
 253.60459 253.38537 252.75216 251.70695 250.31973 248.48752 246.40330 244.24309
 242.04088 239.85166 237.67845 235.52423 233.39102 231.26480 229.29759 227.46138
 225.75116 224.22995 222.86673 221.64552 220.53431 219.50109 218.61188 217.75966
 217.00845 216.19524 215.30002 214.67081 214.12759 214.11148 214.07343 214.90332
 215.95578 215.76268 216.42766 218.19775 220.11739 223.09445 227.78334 232.37180
 236.16406 239.93025 242.99516 245.39706 247.68454 250.38989 253.55173 256.91629
 260.28760 263.45288 266.34888 269.04904 271.53290 273.70703 275.51624 277.11923
 278.55441 279.91138 281.31415 282.67200 283.85745 284.91241 285.87753 286.75909
 287.56070 288.28162 288.91641 289.74966
 366.78100 356.34347 345.78395 334.65842 323.06989 311.27236 299.15084 286.96231
 274.68278 262.58826 250.60573 239.91520 230.04567 221.15815 213.34862 206.35909
 200.20156 195.14804 191.73851 189.78898 188.83446 188.90693 189.75040 191.06687
 192.80035 194.90382 197.17529 199.54277 201.99624 204.48471 206.58118 208.43166
 210.06613 211.21960 211.45708 211.69355 211.63902 211.35249 210.99397 210.63244
 210.25791 209.97638 209.79286 209.66533 209.60180 209.94128 210.33575 210.73322
 211.53469 212.72117 213.97964 215.77111 217.70759 219.75906 221.86253 223.95400
 226.02248 228.11495 230.22042 232.33490 234.47237 236.65284 238.91731 241.29579
 243.92526 246.18473 248.19520 249.96868 251.39415 252.52562 253.35610 253.68057
 253.72604 253.50851 252.87699 251.83346 250.44793 248.61741 246.53488 244.37635
 242.17582 239.98830 237.81677 235.66424 233.53272 231.40819 229.44266 227.60813
 225.89961 224.38008 223.01855 221.79902 220.68950 219.65797 218.77044 217.91992
 217.17039 216.35886 215.46533 214.83781 214.29628 214.23322 214.08424 214.91806
 216.07774 215.89928 216.50294 218.28726 220.15948 223.13396 227.82074 232.38545
 236.15149 239.83447 242.78696 245.09859 247.38779 250.14484 253.38242 256.82761
 260.24225 263.41068 266.29605 268.99692 271.49597 273.69443 275.53036 277.14343
 278.56198 279.89743 281.24774 282.60211 283.78928 284.84390 285.81042 286.69266
 287.49506 288.21487 288.85257 289.68512
 366.78100 356.34478 345.78656 334.66234 323.07512 311.27890 299.15868 286.97145
 274.69323 262.60001 250.61879 239.92957 230.06135 221.17513 213.36691 206.37869
 200.22247 195.17025 191.76203 189.81381 188.86059 188.93436 189.77914 191.09692
 192.83170 194.93648 197.20926 199.57804 202.03282 204.52260 206.62038 208.47216
 210.10794 211.26272 211.50149 211.73927 211.68605 211.40083 211.04361 210.68339
 210.31017 210.02995 209.84773 209.72151 209.65929 210.00007 210.39585 210.79463
 211.59740 212.78518 214.04496 215.83774 217.77552 219.82830 221.93308 224.02586
 226.09564 228.18942 230.29620 232.41198 234.55076 236.73253 238.99831 241.37809
 244.00887 246.26965 248.28143 250.05621 251.48299 252.61577 253.44755 253.77333
 253.82011 253.60389 252.97366 251.93144 250.54722 248.71800 246.63678 244.47956
 242.28034 240.09412 237.92390 235.77268 233.64246 231.51924 229.55502 227.72180
 226.01457 224.49635 223.13613 221.91791 220.80969 219.77947 218.89325 218.04403
 217.29581 216.48559 215.59337 214.96715 214.42693 214.33368 214.11334 214.93550
 216.17500 216.03268 216.59033 218.36342 220.20436 223.18127 227.86261 232.39438
 236.13353 239.72679 242.57202 244.80495 247.10416 249.91391 253.22368 256.74353
 260.19482 263.36258 266.23926 268.94229 271.45850 273.68182 275.54575 277.17386
 278.58109 279.89487 281.19452 282.54309 283.73151 284.78696 285.75388 286.63672
 287.43970 288.16269 288.79892 289.63113
 366.78100 356.34585 345.78870 334.66555 323.07941 311.28426 299.16511 286.97896
 274.70181 262.60966 250.62951 239.94136 230.07422 221.18907 213.38192 206.39477
 200.23962 195.18847 191.78132 189.83418 188.88203 188.95688 189.80273 191.12158
 192.85743 194.96328 197.23713 199.60699 202.06284 204.55369 206.65254 208.50539
 210.14224 211.29809 211.53795 211.77680 211.72465 211.44050 211.08435 210.72520
 210.35305 210.07390 209.89276 209.76761 209.70646 210.04831 210.44516 210.84501
 211.64886 212.83772 214.09857 215.89242 217.83127 219.88512 221.99097 224.08482
 226.15567 228.25053 230.35838 232.47523 234.61508 236.79793 239.06478 241.44563
 244.07749 246.33934 248.35219 250.12804 251.55589 252.68974 253.52259 253.84945
 253.89730 253.68215 253.05300 252.01185 250.62870 248.80055 246.72040 244.56426
 242.36611 240.18096 238.01181 235.86166 233.73251 231.61036 229.64722 227.81507
 226.10892 224.59177 223.23262 222.01547 220.90832 219.87917 218.99403 218.14588
 217.39873 216.58958 215.69843 215.07328 214.53413 214.41998 214.15028 214.96597
 216.25966 216.14493 216.68492 218.42619 220.25740 223.23653 227.90417 232.39403
 236.10207 239.60954 242.35883 244.52635 246.84000 249.69824 253.07303 256.66043
 260.13977 263.30563 266.17691 268.88770 271.42273 273.67010 275.56223 277.20941
 278.60739 279.90314 281.15607 282.50061 283.68954 284.74530 285.71277 286.59714
 287.39996 288.12292 288.76147 289.59476
 366.78100 356.34670 345.79040 334.66810 323.08280 311.28850 299.17020 286.98490
 274.70860 262.61730 250.63800 239.95070 230.08440 221.20010 213.39380 206.40750
 200.25320 195.20290 191.79660 189.85030 188.89900 188.97470 189.82140 191.14110
 192.87780 194.98450 197.25920 199.62990 202.08660 204.57830 206.67800 208.53170
 210.16940 211.32610 211.56680 211.80650 211.75520 211.47190 211.11660 210.75830
 210.38700 210.10870 209.92839 209.80409 209.74379 210.08649 210.48419 210.88489
 211.68959 212.87929 214.14099 215.93569 217.87539 219.93009 222.03679 224.13149
 226.20319 228.29889 230.40759 232.52529 234.66599 236.84969 239.11739 241.49909
 244.13179 246.39449 248.40819 250.18489 251.61359 252.74829 253.58199 253.90969
 253.95839 253.74409 253.11579 252.07549 250.69319 248.86589 246.78659 244.63129
 242.43399 240.24969 238.08139 235.93209 233.80379 231.68249 229.72019 227.88889
 226.18359 224.66729 223.30899 222.09269 220.98639 219.95809 219.07379 218.22649
 217.48019 216.67189 215.78159 215.15729 214.61899 214.49251 214.19368 215.01776
 216.30911 216.23404 216.78337 218.48659 220.33182 223.30544 227.95056 232.39114
 236.06096 239.48671 242.14581 244.25407 246.58531 249.49115 252.92845 256.57648
 260.07999 263.24582 266.11823 268.83850 271.38950 273.65747 275.57474 277.23505
 278.62225 279.90479 281.13501 282.47757 283.66644 284.72339 285.68900 286.57297
 287.37750 288.09952 288.73477 289.56992
 366.78100 356.34716 345.79133 334.66949 323.08466 311.29082 299.17299 286.98815
 274.71232 262.62148 250.64265 239.95581 230.08997 221.20614 213.40030 206.41447
 200.26063 195.21080 191.80496 189.85913 188.90829 188.98445 189.83162 191.15178
 192.88895 194.99611 197.27128 199.64244 202.09961 204.59177 206.69194 208.54610
 210.18426 211.34143 211.58259 211.82276 211.77192 211.48909 211.13425 210.77642
 210.40558 210.12774 209.94791 209.82407 209.76424 210.10740 210.50557 210.90673
 211.71190 212.90206 214.16423 215.95939 217.89955 219.95472 222.06188 224.15705
 226.22921 228.32538 230.43454 232.55271 234.69387 236.87804 239.14620 241.52836
 244.16153 246.42469 248.43886 250.21602 251.64519 252.78035 253.61452 253.94268
 253.99184 253.77801 253.15017 252.11034 250.72850 248.90167 246.82283 244.66800
 242.47116 240.28733 238.11949 235.97065 233.84282 231.72198 229.76015 227.92931
 226.22448 224.70864 223.35081 222.13497 221.02913 220.00130 219.11746 218.27063
 217.52479 216.71696 215.82712 215.20329 214.66545 214.54347 214.25529 215.07397
 216.31967 216.32172 216.89426 218.55597 220.43248 223.38712 227.99777 232.38480
 236.00758 239.35059 241.91914 243.97482 246.33257 249.29263 252.79288 256.49490
 260.01898 263.18707 266.06433 268.79453 271.35889 273.64563 275.58643 277.25763
 278.63095 279.89963 281.12384 282.46561 283.65430 284.70969 285.67578 286.55856
 287.36041 288.08310 288.71585 289.55200
 366.78100 356.34709 345.79118 334.66927 323.08436 311.29044 299.17253 286.98762
 274.71171 262.62080 250.64189 239.95498 230.08907 221.20515 213.39924 206.41333
 200.25942 195.20951 191.80360 189.85769 188.90678 188.98287 189.82995 191.15004
 192.88713 194.99422 197.26931 199.64040 202.09749 204.58958 206.68966 208.54375
 210.18184 211.33893 211.58002 211.82011 211.76920 211.48629 211.13138 210.77346
 210.40255 210.12464 209.94473 209.82082 209.76091 210.10400 210.50209 210.90317
 211.70826 212.89835 214.16044 215.95553 217.89562 219.95071 222.05780 224.15289
 226.22497 228.32106 230.43015 232.54824 234.68933 236.87342 239.14151 241.52360
 244.15668 246.41977 248.43386 250.21095 251.64004 252.77513 253.60922 253.93731
 253.98640 253.77248 253.14457 252.10466 250.72275 248.89584 246.81693 244.66202
 242.46511 240.28119 238.11328 235.96437 233.83646 231.71555 229.75364 227.92273
 226.21782 224.70191 223.34399 222.12808 221.02217 219.99426 219.11035 218.26344
 217.51753 216.70962 215.81971 215.19579 214.65788 214.56544 214.34708 215.10286
 216.32471 216.43272 217.01872 218.63339 220.53539 223.46487 228.03987 232.37306
 235.94046 239.19609 241.67371 243.68895 246.08626 249.10803 252.66904 256.41751
 259.95572 263.12512 266.00916 268.74982 271.32907 273.63724 275.60574 277.28918
 278.64511 279.89749 281.11877 282.45956 283.64719 284.70236 285.66818 286.54947
 287.35089 288.07202 288.70526 289.53522
 366.78100 356.34688 345.79075 334.66863 323.08351 311.28938 299.17126 286.98613
 274.71001 262.61889 250.63976 239.95264 230.08652 221.20239 213.39627 206.41014
 200.25602 195.20590 191.79977 189.85365 188.90253 188.97840 189.82528 191.14515
 192.88203 194.98891 197.26378 199.63466 202.09154 204.58341 206.68329 208.53716
 210.17504 211.33192 211.57279 211.81267 211.76155 211.47842 211.12330 210.76517
 210.39405 210.11593 209.93580 209.81168 209.75156 210.09443 210.49231 210.89318
 211.69806 212.88794 214.14981 215.94469 217.88457 219.93944 222.04632 224.14119
 226.21307 228.30895 230.41782 232.53570 234.67658 236.86045 239.12833 241.51021
 244.14308 246.40596 248.41983 250.19671 251.62559 252.76046 253.59434 253.92222
 253.97109 253.75697 253.12884 252.08872 250.70660 248.87947 246.80035 244.64523
 242.44810 240.26398 238.09585 235.94673 233.81861 231.69748 229.73536 227.90424
 226.19911 224.68299 223.32486 222.10874 221.00262 219.97449 219.09037 218.24325
 217.49712 216.68900 215.79887 215.17475 214.63663 214.57874 214.44194 215.12387
 216.33379 216.56406 217.15263 218.70520 220.63358 223.53934 228.07173 232.35202
 235.85846 239.02097 241.41408 243.40608 245.85631 248.94218 252.55743 256.34241
 259.88660 263.05676 265.95029 268.70386 271.29968 273.63293 275.63242 277.32928
 278.66562 279.89923 281.11652 282.45633 283.64407 284.69824 285.66309 286.54260
 287.34384 288.06525 288.69656 289.51904
 366.78100 356.34651 345.79002 334.66753 323.08204 311.28755 299.16906 286.98358
 274.70709 262.61560 250.63611 239.94862 230.08213 221.19764 213.39115 206.40466
 200.25017 195.19968 191.79319 189.84671 188.89522 188.97073 189.81724 191.13675
 192.87326 194.97977 197.25428 199.62479 202.08130 204.57281 206.67232 208.52584
 210.16335 211.31986 211.56037 211.79988 211.74839 211.46490 211.10941 210.75092
 210.37943 210.10094 209.92045 209.79597 209.73548 210.07799 210.47550 210.87601
 211.68052 212.87003 214.13154 215.92605 217.86556 219.92007 222.02658 224.12110
 226.19261 228.28812 230.39663 232.51414 234.65465 236.83816 239.10567 241.48718
 244.11969 246.38220 248.39571 250.17223 251.60074 252.73525 253.56876 253.89627
 253.94478 253.73029 253.10180 252.06131 250.67882 248.85133 246.77184 244.61636
 242.41887 240.23438 238.06589 235.91640 233.78791 231.66642 229.70393 227.87244
 226.16695 224.65046 223.29197 222.07548 220.96900 219.94051 219.05602 218.20853
 217.46204 216.65355 215.76306 215.13857 214.60008 214.58226 214.54016 215.14244
 216.34563 216.70123 217.30963 218.78000 220.69791 223.59641 228.09645 232.33188
 235.77171 238.83867 241.15714 243.14058 245.64597 248.79138 252.45294 256.26410
 259.80838 262.98035 265.88757 268.65637 271.27173 273.63034 275.66077 277.37228
 278.69055 279.90662 281.11749 282.45694 283.64462 284.69644 285.66122 286.53964
 287.34119 288.05875 288.69174 289.50873
 366.78100 356.34614 345.78928 334.66641 323.08055 311.28569 299.16683 286.98097
 274.70411 262.61224 250.63238 239.94452 230.07766 221.19280 213.38593 206.39907
 200.24421 195.19335 191.78649 189.83963 188.88776 188.96290 189.80904 191.12818
 192.86432 194.97046 197.24459 199.61473 202.07087 204.56201 206.66115 208.51428
 210.15142 211.30756 211.54770 211.78684 211.73498 211.45111 211.09525 210.73639
 210.36453 210.08567 209.90480 209.77994 209.71908 210.06122 210.45836 210.85850
 211.66263 212.85177 214.11291 215.90705 217.84619 219.90032 222.00646 224.10060
 226.17174 228.26688 230.37502 232.49215 234.63229 236.81543 239.08257 241.46371
 244.09585 246.35798 248.37112 250.14726 251.57540 252.70954 253.54267 253.86981
 253.91795 253.70309 253.07423 252.03337 250.65050 248.82264 246.74278 244.58692
 242.38906 240.20419 238.03533 235.88547 233.75661 231.63475 229.67189 227.84002
 226.13416 224.61730 223.25844 222.04158 220.93471 219.90585 219.02099 218.17313
 217.42627 216.61741 215.72654 215.10168 214.56282 214.58344 214.63213 215.17339
 216.33882 216.85251 217.46782 218.82178 220.76871 223.68166 228.13499 232.32494
 235.68259 238.64516 240.89203 242.87378 245.43712 248.64291 252.34830 256.18018
 259.72263 262.90137 265.82663 268.61200 271.24609 273.63129 275.68851 277.41412
 278.71820 279.91833 281.12180 282.45779 283.64612 284.69757 285.66138 286.53934
 287.33691 288.05551 288.68549 289.50241
 366.78100 356.34631 345.78962 334.66692 323.08123 311.28654 299.16785 286.98216
 274.70546 262.61377 250.63408 239.94639 230.07969 221.19500 213.38831 206.40162
 200.24693 195.19623 191.78954 189.84285 188.89116 188.96647 189.81277 191.13208
 192.86839 194.97470 197.24900 199.61931 202.07562 204.56693 206.66624 208.51954
 210.15685 211.31316 211.55347 211.79278 211.74108 211.45739 211.10170 210.74301
 210.37132 210.09262 209.91193 209.78724 209.72655 210.06885 210.46616 210.86647
 211.67078 212.86009 214.12139 215.91570 217.85501 219.90932 222.01563 224.10993
 226.18124 228.27655 230.38486 232.50217 234.64247 236.82578 239.09309 241.47440
 244.10670 246.36901 248.38232 250.15863 251.58694 252.72124 253.55455 253.88186
 253.93017 253.71548 253.08678 252.04609 250.66340 248.83571 246.75601 244.60032
 242.40263 240.21794 238.04925 235.89955 233.77086 231.64917 229.68648 227.85479
 226.14909 224.63240 223.27371 222.05702 220.95033 219.92163 219.03694 218.18925
 217.44256 216.63386 215.74317 215.11848 214.57979 214.60921 214.67873 215.26045
 216.28671 216.97699 217.66290 218.94328 220.84982 223.74966 228.16743 232.31136
 235.57097 238.42223 240.60318 242.59784 245.22942 248.50204 252.25130 256.10059
 259.64432 262.83377 265.77759 268.57608 271.22513 273.63165 275.71268 277.44809
 278.73715 279.92297 281.12442 282.46207 283.64786 284.70032 285.66266 286.54074
 287.33670 288.05472 288.68329 289.49945
 366.78100 356.34674 345.79049 334.66823 323.08297 311.28871 299.17046 286.98520
 274.70894 262.61769 250.63843 239.95117 230.08491 221.20066 213.39440 206.40814
 200.25389 195.20363 191.79737 189.85112 188.89986 188.97560 189.82234 191.14209
 192.87883 194.98557 197.26032 199.63106 202.08780 204.57954 206.67929 208.53303
 210.17077 211.32752 211.56826 211.80800 211.75674 211.47349 211.11823 210.75997
 210.38872 210.11046 209.93020 209.80595 209.74569 210.08843 210.48617 210.88692
 211.69166 212.88140 214.14315 215.93789 217.87763 219.93237 222.03912 224.13386
 226.20560 228.30135 230.41009 232.52783 234.66857 236.85232 239.12006 241.50180
 244.13455 246.39729 248.41103 250.18777 251.61652 252.75126 253.58500 253.91275
 253.96149 253.74723 253.11898 252.07872 250.69646 248.86920 246.78995 244.63469
 242.43743 240.25318 238.08492 235.93566 233.80740 231.68615 229.72389 227.89263
 226.18738 224.67112 223.31286 222.09660 220.99035 219.96209 219.07783 218.23058
 217.48432 216.67606 215.78581 215.16155 214.62329 214.64536 214.69748 215.38414
 216.21399 217.05894 217.88562 219.08139 220.91805 223.81256 228.19469 232.28329
 235.44160 238.18683 240.31491 242.33730 245.04396 248.38306 252.17104 256.03387
 259.57895 262.77814 265.73541 268.54324 271.20319 273.62741 275.73056 277.47186
 278.74353 279.91760 281.12769 282.46552 283.65109 284.70340 285.66486 286.54202
 287.33887 288.05664 288.68112 289.49664
 366.78100 356.34679 345.79058 334.66837 323.08316 311.28895 299.17075 286.98554
 274.70933 262.61812 250.63891 239.95170 230.08549 221.20128 213.39507 206.40886
 200.25466 195.20445 191.79824 189.85203 188.90082 188.97661 189.82340 191.14319
 192.87998 194.98677 197.26157 199.63236 202.08915 204.58094 206.68073 208.53452
 210.17231 211.32910 211.56989 211.80968 211.75848 211.47527 211.12006 210.76185
 210.39064 210.11243 209.93222 209.80801 209.74780 210.09059 210.48838 210.88918
 211.69397 212.88376 214.14555 215.94034 217.88013 219.93492 222.04171 224.13650
 226.20829 228.30409 230.41288 232.53067 234.67146 236.85525 239.12304 241.50483
 244.13762 246.40041 248.41420 250.19100 251.61979 252.75458 253.58837 253.91616
 253.96495 253.75074 253.12253 252.08232 250.70011 248.87291 246.79370 244.63849
 242.44128 240.25707 238.08886 235.93965 233.81144 231.69023 229.72802 227.89681
 226.19161 224.67540 223.31719 222.10098 220.99477 219.96656 219.08235 218.23514
 217.48893 216.68072 215.79052 215.16631 214.62810 214.65976 214.73456 215.48711
 216.17352 217.11729 218.10550 219.23193 220.98752 223.86223 228.21158 232.23479
 235.30246 237.95135 240.03822 242.09846 244.88174 248.28365 252.10301 255.97278
 259.51596 262.72028 265.68915 268.50531 271.17581 273.61768 275.74429 277.49405
 278.75046 279.91330 281.13062 282.46924 283.65634 284.70728 285.66953 286.54474
 287.34082 288.05612 288.68259 289.49298
 366.78100 356.34629 345.78959 334.66688 323.08118 311.28647 299.16776 286.98206
 274.70535 262.61365 250.63394 239.94623 230.07953 221.19482 213.38812 206.40141
 200.24670 195.19600 191.78929 189.84259 188.89088 188.96617 189.81247 191.13176
 192.86806 194.97435 197.24864 199.61894 202.07523 204.56653 206.66582 208.51911
 210.15641 211.31270 211.55300 211.79229 211.74058 211.45688 211.10117 210.74247
 210.37076 210.09205 209.91135 209.78664 209.72594 210.06823 210.46552 210.86582
 211.67011 212.85941 214.12070 215.91499 217.85429 219.90858 222.01488 224.10917
 226.18046 228.27576 230.38405 232.50135 234.64164 236.82493 239.09223 241.47352
 244.10582 246.36811 248.38140 250.15770 251.58599 252.72029 253.55358 253.88087
 253.92917 253.71446 253.08576 252.04505 250.66234 248.83464 246.75493 244.59923
 242.40152 240.21681 238.04811 235.89840 233.76970 231.64799 229.68528 227.85358
 226.14787 224.63117 223.27246 222.05575 220.94905 219.92034 219.03564 218.18793
 217.44122 216.63252 215.74181 215.11711 214.57840 214.64514 214.80283 215.54732
 216.17375 217.18857 218.29681 219.39113 221.06615 223.88708 228.21748 232.16847
 235.16315 237.72296 239.77417 241.87608 244.73430 248.19411 252.03911 255.91090
 259.44742 262.65543 265.63644 268.46313 271.14789 273.60843 275.75974 277.52304
 278.77252 279.92453 281.13522 282.47192 283.65805 284.71033 285.67032 286.54630
 287.34006 288.05527 288.68140 289.48938
 366.78100 356.34572 345.78844 334.66516 323.07887 311.28359 299.16431 286.97803
 274.70075 262.60847 250.62819 239.93990 230.07262 221.18734 213.38006 206.39278
 200.23750 195.18622 191.77893 189.83165 188.87937 188.95409 189.79981 191.11853
 192.85425 194.95996 197.23368 199.60340 202.05912 204.54984 206.64856 208.50128
 210.13799 211.29371 211.53343 211.77215 211.71987 211.43559 211.07931 210.72002
 210.34774 210.06846 209.88718 209.76190 209.70062 210.04234 210.43906 210.83877
 211.64249 212.83121 214.09193 215.88565 217.82437 219.87809 221.98380 224.07752
 226.14824 228.24296 230.35068 232.46740 234.60712 236.78983 239.05655 241.43727
 244.06899 246.33071 248.34343 250.11915 251.54686 252.68058 253.51330 253.84002
 253.88774 253.67246 253.04318 252.00189 250.61861 248.79033 246.71005 244.55377
 242.35549 240.17021 238.00092 235.85064 233.72136 231.59908 229.63580 227.80352
 226.09724 224.57995 223.22067 222.00339 220.89611 219.86683 218.98155 218.13327
 217.38598 216.57670 215.68542 215.06014 214.52086 214.62549 214.87267 215.59370
 216.19882 217.27501 218.45958 219.54597 221.15013 223.89354 228.21964 232.09593
 235.02992 237.50238 239.51968 241.66583 244.59587 248.11066 251.97643 255.84579
 259.37469 262.58664 265.58200 268.42102 271.12100 273.60184 275.77692 277.55634
 278.80261 279.94409 281.13757 282.47339 283.65900 284.71024 285.66925 286.54395
 287.33890 288.05496 288.67902 289.48477
 366.78100 356.34522 345.78744 334.66366 323.07688 311.28110 299.16132 286.97454
 274.69676 262.60398 250.62321 239.93443 230.06665 221.18087 213.37309 206.38531
 200.22953 195.17775 191.76997 189.82219 188.86941 188.94363 189.78885 191.10707
 192.84229 194.94751 197.22073 199.58995 202.04518 204.53540 206.63362 208.48584
 210.12206 211.27728 211.51650 211.75472 211.70194 211.41716 211.06038 210.70060
 210.32782 210.04804 209.86626 209.74048 209.67870 210.01992 210.41614 210.81537
 211.61859 212.80681 214.06703 215.86025 217.79847 219.85169 221.95691 224.05013
 226.12035 228.21457 230.32179 232.43801 234.57723 236.75945 239.02567 241.40589
 244.03711 246.29834 248.31056 250.08578 251.51300 252.64622 253.47844 253.80466
 253.85188 253.63610 253.00632 251.96454 250.58076 248.75198 246.67120 244.51442
 242.31564 240.12986 237.96008 235.80930 233.67953 231.55675 229.59297 227.76019
 226.05341 224.53563 223.17585 221.95807 220.85029 219.82051 218.93473 218.08595
 217.33817 216.52839 215.63661 215.01083 214.47105 214.60843 214.93297 215.63972
 216.24841 217.35674 218.59842 219.68797 221.23138 223.89799 228.22157 232.02141
 234.90193 237.29054 239.27692 241.46970 244.46863 248.03346 251.91638 255.78011
 259.30157 262.51846 265.52649 268.37854 271.09421 273.59412 275.79160 277.58734
 278.83432 279.96823 281.14099 282.47253 283.65759 284.70822 285.66705 286.54123
 287.33432 288.04715 288.67310 289.47815
 366.78100 356.34477 345.78654 334.66231 323.07508 311.27885 299.15862 286.97139
 274.69316 262.59993 250.61870 239.92947 230.06124 221.17501 213.36678 206.37855
 200.22232 195.17009 191.76186 189.81363 188.86040 188.93417 189.77894 191.09671
 192.83148 194.93625 197.20902 199.57779 202.03256 204.52233 206.62010 208.47187
 210.10764 211.26241 211.50118 211.73895 211.68572 211.40049 211.04326 210.68303
 210.30980 210.02957 209.84734 209.72111 209.65888 209.99965 210.39542 210.79419
 211.59696 212.78473 214.04451 215.83728 217.77505 219.82782 221.93259 224.02536
 226.09513 228.18890 230.29567 232.41144 234.55021 236.73198 238.99775 241.37752
 244.00829 246.26906 248.28083 250.05560 251.48237 252.61514 253.44691 253.77268
 253.81945 253.60322 252.97299 251.93076 250.54653 248.71730 246.63607 244.47884
 242.27961 240.09338 237.92315 235.77192 233.64169 231.51846 229.55423 227.72100
 226.01377 224.49554 223.13531 221.91708 220.80885 219.77862 218.89239 218.04316
 217.29493 216.48470 215.59247 214.96624 214.42601 214.59262 214.98627 215.68561
 216.31918 217.43379 218.71042 219.81351 221.30368 223.90547 228.22038 231.94841
 234.77896 237.09033 239.05205 241.29135 244.35449 247.96384 251.85965 255.71532
 259.23038 262.45081 265.47040 268.33612 271.06760 273.58447 275.80304 277.61142
 278.85593 279.98633 281.14404 282.47360 283.65903 284.70917 285.66760 286.53952
 287.33307 288.04745 288.67221 289.47232
 366.78100 356.34440 345.78581 334.66121 323.07362 311.27702 299.15643 286.96883
 274.69024 262.59664 250.61505 239.92545 230.05686 221.17026 213.36167 206.37307
 200.21647 195.16388 191.75528 189.80669 188.85309 188.92650 189.77090 191.08831
 192.82271 194.92712 197.19952 199.56793 202.02233 204.51173 206.60914 208.46054
 210.09595 211.25035 211.48876 211.72616 211.67257 211.38697 211.02938 210.66878
 210.29519 210.01459 209.83200 209.70540 209.64280 209.98321 210.37861 210.77702
 211.57942 212.76683 214.02623 215.81864 217.75604 219.80845 221.91285 224.00526
 226.07466 228.16807 230.27447 232.38987 234.52828 236.70968 238.97509 241.35449
 243.98490 246.24530 248.25671 250.03111 251.45752 252.58992 253.42133 253.74673
 253.79314 253.57654 252.94594 251.90335 250.51875 248.68916 246.60756 244.44997
 242.25037 240.06378 237.89318 235.74159 233.61099 231.48740 229.52280 227.68920
 225.98161 224.46301 223.10242 221.88382 220.77523 219.74463 218.85804 218.00844
 217.25985 216.44925 215.55666 214.93006 214.38947 214.57988 215.02974 215.74763
 216.38721 217.50436 218.80571 219.92081 221.36386 223.91916 228.22145 231.88496
 234.66504 236.90633 238.84686 241.13028 244.25175 247.89966 251.80513 255.65239
 259.16177 262.38654 265.41721 268.29614 271.04257 273.57520 275.81088 277.63007
 278.87119 279.99442 281.14474 282.47348 283.66003 284.70966 285.66797 286.54047
 287.33365 288.04706 288.66934 289.47342
 366.78100 356.34393 345.78486 334.65978 323.07171 311.27464 299.15357 286.96550
 274.68642 262.59235 250.61028 239.92021 230.05114 221.16406 213.35499 206.36592
 200.20885 195.15578 191.74670 189.79763 188.84356 188.91649 189.76042 191.07734
 192.81127 194.91520 197.18713 199.55506 202.00898 204.49791 206.59484 208.44577
 210.08069 211.23462 211.47255 211.70948 211.65541 211.36933 211.01126 210.65019
 210.27612 209.99505 209.81197 209.68490 209.62183 209.96176 210.35669 210.75461
 211.55654 212.74347 214.00240 215.79433 217.73125 219.78318 221.88711 223.97904
 226.04797 228.14089 230.24682 232.36175 234.49968 236.68061 238.94553 241.32446
 243.95439 246.21432 248.22525 249.99917 251.42510 252.55703 253.38796 253.71289
 253.75881 253.54174 252.91067 251.86760 250.48253 248.65245 246.57038 244.41231
 242.21224 240.02517 237.85409 235.70202 233.57095 231.44688 229.48181 227.64773
 225.93966 224.42059 223.05952 221.84045 220.73137 219.70030 218.81323 217.96316
 217.21408 216.40301 215.50994 214.88287 214.34180 214.55983 215.07494 215.82962
 216.43974 217.55965 218.89034 220.00488 221.41338 223.94582 228.22684 231.82700
 234.55597 236.73183 238.65546 240.98383 244.16006 247.84186 251.75519 255.59549
 259.10031 262.32919 265.36865 268.26010 271.01889 273.56241 275.81296 277.64175
 278.88116 280.00540 281.14767 282.47784 283.66263 284.71429 285.67511 286.54739
 287.34018 288.05646 288.67911 289.48389
 366.78100 356.34341 345.78383 334.65824 323.06965 311.27207 299.15048 286.96189
 274.68231 262.58772 250.60513 239.91454 230.04496 221.15737 213.34778 206.35820
 200.20061 195.14702 191.73744 189.78785 188.83326 188.90568 189.74909 191.06550
 192.79892 194.90233 197.17374 199.54115 201.99457 204.48298 206.57939 208.42981
 210.06422 211.21763 211.45505 211.69146 211.63687 211.35029 210.99170 210.63011
 210.25553 209.97394 209.79035 209.66276 209.59918 209.93859 210.33300 210.73042
 211.53183 212.71824 213.97666 215.76807 217.70448 219.75590 221.85931 223.95072
 226.01914 228.11155 230.21696 232.33138 234.46879 236.64920 238.91361 241.29203
 243.92144 246.18085 248.19127 249.96468 251.39009 252.52151 253.35192 253.67633
 253.72175 253.50416 252.87257 251.82899 250.44340 248.61281 246.53022 244.37164
 242.17105 239.98346 237.81188 235.65929 233.52770 231.40312 229.43753 227.60294
 225.89436 224.37477 223.01318 221.79360 220.68401 219.65242 218.76483 217.91425
 217.16466 216.35307 215.45949 214.83190 214.29031 214.53641 215.11783 215.93002
 216.49274 217.59511 218.96066 220.06038 221.44640 223.97704 228.22801 231.76732
 234.43997 236.55345 238.46925 240.84795 244.07901 247.79204 251.71292 255.54758
 259.05124 262.28439 265.32864 268.23145 271.00031 273.55371 275.81683 277.65726
 278.89447 280.00867 281.13849 282.47348 283.65729 284.70645 285.66226 286.53571
 287.32574 288.03854 288.66397 289.46249
 366.78100 356.34287 345.78274 334.65661 323.06748 311.26935 299.14723 286.95810
 274.67797 262.58284 250.59971 239.90858 230.03845 221.15032 213.34019 206.35006
 200.19193 195.13780 191.72768 189.77755 188.82242 188.89429 189.73716 191.05303
 192.78590 194.88877 197.15964 199.52651 201.97938 204.46725 206.56313 208.41300
 210.04687 211.19974 211.43661 211.67248 211.61735 211.33022 210.97109 210.60896
 210.23383 209.95170 209.76758 209.63945 209.57532 209.91419 210.30806 210.70493
 211.50580 212.69167 213.94954 215.74041 217.67628 219.72715 221.83003 223.92090
 225.98877 228.08064 230.18551 232.29938 234.43625 236.61612 238.87999 241.25786
 243.88673 246.14560 248.15548 249.92835 251.35322 252.48409 253.31396 253.63783
 253.68270 253.46457 252.83244 251.78831 250.40218 248.57105 246.48793 244.32880
 242.12767 239.93954 237.76741 235.61428 233.48215 231.35702 229.39089 227.55576
 225.84663 224.32650 222.96438 221.74425 220.63412 219.60199 218.71386 217.86273
 217.11260 216.30047 215.40634 214.77821 214.23608 214.51109 215.16087 216.02060
 216.57736 217.64543 219.00984 220.08865 221.46875 224.00554 228.20825 231.68416
 234.30170 236.35699 238.28102 240.72379 244.01183 247.75418 251.68274 255.51385
 259.01898 262.25586 265.30255 268.21320 270.98874 273.54861 275.82419 277.67337
 278.91025 280.02756 281.13651 282.49588 283.68332 284.73828 285.70441 286.58710
 287.39200 288.12073 288.78149 289.68536
 366.78100 356.34252 345.78204 334.65555 323.06607 311.26759 299.14511 286.95562
 274.67514 262.57966 250.59618 239.90469 230.03421 221.14573 213.33525 206.34476
 200.18628 195.13180 191.72132 189.77083 188.81535 188.88687 189.72939 191.04490
 192.77742 194.87994 197.15046 199.51698 201.96949 204.45701 206.55253 208.40205
 210.03556 211.18808 211.42460 211.66012 211.60463 211.31715 210.95767 210.59519
 210.21970 209.93722 209.75274 209.62426 209.55977 209.89829 210.29181 210.68833
 211.48884 212.67436 213.93188 215.72240 217.65792 219.70843 221.81095 223.90147
 225.96899 228.06050 230.16502 232.27854 234.41506 236.59457 238.85809 241.23561
 243.86413 246.12264 248.13216 249.90468 251.32920 252.45971 253.28923 253.61275
 253.65727 253.43878 252.80630 251.76182 250.37534 248.54386 246.46037 244.30089
 242.09941 239.91093 237.73844 235.58496 233.45248 231.32700 229.36051 227.52503
 225.81555 224.29507 222.93258 221.71210 220.60162 219.56914 218.68065 217.82917
 217.07869 216.26621 215.37172 214.74324 214.20076 214.49496 215.19008 216.10107
 216.68604 217.72716 219.06117 220.11105 221.48051 224.01353 228.16298 231.57867
 234.14856 236.15395 238.09903 240.61293 243.95653 247.72545 251.65961 255.48659
 258.99371 262.23587 265.28351 268.20218 270.98605 273.55289 275.83893 277.69366
 278.95490 280.06915 281.17108 282.52777 283.71597 284.77243 285.74078 286.62512
 287.43170 288.16605 288.83081 289.69757
 366.78100 356.34300 345.78300 334.65700 323.06800 311.27000 299.14800 286.95900
 274.67899 262.58399 250.60099 239.90999 230.03999 221.15199 213.34199 206.35199
 200.19399 195.13999 191.72999 189.77999 188.82499 188.89699 189.73999 191.05598
 192.78898 194.89198 197.16298 199.52998 201.98298 204.47098 206.56698 208.41698
 210.05098 211.20398 211.44098 211.67698 211.62198 211.33497 210.97597 210.61397
 210.23897 209.95697 209.77297 209.64497 209.58097 209.91997 210.31397 210.71097
 211.51197 212.69797 213.95597 215.74697 217.68296 219.73396 221.83696 223.92796
 225.99596 228.08796 230.19296 232.30696 234.44396 236.62396 238.88796 241.26596
 243.89496 246.15396 248.16396 249.93695 251.36195 252.49295 253.32295 253.64695
 253.69195 253.47395 252.84195 251.79795 250.41195 248.58095 246.49795 244.33895
 242.13795 239.94994 237.77794 235.62494 233.49294 231.36794 229.40194 227.56694
 225.85794 224.33794 222.97594 221.75594 220.64594 219.61394 218.72594 217.87494
 217.12493 216.31293 215.41893 214.79093 214.24893 214.52028 215.16138 216.20790
 216.83524 217.82500 219.09576 220.12549 221.50897 224.03084 228.10683 231.46039
 233.97862 235.94650 237.91946 240.50723 243.90204 247.69379 251.63280 255.45242
 258.96069 262.20889 265.26022 268.19238 270.98666 273.56024 275.86191 277.73257
 279.02209 280.12479 281.20743 282.55249 283.74069 284.79608 285.76376 286.64832
 287.45633 288.18716 288.85260 289.71432
 366.78100 356.34428 345.78556 334.66084 323.07311 311.27639 299.15567 286.96795
 274.68923 262.59551 250.61378 239.92406 230.05534 221.16862 213.35990 206.37118
 200.21446 195.16173 191.75301 189.80429 188.85057 188.92385 189.76813 191.08540
 192.81968 194.92396 197.19624 199.56452 202.01880 204.50808 206.60535 208.45663
 210.09191 211.24619 211.48447 211.72175 211.66802 211.38230 211.02458 210.66386
 210.29014 210.00942 209.82670 209.69997 209.63725 209.97753 210.37281 210.77109
 211.57337 212.76064 214.01992 215.81220 217.74948 219.80176 221.90604 223.99832
 226.06759 228.16087 230.26715 232.38243 234.52071 236.70199 238.96726 241.34654
 243.97682 246.23710 248.24838 250.02266 251.44894 252.58121 253.41249 253.73777
 253.78405 253.56733 252.93661 251.89388 250.50916 248.67944 246.59772 244.44000
 242.24028 240.05356 237.88283 235.73111 233.60039 231.47667 229.51195 227.67823
 225.97050 224.45178 223.09106 221.87234 220.76362 219.73290 218.84618 217.99645
 217.24773 216.43701 215.54429 214.91757 214.37685 214.58582 215.07954 216.32793
 217.01683 217.95810 219.16499 220.14928 221.51532 224.00879 228.02382 231.31607
 233.78020 235.72224 237.73618 240.40594 243.85010 247.66408 251.60796 255.42012
 258.93149 262.18768 265.24344 268.18817 270.99051 273.57239 275.89072 277.78403
 279.10297 280.19714 281.25742 282.55524 283.74344 284.80048 285.76880 286.65277
 287.45938 288.18979 288.85922 289.72409
 366.78100 356.34510 345.78720 334.66329 323.07639 311.28049 299.16059 286.97369
 274.69579 262.60288 250.62198 239.93308 230.06518 221.17928 213.37138 206.38347
 200.22757 195.17567 191.76777 189.81987 188.86697 188.94106 189.78616 191.10426
 192.83936 194.94446 197.21756 199.58665 202.04175 204.53185 206.62995 208.48205
 210.11815 211.27324 211.51234 211.75044 211.69754 211.41264 211.05574 210.69583
 210.32293 210.04303 209.86113 209.73523 209.67333 210.01442 210.41052 210.80962
 211.61272 212.80082 214.06092 215.85401 217.79211 219.84521 221.95031 224.04341
 226.11351 228.20760 230.31470 232.43080 234.56990 236.75200 239.01810 241.39819
 244.02929 246.29039 248.30249 250.07759 251.50469 252.63778 253.46988 253.79598
 253.84308 253.62718 252.99728 251.95537 250.57147 248.74257 246.66167 244.50477
 242.30587 240.11996 237.95006 235.79916 233.66926 231.54636 229.58246 227.74955
 226.04265 224.52475 223.16485 221.94695 220.83905 219.80914 218.92324 218.07434
 217.32644 216.51654 215.62464 214.99873 214.45883 214.62814 215.02820 216.39786
 217.21158 218.13177 219.25534 220.15591 221.49046 223.98524 227.93982 231.16707
 233.57637 235.51067 237.57495 240.32697 243.81262 247.64467 251.59016 255.39249
 258.90781 262.16977 265.22897 268.18213 270.99255 273.58057 275.91507 277.83340
 279.16940 280.26868 281.29825 282.54584 283.73343 284.78763 285.75281 286.63391
 287.43567 288.16022 288.82306 289.68762
 366.78100 356.34483 345.78667 334.66250 323.07533 311.27917 299.15900 286.97183
 274.69367 262.60050 250.61933 239.93017 230.06200 221.17583 213.36767 206.37950
 200.22333 195.17117 191.76300 189.81484 188.86167 188.93550 189.78034 191.09817
 192.83300 194.93784 197.21067 199.57950 202.03434 204.52417 206.62200 208.47384
 210.10967 211.26450 211.50334 211.74117 211.68800 211.40284 211.04567 210.68550
 210.31234 210.03217 209.85000 209.72384 209.66167 210.00250 210.39834 210.79717
 211.60000 212.78784 214.04767 215.84050 217.77834 219.83117 221.93600 224.02884
 226.09867 228.19251 230.29934 232.41517 234.55401 236.73584 239.00167 241.38151
 244.01234 246.27317 248.28501 250.05984 251.48667 252.61951 253.45134 253.77717
 253.82401 253.60784 252.97767 251.93551 250.55134 248.72217 246.64101 244.48384
 242.28467 240.09851 237.92834 235.77717 233.64701 231.52384 229.55967 227.72651
 226.01934 224.50117 223.14101 221.92284 220.81468 219.78451 218.89834 218.04918
 217.30101 216.49084 215.59868 214.97251 214.43234 214.61560 215.04860 216.41174
 217.38921 218.33566 219.36511 220.15997 221.46994 223.98044 227.87030 231.02754
 233.37779 235.32155 237.43716 240.26434 243.78107 247.62611 251.56854 255.35652
 258.87204 262.13541 265.19913 268.16592 270.98172 273.57565 275.92267 277.86218
 279.20715 280.31708 281.32129 282.54083 283.72836 284.78131 285.74551 286.62466
 287.42480 288.14841 288.79590 289.66763
 366.78100 356.34457 345.78615 334.66172 323.07430 311.27787 299.15745 286.97002
 274.69160 262.59817 250.61674 239.92732 230.05889 221.17247 213.36404 206.37562
 200.21919 195.16677 191.75834 189.80992 188.85649 188.93006 189.77464 191.09221
 192.82679 194.93136 197.20394 199.57251 202.02709 204.51666 206.61423 208.46581
 210.10138 211.25596 211.49453 211.73211 211.67868 211.39326 211.03583 210.67540
 210.30198 210.02155 209.83913 209.71270 209.65028 209.99085 210.38643 210.78500
 211.58758 212.77515 214.03472 215.82730 217.76487 219.81745 221.92202 224.01460
 226.08417 228.17775 230.28432 232.39989 234.53847 236.72004 238.98562 241.36519
 243.99577 246.25634 248.26792 250.04249 251.46906 252.60164 253.43321 253.75879
 253.80536 253.58894 252.95851 251.91609 250.53166 248.70224 246.62081 244.46338
 242.26396 240.07753 237.90711 235.75568 233.62526 231.50183 229.53741 227.70398
 225.99655 224.47813 223.11770 221.89928 220.79085 219.76043 218.87400 218.02458
 217.27615 216.46572 215.57330 214.94687 214.40645 214.60349 215.06903 216.43541
 217.52452 218.51059 219.48242 220.17766 221.46669 223.99545 227.81494 230.89825
 233.18881 235.13608 237.30164 240.20119 243.74742 247.60277 251.53978 255.31314
 258.82474 262.08487 265.15289 268.13440 270.95862 273.55649 275.90814 277.85291
 279.21832 280.33771 281.36349 282.54520 283.71890 284.77164 285.73373 286.61075
 287.41064 288.12817 288.76511 289.58423
 366.78100 356.34483 345.78667 334.66250 323.07534 311.27917 299.15901 286.97184
 274.69367 262.60051 250.61934 239.93018 230.06201 221.17585 213.36768 206.37952
 200.22335 195.17118 191.76302 189.81485 188.86169 188.93552 189.78036 191.09819
 192.83302 194.93786 197.21069 199.57953 202.03436 204.52420 206.62203 208.47386
 210.10970 211.26453 211.50337 211.74120 211.68804 211.40287 211.04570 210.68554
 210.31237 210.03221 209.85004 209.72388 209.66171 210.00255 210.39838 210.79721
 211.60005 212.78788 214.04772 215.84055 217.77839 219.83122 221.93605 224.02889
 226.09872 228.19256 230.29939 232.41523 234.55406 236.73589 239.00173 241.38156
 244.01240 246.27323 248.28507 250.05990 251.48674 252.61957 253.45140 253.77724
 253.82407 253.60791 252.97774 251.93558 250.55141 248.72224 246.64108 244.48391
 242.28475 240.09858 237.92842 235.77725 233.64708 231.52392 229.55975 227.72659
 226.01942 224.50126 223.14109 221.92293 220.81476 219.78459 218.89843 218.04926
 217.30110 216.49093 215.59877 214.97260 214.43243 214.61812 215.05681 216.48775
 217.62445 218.63663 219.60043 220.21907 221.48361 224.02780 227.76788 230.77229
 233.00589 234.94571 237.16525 240.13977 243.71776 247.58232 251.51598 255.27510
 258.78152 262.03613 265.10431 268.09991 270.93176 273.53079 275.88730 277.84103
 279.20865 280.33234 281.37686 282.53836 283.70828 284.76108 285.72330 286.60046
 287.39780 288.12021 288.75171 289.56769
 366.78100 356.34522 345.78744 334.66366 323.07688 311.28110 299.16131 286.97453
 274.69675 262.60397 250.62319 239.93441 230.06663 221.18085 213.37307 206.38529
 200.22950 195.17772 191.76994 189.82216 188.86938 188.94360 189.78882 191.10704
 192.84226 194.94748 197.22069 199.58991 202.04513 204.53535 206.63357 208.48579
 210.12201 211.27723 211.51645 211.75467 211.70188 211.41710 211.06032 210.70054
 210.32776 210.04798 209.86620 209.74042 209.67864 210.01986 210.41607 210.81529
 211.61851 212.80673 214.06695 215.86017 217.79839 219.85161 221.95683 224.05005
 226.12026 228.21448 230.32170 232.43792 234.57714 236.75936 239.02558 241.40580
 244.03702 246.29824 248.31045 250.08567 251.51289 252.64611 253.47833 253.80455
 253.85177 253.63599 253.00621 251.96443 250.58065 248.75186 246.67108 244.51430
 242.31552 240.12974 237.95996 235.80918 233.67940 231.55662 229.59284 227.76005
 226.05327 224.53549 223.17571 221.95793 220.85015 219.82037 218.93459 218.08581
 217.33803 216.52824 215.63646 215.01068 214.47090 214.63788 215.03239 216.54408
 217.73138 218.74940 219.72078 220.27362 221.50360 224.05092 227.70685 230.62662
 232.80827 234.74973 237.03331 240.08768 243.69882 247.57237 251.50192 255.24706
 258.74847 261.99802 265.06400 268.07083 270.90640 273.50247 275.86102 277.81870
 279.18585 280.31589 281.37524 282.52753 283.69730 284.75208 285.71344 286.59070
 287.39050 288.11157 288.74384 289.56152
 366.78100 356.34571 345.78843 334.66514 323.07885 311.28356 299.16428 286.97799
 274.70070 262.60842 250.62813 239.93984 230.07256 221.18727 213.37998 206.39269
 200.23741 195.18612 191.77883 189.83155 188.87926 188.95397 189.79968 191.11840
 192.85411 194.95982 197.23354 199.60325 202.05896 204.54968 206.64839 208.50110
 210.13781 211.29353 211.53324 211.77195 211.71967 211.43538 211.07909 210.71980
 210.34752 210.06823 209.88694 209.76166 209.70037 210.04208 210.43880 210.83851
 211.64222 212.83093 214.09165 215.88536 217.82407 219.87779 221.98350 224.07721
 226.14792 228.24264 230.35035 232.46706 234.60678 236.78949 239.05620 241.43692
 244.06863 246.33034 248.34305 250.11877 251.54648 252.68019 253.51291 253.83962
 253.88733 253.67204 253.04276 252.00147 250.61818 248.78990 246.70961 244.55332
 242.35504 240.16975 238.00046 235.85017 233.72089 231.59860 229.63531 227.80303
 226.09674 224.57945 223.22016 222.00288 220.89559 219.86630 218.98102 218.13273
 217.38544 216.57616 215.68487 215.05958 214.52029 214.66191 214.99646 216.59190
 217.87033 218.88165 219.84761 220.32451 221.50499 224.04019 227.61580 230.45119
 232.59331 234.55208 236.91069 240.04776 243.69199 247.57318 251.49721 255.22731
 258.72247 261.96793 265.03140 268.04443 270.87976 273.46890 275.82462 277.78024
 279.14609 280.28735 281.35980 282.51889 283.68848 284.74426 285.70685 286.58618
 287.38306 288.10571 288.73856 289.55710
 366.78100 356.34628 345.78956 334.66684 323.08113 311.28641 299.16769 286.98197
 274.70525 262.61353 250.63381 239.94609 230.07938 221.19466 213.38794 206.40122
 200.24650 195.19578 191.78906 189.84235 188.89063 188.96591 189.81219 191.13147
 192.86775 194.97403 197.24831 199.61860 202.07488 204.56616 206.66544 208.51872
 210.15600 211.31228 211.55257 211.79185 211.74013 211.45641 211.10069 210.74197
 210.37025 210.09153 209.91082 209.78610 209.72538 210.06766 210.46494 210.86522
 211.66950 212.85879 214.12007 215.91435 217.85363 219.90791 222.01419 224.10847
 226.17975 228.27504 230.38332 232.50060 234.64088 236.82416 239.09144 241.47272
 244.10501 246.36729 248.38057 250.15685 251.58513 252.71941 253.55269 253.87997
 253.92826 253.71354 253.08482 252.04410 250.66138 248.83366 246.75394 244.59823
 242.40051 240.21579 238.04707 235.89735 233.76863 231.64691 229.68419 227.85248
 226.14676 224.63004 223.27132 222.05460 220.94788 219.91916 219.03445 218.18673
 217.44001 216.63129 215.74057 215.11585 214.57713 214.68837 214.95114 216.62823
 218.02357 219.03133 219.98311 220.37056 221.49014 224.00107 227.50459 230.26538
 232.38274 234.37062 236.80643 240.02330 243.69728 247.58307 251.49828 255.21184
 258.69888 261.93887 264.99857 268.01523 270.84613 273.42752 275.77667 277.72452
 279.09006 280.24420 281.33212 282.51105 283.68356 284.73767 285.70212 286.58081
 287.38022 288.10114 288.73615 289.55389
 366.78100 356.34669 345.79038 334.66807 323.08276 311.28845 299.17014 286.98483
 274.70852 262.61721 250.63790 239.95059 230.08428 221.19997 213.39366 206.40735
 200.25304 195.20273 191.79642 189.85011 188.89880 188.97449 189.82118 191.14087
 192.87756 194.98425 197.25894 199.62963 202.08632 204.57801 206.67770 208.53139
 210.16908 211.32577 211.56646 211.80615 211.75484 211.47153 211.11622 210.75791
 210.38660 210.10829 209.92798 209.80367 209.74336 210.08605 210.48374 210.88443
 211.68912 212.87881 214.14050 215.93519 217.87488 219.92957 222.03626 224.13095
 226.20264 228.29833 230.40702 232.52471 234.66540 236.84909 239.11678 241.49847
 244.13116 246.39385 248.40754 250.18423 251.61292 252.74761 253.58130 253.90899
 253.95768 253.74337 253.11506 252.07475 250.69244 248.86513 246.78582 244.63051
 242.43320 240.24889 238.08058 235.93127 233.80296 231.68165 229.71934 227.88803
 226.18272 224.66641 223.30810 222.09179 220.98548 219.95717 219.07286 218.22555
 217.47924 216.67093 215.78062 215.15631 214.61800 214.70575 214.91307 216.64876
 218.16862 219.19377 220.12668 220.41597 221.46606 223.94548 227.38843 230.08548
 232.18791 234.20836 236.71846 240.00954 243.71045 247.59784 251.50125 255.19658
 258.67340 261.90594 264.96338 267.97937 270.80524 273.37637 275.71439 277.64899
 279.01868 280.19055 281.30655 282.50027 283.67435 284.72873 285.69482 286.57361
 287.37308 288.09448 288.72708 289.54672
 366.78100 356.34692 345.79083 334.66875 323.08367 311.28959 299.17150 286.98642
 274.71034 262.61926 250.64017 239.95309 230.08701 221.20293 213.39684 206.41076
 200.25668 195.20660 191.80051 189.85443 188.90335 188.97927 189.82618 191.14610
 192.88302 194.98994 197.26485 199.63577 202.09269 204.58461 206.68452 208.53844
 210.17636 211.33328 211.57419 211.81411 211.76303 211.47995 211.12486 210.76678
 210.39570 210.11762 209.93753 209.81345 209.75337 210.09629 210.49420 210.89512
 211.70004 212.88996 214.15187 215.94679 217.88671 219.94163 222.04854 224.14346
 226.21538 228.31130 230.42021 232.53813 234.67905 236.86297 239.13088 241.51280
 244.14572 246.40864 248.42255 250.19947 251.62839 252.76331 253.59722 253.92514
 253.97406 253.75998 253.13189 252.09181 250.70973 248.88265 246.80356 244.64848
 242.45140 240.26732 238.09923 235.95015 233.82207 231.70099 229.73890 227.90782
 226.20274 224.68665 223.32857 222.11249 221.00641 219.97832 219.09424 218.24716
 217.50108 216.69299 215.80291 215.17883 214.64075 214.71342 214.88515 216.65283
 218.30580 219.36740 220.27928 220.46446 221.43327 223.88000 227.27266 229.91437
 232.00542 234.05774 236.63977 240.00223 243.72879 247.61649 251.50539 255.18117
 258.64505 261.86981 264.92459 267.93738 270.75482 273.31491 275.63699 277.55411
 278.93314 280.12198 281.20343 282.51147 283.69040 284.74158 285.70071 286.57742
 287.37311 288.09131 288.72342 289.53717
 366.78100 356.34707 345.79114 334.66921 323.08428 311.29035 299.17242 286.98749
 274.71156 262.62063 250.64170 239.95477 230.08884 221.20491 213.39898 206.41305
 200.25912 195.20919 191.80326 189.85733 188.90640 188.98247 189.82954 191.14961
 192.88668 194.99375 197.26882 199.63989 202.09696 204.58903 206.68910 208.54317
 210.18124 211.33831 211.57938 211.81945 211.76852 211.48559 211.13066 210.77273
 210.40180 210.12387 209.94394 209.82001 209.76008 210.10315 210.50122 210.90229
 211.70736 212.89743 214.15950 215.95457 217.89464 219.94971 222.05677 224.15184
 226.22391 228.31998 230.42905 232.54712 234.68819 236.87226 239.14033 241.52240
 244.15547 246.41854 248.43261 250.20968 251.63875 252.77382 253.60789 253.93596
 253.98503 253.77110 253.14317 252.10324 250.72131 248.89438 246.81545 244.66052
 242.46359 240.27966 238.11173 235.96280 233.83487 231.71394 229.75201 227.92108
 226.21615 224.70022 223.34229 222.12636 221.02043 219.99250 219.10857 218.26164
 217.51571 216.70778 215.81785 215.19392 214.65599 214.71629 214.85875 216.64307
 218.43962 219.54993 220.43210 220.51762 221.39569 223.80367 227.15726 229.74921
 231.82857 233.91319 236.56746 240.00185 243.75496 247.64168 251.51379 255.16745
 258.61517 261.83054 264.88559 267.89136 270.69687 273.24414 275.54468 277.44290
 278.83624 280.04712 281.16840 282.49567 283.68164 284.73532 285.69678 286.57449
 287.37186 288.09000 288.72122 289.53842
 366.78100 356.34724 345.79148 334.66972 323.08496 311.29121 299.17345 286.98869
 274.71293 262.62217 250.64341 239.95665 230.09089 221.20713 213.40138 206.41562
 200.26186 195.21210 191.80634 189.86058 188.90982 188.98606 189.83330 191.15355
 192.89079 194.99803 197.27327 199.64451 202.10175 204.59399 206.69423 208.54847
 210.18672 211.34396 211.58520 211.82544 211.77468 211.49192 211.13716 210.77940
 210.40864 210.13089 209.95113 209.82737 209.76761 210.11085 210.50909 210.91033
 211.71557 212.90581 214.16806 215.96330 217.90354 219.95878 222.06602 224.16126
 226.23350 228.32974 230.43898 232.55723 234.69847 236.88271 239.15095 241.53319
 244.16643 246.42967 248.44391 250.22115 251.65040 252.78564 253.61988 253.94812
 253.99736 253.78360 253.15584 252.11608 250.73432 248.90757 246.82881 244.67405
 242.47729 240.29353 238.12577 235.97701 233.84925 231.72849 229.76674 227.93598
 226.23122 224.71546 223.35770 222.14194 221.03618 220.00842 219.12466 218.27791
 217.53215 216.72439 215.83463 215.21087 214.67311 214.71983 214.83025 216.62636
 218.57062 219.73672 220.58304 220.57013 221.34669 223.72122 227.04161 229.58420
 231.65347 233.77339 236.50284 240.01035 243.79147 247.67560 251.52652 255.15536
 258.58347 261.78970 264.84497 267.84042 270.63095 273.16193 275.43643 277.31653
 278.72748 279.96719 281.14929 282.48355 283.67233 284.72781 285.69266 286.57214
 287.36990 288.08841 288.71924 289.53357
 366.78100 356.34741 345.79181 334.67022 323.08562 311.29203 299.17444 286.98984
 274.71425 262.62365 250.64506 239.95847 230.09287 221.20928 213.40368 206.41809
 200.26450 195.21490 191.80931 189.86372 188.91312 188.98953 189.83693 191.15734
 192.89475 195.00215 197.27756 199.64896 202.10637 204.59878 206.69918 208.55359
 210.19199 211.34940 211.59081 211.83121 211.78062 211.49802 211.14343 210.78584
 210.41524 210.13765 209.95805 209.83446 209.77487 210.11827 210.51668 210.91808
 211.72349 212.91390 214.17630 215.97171 217.91211 219.96752 222.07493 224.17033
 226.24274 228.33915 230.44855 232.56696 234.70836 236.89277 239.16118 241.54358
 244.17699 246.44039 248.45480 250.23221 251.66161 252.79702 253.63142 253.95983
 254.00924 253.79564 253.16805 252.12845 250.74686 248.92027 246.84167 244.68708
 242.49048 240.30689 238.13930 235.99070 233.86311 231.74251 229.78092 227.95033
 226.24573 224.73014 223.37255 222.15695 221.05136 220.02376 219.14017 218.29358
 217.54798 216.74039 215.85079 215.22720 214.68961 214.72316 214.80243 216.60527
 218.70195 219.91962 220.72238 220.62958 221.30421 223.62477 226.91956 229.41978
 231.47972 233.63834 236.44669 240.02910 243.83900 247.71829 251.54376 255.14427
 258.54999 261.74667 264.80319 267.78491 270.55722 273.06970 275.31525 277.17670
 278.60980 279.88699 281.13403 282.47617 283.66568 284.72427 285.68860 286.56964
 287.37021 288.08783 288.71762 289.53143
 366.78100 356.34753 345.79205 334.67058 323.08611 311.29264 299.17516 286.99069
 274.71522 262.62475 250.64627 239.95980 230.09433 221.21086 213.40538 206.41991
 200.26644 195.21697 191.81149 189.86602 188.91555 188.99207 189.83960 191.16013
 192.89766 195.00518 197.28071 199.65224 202.10977 204.60229 206.70282 208.55735
 210.19588 211.35340 211.59493 211.83546 211.78499 211.50251 211.14804 210.79057
 210.42009 210.14262 209.96315 209.83968 209.78020 210.12373 210.52226 210.92379
 211.72931 212.91984 214.18237 215.97790 217.91842 219.97395 222.08148 224.17701
 226.24953 228.34606 230.45559 232.57411 234.71564 236.90017 239.16870 241.55122
 244.18475 246.44828 248.46281 250.24033 251.66986 252.80539 253.63992 253.96844
 254.01797 253.80450 253.17702 252.13755 250.75608 248.92961 246.85113 244.69666
 242.50019 240.31672 238.14924 236.00077 233.87330 231.75283 229.79135 227.96088
 226.25641 224.74094 223.38346 222.16799 221.06252 220.03504 219.15157 218.30510
 217.55963 216.75215 215.86268 215.23921 214.70174 214.72446 214.77814 216.57979
 218.83081 220.10811 220.85663 220.67944 221.24544 223.53157 226.79659 229.24715
 231.30348 233.50766 236.39900 240.05794 243.89723 247.76895 251.56433 255.13342
 258.51410 261.70193 264.75974 267.72470 270.47702 272.96872 275.18054 277.02518
 278.48660 279.81146 281.12360 282.47229 283.66269 284.72061 285.68723 286.56848
 287.36673 288.08447 288.71304 289.52625
 366.78100 356.34766 345.79232 334.67097 323.08663 311.29329 299.17595 286.99160
 274.71626 262.62592 250.64758 239.96124 230.09589 221.21255 213.40721 206.42187
 200.26853 195.21918 191.81384 189.86850 188.91816 188.99481 189.84247 191.16313
 192.90079 195.00845 197.28410 199.65576 202.11342 204.60608 206.70673 208.56139
 210.20005 211.35771 211.59937 211.84002 211.78968 211.50734 211.15300 210.79566
 210.42531 210.14797 209.96863 209.84529 209.78594 210.12960 210.52826 210.92992
 211.73558 212.92623 214.18889 215.98455 217.92521 219.98086 222.08852 224.18418
 226.25684 228.35350 230.46315 232.58181 234.72347 236.90813 239.17679 241.55944
 244.19310 246.45676 248.47142 250.24907 251.67873 252.81439 253.64905 253.97771
 254.02736 253.81402 253.18668 252.14734 250.76599 248.93965 246.86131 244.70697
 242.51063 240.32728 238.15994 236.01160 233.88426 231.76392 229.80257 227.97223
 226.26789 224.75255 223.39520 222.17986 221.07452 220.04718 219.16384 218.31749
 217.57215 216.76481 215.87547 215.25212 214.71478 214.72678 214.75508 216.55478
 218.94853 220.29094 220.99739 220.74402 221.19714 223.39636 226.65804 229.08643
 231.13579 233.38557 236.36256 240.09862 243.96722 247.82870 251.58978 255.12450
 258.47849 261.65842 264.71921 267.66266 270.39264 272.86026 275.03683 276.86505
 278.35889 279.73831 281.11459 282.46957 283.66064 284.71915 285.68735 286.56802
 287.36575 288.08151 288.71140 289.52271
 366.78100 356.34773 345.79247 334.67120 323.08694 311.29367 299.17641 286.99214
 274.71687 262.62661 250.64834 239.96208 230.09681 221.21355 213.40828 206.42301
 200.26975 195.22048 191.81522 189.86995 188.91969 188.99642 189.84415 191.16489
 192.90262 195.01036 197.28609 199.65783 202.11556 204.60829 206.70903 208.56376
 210.20250 211.36023 211.60197 211.84270 211.79243 211.51017 211.15590 210.79864
 210.42837 210.15111 209.97184 209.84857 209.78931 210.13304 210.53178 210.93351
 211.73925 212.92998 214.19271 215.98845 217.92918 219.98492 222.09265 224.18839
 226.26112 228.35785 230.46759 232.58632 234.72806 236.91279 239.18152 241.56426
 244.19799 246.46173 248.47646 250.25420 251.68393 252.81966 253.65440 253.98313
 254.03287 253.81960 253.19234 252.15307 250.77180 248.94554 246.86727 244.71301
 242.51674 240.33348 238.16621 236.01794 233.89068 231.77041 229.80915 227.97888
 226.27462 224.75935 223.40208 222.18682 221.08155 220.05429 219.17102 218.32476
 217.57949 216.77222 215.88296 215.25969 214.72243 214.72708 214.73808 216.52879
 219.04929 220.44748 221.13330 220.82059 221.15446 223.25346 226.51688 228.93083
 230.97781 233.27672 236.34021 240.15309 244.05035 247.89854 251.62149 255.12039
 258.44690 261.61945 264.68015 267.59879 270.30389 272.74368 274.88235 276.69968
 278.24011 279.68140 281.10306 282.46155 283.65427 284.71158 285.68137 286.56128
 287.36063 288.07544 288.70328 289.51480
 366.78100 356.34766 345.79231 334.67097 323.08663 311.29328 299.17594 286.99160
 274.71625 262.62591 250.64757 239.96122 230.09588 221.21254 213.40719 206.42185
 200.26851 195.21916 191.81382 189.86848 188.91814 188.99479 189.84245 191.16311
 192.90076 195.00842 197.28408 199.65573 202.11339 204.60605 206.70670 208.56136
 210.20002 211.35767 211.59933 211.83999 211.78964 211.50730 211.15296 210.79561
 210.42527 210.14793 209.96858 209.84524 209.78590 210.12955 210.52821 210.92987
 211.73552 212.92618 214.18884 215.98449 217.92515 219.98081 222.08846 224.18412
 226.25678 228.35344 230.46309 232.58175 234.72341 236.90806 239.17672 241.55938
 244.19303 246.45669 248.47135 250.24900 251.67866 252.81432 253.64897 253.97763
 254.02729 253.81394 253.18660 252.14726 250.76591 248.93957 246.86123 244.70688
 242.51054 240.32720 238.15985 236.01151 233.88417 231.76382 229.80248 227.97214
 226.26779 224.75245 223.39511 222.17977 221.07442 220.04708 219.16374 218.31739
 217.57205 216.76471 215.87536 215.25202 214.71468 214.71968 214.73152 216.50166
 219.13258 220.57613 221.24751 220.89720 221.11380 223.11598 226.37932 228.78107
 230.83125 233.18344 236.33269 240.22078 244.14598 247.97911 251.66078 255.12149
 258.41809 261.58105 264.64011 267.53259 270.20959 272.61871 274.72012 276.53091
 278.10904 279.59024 281.10349 282.46970 283.65796 284.71460 285.68118 286.56076
 287.35861 288.07172 288.69766 289.50696
 366.78100 356.34743 345.79187 334.67030 323.08574 311.29217 299.17461 286.99004
 274.71448 262.62391 250.64535 239.95878 230.09322 221.20965 213.40409 206.41852
 200.26496 195.21539 191.80983 189.86426 188.91370 188.99013 189.83757 191.15800
 192.89544 195.00287 197.27831 199.64974 202.10718 204.59961 206.70005 208.55448
 210.19292 211.35035 211.59179 211.83222 211.78166 211.49909 211.14453 210.78696
 210.41640 210.13883 209.95927 209.83570 209.77614 210.11957 210.51801 210.91944
 211.72488 212.91531 214.17774 215.97318 217.91361 219.96905 222.07648 224.17192
 226.24435 228.34079 230.45022 232.56866 234.71009 236.89453 239.16296 241.54540
 244.17883 246.44227 248.45670 250.23414 251.66357 252.79901 253.63344 253.96188
 254.01131 253.79775 253.17018 252.13062 250.74905 248.92249 246.84392 244.68936
 242.49279 240.30923 238.14166 235.99310 233.86553 231.74497 229.78340 227.95284
 226.24827 224.73271 223.37514 222.15958 221.05401 220.02645 219.14288 218.29632
 217.55075 216.74318 215.85362 215.23005 214.69249 214.70543 214.73601 216.48534
 219.19366 220.68431 221.32890 220.95984 221.07059 222.98499 226.24554 228.63783
 230.69753 233.10689 236.34073 240.30200 244.25296 248.06728 251.70476 255.12431
 258.39014 261.54419 264.59872 267.46219 270.10867 272.48535 274.55164 276.36539
 277.99762 279.55380 281.08621 282.45398 283.64288 284.70157 285.66815 286.54630
 287.34048 288.05447 288.67783 289.48553
 366.78100 356.34715 345.79130 334.66945 323.08460 311.29076 299.17291 286.98806
 274.71221 262.62136 250.64251 239.95566 230.08981 221.20596 213.40012 206.41427
 200.26042 195.21057 191.80472 189.85887 188.90802 188.98417 189.83132 191.15147
 192.88863 194.99578 197.27093 199.64208 202.09923 204.59138 206.69153 208.54568
 210.18383 211.34099 211.58214 211.82229 211.77144 211.48859 211.13374 210.77589
 210.40504 210.12719 209.94735 209.82350 209.76365 210.10680 210.50495 210.90610
 211.71125 212.90140 214.16355 215.95871 217.89886 219.95401 222.06116 224.15631
 226.22846 228.32461 230.43376 232.55191 234.69306 236.87722 239.14537 241.52752
 244.16067 246.42382 248.43797 250.21512 251.64427 252.77942 253.61358 253.94173
 253.99088 253.77703 253.14918 252.10933 250.72748 248.90063 246.82178 244.66694
 242.47009 240.28624 238.11839 235.96954 233.84169 231.72084 229.75899 227.92814
 226.22330 224.70745 223.34960 222.13375 221.02790 220.00005 219.11620 218.26935
 217.52350 216.71566 215.82581 215.20196 214.66411 214.69183 214.75734 216.48790
 219.22345 220.76775 221.37291 220.99879 221.02441 222.86317 226.11841 228.50484
 230.57950 233.04817 236.36377 240.39366 244.36829 248.16280 251.75395 255.13101
 258.36456 261.50662 264.55307 267.38730 270.00339 272.34320 274.38071 276.21066
 277.90729 279.52286 281.06030 282.42722 283.61737 284.67334 285.64072 286.51797
 287.31113 288.02359 288.64795 289.44714
 366.78100 356.34659 345.79018 334.66777 323.08236 311.28795 299.16954 286.98413
 274.70772 262.61630 250.63689 239.94948 230.08307 221.19866 213.39225 206.40584
 200.25143 195.20102 191.79461 189.84820 188.89679 188.97238 189.81897 191.13856
 192.87515 194.98174 197.25632 199.62691 202.08350 204.57509 206.67468 208.52827
 210.16586 211.32245 211.56304 211.80263 211.75122 211.46781 211.11240 210.75399
 210.38258 210.10417 209.92376 209.79934 209.73893 210.08152 210.47911 210.87970
 211.68429 212.87388 214.13547 215.93006 217.86965 219.92424 222.03083 224.12542
 226.19701 228.29260 230.40119 232.51877 234.65936 236.84295 239.11054 241.49213
 244.12472 246.38731 248.40090 250.17749 251.60608 252.74067 253.57426 253.90185
 253.95044 253.73603 253.10762 252.06721 250.68479 248.85738 246.77797 244.62256
 242.42515 240.24074 238.07233 235.92292 233.79451 231.67310 229.71069 227.87928
 226.17387 224.65746 223.29905 222.08264 220.97623 219.94781 219.06340 218.21599
 217.46958 216.66117 215.77076 215.14635 214.60794 214.66397 214.79634 216.51236
 219.22189 220.81612 221.38535 221.01697 220.97960 222.75471 226.00183 228.38777
 230.48242 233.01096 236.40273 240.49654 244.49323 248.26396 251.80656 255.13948
 258.33932 261.47055 264.51144 267.31320 269.88797 272.19101 274.20358 276.06192
 277.82605 279.48407 281.02530 282.39392 283.58221 284.63770 285.60333 286.47830
 287.27060 287.97937 288.60208 289.40741
 366.78100 356.34565 345.78830 334.66495 323.07860 311.28325 299.16390 286.97755
 274.70021 262.60786 250.62751 239.93916 230.07181 221.18646 213.37911 206.39176
 200.23641 195.18506 191.77771 189.83036 188.87801 188.95266 189.79832 191.11697
 192.85262 194.95827 197.23192 199.60157 202.05722 204.54787 206.64652 208.49917
 210.13582 211.29147 211.53112 211.76977 211.71742 211.43308 211.07673 210.71738
 210.34503 210.06568 209.88433 209.75898 209.69763 210.03928 210.43593 210.83558
 211.63923 212.82788 214.08853 215.88218 217.82084 219.87449 221.98014 224.07379
 226.14444 228.23909 230.34674 232.46339 234.60304 236.78569 239.05234 241.43299
 244.06464 246.32629 248.33895 250.11460 251.54225 252.67590 253.50855 253.83520
 253.88285 253.66750 253.03815 251.99680 250.61345 248.78510 246.70475 244.54840
 242.35005 240.16471 237.99536 235.84501 233.71566 231.59331 229.62996 227.79761
 226.09126 224.57391 223.21456 221.99721 220.88986 219.86051 218.97516 218.12682
 217.37947 216.57012 215.67877 215.05342 214.51407 214.61111 214.84041 216.55930
 219.21149 220.82875 221.36888 221.01137 220.93517 222.66016 225.89780 228.28813
 230.40669 232.99576 236.45839 240.61037 244.62494 248.37361 251.87003 255.15862
 258.32455 261.44202 264.46338 267.22433 269.76678 272.02701 274.03351 275.93570
 277.74469 279.43311 280.97574 282.34338 283.52972 284.58362 285.54562 286.42136
 287.21054 287.91650 288.53702 289.33627
 366.78100 356.34491 345.78682 334.66273 323.07564 311.27955 299.15946 286.97236
 274.69427 262.60118 250.62009 239.93100 230.06291 221.17682 213.36873 206.38064
 200.22455 195.17246 191.76437 189.81628 188.86319 188.93709 189.78200 191.09991
 192.83482 194.93973 197.21264 199.58155 202.03646 204.52637 206.62428 208.47619
 210.11210 211.26701 211.50591 211.74382 211.69073 211.40564 211.04855 210.68846
 210.31537 210.03528 209.85319 209.72710 209.66501 210.00592 210.40183 210.80074
 211.60364 212.79155 214.05146 215.84437 217.78228 219.83519 221.94010 224.03301
 226.10292 228.19683 230.30374 232.41965 234.55856 236.74046 239.00637 241.38628
 244.01719 246.27810 248.29001 250.06492 251.49183 252.62474 253.45665 253.78256
 253.82947 253.61338 252.98329 251.94119 250.55710 248.72801 246.64692 244.48983
 242.29074 240.10465 237.93456 235.78347 233.65338 231.53029 229.56620 227.73311
 226.02602 224.50792 223.14783 221.92974 220.82165 219.79156 218.90547 218.05638
 217.30829 216.49820 215.60611 214.98002 214.43993 214.57005 214.87749 216.61427
 219.21898 220.82965 221.33751 220.97235 220.86942 222.55685 225.78468 228.18291
 230.33557 232.99292 236.52888 240.73827 244.77567 248.50226 251.94997 255.19069
 258.31842 261.40817 264.41254 267.14868 269.62988 271.84207 273.86313 275.80627
 277.67627 279.36661 280.90933 282.27502 283.46021 284.51025 285.46997 286.34372
 287.13153 287.83542 288.45584 289.25598
 366.78100 356.34475 345.78649 334.66224 323.07498 311.27873 299.15847 286.97122
 274.69296 262.59971 250.61845 239.92920 230.06094 221.17469 213.36644 206.37818
 200.22193 195.16967 191.76142 189.81316 188.85991 188.93365 189.77840 191.09614
 192.83089 194.93563 197.20838 199.57713 202.03187 204.52162 206.61936 208.47111
 210.10685 211.26160 211.50034 211.73809 211.68483 211.39958 211.04232 210.68207
 210.30882 210.02856 209.84631 209.72005 209.65780 209.99854 210.39429 210.79303
 211.59578 212.78352 214.04327 215.83601 217.77376 219.82651 221.93125 224.02400
 226.09374 228.18749 230.29423 232.40998 234.54872 236.73047 238.99621 241.37596
 244.00670 246.26745 248.27920 250.05394 251.48069 252.61343 253.44518 253.77092
 253.81767 253.60141 252.97116 251.92890 250.54465 248.71539 246.63414 244.47689
 242.27763 240.09138 237.92112 235.76987 233.63961 231.51636 229.55210 227.71885
 226.01159 224.49334 223.13308 221.91483 220.80658 219.77632 218.89007 218.04081
 217.29256 216.48230 215.59005 214.96379 214.42354 214.56090 214.88545 216.66248
 219.26961 220.86320 221.33310 220.93123 220.79161 222.43558 225.64127 228.03384
 230.22232 232.96272 236.58716 240.85669 244.91216 248.62462 252.04190 255.25372
 258.34848 261.42523 264.40930 267.05948 269.46954 271.69754 273.67825 275.69122
 277.57391 279.28168 280.79590 282.15546 283.33646 284.38474 285.34305 286.21429
 287.00439 287.71332 288.33374 289.13681
 366.78100 356.34486 345.78672 334.66258 323.07543 311.27929 299.15915 286.97201
 274.69387 262.60073 250.61959 239.93044 230.06230 221.17616 213.36802 206.37988
 200.22374 195.17160 191.76345 189.81531 188.86217 188.93603 189.78089 191.09875
 192.83361 194.93847 197.21132 199.58018 202.03504 204.52490 206.62276 208.47462
 210.11048 211.26533 211.50419 211.74205 211.68891 211.40377 211.04663 210.68649
 210.31334 210.03320 209.85106 209.72492 209.66278 210.00364 210.39950 210.79835
 211.60121 212.78907 214.04893 215.84179 217.77965 219.83251 221.93736 224.03022
 226.10008 228.19394 230.30080 232.41666 234.55552 236.73737 239.00323 241.38309
 244.01395 246.27481 248.28667 250.06153 251.48838 252.62124 253.45310 253.77896
 253.82582 253.60968 252.97954 251.93740 250.55325 248.72411 246.64297 244.48583
 242.28669 240.10055 237.93041 235.77926 233.64912 231.52598 229.56184 227.72870
 226.02156 224.50342 223.14327 221.92513 220.81699 219.78685 218.90071 218.05157
 217.30343 216.49328 215.60114 214.97500 214.43486 214.56718 214.87981 216.68977
 219.32957 220.92879 221.37172 220.91228 220.72147 222.31429 225.48228 227.86009
 230.08749 232.91675 236.63409 240.96098 245.04039 248.74194 252.12462 255.28865
 258.34961 261.41138 264.36804 267.02057 269.49133 271.44211 273.71603 275.69260
 277.52869 279.16019 280.65463 282.00232 283.18225 284.22748 285.18033 286.05096
 286.83960 287.54688 288.16150 288.95432
 366.78100 356.34450 345.78600 334.66149 323.07399 311.27749 299.15699 286.96949
 274.69099 262.59748 250.61598 239.92648 230.05798 221.17148 213.36297 206.37447
 200.21797 195.16547 191.75697 189.80847 188.85496 188.92846 189.77296 191.09046
 192.82496 194.92945 197.20195 199.57045 202.02495 204.51445 206.61195 208.46344
 210.09894 211.25344 211.49194 211.72944 211.67593 211.39043 211.03293 210.67243
 210.29893 210.01843 209.83592 209.70942 209.64692 209.98742 210.38292 210.78141
 211.58391 212.77141 214.03091 215.82341 217.76091 219.81340 221.91790 224.01040
 226.07990 228.17340 230.27990 232.39539 234.53389 236.71539 238.98089 241.36039
 243.99088 246.25138 248.26288 250.03738 251.46388 252.59638 253.42787 253.75337
 253.79987 253.58337 252.95287 251.91036 250.52586 248.69636 246.61486 244.45736
 242.25786 240.07135 237.90085 235.74935 233.61885 231.49535 229.53084 227.69734
 225.98984 224.47134 223.11084 221.89234 220.78383 219.75333 218.86683 218.01733
 217.26883 216.45832 215.56582 214.93932 214.39882 214.56033 214.94196 216.72801
 219.31053 220.94185 221.39969 220.89198 220.65199 222.19301 225.32141 227.68163
 229.94638 232.86975 236.68134 241.05801 245.14966 248.84334 252.20586 255.36409
 258.42349 261.46176 264.44543 267.17310 269.16592 271.44955 273.72308 275.70453
 277.43512 279.03812 280.47702 281.78516 282.94742 283.98642 284.93768 285.80396
 286.59531 287.30579 287.91791 288.71219
 366.78100 356.34383 345.78466 334.65949 323.07132 311.27415 299.15298 286.96481
 274.68564 262.59147 250.60930 239.91914 230.04997 221.16280 213.35363 206.36446
 200.20729 195.15412 191.74495 189.79578 188.84161 188.91444 189.75827 191.07510
 192.80893 194.91276 197.18459 199.55242 202.00625 204.49508 206.59191 208.44274
 210.07757 211.23141 211.46924 211.70607 211.65190 211.36573 211.00756 210.64639
 210.27222 209.99105 209.80788 209.68071 209.61754 209.95737 210.35220 210.75003
 211.55186 212.73869 213.99752 215.78935 217.72618 219.77801 221.88185 223.97368
 226.04251 228.13534 230.24117 232.35600 234.49383 236.67466 238.93949 241.31832
 243.94815 246.20798 248.21881 249.99264 251.41847 252.55030 253.38113 253.70596
 253.75179 253.53462 252.90345 251.86028 250.47512 248.64495 246.56278 244.40461
 242.20444 240.01727 237.84610 235.69393 233.56276 231.43859 229.47342 227.63925
 225.93108 224.41191 223.05074 221.83157 220.72240 219.69123 218.80406 217.95389
 217.20472 216.39356 215.50039 214.87322 214.33205 214.53252 215.00616 216.77591
 219.26424 220.93532 221.43987 220.89793 220.60426 222.09218 225.16139 227.49356
 229.80222 232.82545 236.72874 241.13770 245.24358 248.95207 252.32481 255.46703
 258.47705 261.48599 264.38101 266.71237 269.55084 271.70230 273.62955 275.49887
 277.28168 278.80963 280.20541 281.47882 282.61380 283.64212 284.58551 285.45361
 286.24789 286.95407 287.56317 288.36902
 366.78100 356.34443 345.78586 334.66129 323.07372 311.27715 299.15659 286.96902
 274.69045 262.59688 250.61531 239.92574 230.05717 221.17060 213.36203 206.37346
 200.21689 195.16433 191.75576 189.80719 188.85362 188.92705 189.77148 191.08891
 192.82334 194.92777 197.20020 199.56863 202.02307 204.51250 206.60993 208.46136
 210.09679 211.25122 211.48965 211.72708 211.67351 211.38794 211.03037 210.66981
 210.29624 210.01567 209.83310 209.70653 209.64396 209.98439 210.37982 210.77825
 211.58068 212.76811 214.02754 215.81998 217.75741 219.80984 221.91427 224.00670
 226.07613 228.16956 230.27599 232.39142 234.52985 236.71128 238.97672 241.35615
 243.98658 246.24701 248.25844 250.03287 251.45930 252.59173 253.42316 253.74859
 253.79502 253.57846 252.94789 251.90532 250.52075 248.69118 246.60961 244.45204
 242.25247 240.06590 237.89533 235.74376 233.61320 231.48963 229.52506 227.69149
 225.98392 224.46535 223.10478 221.88621 220.77764 219.74707 218.86050 218.01094
 217.26237 216.45180 215.55923 214.93266 214.39209 214.58659 215.04614 216.78792
 219.25192 220.96425 221.49591 220.90646 220.55754 221.98657 225.01053 227.32678
 229.66318 232.76880 236.74956 241.18762 245.29628 249.00880 252.38066 255.52480
 258.55545 261.59711 264.50800 266.88983 269.42780 271.70398 273.67999 275.50882
 277.25827 278.74652 280.04684 281.20200 282.25290 283.28226 284.23746 285.10620
 285.88751 286.57919 287.18817 287.99567
 366.78100 356.34466 345.78633 334.66199 323.07465 311.27832 299.15798 286.97065
 274.69231 262.59897 250.61764 239.92830 230.05996 221.17363 213.36529 206.37695
 200.22062 195.16828 191.75994 189.81161 188.85827 188.93194 189.77660 191.09426
 192.82893 194.93359 197.20625 199.57492 202.02958 204.51924 206.61691 208.46857
 210.10424 211.25890 211.49756 211.73523 211.68189 211.39655 211.03922 210.67888
 210.30554 210.02521 209.84287 209.71653 209.65420 209.99486 210.39053 210.78919
 211.59185 212.77952 214.03918 215.83184 217.76951 219.82217 221.92683 224.01950
 226.08916 228.18282 230.28949 232.40515 234.54382 236.72548 238.99114 241.37081
 244.00147 246.26213 248.27380 250.04846 251.47512 252.60779 253.43945 253.76512
 253.81178 253.59544 252.96511 251.92277 250.53843 248.70910 246.62776 244.47042
 242.27109 240.08475 237.91441 235.76308 233.63274 231.50941 229.54507 227.71173
 226.00440 224.48606 223.12572 221.90739 220.79905 219.76871 218.88238 218.03304
 217.28471 216.47437 215.58203 214.95570 214.41536 214.61198 215.07654 216.78516
 219.21222 221.00356 221.58244 220.93192 220.51265 221.90524 224.86688 227.14368
 229.51997 232.70802 236.77202 241.23503 245.32124 249.00755 252.36510 255.52625
 258.58987 261.59976 264.55099 267.14392 269.35248 271.58160 273.66370 275.56989
 277.27966 278.72437 279.97232 281.06641 282.00732 282.98352 283.93454 284.79993
 285.57080 286.26001 286.87167 287.70029
 366.78100 356.34443 345.78585 334.66128 323.07370 311.27713 299.15656 286.96898
 274.69041 262.59684 250.61526 239.92569 230.05711 221.17054 213.36197 206.37339
 200.21682 195.16424 191.75567 189.80710 188.85352 188.92695 189.77138 191.08880
 192.82323 194.92765 197.20008 199.56851 202.02293 204.51236 206.60979 208.46121
 210.09664 211.25106 211.48949 211.72692 211.67334 211.38777 211.03019 210.66962
 210.29605 210.01547 209.83290 209.70633 209.64375 209.98418 210.37960 210.77803
 211.58046 212.76788 214.02731 215.81973 217.75716 219.80959 221.91401 224.00644
 226.07587 228.16929 230.27572 232.39114 234.52957 236.71100 238.97642 241.35585
 243.98627 246.24670 248.25813 250.03255 251.45898 252.59141 253.42283 253.74826
 253.79468 253.57811 252.94754 251.90496 250.52039 248.69081 246.60924 244.45167
 242.25209 240.06552 237.89495 235.74337 233.61280 231.48922 229.52465 227.69108
 225.98350 224.46493 223.10436 221.88578 220.77721 219.74663 218.86006 218.01049
 217.26191 216.45134 215.55876 214.93219 214.39162 214.61432 215.14047 216.81865
 219.17732 221.00745 221.65390 220.96004 220.46396 221.75334 224.67770 226.97206
 229.38176 232.67166 236.81712 241.28426 245.38086 249.09389 252.48204 255.65202
 258.65118 261.58499 264.41681 267.12329 269.48166 271.75955 273.81775 275.69537
 277.31461 278.65704 279.83627 280.89444 281.79797 282.73834 283.69016 284.48907
 285.19824 285.89124 286.52179 287.37244
 366.78100 356.34633 345.78967 334.66700 323.08134 311.28667 299.16800 286.98234
 274.70567 262.61401 250.63434 239.94668 230.08001 221.19534 213.38868 206.40201
 200.24735 195.19668 191.79001 189.84335 188.89168 188.96702 189.81335 191.13268
 192.86902 194.97535 197.24969 199.62002 202.07636 204.56769 206.66702 208.52036
 210.15769 211.31403 211.55436 211.79369 211.74203 211.45836 211.10270 210.74403
 210.37237 210.09370 209.91303 209.78837 209.72770 210.07004 210.46737 210.86770
 211.67204 212.86137 214.12271 215.91704 217.85637 219.91071 222.01704 224.11138
 226.18271 228.27805 230.38638 232.50371 234.64405 236.82738 239.09472 241.47605
 244.10838 246.37072 248.38405 250.16039 251.58872 252.72305 253.55639 253.88372
 253.93206 253.71739 253.08873 252.04806 250.66539 248.83773 246.75806 244.60240
 242.40473 240.22006 238.05140 235.90173 233.77307 231.65140 229.68873 227.85707
 226.15140 224.63474 223.27607 222.05941 220.95274 219.92407 219.03941 218.19174
 217.44508 216.63641 215.74574 215.12108 214.58241 214.74347 215.12395 216.74576
 219.25362 221.14073 221.76773 220.97154 220.33833 221.53156 224.44022 226.68013
 229.17429 232.57144 236.80138 241.27902 245.37486 249.13322 252.58702 255.77020
 258.76221 261.78616 264.44733 266.97116 269.43979 271.81339 273.90042 275.75800
 277.33386 278.49094 279.67358 280.72934 281.57059 282.43274 283.38495 284.23047
 284.98099 285.68341 286.32932 287.19019
 366.78100 356.34575 345.78850 334.66525 323.07900 311.28375 299.16450 286.97824
 274.70099 262.60874 250.62849 239.94024 230.07299 221.18774 213.38049 206.39324
 200.23799 195.18674 191.77949 189.83224 188.87999 188.95473 189.80048 191.11923
 192.85498 194.96073 197.23448 199.60423 202.05998 204.55073 206.64948 208.50223
 210.13898 211.29473 211.53447 211.77322 211.72097 211.43672 211.08047 210.72122
 210.34897 210.06972 209.88847 209.76322 209.70197 210.04372 210.44047 210.84022
 211.64396 212.83271 214.09346 215.88721 217.82596 219.87971 221.98546 224.07921
 226.14996 228.24471 230.35246 232.46921 234.60896 236.79170 239.05845 241.43920
 244.07095 246.33270 248.34545 250.12120 251.54895 252.68270 253.51545 253.84220
 253.88995 253.67470 253.04545 252.00419 250.62094 248.79269 246.71244 244.55619
 242.35794 240.17269 238.00344 235.85319 233.72394 231.60169 229.63844 227.80619
 226.09993 224.58268 223.22343 222.00618 220.89893 219.86968 218.98443 218.13618
 217.38893 216.57968 215.68843 215.06318 214.52393 214.75839 215.32526 216.57121
 218.96608 221.08597 221.93520 221.11311 220.26755 221.31955 224.19429 226.49292
 228.89264 232.37466 236.71088 241.17000 245.31596 249.16890 252.71976 255.93161
 258.99057 262.01065 264.65518 267.08261 269.43802 271.68097 273.72122 275.57449
 276.94220 278.22424 279.42380 280.45142 281.36041 282.25424 283.19183 284.06470
 284.87448 285.59561 286.22556 287.02835
 366.78100 356.34116 345.77931 334.65147 323.06062 311.26078 299.13694 286.94609
 274.66425 262.56741 250.58256 239.88972 230.01787 221.12803 213.31619 206.32434
 200.16450 195.10866 191.69681 189.74497 188.78812 188.85828 189.69944 191.01359
 192.74475 194.84591 197.11506 199.48022 201.93137 204.41753 206.51169 208.35984
 209.99200 211.14315 211.37831 211.61247 211.55562 211.26678 210.90594 210.54209
 210.16525 209.88140 209.69556 209.56572 209.49987 209.83703 210.22919 210.62434
 211.42350 212.60765 213.86381 215.65297 217.58712 219.63628 221.73744 223.82659
 225.89275 227.98290 230.08606 232.19822 234.33337 236.51153 238.77369 241.14984
 243.77700 246.03415 248.04231 249.81347 251.23662 252.36578 253.19393 253.51609
 253.55925 253.33940 252.70556 251.65972 250.27187 248.43903 246.35418 244.19334
 241.99050 239.80065 237.62681 235.47197 233.33812 231.21128 229.24343 227.40659
 225.69575 224.17390 222.81006 221.58822 220.47637 219.44253 218.55268 217.69984
 216.94800 216.13415 215.23831 214.60846 214.06462 214.55965 215.72592 216.62143
 218.37057 220.64682 221.88472 221.45001 220.78131 221.59235 224.14339 226.66467
 228.96587 232.47099 236.73872 241.10031 245.23692 249.14250 252.70950 255.92886
 259.08612 262.01682 264.65396 267.08414 269.41623 271.56265 273.59940 275.31168
 276.81299 278.18536 279.35928 280.36017 281.45200 282.55273 283.57706 284.50507
 285.33969 286.08292 286.73218 287.55960
 366.78100 356.33964 345.77628 334.64692 323.05456 311.25320 299.12784 286.93548
 274.65213 262.55377 250.56741 239.87305 229.99969 221.10833 213.29497 206.30161
 200.14025 195.08289 191.66953 189.71617 188.75781 188.82645 189.66610 190.97874
 192.70838 194.80802 197.07566 199.43930 201.88894 204.37358 206.46622 208.31286
 209.94350 211.09314 211.32678 211.55942 211.50107 211.21071 210.84835 210.48299
 210.10463 209.81927 209.63191 209.50055 209.43319 209.76883 210.15947 210.55311
 211.35075 212.53339 213.78804 215.57568 217.50832 219.55596 221.65560 223.74324
 225.80788 227.89652 229.99816 232.10880 234.24244 236.41908 238.67972 241.05436
 243.68001 245.93565 247.94229 249.71193 251.13357 252.26121 253.08785 253.40849
 253.45013 253.22877 252.59341 251.54605 250.15669 248.32233 246.23598 244.07362
 241.86926 239.67790 237.50254 235.34618 233.21082 231.08246 229.11310 227.27474
 225.56238 224.03902 222.67366 221.45030 220.33695 219.30159 218.41023 217.55587
 216.80251 215.98715 215.08979 214.45843 213.91307 214.51299 215.90323 216.70697
 218.14395 220.36667 221.77803 221.52890 220.98862 221.74640 224.23843 226.76509
 229.07301 232.58873 236.83780 241.15022 245.22186 249.10623 252.64661 255.88353
 258.98990 261.94110 264.69608 267.21057 269.51889 271.62717 273.67264 275.45090
 276.99884 278.33963 279.44849 280.60840 281.86063 283.00034 284.04013 284.98212
 285.82935 286.58380 287.24289 288.08279
 366.78100 356.34188 345.78075 334.65363 323.06350 311.26438 299.14125 286.95113
 274.67001 262.57388 250.58976 239.89763 230.02651 221.13739 213.32626 206.33514
 200.17601 195.12089 191.70976 189.75864 188.80252 188.87339 189.71527 191.03014
 192.76202 194.86390 197.13377 199.49965 201.95152 204.43840 206.53327 208.38215
 210.01503 211.16690 211.40278 211.63765 211.58153 211.29341 210.93328 210.57016
 210.19403 209.91091 209.72578 209.59666 209.53154 209.86941 210.26229 210.65816
 211.45804 212.64291 213.89979 215.68967 217.62454 219.67442 221.77629 223.86617
 225.93305 228.02392 230.12780 232.24067 234.37655 236.55542 238.81830 241.19518
 243.82305 246.08093 248.08980 249.86168 251.28556 252.41543 253.24431 253.56718
 253.61106 253.39193 252.75881 251.71369 250.32656 248.49444 246.41031 244.25019
 242.04807 239.85894 237.68582 235.53169 233.39857 231.27244 229.30532 227.46920
 225.75907 224.23795 222.87482 221.65370 220.54257 219.50945 218.62033 217.76820
 217.01708 216.20395 215.30883 214.67971 214.13658 214.65958 215.88631 216.76935
 218.15904 220.20198 221.63805 221.42944 220.89879 221.67625 224.22728 226.77858
 229.13615 232.67798 236.93073 241.21881 245.23286 249.06844 252.58209 255.81517
 258.90784 261.91611 264.74432 267.29364 269.61221 271.76373 273.80957 275.62180
 277.17090 278.49530 279.61023 280.84500 282.06253 283.14209 284.12701 285.01929
 285.82181 286.53644 287.16071 287.95630
 366.78100 356.34440 345.78580 334.66120 323.07360 311.27700 299.15639 286.96879
 274.69019 262.59659 250.61499 239.92539 230.05679 221.17019 213.36159 206.37299
 200.21639 195.16379 191.75518 189.80658 188.85298 188.92638 189.77078 191.08818
 192.82258 194.92698 197.19938 199.56778 202.02218 204.51158 206.60897 208.46037
 210.09577 211.25017 211.48857 211.72597 211.67237 211.38677 211.02917 210.66857
 210.29497 210.01437 209.83176 209.70516 209.64256 209.98296 210.37836 210.77676
 211.57916 212.76656 214.02596 215.81836 217.75576 219.80816 221.91255 224.00495
 226.07435 228.16775 230.27415 232.38955 234.52795 236.70935 238.97475 241.35415
 243.98455 246.24495 248.25634 250.03074 251.45714 252.58954 253.42094 253.74634
 253.79274 253.57614 252.94554 251.90294 250.51834 248.68874 246.60713 244.44953
 242.24993 240.06333 237.89273 235.74113 233.61053 231.48693 229.52233 227.68873
 225.98113 224.46253 223.10192 221.88332 220.77472 219.74412 218.85752 218.00792
 217.25932 216.44872 215.55612 214.92952 214.38892 214.81523 215.84824 216.86447
 218.09674 220.01517 221.55836 221.43819 220.87540 221.61644 224.18817 226.74147
 229.14529 232.72266 237.00185 241.27478 245.24289 249.05238 252.51863 255.79327
 258.91589 261.93851 264.74261 267.29089 269.62961 271.81647 273.82330 275.64575
 277.22406 278.55893 279.74014 281.06894 282.28363 283.35831 284.33881 285.22705
 286.02594 286.73737 287.35883 288.15082
 366.78100 356.34493 345.78685 334.66278 323.07570 311.27963 299.15955 286.97248
 274.69440 262.60133 250.62025 239.93118 230.06310 221.17703 213.36895 206.38088
 200.22480 195.17273 191.76466 189.81658 188.86351 188.93743 189.78236 191.10028
 192.83521 194.94013 197.21306 199.58198 202.03691 204.52683 206.62476 208.47668
 210.11261 211.26753 211.50646 211.74438 211.69131 211.40624 211.04916 210.68909
 210.31601 210.03594 209.85386 209.72779 209.66571 210.00664 210.40256 210.80149
 211.60441 212.79234 214.05226 215.84519 217.78311 219.83604 221.94097 224.03389
 226.10382 228.19774 230.30467 232.42059 234.55952 236.74144 239.00737 241.38729
 244.01822 246.27914 248.29107 250.06599 251.49292 252.62584 253.45777 253.78370
 253.83062 253.61455 252.98447 251.94240 250.55832 248.72925 246.64817 244.49110
 242.29202 240.10595 237.93587 235.78480 233.65472 231.53165 229.56757 227.73450
 226.02742 224.50935 223.14928 221.93120 220.82313 219.79305 218.90698 218.05790
 217.30983 216.49975 215.60768 214.98160 214.44153 214.86806 215.90549 216.91362
 218.00237 219.82584 221.48849 221.50255 220.93274 221.60466 224.15298 226.65755
 229.08713 232.73172 237.06529 241.30840 245.20291 249.04276 252.57724 255.85010
 258.97009 261.98050 264.74197 267.25070 269.57266 271.75397 273.73599 275.58307
 277.18353 278.50031 279.78360 281.16068 282.38464 283.46753 284.45551 285.35052
 286.15552 286.87234 287.49857 288.29660
 366.78100 356.34311 345.78322 334.65733 323.06844 311.27055 299.14866 286.95977
 274.67988 262.58499 250.60209 239.91120 230.04131 221.15342 213.34353 206.35364
 200.19575 195.14186 191.73197 189.78208 188.82719 188.89930 189.74241 191.05852
 192.79163 194.89474 197.16585 199.53296 201.98607 204.47418 206.57028 208.42039
 210.05450 211.20761 211.44472 211.68083 211.62594 211.33905 210.98016 210.61827
 210.24338 209.96149 209.77760 209.64971 209.58582 209.92493 210.31904 210.71615
 211.51726 212.70336 213.96147 215.75258 217.68869 219.73980 221.84291 223.93402
 226.00213 228.09424 230.19935 232.31346 234.45057 236.63068 238.89479 241.27290
 243.90201 246.16112 248.17123 249.94434 251.36945 252.50055 253.33066 253.65477
 253.69988 253.48199 252.85010 251.80621 250.42032 248.58943 246.50654 244.34765
 242.14676 239.95887 237.78698 235.63409 233.50220 231.37731 229.41142 227.57653
 225.86763 224.34774 222.98585 221.76596 220.65607 219.62418 218.73629 217.88540
 217.13551 216.32362 215.42973 214.80184 214.25995 214.81291 216.09297 216.87439
 217.88873 219.76399 221.48093 221.54416 220.93970 221.58080 224.11186 226.47852
 228.93681 232.70367 237.14055 241.35628 245.21182 249.01772 252.65961 256.05264
 259.12277 262.04660 264.77972 267.24829 269.51315 271.64420 273.62537 275.44861
 277.01788 278.38425 279.91870 281.35635 282.60052 283.70129 284.70557 285.61539
 286.43365 287.16235 287.79892 288.61014
 366.78100 356.34130 345.77961 334.65191 323.06122 311.26152 299.13783 286.94713
 274.66544 262.56874 250.58405 239.89135 230.01965 221.12996 213.31826 206.32657
 200.16687 195.11118 191.69948 189.74779 188.79109 188.86140 189.70270 191.01700
 192.74831 194.84961 197.11892 199.48422 201.93553 204.42183 206.51614 208.36444
 209.99674 211.14805 211.38335 211.61766 211.56096 211.27227 210.91157 210.54788
 210.17118 209.88749 209.70179 209.57209 209.50640 209.84370 210.23601 210.63131
 211.43062 212.61492 213.87123 215.66053 217.59484 219.64414 221.74544 223.83475
 225.90105 227.99136 230.09466 232.20697 234.34227 236.52058 238.78288 241.15919
 243.78649 246.04379 248.05210 249.82340 251.24671 252.37601 253.20432 253.52662
 253.56993 253.35023 252.71653 251.67084 250.28314 248.45045 246.36575 244.20506
 242.00236 239.81267 237.63897 235.48428 233.35058 231.22388 229.25619 227.41949
 225.70880 224.18710 222.82341 221.60171 220.49002 219.45632 218.56663 217.71393
 216.96223 216.14854 215.25284 214.62315 214.07945 214.75847 216.27325 216.87535
 217.72343 219.64911 221.43918 221.52184 220.87656 221.54900 224.12354 226.38998
 228.84937 232.72728 237.21921 241.41786 245.30167 249.09309 252.84367 256.27130
 259.25739 262.10513 264.80783 267.26263 269.48151 271.59512 273.58282 275.39703
 276.88358 278.51804 280.17947 281.63837 282.90091 284.01791 285.03702 285.96027
 286.79065 287.53006 288.17603 288.99924
 366.78100 356.34171 345.78042 334.65313 323.06285 311.26356 299.14027 286.94998
 274.66869 262.57240 250.58811 239.89583 230.02454 221.13525 213.32396 206.33267
 200.17338 195.11810 191.70681 189.75552 188.79923 188.86994 189.71165 191.02636
 192.75808 194.85979 197.12950 199.49521 201.94692 204.43363 206.52834 208.37706
 210.00977 211.16148 211.39719 211.63190 211.57561 211.28732 210.92704 210.56375
 210.18746 209.90417 209.71888 209.58959 209.52430 209.86202 210.25473 210.65044
 211.45015 212.63486 213.89157 215.68129 217.61600 219.66571 221.76742 223.85713
 225.92384 228.01455 230.11827 232.23098 234.36669 236.54540 238.80811 241.18482
 243.81253 246.07025 248.07896 249.85067 251.27438 252.40409 253.23280 253.55551
 253.59923 253.37994 252.74665 251.70136 250.31407 248.48178 246.39750 244.23721
 242.03492 239.84563 237.67234 235.51805 233.38476 231.25848 229.29119 227.45490
 225.74461 224.22332 222.86003 221.63874 220.52746 219.49417 218.60488 217.75259
 217.00130 216.18801 215.29272 214.66344 214.12015 214.80882 216.34099 216.93059
 217.64426 219.46964 221.28293 221.35234 220.71587 221.49252 224.15550 226.42404
 228.94106 232.82980 237.31628 241.51595 245.38950 249.19885 252.99355 256.43582
 259.34467 262.15201 264.85202 267.29996 269.47403 271.56873 273.54245 275.35272
 276.92212 278.79700 280.50467 282.00415 283.30182 284.44992 285.49741 286.44632
 287.29980 288.05981 288.72372 289.56985
 366.78100 356.34159 345.78019 334.65278 323.06238 311.26297 299.13956 286.94916
 274.66775 262.57135 250.58694 239.89454 230.02313 221.13372 213.32232 206.33091
 200.17151 195.11610 191.70469 189.75329 188.79688 188.86748 189.70907 191.02367
 192.75526 194.85685 197.12645 199.49204 201.94364 204.43023 206.52482 208.37342
 210.00601 211.15761 211.39320 211.62779 211.57139 211.28298 210.92258 210.55917
 210.18277 209.89936 209.71395 209.58455 209.51914 209.85674 210.24933 210.64492
 211.44452 212.62911 213.88571 215.67530 217.60990 219.65949 221.76108 223.85068
 225.91727 228.00787 230.11146 232.22405 234.35965 236.53824 238.80084 241.17743
 243.80502 246.06262 248.07121 249.84281 251.26640 252.39600 253.22459 253.54718
 253.59078 253.37137 252.73797 251.69256 250.30515 248.47275 246.38834 244.22794
 242.02553 239.83613 237.66272 235.50831 233.37491 231.24850 229.28110 227.44469
 225.73428 224.21288 222.84947 221.62807 220.51666 219.48325 218.59385 217.74144
 216.99004 216.17663 215.28123 214.65182 214.10841 214.83519 216.41608 216.91890
 217.60310 219.37268 221.10909 221.10066 220.47148 221.33020 224.14725 226.45435
 229.07671 232.96538 237.42747 241.62529 245.49022 249.34933 253.13544 256.48114
 259.41940 262.23029 264.90753 267.33795 269.55600 271.66614 273.58820 275.26465
 277.23669 279.25427 281.00015 282.53317 283.85983 285.03363 286.10452 287.07468
 287.94724 288.72424 289.40302 290.26804
 366.78100 356.34141 345.77983 334.65224 323.06166 311.26207 299.13849 286.94790
 274.66632 262.56973 250.58515 239.89256 230.02098 221.13139 213.31981 206.32822
 200.16864 195.11305 191.70146 189.74988 188.79329 188.86371 189.70512 191.01954
 192.75095 194.85237 197.12178 199.48720 201.93861 204.42503 206.51944 208.36786
 210.00027 211.15168 211.38710 211.62151 211.56493 211.27634 210.91576 210.55217
 210.17559 209.89200 209.70642 209.57683 209.51125 209.84866 210.24108 210.63649
 211.43591 212.62032 213.87673 215.66615 217.60056 219.64998 221.75139 223.84081
 225.90722 227.99764 230.10105 232.21347 234.34888 236.52730 238.78971 241.16613
 243.79354 246.05096 248.05937 249.83078 251.25420 252.38361 253.21203 253.53444
 253.57786 253.35827 252.72469 251.67910 250.29152 248.45893 246.37435 244.21376
 242.01118 239.82159 237.64800 235.49342 233.35983 231.23325 229.26566 227.42908
 225.71849 224.19691 222.83332 221.61174 220.50015 219.46657 218.57698 217.72440
 216.97281 216.15923 215.26364 214.63405 214.09047 214.84579 216.47928 216.90842
 217.51976 219.25740 220.87010 220.81534 220.32288 221.37198 224.13091 226.51970
 229.15981 233.05891 237.54565 241.74068 245.61060 249.46983 253.20360 256.53714
 259.51013 262.32660 265.00781 267.49939 269.78616 271.87497 273.70660 275.48868
 277.47302 279.40445 281.09161 282.57306 283.85513 284.98941 286.02429 286.96182
 287.80502 288.55591 289.21185 290.04779
 366.78100 356.34412 345.78523 334.66035 323.07247 311.27559 299.15470 286.96682
 274.68794 262.59406 250.61217 239.92229 230.05341 221.16653 213.35764 206.36876
 200.21188 195.15900 191.75011 189.80123 188.84735 188.92047 189.76458 191.08170
 192.81582 194.91994 197.19205 199.56017 202.01429 204.50341 206.60052 208.45164
 210.08676 211.24088 211.47899 211.71611 211.66223 211.37635 211.01846 210.65758
 210.28370 210.00282 209.81993 209.69305 209.63017 209.97029 210.36540 210.76352
 211.56564 212.75276 214.01187 215.80399 217.74111 219.79323 221.89734 223.98946
 226.05858 228.15170 230.25781 232.37293 234.51105 236.69217 238.95728 241.33640
 243.96652 246.22664 248.23775 250.01187 251.43799 252.57011 253.40122 253.72634
 253.77246 253.55558 252.92469 251.88181 250.49693 248.66705 246.58516 244.42728
 242.22740 240.04052 237.86963 235.71775 233.58687 231.46299 229.49810 227.66422
 225.95634 224.43746 223.07657 221.85769 220.74881 219.71793 218.83104 217.98116
 217.23228 216.42140 215.52851 214.90163 214.36075 214.98940 216.41374 216.99423
 217.46338 219.07335 220.69400 220.65291 220.28622 221.41174 224.01308 226.50082
 229.12039 233.10016 237.64557 241.81755 245.67917 249.51398 253.22296 256.55945
 259.55173 262.34265 264.96964 267.42502 269.72092 271.86450 273.79953 275.56836
 277.32712 279.09348 280.72699 282.16135 283.40265 284.50089 285.50284 286.41058
 287.22696 287.95398 288.58905 289.39841
 366.78100 356.34469 345.78639 334.66208 323.07477 311.27846 299.15816 286.97085
 274.69254 262.59924 250.61793 239.92862 230.06031 221.17401 213.36570 206.37739
 200.22109 195.16878 191.76047 189.81216 188.85886 188.93255 189.77724 191.09494
 192.82963 194.93432 197.20702 199.57571 202.03040 204.52009 206.61779 208.46948
 210.10517 211.25987 211.49856 211.73625 211.68294 211.39764 211.04033 210.68002
 210.30672 210.02641 209.84410 209.71779 209.65549 209.99618 210.39187 210.79057
 211.59326 212.78095 214.04064 215.83334 217.77103 219.82372 221.92842 224.02111
 226.09080 228.18449 230.29119 232.40688 234.54557 236.72727 238.99296 241.37265
 244.00335 246.26404 248.27573 250.05042 251.47712 252.60981 253.44150 253.76720
 253.81389 253.59758 252.96727 251.92497 250.54066 248.71135 246.63005 244.47274
 242.27343 240.08712 237.91682 235.76551 233.63520 231.51190 229.54759 227.71428
 226.00697 224.48867 223.12836 221.91005 220.80175 219.77144 218.88513 218.03582
 217.28752 216.47721 215.58490 214.95860 214.41829 215.04620 216.45610 217.00264
 217.44437 219.02473 220.69968 220.60786 220.00996 221.14273 223.91803 226.43954
 229.19330 233.18581 237.69505 241.89005 245.77924 249.62637 253.35622 256.71539
 259.70593 262.46738 265.03595 267.40399 269.58633 271.63766 273.49536 275.36880
 277.40927 279.44800 281.23672 282.80737 284.16663 285.36923 286.46640 287.46039
 288.35437 289.15045 289.84589 290.73215
 366.78100 356.34196 345.78092 334.65388 323.06384 311.26480 299.14176 286.95171
 274.67067 262.57463 250.59059 239.89855 230.02751 221.13847 213.32743 206.33639
 200.17735 195.12231 191.71127 189.76023 188.80419 188.87514 189.71710 191.03206
 192.76402 194.86598 197.13594 199.50190 201.95386 204.44082 206.53578 208.38474
 210.01770 211.16966 211.40562 211.64057 211.58453 211.29649 210.93645 210.57341
 210.19737 209.91433 209.72929 209.60025 209.53521 209.87317 210.26613 210.66209
 211.46205 212.64700 213.90396 215.69392 217.62888 219.67884 221.78080 223.87076
 225.93772 228.02868 230.13264 232.24560 234.38156 236.56052 238.82348 241.20043
 243.82839 246.08635 248.09531 249.86727 251.29123 252.42119 253.25015 253.57311
 253.61707 253.39803 252.76499 251.71995 250.33291 248.50086 246.41682 244.25678
 242.05474 239.86570 237.69266 235.53862 233.40558 231.27954 229.31250 227.47646
 225.76642 224.24538 222.88234 221.66129 220.55025 219.51721 218.62817 217.77613
 217.02509 216.21205 215.31701 214.68797 214.14493 214.94781 216.61534 216.94041
 217.32402 218.88072 220.58188 220.49774 219.88934 220.77658 223.78830 226.41318
 229.29694 233.33228 237.82632 242.06888 246.01190 249.88469 253.61826 257.00946
 260.03485 262.78088 265.31271 267.62878 269.74832 271.69638 273.54977 275.87112
 278.40372 280.57452 282.45303 284.10248 285.52994 286.79288 287.94510 288.98895
 289.92776 290.76379 291.49414 292.42487
 366.78100 356.34315 345.78329 334.65744 323.06859 311.27073 299.14888 286.96002
 274.68017 262.58532 250.60246 239.91161 230.04176 221.15390 213.34405 206.35420
 200.19634 195.14249 191.73264 189.78278 188.82793 188.90007 189.74322 191.05937
 192.79251 194.89566 197.16681 199.53395 201.98710 204.47525 206.57139 208.42154
 210.05569 211.20883 211.44598 211.68212 211.62727 211.34042 210.98156 210.61971
 210.24486 209.96300 209.77915 209.65130 209.58744 209.92659 210.32074 210.71788
 211.51903 212.70517 213.96332 215.75447 217.69061 219.74176 221.84491 223.93605
 226.00420 228.09635 230.20149 232.31564 234.45278 236.63293 238.89708 241.27522
 243.90437 246.16352 248.17366 249.94681 251.37196 252.50310 253.33325 253.65740
 253.70254 253.48469 252.85283 251.80898 250.42313 248.59227 246.50942 244.35057
 242.14971 239.96186 237.79001 235.63715 233.50530 231.38045 229.41459 227.57974
 225.87088 224.35103 222.98918 221.76932 220.65947 219.62762 218.73976 217.88891
 217.13906 216.32720 215.43335 214.80549 214.26364 215.00569 216.59064 217.00113
 217.33658 218.67802 220.20990 220.27858 219.75119 220.86555 223.68562 226.41508
 229.35516 233.43918 237.95354 242.17831 246.13028 250.03368 253.81432 257.23361
 260.30527 263.12543 265.70612 268.02145 270.14902 272.12842 273.88116 276.09366
 278.49457 280.60025 282.42233 284.02228 285.40689 286.63190 287.74954 288.76205
 289.67270 290.48364 291.19205 292.09485
 366.78100 356.34593 345.78887 334.66580 323.07974 311.28467 299.16561 286.97954
 274.70248 262.61041 250.63034 239.94228 230.07521 221.19015 213.38308 206.39602
 200.24095 195.18989 191.78282 189.83576 188.88369 188.95862 189.80456 191.12349
 192.85943 194.96536 197.23930 199.60923 202.06517 204.55610 206.65503 208.50797
 210.14490 211.30084 211.54077 211.77971 211.72764 211.44358 211.08751 210.72845
 210.35638 210.07731 209.89625 209.77118 209.71012 210.05205 210.44899 210.84892
 211.65286 212.84179 214.10272 215.89666 217.83559 219.88953 221.99546 224.08940
 226.16033 228.25527 230.36320 232.48014 234.62007 236.80300 239.06994 241.45087
 244.08281 246.34474 248.35768 250.13361 251.56155 252.69548 253.52841 253.85535
 253.90328 253.68822 253.05915 252.01809 250.63502 248.80696 246.72689 244.57083
 242.37276 240.18769 238.01863 235.86856 233.73950 231.61743 229.65437 227.82230
 226.11624 224.59917 223.24010 222.02304 220.91597 219.88691 219.00184 218.15378
 217.40671 216.59765 215.70658 215.08152 214.54245 215.12610 216.46552 217.08179
 217.40649 218.52504 219.78709 219.95129 219.90225 221.14191 223.54584 226.42694
 229.34560 233.43356 237.98137 242.20589 246.14980 249.99490 253.66479 257.00922
 260.06573 262.94003 265.63943 268.09912 270.34845 272.46155 274.42245 276.21921
 277.98132 279.67258 281.13367 282.42114 283.53537 284.52115 285.42053 286.23532
 286.96811 287.62067 288.19073 288.91724
 366.78100 356.34547 345.78793 334.66440 323.07787 311.28233 299.16280 286.97627
 274.69873 262.60620 250.62567 239.93713 230.06960 221.18406 213.37653 206.38900
 200.23346 195.18193 191.77440 189.82686 188.87433 188.94880 189.79426 191.11273
 192.84820 194.95366 197.22713 199.59660 202.05206 204.54253 206.64100 208.49346
 210.12993 211.28539 211.52486 211.76333 211.71079 211.42626 211.06973 210.71019
 210.33766 210.05813 209.87659 209.75106 209.68953 210.03099 210.42746 210.82693
 211.63039 212.81886 214.07933 215.87279 217.81126 219.86473 221.97019 224.06366
 226.13412 228.22859 230.33606 232.45252 234.59199 236.77446 239.04092 241.42139
 244.05286 246.31432 248.32679 250.10226 251.52972 252.66319 253.49566 253.82212
 253.86959 253.65406 253.02452 251.98299 250.59945 248.77092 246.69039 244.53385
 242.33532 240.14979 237.98025 235.82972 233.70019 231.57765 229.61412 227.78159
 226.07505 224.55752 223.19799 221.98045 220.87292 219.84339 218.95785 218.10932
 217.36179 216.55225 215.66072 215.03518 214.49565 215.09535 216.48495 217.12465
 217.26234 218.31421 219.68312 219.90927 219.80930 220.95853 223.46768 226.30664
 229.43246 233.50401 237.99786 242.24199 246.22488 250.10854 253.81885 257.11768
 260.05786 262.83896 265.51117 267.97577 270.25345 272.40305 274.42090 276.26019
 277.90454 279.39090 280.68579 281.71243 282.84213 283.84671 284.76324 285.59354
 286.34030 287.00531 287.58624 288.32657
 366.78100 356.34397 345.78495 334.65992 323.07189 311.27487 299.15384 286.96582
 274.68679 262.59276 250.61074 239.92071 230.05168 221.16466 213.35563 206.36661
 200.20958 195.15655 191.74753 189.79850 188.84447 188.91745 189.76142 191.07840
 192.81237 194.91634 197.18832 199.55629 202.01026 204.49924 206.59621 208.44719
 210.08216 211.23613 211.47411 211.71108 211.65705 211.37103 211.01300 210.65198
 210.27795 209.99692 209.81390 209.68687 209.62384 209.96382 210.35879 210.75677
 211.55874 212.74571 214.00469 215.79666 217.73363 219.78561 221.88958 223.98156
 226.05053 228.14350 230.24948 232.36445 234.50242 236.68340 238.94837 241.32735
 243.95732 246.21729 248.22827 250.00224 251.42821 252.56019 253.39116 253.71614
 253.76211 253.54508 252.91406 251.87103 250.48600 248.65598 246.57395 244.41593
 242.21590 240.02887 237.85785 235.70582 233.57479 231.45077 229.48574 227.65172
 225.94369 224.42466 223.06364 221.84461 220.73558 219.70456 218.81753 217.96751
 217.21848 216.40745 215.51443 214.88740 214.34637 215.01758 216.56523 217.14417
 217.18469 218.08600 219.45509 219.80392 219.73201 220.84079 223.42136 226.21707
 229.45421 233.58134 238.10799 242.35880 246.35550 250.27522 254.02678 257.37726
 260.30554 263.00870 265.61902 268.03275 270.27341 272.40796 274.43414 276.29071
 277.89536 279.31793 280.58188 281.50970 282.48972 283.54840 284.51428 285.38931
 286.17630 286.87714 287.48935 288.26956
 366.78100 356.34436 345.78571 334.66107 323.07343 311.27678 299.15614 286.96850
 274.68986 262.59621 250.61457 239.92493 230.05628 221.16964 213.36100 206.37235
 200.21571 195.16307 191.75442 189.80578 188.85214 188.92549 189.76985 191.08721
 192.82157 194.92592 197.19828 199.56664 202.02099 204.51035 206.60771 208.45906
 210.09442 211.24878 211.48713 211.72449 211.67085 211.38521 211.02756 210.66692
 210.29328 210.01263 209.82999 209.70335 209.64070 209.98106 210.37642 210.77477
 211.57713 212.76449 214.02384 215.81620 217.75356 219.80592 221.91027 224.00263
 226.07199 228.16534 230.27170 232.38706 234.52541 236.70677 238.97213 241.35148
 243.98184 246.24220 248.25355 250.02791 251.45427 252.58663 253.41798 253.74334
 253.78970 253.57305 252.94241 251.89977 250.51512 248.68548 246.60384 244.44619
 242.24655 240.05991 237.88927 235.73762 233.60698 231.48334 229.51869 227.68505
 225.97741 224.45876 223.09812 221.87948 220.77083 219.74019 218.85355 218.00390
 217.25526 216.44462 215.55198 214.92533 214.38469 215.03442 216.53926 217.17653
 217.28859 217.95509 219.15434 219.53732 219.57623 220.73174 223.38202 226.22826
 229.51964 233.69420 238.24350 242.49480 246.48926 250.41910 254.20282 257.58826
 260.52420 263.18188 265.73477 268.08871 270.29242 272.42917 274.46649 276.33258
 277.90277 279.25766 280.43542 281.37610 282.37030 283.45099 284.43692 285.33011
 286.13342 286.84882 287.47372 288.27014
 366.78100 356.34542 345.78785 334.66427 323.07769 311.28212 299.16254 286.97596
 274.69838 262.60581 250.62523 239.93665 230.06908 221.18350 213.37592 206.38835
 200.23277 195.18119 191.77361 189.82604 188.87346 188.94788 189.79331 191.11173
 192.84715 194.95258 197.22600 199.59542 202.05084 204.54127 206.63969 208.49211
 210.12854 211.28396 211.52338 211.76181 211.70923 211.42465 211.06807 210.70850
 210.33592 210.05634 209.87477 209.74919 209.68761 210.02904 210.42546 210.82488
 211.62831 212.81673 214.07715 215.87057 217.80900 219.86242 221.96784 224.06127
 226.13169 228.22611 230.33354 232.44996 234.58938 236.77180 239.03823 241.41865
 244.05007 246.31150 248.32392 250.09934 251.52677 252.66019 253.49261 253.81903
 253.86646 253.65088 253.02130 251.97973 250.59615 248.76757 246.68700 244.53042
 242.33184 240.14627 237.97669 235.82611 233.69653 231.57396 229.61038 227.77780
 226.07123 224.55365 223.19407 221.97650 220.86892 219.83934 218.95376 218.10519
 217.35761 216.54803 215.65646 215.03088 214.49130 215.09343 216.48714 217.17239
 217.46933 218.09581 219.08217 219.31477 219.33107 220.53741 223.20865 226.23741
 229.52486 233.79892 238.35730 242.59819 246.59045 250.53455 254.37282 257.79651
 260.75122 263.39313 265.87424 268.15356 270.30014 272.42682 274.47110 276.33676
 277.90094 279.18503 280.20001 281.33395 282.59045 283.70215 284.71640 285.63522
 286.46161 287.19751 287.84039 288.65967
 366.78100 356.34640 345.78980 334.66721 323.08161 311.28701 299.16841 286.98282
 274.70622 262.61462 250.63502 239.94743 230.08083 221.19623 213.38963 206.40304
 200.24844 195.19784 191.79124 189.84465 188.89305 188.96845 189.81485 191.13426
 192.87066 194.97706 197.25146 199.62187 202.07827 204.56967 206.66907 208.52248
 210.15988 211.31628 211.55668 211.79609 211.74449 211.46089 211.10529 210.74670
 210.37510 210.09650 209.91590 209.79131 209.73071 210.07311 210.47051 210.87092
 211.67532 212.86472 214.12612 215.92053 217.85993 219.91433 222.02073 224.11514
 226.18654 228.28194 230.39034 232.50775 234.64815 236.83155 239.09895 241.48036
 244.11276 246.37516 248.38856 250.16497 251.59337 252.72777 253.56117 253.88858
 253.93698 253.72238 253.09378 252.05319 250.67059 248.84299 246.76339 244.60780
 242.41020 240.22560 238.05700 235.90741 233.77881 231.65721 229.69461 227.86302
 226.15742 224.64082 223.28222 222.06563 220.95903 219.93043 219.04583 218.19824
 217.45164 216.64304 215.75244 215.12785 214.58925 215.15295 216.44994 217.13493
 217.58243 218.33966 219.20482 219.17216 219.02306 220.26547 222.99274 226.11435
 229.46741 233.84599 238.43369 242.67114 246.69835 250.68105 254.54460 258.03467
 261.04858 263.72681 266.15836 268.36340 270.46078 272.55643 274.57584 276.37363
 277.77225 278.94067 280.62888 282.15280 283.47159 284.63840 285.70291 286.66730
 287.53467 288.30707 288.98181 289.84171
 366.78100 356.34699 345.79098 334.66896 323.08395 311.28994 299.17193 286.98692
 274.71090 262.61989 250.64088 239.95387 230.08786 221.20385 213.39783 206.41182
 200.25781 195.20780 191.80179 189.85577 188.90476 188.98075 189.82774 191.14773
 192.88471 194.99170 197.26669 199.63768 202.09467 204.58666 206.68664 208.54063
 210.17862 211.33561 211.57660 211.81658 211.76557 211.48256 211.12755 210.76954
 210.39852 210.12051 209.94050 209.81649 209.75648 210.09947 210.49745 210.89844
 211.70343 212.89342 214.15541 215.95039 217.89038 219.94537 222.05236 224.14735
 226.21933 228.31532 230.42431 232.54230 234.68329 236.86728 239.13526 241.51725
 244.15024 246.41323 248.42722 250.20420 251.63319 252.76818 253.60217 253.93016
 253.97914 253.76513 253.13712 252.09711 250.71510 248.88809 246.80907 244.65406
 242.45705 240.27304 238.10503 235.95601 233.82800 231.70699 229.74498 227.91397
 226.20895 224.69294 223.33493 222.11892 221.01291 219.98490 219.10088 218.25387
 217.50786 216.69985 215.80984 215.18582 214.64781 215.18654 216.42007 217.09276
 217.64557 218.46722 219.27841 219.04561 218.74544 220.01480 222.78256 226.04231
 229.47269 233.90610 238.50967 242.74307 246.78078 250.78975 254.69073 258.19733
 261.24127 263.96872 266.47302 268.68448 270.75806 272.82669 274.85178 276.63937
 277.87314 279.50214 281.27249 282.82697 284.17227 285.36249 286.44839 287.43216
 288.31693 289.10483 289.79312 290.67029
 366.78100 356.34688 345.79076 334.66864 323.08353 311.28941 299.17129 286.98617
 274.71005 262.61893 250.63982 239.95270 230.08658 221.20246 213.39634 206.41022
 200.25611 195.20599 191.79987 189.85375 188.90263 188.97851 189.82540 191.14528
 192.88216 194.98904 197.26392 199.63480 202.09169 204.58357 206.68345 208.53733
 210.17521 211.33209 211.57297 211.81286 211.76174 211.47862 211.12350 210.76538
 210.39426 210.11615 209.93603 209.81191 209.75179 210.09467 210.49255 210.89344
 211.69832 212.88820 214.15008 215.94496 217.88484 219.93973 222.04661 224.14149
 226.21337 228.30925 230.41813 232.53602 234.67690 236.86078 239.12866 241.51054
 244.14342 246.40630 248.42019 250.19707 251.62595 252.76083 253.59471 253.92259
 253.97148 253.75736 253.12924 252.08912 250.70700 248.87988 246.80077 244.64565
 242.44853 240.26441 238.09629 235.94717 233.81906 231.69794 229.73582 227.90470
 226.19958 224.68346 223.32535 222.10923 221.00311 219.97499 219.09087 218.24375
 217.49763 216.68952 215.79940 215.17528 214.63716 215.17140 216.40221 217.05673
 217.67957 218.49060 219.08461 218.82852 218.67290 219.94885 222.67563 226.01173
 229.53430 233.98898 238.59644 242.81436 246.83890 250.81279 254.62996 258.04987
 261.09088 263.89407 266.50046 268.84335 271.03467 273.18829 275.27817 277.19168
 278.77911 279.93857 281.20868 282.49960 283.62338 284.61765 285.52478 286.34656
 287.08563 287.74380 288.31879 289.05151
 366.78100 356.34683 345.79066 334.66849 323.08332 311.28915 299.17098 286.98581
 274.70964 262.61847 250.63930 239.95213 230.08596 221.20179 213.39562 206.40945
 200.25528 195.20511 191.79894 189.85277 188.90160 188.97743 189.82426 191.14409
 192.88092 194.98775 197.26258 199.63342 202.09025 204.58208 206.68191 208.53574
 210.17357 211.33040 211.57123 211.81106 211.75989 211.47672 211.12155 210.76338
 210.39221 210.11404 209.93387 209.80970 209.74953 210.09236 210.49019 210.89102
 211.69585 212.88568 214.14751 215.94234 217.88217 219.93700 222.04383 224.13866
 226.21049 228.30632 230.41515 232.53298 234.67381 236.85764 239.12547 241.50730
 244.14013 246.40296 248.41679 250.19362 251.62245 252.75728 253.59111 253.91894
 253.96777 253.75360 253.12543 252.08526 250.70309 248.87592 246.79675 244.64159
 242.44442 240.26025 238.09208 235.94291 233.81474 231.69357 229.73140 227.90023
 226.19506 224.67889 223.32072 222.10455 220.99838 219.97021 219.08604 218.23887
 217.49270 216.68453 215.79436 215.17019 214.63202 215.15327 216.37373 217.07384
 217.64867 218.40385 218.86478 218.54581 218.43730 219.71820 222.68021 225.93828
 229.62546 234.02402 238.63390 242.91794 246.96515 250.92664 254.68748 258.03860
 260.99924 263.74655 266.35156 268.77130 271.05823 273.29086 275.42462 277.36581
 279.02173 280.32303 281.27359 281.99112 282.64777 283.39270 284.15152 284.83893
 285.45721 286.00778 286.48874 287.10165
 366.78100 356.34588 345.78876 334.66563 323.07951 311.28439 299.16527 286.97915
 274.70202 262.60990 250.62978 239.94166 230.07453 221.18941 213.38229 206.39517
 200.24005 195.18892 191.78180 189.83468 188.88256 188.95744 189.80331 191.12219
 192.85807 194.96395 197.23783 199.60770 202.06358 204.55446 206.65334 208.50621
 210.14309 211.29897 211.53885 211.77773 211.72560 211.44148 211.08536 210.72624
 210.35412 210.07499 209.89387 209.76875 209.70763 210.04951 210.44638 210.84626
 211.65014 212.83902 214.09989 215.89377 217.83265 219.88653 221.99241 224.08628
 226.15716 228.25204 230.35992 232.47680 234.61667 236.79955 239.06643 241.44731
 244.07918 246.34106 248.35394 250.12982 251.55770 252.69157 253.52445 253.85133
 253.89921 253.68409 253.05496 252.01384 250.63072 248.80260 246.72248 244.56635
 242.36823 240.18311 238.01399 235.86386 233.73474 231.61262 229.64950 227.81738
 226.11125 224.59413 223.23501 222.01789 220.91077 219.88164 218.99652 218.14840
 217.40128 216.59216 215.70103 215.07591 214.53679 215.10052 216.41826 217.02835
 217.69853 218.38518 218.78125 218.30504 218.12502 219.45299 222.54848 225.79048
 229.63071 234.08055 238.73062 243.03590 247.09758 251.07521 254.85384 258.21921
 261.16946 263.87454 266.42477 268.78250 271.05029 273.33832 275.51315 277.45932
 279.11835 280.36542 281.23563 281.78146 282.18137 282.57996 283.45386 284.34088
 285.13864 285.84903 286.46964 287.26053
 366.78100 356.34490 345.78680 334.66271 323.07561 311.27951 299.15941 286.97232
 274.69422 262.60112 250.62002 239.93093 230.06283 221.17673 213.36863 206.38054
 200.22444 195.17234 191.76424 189.81615 188.86305 188.93695 189.78185 191.09976
 192.83466 194.93956 197.21246 199.58136 202.03627 204.52617 206.62407 208.47597
 210.11188 211.26678 211.50568 211.74358 211.69049 211.40539 211.04829 210.68819
 210.31510 210.03500 209.85290 209.72680 209.66471 210.00561 210.40151 210.80041
 211.60331 212.79122 214.05112 215.84402 217.78192 219.83483 221.93973 224.03263
 226.10253 228.19644 230.30334 232.41924 234.55814 236.74005 239.00595 241.38585
 244.01675 246.27766 248.28956 250.06446 251.49136 252.62427 253.45617 253.78207
 253.82897 253.61287 252.98278 251.94068 250.55658 248.72748 246.64639 244.48929
 242.29019 240.10409 237.93400 235.78290 233.65280 231.52970 229.56561 227.73251
 226.02541 224.50731 223.14722 221.92912 220.82102 219.79092 218.90483 218.05573
 217.30763 216.49753 215.60543 214.97934 214.43924 215.05534 216.47881 216.97577
 217.74232 218.47113 218.84697 218.31908 217.99530 219.20187 222.27979 225.76230
 229.63843 234.14948 238.80092 243.12125 247.21581 251.20891 254.98441 258.34393
 261.31607 264.03906 266.59229 268.93164 271.20676 273.49847 275.69244 277.64511
 279.26749 280.47897 281.21027 281.56897 281.72180 282.47479 283.45703 284.34689
 285.14722 285.85992 286.48251 287.27594
 366.78100 356.34614 345.78927 334.66641 323.08054 311.28568 299.16681 286.98095
 274.70408 262.61222 250.63236 239.94449 230.07763 221.19276 213.38590 206.39903
 200.24417 195.19331 191.78644 189.83958 188.88771 188.96285 189.80898 191.12812
 192.86425 194.97039 197.24453 199.61466 202.07080 204.56193 206.66107 208.51420
 210.15134 211.30748 211.54761 211.78675 211.73488 211.45102 211.09515 210.73629
 210.36442 210.08556 209.90470 209.77983 209.71897 210.06110 210.45824 210.85837
 211.66251 212.85164 214.11278 215.90692 217.84605 219.90019 222.00632 224.10046
 226.17159 228.26673 230.37487 232.49200 234.63214 236.81527 239.08241 241.46354
 244.09568 246.35781 248.37095 250.14709 251.57522 252.70936 253.54249 253.86963
 253.91776 253.70290 253.07404 252.03317 250.65031 248.82244 246.74258 244.58671
 242.38885 240.20398 238.03512 235.88526 233.75639 231.63453 229.67166 227.83980
 226.13393 224.61707 223.25820 222.04134 220.93448 219.90561 219.02075 218.17288
 217.42602 216.61715 215.72629 215.10143 214.56256 215.11258 216.39793 217.07106
 217.72034 218.40337 218.83743 218.29248 217.86536 218.97708 222.11478 225.71362
 229.66748 234.22307 238.89134 243.22365 247.33125 251.31624 255.04514 258.35913
 261.33340 264.09708 266.68604 269.04007 271.33618 273.67941 275.91843 277.88605
 279.54553 280.77811 281.47952 281.60257 281.62701 282.36115 283.34262 284.23175
 285.03140 285.74353 286.36560 287.15839
 366.78100 356.34664 345.79028 334.66791 323.08255 311.28819 299.16983 286.98447
 274.70810 262.61674 250.63738 239.95002 230.08366 221.19929 213.39293 206.40657
 200.25221 195.20184 191.79548 189.84912 188.89776 188.97340 189.82003 191.13967
 192.87631 194.98295 197.25759 199.62822 202.08486 204.57650 206.67614 208.52978
 210.16741 211.32405 211.56469 211.80433 211.75297 211.46960 211.11424 210.75588
 210.38452 210.10616 209.92579 209.80143 209.74107 210.08371 210.48134 210.88198
 211.68662 212.87626 214.13790 215.93253 217.87217 219.92681 222.03345 224.12809
 226.19972 228.29536 230.40400 232.52164 234.66228 236.84591 239.11355 241.49519
 244.12783 246.39047 248.40410 250.18074 251.60938 252.74402 253.57766 253.90529
 253.95393 253.73957 253.11121 252.07084 250.68848 248.86112 246.78176 244.62640
 242.42903 240.24467 238.07631 235.92695 233.79859 231.67722 229.71486 227.88350
 226.17814 224.66178 223.30341 222.08705 220.98069 219.95233 219.06797 218.22060
 217.47424 216.66588 215.77552 215.15116 214.61279 215.13123 216.35281 217.12292
 217.83174 218.43849 218.76122 218.08786 217.59082 218.68092 221.99896 225.62302
 229.70911 234.28641 238.98616 243.32855 247.44286 251.41238 255.11292 258.39526
 261.34161 264.09851 266.69922 269.10590 271.44891 273.82837 276.09247 278.06009
 279.68390 280.86484 281.49466 281.63464 281.63663 281.94324 282.74429 283.66956
 284.50171 285.24277 285.89014 286.71512
 366.78100 356.34474 345.78648 334.66221 323.07495 311.27869 299.15843 286.97117
 274.69290 262.59964 250.61838 239.92912 230.06085 221.17459 213.36633 206.37807
 200.22181 195.16954 191.76128 189.81302 188.85976 188.93350 189.77823 191.09597
 192.83071 194.93545 197.20819 199.57692 202.03166 204.52140 206.61914 208.47088
 210.10661 211.26135 211.50009 211.73783 211.68456 211.39930 211.04204 210.68178
 210.30852 210.02825 209.84599 209.71973 209.65747 209.99821 210.39394 210.79268
 211.59542 212.78316 214.04290 215.83563 217.77337 219.82611 221.93085 224.02358
 226.09332 228.18706 230.29380 232.40954 234.54827 236.73001 238.99575 241.37549
 244.00623 246.26696 248.27870 250.05344 251.48018 252.61292 253.44465 253.77039
 253.81713 253.60087 252.97060 251.92834 250.54408 248.71482 246.63356 244.47629
 242.27703 240.09077 237.92051 235.76925 233.63898 231.51572 229.55146 227.71820
 226.01094 224.49267 223.13241 221.91415 220.80589 219.77563 218.88936 218.04010
 217.29184 216.48158 215.58931 214.96305 214.42279 215.04024 216.48120 217.04199
 217.78310 218.52733 218.79135 217.98091 217.36914 218.41975 221.78358 225.58116
 229.72351 234.33968 239.04007 243.40633 247.54875 251.52599 255.21977 258.49524
 261.42557 264.15076 266.73135 269.13931 271.51990 273.95724 276.25653 278.23315
 279.84702 280.96841 281.52783 281.53934 281.41281 281.68811 282.59152 283.47183
 284.26355 284.96857 285.58447 286.36938
 366.78100 356.34467 345.78634 334.66202 323.07469 311.27836 299.15803 286.97071
 274.69238 262.59905 250.61772 239.92840 230.06007 221.17374 213.36541 206.37708
 200.22076 195.16843 191.76010 189.81177 188.85845 188.93212 189.77679 191.09446
 192.82914 194.93381 197.20648 199.57515 202.02982 204.51950 206.61717 208.46884
 210.10451 211.25919 211.49786 211.73553 211.68220 211.39687 211.03955 210.67922
 210.30589 210.02556 209.84324 209.71691 209.65458 209.99525 210.39093 210.78960
 211.59227 212.77994 214.03961 215.83229 217.76996 219.82263 221.92730 224.01998
 226.08965 228.18332 230.28999 232.40567 234.54434 236.72601 238.99168 241.37135
 244.00203 246.26270 248.27437 250.04904 251.47572 252.60839 253.44006 253.76573
 253.81241 253.59608 252.96575 251.92342 250.53909 248.70977 246.62844 244.47111
 242.27178 240.08546 237.91513 235.76380 233.63347 231.51014 229.54582 227.71249
 226.00516 224.48683 223.12651 221.90818 220.79985 219.76952 218.88320 218.03387
 217.28554 216.47521 215.58288 214.95656 214.41623 215.03502 216.48282 217.12856
 217.70825 218.36937 218.73508 217.97726 217.29782 218.27739 221.65556 225.55948
 229.77202 234.42885 239.13799 243.52008 247.67145 251.63538 255.30861 258.57794
 261.50763 264.21051 266.75961 269.16547 271.59442 274.10211 276.43939 278.44727
 280.12097 281.25363 281.54855 281.20615 281.03064 281.47742 282.39587 283.28464
 284.08398 284.79581 285.41763 286.21008
 366.78100 356.34593 345.78886 334.66578 323.07971 311.28464 299.16557 286.97949
 274.70242 262.61035 250.63028 239.94220 230.07513 221.19006 213.38299 206.39591
 200.24084 195.18977 191.78270 189.83563 188.88355 188.95848 189.80441 191.12334
 192.85926 194.96519 197.23912 199.60905 202.06497 204.55590 206.65483 208.50776
 210.14468 211.30061 211.54054 211.77947 211.72739 211.44332 211.08725 210.72818
 210.35611 210.07703 209.89596 209.77089 209.70982 210.05174 210.44867 210.84860
 211.65253 212.84145 214.10238 215.89631 217.83524 219.88916 221.99509 224.08902
 226.15995 228.25488 230.36280 232.47973 234.61966 236.80259 239.06951 241.45044
 244.08237 246.34430 248.35722 250.13315 251.56108 252.69501 253.52793 253.85486
 253.90279 253.68772 253.05864 252.01757 250.63450 248.80643 246.72636 244.57028
 242.37221 240.18714 238.01807 235.86799 233.73892 231.61685 229.65378 227.82170
 226.11563 224.59856 223.23949 222.02241 220.91534 219.88627 219.00120 218.15313
 217.40605 216.59698 215.70591 215.08084 214.54176 215.08952 216.38329 217.27701
 217.91168 218.35458 218.50037 217.70015 217.06230 218.09361 221.62392 225.46700
 229.81950 234.50401 239.23938 243.62672 247.79001 251.75186 255.42966 258.70062
 261.62357 264.29666 266.80667 269.23273 271.69366 274.21698 276.57800 278.57437
 280.16400 281.10553 281.31305 281.00665 280.77170 281.00888 281.71292 282.53607
 283.33221 284.04120 284.66052 285.44983
 354.97500 345.04800 334.58700 324.11500 313.32600 302.53700 291.65000 280.76700
 269.93100 259.19300 248.62200 238.61700 229.08700 220.35500 212.54000 205.53500
 199.46400 194.49300 191.14300 189.19000 188.08900 188.01400 188.72400 189.90600
 191.46900 193.38200 195.40300 197.55600 199.80700 202.06000 204.28800 206.47900
 208.55200 210.37800 212.02500 213.65900 214.99800 216.11800 217.17200 218.25900
 219.49400 220.64500 221.67900 222.61400 223.54500 224.98200 226.57100 228.19000
 229.79700 231.81100 233.86500 235.97200 238.24200 240.55300 242.89900 245.25300
 247.48800 249.53500 251.36600 252.84800 254.09800 255.16700 256.02700 256.25300
 256.09500 255.54300 253.93500 252.56600 251.38400 250.24500 249.05200 247.70100
 246.01600 243.99600 241.78400 239.39300 236.81300 234.22300 231.65800 229.14400
 226.74000 224.47300 222.33500 220.32500 218.44000 216.67700 214.96200 213.47200
 212.20000 211.10800 210.26000 209.63900 209.24400 209.03100 209.05800 209.33300
 209.78400 210.62600 211.33100 212.39100 213.62500 214.84668 217.72949 219.47640
 220.32566 220.86828 220.88710 220.27371 219.43733 218.84250 219.04934 220.86203
 222.60583 225.72206 229.03064 232.61777 236.12270 239.51333 242.70767 245.68587
 248.41061 250.90679 253.19353 254.91714 256.48655 257.94920 259.39966 260.69384
 261.81714 262.77997 263.71679 264.54570 265.26305 265.89772 266.47676 267.00133
 267.47312 267.89325 268.26027 268.72800
