|-------------------------------------------------------------------------|
|   File Name : in_temp.dat
|   Subject   : temperature profiles used for initial guess atmosphere
|   File Type : input of gmtr
|   Data Type : atmospherical data
|   Author/s  : WRF-Chem
|   Date      : Fri Jul 26 15:39:24 2024
|-------------------------------------------------------------------------|

 WRF-Chem temperature
#
 values of T (K)    (8f10.5)
#
 354.97500 345.04800 334.58700 324.11500 313.32600 302.53700 291.65000 280.76700
 269.93100 259.19300 248.62200 238.61700 229.08700 220.35500 212.54000 205.53500
 199.46400 194.49300 191.14300 189.19000 188.08900 188.01400 188.72400 189.90600
 191.46900 193.38200 195.40300 197.55600 199.80700 202.06000 204.28800 206.47900
 208.55200 210.37800 212.02500 213.65900 214.99800 216.11800 217.17200 218.25900
 219.49400 220.64500 221.67900 222.61400 223.54500 224.98200 226.57100 228.19000
 229.79700 231.81100 233.86500 235.97200 238.24200 240.55300 242.89900 245.25300
 247.48800 249.53500 251.36600 252.84800 254.09800 255.16700 256.02700 256.25300
 256.09500 255.54300 253.93500 252.56600 251.38400 250.24500 249.05200 247.70100
 246.01600 243.99600 241.78400 239.39300 236.81300 234.22300 231.65800 229.14400
 226.74000 224.47300 222.33500 220.32500 218.44000 216.67700 214.96200 213.47200
 212.20000 211.10800 210.26000 209.63900 209.24400 209.03100 209.05800 209.33300
 209.78400 210.62600 211.33100 212.39100 213.62500 214.84668 217.72949 219.47640
 220.32566 220.86828 220.88710 220.27371 219.43733 218.84250 219.04934 220.86203
 222.60583 225.72206 229.03064 232.61777 236.12270 239.51333 242.70767 245.68587
 248.41061 250.90679 253.19353 254.91714 256.48655 257.94920 259.39966 260.69384
 261.81714 262.77997 263.71679 264.54570 265.26305 265.89772 266.47676 267.00133
 267.47312 267.89325 268.26027 268.72800
 366.78100 356.33500 345.76700 334.63300 323.03600 311.23000 299.10000 286.90300
 274.61500 262.51200 250.52100 239.82200 229.94400 221.04800 213.23000 206.23200
 200.06600 195.00400 191.58600 189.62800 188.66500 188.72900 189.56400 190.87200
 192.59700 194.69200 196.95500 199.31400 201.75900 204.23900 206.32700 208.16900
 209.79500 210.94000 211.16900 211.39700 211.33400 211.03900 210.67200 210.30200
 209.91900 209.62900 209.43700 209.30100 209.22900 209.56000 209.94600 210.33500
 211.12800 212.30600 213.55600 215.33900 217.26700 219.31000 221.40500 223.48800
 225.54800 227.63200 229.72900 231.83500 233.96400 236.13600 238.39200 240.76200
 243.38300 245.63400 247.63600 249.40100 250.81800 251.94100 252.76300 253.07900
 253.11600 252.89000 252.25000 251.19800 249.80400 247.96500 245.87400 243.70700
 241.49800 239.30200 237.12200 234.96100 232.82100 230.68800 228.71400 226.87100
 225.15400 223.62600 222.25600 221.02800 219.91000 218.87000 217.97400 217.11500
 216.35700 215.53700 214.63500 213.99900 213.44900 212.85855 212.01316 212.61654
 214.26826 216.08686 218.14273 220.53346 223.40855 226.78828 231.49734 235.90155
 239.42278 243.28576 247.23140 251.11907 254.80144 258.23331 261.38913 264.27520
 266.89312 269.26852 271.44504 273.08845 274.58484 275.98591 277.39845 278.65879
 279.75272 280.69038 281.56708 282.34086 283.01050 283.60295 284.14348 284.63317
 285.07358 285.46577 285.80838 286.24500
 381.81900 372.39900 361.20600 349.77600 337.62200 324.85300 311.81000 298.35300
 284.86000 271.32400 258.56100 246.30400 236.08700 226.79600 218.44800 211.29000
 205.52200 200.89400 197.38100 194.84800 193.01500 192.31500 192.25000 192.43100
 192.91200 193.53700 194.13600 194.71200 195.26200 195.83100 196.39300 196.97600
 197.60400 198.14900 198.58400 199.05700 199.69500 200.37800 201.05400 201.70800
 202.31300 202.85700 203.35500 203.86200 204.56900 205.29700 206.02600 206.98700
 208.19300 209.44100 210.96900 212.57600 214.46200 216.51300 218.63000 220.85300
 223.34100 225.96200 228.73900 231.69700 234.70600 237.70600 240.69200 243.65700
 246.73700 249.69900 252.52100 255.06300 257.29000 259.23300 260.63300 261.68000
 262.46100 262.79800 262.69100 262.22400 261.06900 259.52500 257.70700 255.50700
 253.00100 250.30200 247.39800 244.45200 241.65400 239.05400 236.73300 234.59000
 232.59500 230.72500 228.83400 226.82600 224.66600 222.38700 220.10400 217.71500
 215.45900 213.06600 210.54600 208.09300 205.35400 202.08130 196.05959 200.71215
 209.01611 216.90438 223.84126 229.78593 235.00632 240.20838 245.98943 250.68668
 254.32982 257.93487 261.55666 264.96801 268.15192 271.06452 273.76717 276.25691
 278.57680 280.74479 282.77456 284.60533 286.27232 287.81705 289.31715 290.65561
 291.81734 292.81312 293.70701 294.49387 295.17482 295.77730 296.32696 296.82492
 297.27278 297.67160 298.02000 298.46400
 399.33000 389.90700 379.81300 368.66800 357.52200 345.30100 333.07400 320.22700
 307.21600 293.84800 280.37600 267.29600 254.61000 242.98700 232.15100 221.97700
 212.67200 204.28600 197.66900 192.82100 189.48600 187.45200 186.81400 187.08900
 187.78100 189.05400 190.64800 192.54200 194.63000 196.75200 198.67100 200.15800
 201.53500 202.48700 202.97500 203.34000 203.53900 203.49700 203.38500 203.24700
 203.00500 202.78600 202.60300 202.43700 202.42600 202.88800 203.42000 203.95100
 204.89500 205.99200 207.30100 208.95800 210.73800 213.10000 215.56400 218.18000
 220.96600 223.91800 226.96100 230.09200 233.29300 236.55700 239.95500 243.53700
 246.84500 249.39000 251.54200 253.47400 255.19500 256.48400 257.43100 258.05900
 258.21200 258.04000 257.58200 256.64300 255.23900 253.50700 251.40800 249.05600
 246.57600 243.99400 241.38900 238.83000 236.34400 233.98600 231.96900 230.11800
 228.42300 226.89900 225.54800 224.29700 223.10500 221.96500 220.95800 220.11300
 219.49000 218.92000 218.32500 217.88100 217.42300 216.96366 216.35568 216.80261
 217.73415 218.28582 218.64258 219.10077 220.44626 222.53987 226.38451 230.35736
 233.59734 237.39164 241.29814 245.22796 248.98002 252.51130 255.78595 258.80109
 261.54781 264.05210 266.34239 268.04198 269.58951 271.01303 272.35754 273.55718
 274.59842 275.49092 276.28989 276.99307 277.60161 278.14001 278.63122 279.07623
 279.47646 279.83287 280.14422 280.54100
 399.73800 389.78500 379.66200 368.15100 356.64100 344.35000 331.79200 318.88800
 305.72600 292.49300 279.20900 266.73800 254.69600 244.21100 234.45700 225.43300
 217.56900 210.45100 204.30000 199.30600 195.45800 192.57600 191.02700 190.38600
 190.23900 190.53400 191.16600 191.92500 192.79500 193.76600 194.73200 195.31200
 195.80000 196.05200 196.11500 196.11500 196.03900 195.72300 195.34000 194.98900
 194.75100 194.79200 195.13300 195.59800 196.50600 198.13600 199.85800 201.56600
 204.17900 206.82300 209.89300 213.28400 216.82800 220.60500 224.38700 228.20900
 232.03200 235.82500 239.56000 243.25800 246.84500 250.20100 253.70900 257.46800
 261.53000 264.22100 266.60100 268.68100 270.32900 271.74100 272.83600 273.47400
 273.89800 274.00200 273.75700 273.28800 272.37100 271.10000 269.58900 267.77900
 265.81600 263.72100 261.39300 258.91600 256.29800 253.42300 250.33100 247.11400
 243.83700 240.52900 237.24900 233.99900 230.72800 227.51500 224.25400 220.95200
 217.62700 213.65600 210.12100 206.78900 204.01000 201.99491 199.07309 198.76551
 199.40006 200.48994 201.46112 202.31912 203.45100 204.96110 207.47502 210.85391
 213.70530 217.29629 220.99574 224.72316 228.28753 231.64854 234.68024 237.40893
 239.70644 241.60899 243.46854 245.67368 247.68154 249.52395 251.24767 252.78566
 254.12057 255.26479 256.23740 257.09036 257.82852 258.48160 259.07744 259.61723
 260.10271 260.53504 260.91270 261.39400
 399.73800 389.78500 379.66200 368.15100 356.64100 344.35000 331.79200 318.88800
 305.72600 292.49300 279.20900 266.73800 254.69600 244.21100 234.45700 225.43300
 217.56900 210.45100 204.30000 199.30600 195.45800 192.57600 191.02700 190.38600
 190.23900 190.53400 191.16600 191.92500 192.79500 193.76600 194.73200 195.31200
 195.80000 196.05200 196.11500 196.11500 196.03900 195.72300 195.34000 194.98900
 194.75100 194.79200 195.13300 195.59800 196.50600 198.13600 199.85800 201.56600
 204.17900 206.82300 209.89300 213.28400 216.82800 220.60500 224.38700 228.20900
 232.03200 235.82500 239.56000 243.25800 246.84500 250.20100 253.70900 257.46800
 261.53000 264.22100 266.60100 268.68100 270.32900 271.74100 272.83600 273.47400
 273.89800 274.00200 273.75700 273.28800 272.37100 271.10000 269.58900 267.77900
 265.81600 263.72100 261.39300 258.91600 256.29800 253.42300 250.33100 247.11400
 243.83700 240.52900 237.24900 233.99900 230.72800 227.51500 224.25400 220.95200
 217.62700 213.65600 210.12100 206.78900 204.01000 201.99491 199.07309 198.76551
 199.40006 200.48994 201.46112 202.31912 203.45100 204.96110 207.47502 210.85391
 213.70530 217.29629 220.99574 224.72316 228.28753 231.64854 234.68024 237.40893
 239.70644 241.60899 243.46854 245.67368 247.68154 249.52395 251.24767 252.78566
 254.12057 255.26479 256.23740 257.09036 257.82852 258.48160 259.07744 259.61723
 260.10271 260.53504 260.91270 261.39400
 399.33000 389.90700 379.81300 368.66800 357.52200 345.30100 333.07400 320.22700
 307.21600 293.84800 280.37600 267.29600 254.61000 242.98700 232.15100 221.97700
 212.67200 204.28600 197.66900 192.82100 189.48600 187.45200 186.81400 187.08900
 187.78100 189.05400 190.64800 192.54200 194.63000 196.75200 198.67100 200.15800
 201.53500 202.48700 202.97500 203.34000 203.53900 203.49700 203.38500 203.24700
 203.00500 202.78600 202.60300 202.43700 202.42600 202.88800 203.42000 203.95100
 204.89500 205.99200 207.30100 208.95800 210.73800 213.10000 215.56400 218.18000
 220.96600 223.91800 226.96100 230.09200 233.29300 236.55700 239.95500 243.53700
 246.84500 249.39000 251.54200 253.47400 255.19500 256.48400 257.43100 258.05900
 258.21200 258.04000 257.58200 256.64300 255.23900 253.50700 251.40800 249.05600
 246.57600 243.99400 241.38900 238.83000 236.34400 233.98600 231.96900 230.11800
 228.42300 226.89900 225.54800 224.29700 223.10500 221.96500 220.95800 220.11300
 219.49000 218.92000 218.32500 217.88100 217.42300 216.96366 216.35568 216.80261
 217.73415 218.28582 218.64258 219.10077 220.44626 222.53987 226.38451 230.35736
 233.59734 237.39164 241.29814 245.22796 248.98002 252.51130 255.78595 258.80109
 261.54781 264.05210 266.34239 268.04198 269.58951 271.01303 272.35754 273.55718
 274.59842 275.49092 276.28989 276.99307 277.60161 278.14001 278.63122 279.07623
 279.47646 279.83287 280.14422 280.54100
 381.81900 372.39900 361.20600 349.77600 337.62200 324.85300 311.81000 298.35300
 284.86000 271.32400 258.56100 246.30400 236.08700 226.79600 218.44800 211.29000
 205.52200 200.89400 197.38100 194.84800 193.01500 192.31500 192.25000 192.43100
 192.91200 193.53700 194.13600 194.71200 195.26200 195.83100 196.39300 196.97600
 197.60400 198.14900 198.58400 199.05700 199.69500 200.37800 201.05400 201.70800
 202.31300 202.85700 203.35500 203.86200 204.56900 205.29700 206.02600 206.98700
 208.19300 209.44100 210.96900 212.57600 214.46200 216.51300 218.63000 220.85300
 223.34100 225.96200 228.73900 231.69700 234.70600 237.70600 240.69200 243.65700
 246.73700 249.69900 252.52100 255.06300 257.29000 259.23300 260.63300 261.68000
 262.46100 262.79800 262.69100 262.22400 261.06900 259.52500 257.70700 255.50700
 253.00100 250.30200 247.39800 244.45200 241.65400 239.05400 236.73300 234.59000
 232.59500 230.72500 228.83400 226.82600 224.66600 222.38700 220.10400 217.71500
 215.45900 213.06600 210.54600 208.09300 205.35400 202.08130 196.05959 200.71215
 209.01611 216.90438 223.84126 229.78593 235.00632 240.20838 245.98943 250.68668
 254.32982 257.93487 261.55666 264.96801 268.15192 271.06452 273.76717 276.25691
 278.57680 280.74479 282.77456 284.60533 286.27232 287.81705 289.31715 290.65561
 291.81734 292.81312 293.70701 294.49387 295.17482 295.77730 296.32696 296.82492
 297.27278 297.67160 298.02000 298.46400
 366.78100 356.33947 345.77595 334.64642 323.05389 311.25236 299.12684 286.93431
 274.65078 262.55226 250.56573 239.87120 229.99767 221.10615 213.29262 206.29909
 200.13757 195.08004 191.66651 189.71298 188.75446 188.82293 189.66240 190.97488
 192.70435 194.80382 197.07129 199.43477 201.88424 204.36871 206.46119 208.30766
 209.93813 211.08760 211.32108 211.55355 211.49502 211.20450 210.84197 210.47644
 210.09791 209.81239 209.62486 209.49333 209.42581 209.76128 210.15175 210.54522
 211.34270 212.52517 213.77964 215.56712 217.49959 219.54706 221.64653 223.73401
 225.79848 227.88695 229.98843 232.09890 234.23237 236.40884 238.66932 241.04379
 243.66926 245.92474 247.93121 249.70068 251.12215 252.24963 253.07610 253.39657
 253.43805 253.21652 252.58099 251.53346 250.14394 248.30941 246.22288 244.06036
 241.85583 239.66430 237.48877 235.33225 233.19672 231.06819 229.09867 227.26014
 225.54761 224.02408 222.65856 221.43503 220.32150 219.28598 218.39445 217.53992
 216.78639 215.97087 215.07334 214.44181 213.89629 213.00433 210.90384 210.01244
 210.31262 210.58572 211.89597 215.14462 219.46764 224.21533 229.92354 234.95145
 238.81758 242.81975 247.05986 251.22708 255.01692 258.63016 261.46948 263.61877
 266.34601 269.06192 271.59766 274.01862 276.07446 277.77289 279.18701 280.72040
 282.51346 284.24335 285.78308 287.14227 288.32056 289.36377 290.31458 291.17685
 291.95084 292.64084 293.24619 294.01785
 366.78100 356.33934 345.77569 334.64603 323.05337 311.25171 299.12606 286.93340
 274.64974 262.55109 250.56443 239.86977 229.99611 221.10446 213.29080 206.29714
 200.13549 195.07783 191.66417 189.71051 188.75186 188.82020 189.65954 190.97189
 192.70123 194.80057 197.06791 199.43126 201.88060 204.36494 206.45729 208.30363
 209.93397 211.08331 211.31666 211.54900 211.49034 211.19969 210.83703 210.47137
 210.09271 209.80706 209.61940 209.48774 209.42009 209.75543 210.14577 210.53911
 211.33646 212.51880 213.77314 215.56049 217.49283 219.54017 221.63951 223.72686
 225.79120 227.87954 229.98089 232.09123 234.22457 236.40091 238.66126 241.03560
 243.66094 245.91629 247.92263 249.69197 251.11331 252.24066 253.06700 253.38734
 253.42869 253.20703 252.57137 251.52371 250.13406 248.29940 246.21274 244.05009
 241.84543 239.65377 237.47811 235.32146 233.18580 231.05714 229.08749 227.24883
 225.53617 224.01251 222.64686 221.42320 220.30954 219.27389 218.38223 217.52757
 216.77391 215.95826 215.06060 214.42894 213.88329 213.02361 210.99863 210.12355
 210.30896 210.63818 211.94063 215.08261 219.38942 224.14613 229.83121 234.85457
 238.71724 242.71794 246.97116 251.15210 254.94881 258.58789 261.45245 263.61279
 266.34579 269.05161 271.55862 273.94128 276.00217 277.73169 279.14822 280.66891
 282.44672 284.15149 285.68457 287.04297 288.22141 289.26559 290.21725 291.07953
 291.85388 292.54547 293.15002 293.92935
 366.78100 356.33912 345.77524 334.64537 323.05249 311.25061 299.12473 286.93186
 274.64798 262.54910 250.56222 239.86734 229.99347 221.10159 213.28771 206.29383
 200.13196 195.07408 191.66020 189.70632 188.74744 188.81557 189.65469 190.96681
 192.69593 194.79506 197.06218 199.42530 201.87442 204.35854 206.45067 208.29679
 209.92691 211.07603 211.30916 211.54128 211.48240 211.19152 210.82864 210.46277
 210.08389 209.79801 209.61013 209.47826 209.41038 209.74550 210.13562 210.52874
 211.32587 212.50799 213.76211 215.54923 217.48136 219.52848 221.62760 223.71472
 225.77884 227.86697 229.96809 232.07821 234.21133 236.38746 238.64758 241.02170
 243.64682 245.90194 247.90807 249.67719 251.09831 252.22543 253.05155 253.37168
 253.41280 253.19092 252.55504 251.50717 250.11729 248.28241 246.19553 244.03265
 241.82778 239.63590 237.46002 235.30314 233.16727 231.03839 229.06851 227.22963
 225.51675 223.99288 222.62700 221.40312 220.28924 219.25337 218.36149 217.50661
 216.75273 215.93685 215.03898 214.40710 213.86122 213.03754 211.09669 210.22647
 210.32413 210.68282 211.98524 215.03610 219.29355 224.06706 229.74742 234.76703
 238.62413 242.62079 246.88332 251.07536 254.87849 258.54102 261.42795 263.60120
 266.34201 269.03989 271.51917 273.86435 275.93359 277.69443 279.11505 280.62180
 282.38287 284.06354 285.58792 286.94696 288.12579 289.16971 290.12289 290.98557
 291.76126 292.45291 293.05820 293.84265
 366.78100 356.33886 345.77471 334.64457 323.05143 311.24928 299.12314 286.92999
 274.64585 262.54671 250.55956 239.86442 229.99028 221.09813 213.28399 206.28984
 200.12770 195.06956 191.65541 189.70127 188.74213 188.80998 189.64884 190.96069
 192.68955 194.78841 197.05526 199.41812 201.86698 204.35083 206.44269 208.28854
 209.91840 211.06726 211.30011 211.53197 211.47283 211.18168 210.81854 210.45239
 210.07325 209.78711 209.59896 209.46682 209.39868 209.73353 210.12339 210.51624
 211.31310 212.49496 213.74881 215.53567 217.46753 219.51438 221.61324 223.70009
 225.76395 227.85181 229.95266 232.06252 234.19538 236.37123 238.63109 241.00494
 243.62980 245.88466 247.89051 249.65937 251.08023 252.20708 253.03294 253.35279
 253.39365 253.17151 252.53536 251.48722 250.09708 248.26193 246.17479 244.01164
 241.80650 239.61436 237.43821 235.28107 233.14493 231.01578 229.04564 227.20649
 225.49335 223.96921 222.60306 221.37892 220.26478 219.22863 218.33649 217.48134
 216.72720 215.91106 215.01291 214.38077 213.83463 213.04817 211.19440 210.32503
 210.35315 210.72763 212.02000 215.00018 219.19365 223.98210 229.67070 234.68495
 238.53391 242.52400 246.79414 250.99544 254.80650 258.49152 261.39902 263.58600
 266.33514 269.02576 271.47873 273.78839 275.86700 277.66101 279.08658 280.57874
 282.32330 283.98111 285.49661 286.85455 288.03427 289.07968 290.03204 290.89496
 291.67346 292.36368 292.97186 293.75827
 366.78100 356.33864 345.77428 334.64392 323.05056 311.24820 299.12184 286.92847
 274.64411 262.54475 250.55739 239.86203 229.98767 221.09531 213.28095 206.28659
 200.12423 195.06587 191.65151 189.69715 188.73779 188.80542 189.64406 190.95570
 192.68434 194.78298 197.04962 199.41226 201.86090 204.34454 206.43618 208.28182
 209.91146 211.06010 211.29274 211.52437 211.46501 211.17365 210.81029 210.44393
 210.06457 209.77821 209.58985 209.45749 209.38913 209.72377 210.11341 210.50605
 211.30269 212.48432 213.73796 215.52460 217.45624 219.50288 221.60152 223.68816
 225.75180 227.83944 229.94008 232.04972 234.18236 236.35800 238.61763 240.99127
 243.61591 245.87055 247.87619 249.64483 251.06547 252.19211 253.01775 253.33739
 253.37803 253.15567 252.51931 251.47095 250.08058 248.24522 246.15786 243.99450
 241.78914 239.59678 237.42042 235.26306 233.12670 230.99734 229.02698 227.18762
 225.47426 223.94990 222.58353 221.35917 220.24481 219.20845 218.31609 217.46073
 216.70637 215.89001 214.99165 214.35929 213.81293 213.06013 211.28519 210.42406
 210.39426 210.77341 212.04608 214.97214 219.09602 223.89221 229.59659 234.60242
 238.44160 242.42677 246.70461 250.91618 254.73648 258.44168 261.36569 263.56479
 266.32306 269.00705 271.43649 273.71317 275.80289 277.63126 279.06213 280.54349
 282.26801 283.90530 285.41077 286.76971 287.94916 288.99380 289.94788 290.81235
 291.59009 292.28253 292.89093 293.67889
 366.78100 356.33856 345.77411 334.64367 323.05023 311.24778 299.12134 286.92790
 274.64346 262.54401 250.55657 239.86113 229.98668 221.09424 213.27980 206.28535
 200.12291 195.06447 191.65002 189.69558 188.73614 188.80369 189.64225 190.95381
 192.68237 194.78092 197.04748 199.41004 201.85859 204.34215 206.43371 208.27926
 209.90882 211.05738 211.28993 211.52149 211.46205 211.17060 210.80716 210.44072
 210.06127 209.77483 209.58639 209.45395 209.38550 209.72006 210.10962 210.50217
 211.29873 212.48029 213.73384 215.52040 217.45196 219.49851 221.59707 223.68363
 225.74719 227.83474 229.93530 232.04486 234.17741 236.35297 238.61253 240.98608
 243.61064 245.86520 247.87075 249.63931 251.05987 252.18642 253.01198 253.33154
 253.37210 253.14965 252.51321 251.46477 250.07432 248.23888 246.15144 243.98799
 241.78255 239.59011 237.41366 235.25622 233.11978 230.99033 229.01989 227.18045
 225.46700 223.94256 222.57612 221.35168 220.23723 219.20079 218.30835 217.45290
 216.69846 215.88202 214.98357 214.35113 213.80469 213.07784 211.36382 210.53224
 210.44255 210.82037 212.06868 214.94786 218.99985 223.79848 229.52260 234.51733
 238.34802 242.33067 246.61646 250.83833 254.66879 258.39081 261.32764 263.53683
 266.30524 268.98383 271.39261 273.64105 275.74081 277.60278 279.04288 280.51401
 282.21954 283.83762 285.33401 286.69315 287.87173 288.91852 289.87268 290.73730
 291.51578 292.20892 292.81702 293.61462
 366.78100 356.33849 345.77398 334.64346 323.04995 311.24744 299.12093 286.92741
 274.64290 262.54339 250.55588 239.86036 229.98585 221.09334 213.27883 206.28431
 200.12180 195.06329 191.64878 189.69426 188.73475 188.80224 189.64073 190.95221
 192.68070 194.77919 197.04568 199.40817 201.85665 204.34014 206.43163 208.27712
 209.90660 211.05509 211.28758 211.51907 211.45955 211.16804 210.80453 210.43802
 210.05850 209.77199 209.58348 209.45097 209.38245 209.71694 210.10643 210.49892
 211.29540 212.47689 213.73038 215.51687 217.44836 219.49484 221.59333 223.67982
 225.74331 227.83079 229.93128 232.04077 234.17326 236.34874 238.60823 240.98172
 243.60621 245.86069 247.86618 249.63467 251.05516 252.18164 253.00713 253.32662
 253.36711 253.14459 252.50808 251.45957 250.06906 248.23355 246.14603 243.98252
 241.77701 239.58450 237.40798 235.25047 233.11396 230.98445 229.01393 227.17442
 225.46091 223.93640 222.56988 221.34537 220.23086 219.19435 218.30183 217.44632
 216.69181 215.87530 214.97678 214.34427 213.79776 213.09489 211.43735 210.64612
 210.50047 210.86473 212.08968 214.92418 218.90633 223.70113 229.44873 234.42899
 238.25356 242.23468 246.52821 250.76086 254.60400 258.34061 261.28595 263.50418
 266.28204 268.95694 271.34686 273.57001 275.68036 277.57535 279.02670 280.48917
 282.17679 283.77820 285.26694 286.62543 287.80573 288.84958 289.80411 290.66931
 291.44907 292.14182 292.75528 293.55008
 366.78100 356.33849 345.77398 334.64347 323.04996 311.24745 299.12094 286.92743
 274.64292 262.54341 250.55590 239.86039 229.98588 221.09337 213.27886 206.28436
 200.12185 195.06334 191.64883 189.69432 188.73481 188.80230 189.64079 190.95228
 192.68077 194.77926 197.04575 199.40824 201.85673 204.34022 206.43171 208.27720
 209.90669 211.05518 211.28767 211.51916 211.45965 211.16814 210.80463 210.43812
 210.05861 209.77210 209.58359 209.45108 209.38258 209.71707 210.10656 210.49905
 211.29554 212.47703 213.73052 215.51701 217.44850 219.49499 221.59348 223.67997
 225.74346 227.83095 229.93144 232.04093 234.17342 236.34891 238.60840 240.98189
 243.60638 245.86087 247.86636 249.63485 251.05534 252.18183 253.00732 253.32681
 253.36730 253.14480 252.50829 251.45978 250.06927 248.23376 246.14625 243.98274
 241.77723 239.58472 237.40821 235.25070 233.11419 230.98468 229.01417 227.17466
 225.46115 223.93664 222.57013 221.34562 220.23111 219.19460 218.30209 217.44658
 216.69207 215.87556 214.97705 214.34454 213.79803 213.11400 211.50092 210.76952
 210.56546 210.91069 212.10059 214.90102 218.82330 223.59946 229.37389 234.33751
 238.15688 242.13960 246.44037 250.68365 254.54205 258.29059 261.24066 263.46442
 266.25323 268.92575 271.29959 273.49979 275.62247 277.54880 279.01376 280.47079
 282.14108 283.72696 285.20804 286.56577 287.74567 288.79126 289.74628 290.61163
 291.39169 292.08447 292.69653 293.49658
 366.78100 356.33877 345.77455 334.64432 323.05110 311.24887 299.12264 286.92942
 274.64519 262.54597 250.55874 239.86351 229.98929 221.09706 213.28284 206.28861
 200.12638 195.06816 191.65393 189.69971 188.74048 188.80825 189.64703 190.95880
 192.68758 194.78635 197.05312 199.41590 201.86467 204.34845 206.44022 208.28599
 209.91577 211.06454 211.29732 211.52909 211.46986 211.17864 210.81541 210.44919
 210.06996 209.78373 209.59551 209.46328 209.39506 209.72983 210.11960 210.51238
 211.30915 212.49093 213.74470 215.53147 217.46325 219.51002 221.60880 223.69557
 225.75934 227.84712 229.94789 232.05767 234.19044 236.36621 238.62599 240.99976
 243.62454 245.87931 247.88508 249.65386 251.07463 252.20141 253.02718 253.34695
 253.38773 253.16550 252.52928 251.48105 250.09082 248.25560 246.16837 244.00515
 241.79992 239.60769 237.43147 235.27424 233.13802 231.00879 229.03856 227.19934
 225.48611 223.96189 222.59566 221.37143 220.25721 219.22098 218.32876 217.47353
 216.71930 215.90308 215.00485 214.37263 213.82640 213.14684 211.54460 210.89772
 210.65392 210.95184 212.11575 214.87756 218.73347 223.49225 229.29657 234.24440
 238.06027 242.04483 246.35117 250.60378 254.48016 258.23947 261.19125 263.42001
 266.22073 268.89279 271.25269 273.43246 275.56857 277.52563 279.00626 280.45996
 282.11102 283.68250 285.15524 286.51361 287.69388 288.73920 289.69498 290.56052
 291.33954 292.03571 292.64685 293.44855
 366.78100 356.33895 345.77489 334.64484 323.05179 311.24973 299.12368 286.93063
 274.64657 262.54752 250.56046 239.86541 229.99136 221.09930 213.28525 206.29120
 200.12914 195.07109 191.65704 189.70298 188.74393 188.81188 189.65082 190.96277
 192.69171 194.79066 197.05761 199.42055 201.86950 204.35345 206.44539 208.29134
 209.92129 211.07023 211.30318 211.53513 211.47607 211.18502 210.82196 210.45591
 210.07686 209.79080 209.60275 209.47070 209.40264 209.73759 210.12754 210.52048
 211.31743 212.49938 213.75332 215.54027 217.47221 219.51916 221.61811 223.70505
 225.76900 227.85695 229.95789 232.06784 234.20079 236.37673 238.63668 241.01063
 243.63557 245.89052 247.89646 249.66541 251.08636 252.21330 253.03925 253.35920
 253.40014 253.17809 252.54204 251.49398 250.10393 248.26888 246.18182 244.01877
 241.81371 239.62166 237.44561 235.28855 233.15250 231.02345 229.05339 227.21434
 225.50129 223.97723 222.61118 221.38713 220.27307 219.23702 218.34496 217.48991
 216.73586 215.91980 215.02175 214.38970 213.84364 213.17360 211.59383 211.00311
 210.77638 210.99971 212.12099 214.86227 218.63860 223.37883 229.21677 234.14532
 237.95746 241.94531 246.25786 250.52101 254.42023 258.19153 261.14661 263.37750
 266.18845 268.85849 271.20483 273.36636 275.51288 277.49899 278.99667 280.44968
 282.08536 283.64444 285.10867 286.46756 287.64774 288.69272 289.64941 290.51416
 291.29471 291.99106 292.60297 293.40540
 366.78100 356.33944 345.77588 334.64633 323.05377 311.25221 299.12665 286.93410
 274.65054 262.55198 250.56542 239.87086 229.99731 221.10575 213.29219 206.29863
 200.13708 195.07952 191.66596 189.71240 188.75384 188.82229 189.66173 190.97417
 192.70361 194.80305 197.07050 199.43394 201.88338 204.36782 206.46027 208.30671
 209.93715 211.08659 211.32003 211.55248 211.49392 211.20336 210.84080 210.47525
 210.09669 209.81113 209.62357 209.49201 209.42446 209.75990 210.15034 210.54378
 211.34123 212.52367 213.77811 215.56555 217.49799 219.54544 221.64488 223.73232
 225.79676 227.88520 229.98665 232.09709 234.23053 236.40697 238.66742 241.04186
 243.66730 245.92274 247.92918 249.69863 251.12007 252.24751 253.07395 253.39440
 253.43584 253.21428 252.57872 251.53116 250.14161 248.30705 246.22049 244.05793
 241.85338 239.66182 237.48626 235.32970 233.19414 231.06559 229.09603 227.25747
 225.54491 224.02135 222.65580 221.43224 220.31868 219.28312 218.39157 217.53701
 216.78345 215.96789 215.07033 214.43878 213.89322 213.21535 211.61745 211.12743
 210.89626 211.07530 212.13191 214.82196 218.53569 223.26302 229.12941 234.03922
 237.85173 241.84789 246.16940 250.44717 254.37167 258.15482 261.11111 263.33716
 266.15140 268.81824 271.14908 273.29333 275.45248 277.46512 278.98090 280.43729
 282.06274 283.60931 285.06918 286.42673 287.60715 288.65131 289.60767 290.47430
 291.25565 291.95212 292.56339 293.36929
 366.78100 356.34114 345.77928 334.65142 323.06056 311.26069 299.13683 286.94597
 274.66411 262.56725 250.58239 239.88953 230.01767 221.12780 213.31594 206.32408
 200.16422 195.10836 191.69650 189.74464 188.78778 188.85792 189.69905 191.01319
 192.74433 194.84547 197.11461 199.47975 201.93089 204.41703 206.51116 208.35930
 209.99144 211.14258 211.37772 211.61186 211.55500 211.26614 210.90527 210.54141
 210.16455 209.88069 209.69483 209.56497 209.49911 209.83625 210.22839 210.62352
 211.42266 212.60680 213.86294 215.65208 217.58622 219.63536 221.73650 223.82563
 225.89177 227.98191 230.08505 232.19719 234.33233 236.51047 238.77261 241.14875
 243.77588 246.03302 248.04116 249.81230 251.23544 252.36458 253.19272 253.51486
 253.55799 253.33813 252.70427 251.65841 250.27055 248.43769 246.35283 244.19197
 241.98911 239.79924 237.62538 235.47052 233.33666 231.20980 229.24194 227.40508
 225.69422 224.17235 222.80849 221.58663 220.47477 219.44091 218.55105 217.69819
 216.94633 216.13247 215.23660 214.60674 214.06288 213.31909 211.56654 211.25111
 211.13814 211.16083 212.05304 214.74103 218.41286 223.13544 229.04221 233.94762
 237.76781 241.77173 246.09711 250.38641 254.33081 258.11896 261.06592 263.28360
 266.10147 268.76587 271.08392 273.21741 275.39142 277.43082 278.96591 280.42889
 282.04309 283.57950 285.03244 286.39160 287.57236 288.61618 289.57092 290.43866
 291.21948 291.91620 292.52936 293.33542
 366.78100 356.34186 345.78073 334.65359 323.06346 311.26432 299.14119 286.95105
 274.66992 262.57378 250.58965 239.89751 230.02638 221.13724 213.32611 206.33497
 200.17584 195.12070 191.70957 189.75843 188.80230 188.87316 189.71503 191.02989
 192.76176 194.86362 197.13349 199.49935 201.95122 204.43808 206.53294 208.38181
 210.01467 211.16654 211.40240 211.63727 211.58113 211.29300 210.93286 210.56973
 210.19359 209.91046 209.72532 209.59619 209.53105 209.86892 210.26178 210.65765
 211.45751 212.64238 213.89924 215.68911 217.62397 219.67384 221.77570 223.86557
 225.93243 228.02330 230.12716 232.24002 234.37589 236.55475 238.81762 241.19448
 243.82235 246.08021 248.08908 249.86094 251.28481 252.41467 253.24354 253.56640
 253.61027 253.39113 252.75800 251.71286 250.32573 248.49359 246.40946 244.24932
 242.04719 239.85805 237.68492 235.53078 233.39765 231.27151 229.30438 227.46824
 225.75810 224.23697 222.87383 221.65270 220.54156 219.50843 218.61929 217.76716
 217.01602 216.20289 215.30775 214.67862 214.13548 213.37666 211.58824 211.29607
 211.30162 211.28238 212.10416 214.63727 218.23648 223.03143 228.98273 233.88782
 237.70976 241.71017 246.02852 250.32225 254.28316 258.06744 260.99670 263.21304
 266.04166 268.70859 271.02075 273.14783 275.33783 277.40530 278.96262 280.43152
 282.03140 283.55542 284.99951 286.35995 287.53928 288.58469 289.53854 290.40552
 291.18723 291.88477 292.49811 293.30527
 366.78100 356.34181 345.78061 334.65342 323.06323 311.26404 299.14084 286.95065
 274.66946 262.57327 250.58907 239.89688 230.02569 221.13649 213.32530 206.33411
 200.17492 195.11972 191.70853 189.75734 188.80115 188.87195 189.71376 191.02857
 192.76038 194.86218 197.13199 199.49780 201.94960 204.43641 206.53122 208.38003
 210.01283 211.16464 211.40045 211.63526 211.57906 211.29087 210.93068 210.56748
 210.19129 209.90810 209.72291 209.59371 209.52852 209.86633 210.25914 210.65494
 211.45475 212.63956 213.89637 215.68617 217.62098 219.67079 221.77259 223.86240
 225.92921 228.02002 230.12382 232.23663 234.37244 236.55125 238.81405 241.19086
 243.81867 246.07647 248.08528 249.85709 251.28090 252.41070 253.23951 253.56232
 253.60613 253.38693 252.75374 251.70855 250.32135 248.48916 246.40497 244.24478
 242.04258 239.85339 237.68020 235.52601 233.39281 231.26662 229.29943 227.46324
 225.75304 224.23185 222.86866 221.64746 220.53627 219.50308 218.61389 217.76169
 217.01050 216.19731 215.30212 214.67292 214.12973 213.39441 211.66061 211.31676
 211.41917 211.37044 212.14616 214.58801 218.13364 222.94696 228.94847 233.83926
 237.64807 241.64009 245.94905 250.24458 254.22517 258.00397 260.91641 263.13757
 265.98209 268.65454 270.96387 273.08548 275.29099 277.38528 278.96735 280.44003
 282.02463 283.53644 284.97076 286.33014 287.50934 288.55499 289.50925 290.37531
 291.15775 291.85614 292.46738 293.27838
 366.78100 356.34206 345.78111 334.65417 323.06423 311.26529 299.14234 286.95240
 274.67146 262.57551 250.59157 239.89963 230.02869 221.13974 213.32880 206.33786
 200.17891 195.12397 191.71303 189.76208 188.80614 188.87720 189.71926 191.03431
 192.76637 194.86843 197.13848 199.50454 201.95660 204.44366 206.53871 208.38777
 210.02083 211.17288 211.40894 211.64400 211.58806 211.30011 210.94017 210.57723
 210.20128 209.91834 209.73340 209.60445 209.53951 209.87757 210.27063 210.66668
 211.46674 212.65180 213.90885 215.69891 217.63397 219.68403 221.78608 223.87614
 225.94320 228.03425 230.13831 232.25137 234.38743 236.56648 238.82954 241.20660
 243.83465 246.09271 248.10177 249.87382 251.29788 252.42794 253.25700 253.58005
 253.62411 253.40517 252.77222 251.72728 250.34034 248.50840 246.42445 244.26451
 242.06257 239.87362 237.70068 235.54674 233.41380 231.28785 229.32091 227.48497
 225.77502 224.25408 222.89114 221.67020 220.55925 219.52631 218.63737 217.78542
 217.03448 216.22154 215.32659 214.69765 214.15471 213.42696 211.71049 211.35204
 211.54041 211.45192 212.15703 214.57262 218.08636 222.86896 228.90645 233.77356
 237.56746 241.55461 245.85919 250.16049 254.16451 257.94028 260.84076 263.06729
 265.92584 268.60236 270.90649 273.02527 275.24408 277.36212 278.96732 280.44550
 282.01740 283.51761 284.94263 286.30276 287.48209 288.52695 289.48117 290.34897
 291.13058 291.82858 292.44363 293.25180
 366.78100 356.34270 345.78241 334.65611 323.06681 311.26852 299.14622 286.95692
 274.67663 262.58133 250.59803 239.90674 230.03644 221.14814 213.33785 206.34755
 200.18926 195.13496 191.72466 189.77437 188.81907 188.89077 189.73348 191.04918
 192.78188 194.88459 197.15529 199.52199 201.97470 204.46240 206.55810 208.40781
 210.04151 211.19421 211.43092 211.66662 211.61132 211.32403 210.96473 210.60243
 210.22714 209.94484 209.76054 209.63225 209.56795 209.90666 210.30036 210.69706
 211.49777 212.68347 213.94117 215.73188 217.66758 219.71828 221.82099 223.91169
 225.97939 228.07110 230.17580 232.28950 234.42621 236.60591 238.86961 241.24732
 243.87602 246.13472 248.14443 249.91713 251.34183 252.47254 253.30224 253.62595
 253.67065 253.45235 252.82006 251.77576 250.38946 248.55817 246.47487 244.31557
 242.11428 239.92598 237.75368 235.60039 233.46809 231.34279 229.37650 227.54120
 225.83190 224.31161 222.94931 221.72901 220.61872 219.58642 218.69812 217.84683
 217.09653 216.28423 215.38994 214.76164 214.21935 213.47855 211.73094 211.40230
 211.65723 211.53568 212.18599 214.57121 218.03365 222.79881 228.85104 233.69574
 237.47861 241.46634 245.77013 250.08000 254.10832 257.88031 260.77069 263.00073
 265.86932 268.54611 270.84662 272.96259 275.19348 277.33377 278.96103 280.44733
 282.00812 283.49854 284.91571 286.27701 287.45599 288.50085 289.45520 290.32077
 291.10507 291.80496 292.41763 293.22568
 366.78100 356.34345 345.78389 334.65834 323.06979 311.27223 299.15068 286.96213
 274.68257 262.58802 250.60547 239.91491 230.04536 221.15781 213.34825 206.35870
 200.20114 195.14759 191.73804 189.78848 188.83393 188.90638 189.74982 191.06627
 192.79972 194.90316 197.17461 199.54206 201.99550 204.48395 206.58040 208.43084
 210.06529 211.21874 211.45618 211.69263 211.63808 211.35152 210.99297 210.63142
 210.25686 209.97531 209.79176 209.66420 209.60065 209.94009 210.33454 210.73199
 211.53343 212.71988 213.97833 215.76977 217.70622 219.75767 221.86111 223.95256
 226.02101 228.11345 230.21890 232.33335 234.47079 236.65124 238.91569 241.29413
 243.92358 246.18303 248.19347 249.96692 251.39237 252.52381 253.35426 253.67871
 253.72415 253.50660 252.87504 251.83149 250.44594 248.61538 246.53283 244.37428
 242.17372 239.98617 237.81462 235.66206 233.53051 231.40596 229.44040 227.60585
 225.89730 224.37774 223.01619 221.79664 220.68708 219.65553 218.76798 217.91742
 217.16787 216.35632 215.46276 214.83521 214.29366 213.53426 211.74237 211.45580
 211.76038 211.62260 212.24237 214.57205 217.96573 222.74034 228.79277 233.61571
 237.39012 241.37901 245.68306 250.00270 254.05440 257.82037 260.69974 262.93396
 265.80969 268.48486 270.78076 272.89764 275.14316 277.30258 278.95065 280.44724
 281.99872 283.47711 284.89008 286.25082 287.43024 288.47461 289.42944 290.29602
 291.07867 291.77823 292.39255 293.20248
 366.78100 356.34419 345.78539 334.66058 323.07278 311.27597 299.15516 286.96736
 274.68855 262.59475 250.61294 239.92313 230.05433 221.16752 213.35872 206.36991
 200.21311 195.16030 191.75149 189.80269 188.84888 188.92208 189.76627 191.08346
 192.81766 194.92185 197.19405 199.56224 202.01643 204.50563 206.60282 208.45402
 210.08921 211.24340 211.48160 211.71879 211.66499 211.37918 211.02138 210.66057
 210.28676 210.00596 209.82315 209.69635 209.63354 209.97373 210.36893 210.76712
 211.56932 212.75651 214.01570 215.80790 217.74509 219.79729 221.90148 223.99367
 226.06287 228.15606 230.26226 232.37745 234.51564 236.69684 238.96203 241.34123
 243.97142 246.23162 248.24281 250.01700 251.44320 252.57539 253.40659 253.73178
 253.77797 253.56117 252.93036 251.88756 250.50275 248.67294 246.59114 244.43333
 242.23353 240.04672 237.87591 235.72411 233.59330 231.46950 229.50469 227.67089
 225.96308 224.44427 223.08347 221.86466 220.75586 219.72505 218.83824 217.98844
 217.23963 216.42883 215.53602 214.90921 214.36841 213.59004 211.75299 211.50772
 211.85088 211.72058 212.31067 214.56761 217.90358 222.69038 228.73480 233.53319
 237.30176 241.29233 245.59764 249.92790 254.00153 257.75812 260.62585 262.86630
 265.74692 268.42029 270.71243 272.83255 275.09299 277.27087 278.93912 280.44562
 281.98886 283.45746 284.86365 286.22568 287.40372 288.44687 289.40341 290.26923
 291.05179 291.75153 292.36606 293.17679
 366.78100 356.34499 345.78698 334.66297 323.07596 311.27995 299.15994 286.97293
 274.69492 262.60191 250.62090 239.93188 230.06387 221.17786 213.36985 206.38184
 200.22583 195.17382 191.76581 189.81780 188.86479 188.93878 189.78377 191.10176
 192.83675 194.94174 197.21473 199.58372 202.03871 204.52870 206.62669 208.47868
 210.11466 211.26965 211.50864 211.74663 211.69362 211.40861 211.05160 210.69159
 210.31858 210.03857 209.85656 209.73055 209.66854 210.00953 210.40552 210.80451
 211.60750 212.79549 214.05548 215.84847 217.78646 219.83944 221.94443 224.03742
 226.10741 228.20140 230.30839 232.42438 234.56337 236.74536 239.01135 241.39134
 244.02233 246.28332 248.29531 250.07030 251.49729 252.63028 253.46227 253.78826
 253.83525 253.61924 252.98922 251.94721 250.56320 248.73419 246.65318 244.49617
 242.29716 240.11115 237.94114 235.79013 233.66012 231.53711 229.57310 227.74009
 226.03308 224.51507 223.15506 221.93705 220.82904 219.79903 218.91302 218.06400
 217.31599 216.50598 215.61397 214.98796 214.44795 213.64745 211.75761 211.55829
 211.92873 211.83060 212.38710 214.56006 217.84908 222.64479 228.67831 233.45076
 237.21375 241.20653 245.51392 249.85596 253.94887 257.69287 260.54916 262.79895
 265.68289 268.35236 270.64194 272.76770 275.04218 277.23590 278.92532 280.44061
 281.97580 283.43396 284.83575 286.19733 287.37640 288.41992 289.37427 290.24146
 291.02344 291.72372 292.33810 293.14972
 366.78100 356.34584 345.78868 334.66552 323.07936 311.28419 299.16503 286.97887
 274.70171 262.60955 250.62939 239.94123 230.07407 221.18891 213.38175 206.39458
 200.23942 195.18826 191.78110 189.83394 188.88178 188.95662 189.80246 191.12130
 192.85714 194.96297 197.23681 199.60665 202.06249 204.55333 206.65217 208.50501
 210.14185 211.29769 211.53753 211.77636 211.72420 211.44004 211.08388 210.72472
 210.35256 210.07340 209.89224 209.76708 209.70592 210.04775 210.44459 210.84443
 211.64827 212.83711 214.09795 215.89179 217.83063 219.88447 221.99030 224.08414
 226.15498 228.24982 230.35766 232.47450 234.61434 236.79718 239.06402 241.44486
 244.07669 246.33853 248.35137 250.12721 251.55505 252.68889 253.52173 253.84857
 253.89641 253.68125 253.05208 252.01092 250.62776 248.79960 246.71944 244.56328
 242.36512 240.17996 238.01080 235.86064 233.73147 231.60931 229.64615 227.81399
 226.10783 224.59067 223.23151 222.01435 220.90719 219.87803 218.99286 218.14470
 217.39754 216.58838 215.69722 215.07206 214.53290 213.70714 211.75714 211.60541
 212.00313 211.94508 212.46973 214.55420 217.80717 222.60121 228.61934 233.36842
 237.12663 241.12251 245.43269 249.78697 253.89610 257.62396 260.47043 262.73254
 265.61755 268.28159 270.56924 272.70340 274.99060 277.19949 278.90753 280.43347
 281.95920 283.40753 284.80551 286.16678 287.34543 288.38943 289.34302 290.21021
 290.99258 291.69370 292.30701 293.11737
 366.78100 356.34668 345.79035 334.66803 323.08270 311.28838 299.17006 286.98473
 274.70841 262.61709 250.63776 239.95044 230.08411 221.19979 213.39347 206.40714
 200.25282 195.20250 191.79617 189.84985 188.89852 188.97420 189.82088 191.14055
 192.87723 194.98391 197.25858 199.62926 202.08593 204.57761 206.67729 208.53096
 210.16864 211.32532 211.56599 211.80567 211.75434 211.47102 211.11570 210.75737
 210.38605 210.10773 209.92740 209.80308 209.74275 210.08543 210.48311 210.88378
 211.68846 212.87814 214.13981 215.93449 217.87416 219.92884 222.03552 224.13019
 226.20187 228.29755 230.40622 232.52390 234.66457 236.84825 239.11593 241.49760
 244.13028 246.39295 248.40663 250.18331 251.61198 252.74666 253.58034 253.90801
 253.95669 253.74236 253.11404 252.07372 250.69139 248.86407 246.78475 244.62942
 242.43210 240.24777 238.07945 235.93013 233.80180 231.68048 229.71816 227.88683
 226.18151 224.66518 223.30686 222.09054 220.98421 219.95589 219.07157 218.22424
 217.47792 216.66959 215.77927 215.15495 214.61662 213.76584 211.75616 211.64442
 212.08244 212.06076 212.54915 214.55386 217.78154 222.55771 228.55679 233.28557
 237.04079 241.03868 245.35378 249.72166 253.84497 257.55386 260.39145 262.66971
 265.55145 268.20621 270.49310 272.63739 274.93805 277.16055 278.88776 280.42480
 281.94101 283.37997 284.77377 286.13525 287.31247 288.35690 289.31039 290.17709
 290.95963 291.65942 292.27429 293.08435
 366.78100 356.34757 345.79213 334.67070 323.08627 311.29284 299.17540 286.99097
 274.71554 262.62510 250.64667 239.96024 230.09481 221.21137 213.40594 206.42051
 200.26708 195.21764 191.81221 189.86678 188.91634 188.99291 189.84048 191.16105
 192.89861 195.00618 197.28175 199.65331 202.11088 204.60345 206.70402 208.55858
 210.19715 211.35472 211.59628 211.83685 211.78642 211.50399 211.14955 210.79212
 210.42169 210.14425 209.96482 209.84139 209.78196 210.12552 210.52409 210.92566
 211.73123 212.92179 214.18436 215.97993 217.92049 219.97606 222.08363 224.17920
 226.25176 228.34833 230.45790 232.57646 234.71803 236.90260 239.17117 241.55373
 244.18730 246.45087 248.46543 250.24300 251.67257 252.80814 253.64270 253.97127
 254.02084 253.80740 253.17997 252.14054 250.75911 248.93267 246.85424 244.69981
 242.50338 240.31994 238.15251 236.00408 233.87664 231.75621 229.79478 227.96435
 226.25991 224.74448 223.38705 222.17161 221.06618 220.03875 219.15532 218.30888
 217.56345 216.75602 215.86658 215.24315 214.70572 213.82663 211.74966 211.68277
 212.16647 212.16995 212.62804 214.55859 217.75710 222.50691 228.49388 233.20990
 236.96220 240.96057 245.28038 249.66295 253.79671 257.48267 260.31183 262.60913
 265.48337 268.12466 270.40994 272.56763 274.88431 277.11847 278.86591 280.41577
 281.92218 283.35281 284.74088 286.10217 287.27972 288.32327 289.27811 290.14246
 290.92535 291.62628 292.24088 293.05051
 366.78100 356.34810 345.79320 334.67231 323.08841 311.29551 299.17861 286.99472
 274.71982 262.62992 250.65202 239.96613 230.10123 221.21833 213.41343 206.42854
 200.27564 195.22674 191.82184 189.87695 188.92705 189.00415 189.85225 191.17336
 192.91146 195.01956 197.29566 199.66777 202.12587 204.61897 206.72007 208.57518
 210.21428 211.37238 211.61448 211.85559 211.80569 211.52379 211.16989 210.81300
 210.44310 210.16620 209.98730 209.86441 209.80551 210.14961 210.54871 210.95082
 211.75692 212.94802 214.21112 216.00723 217.94833 220.00443 222.11253 224.20864
 226.28174 228.37884 230.48894 232.60805 234.75015 236.93525 239.20435 241.58746
 244.22156 246.48566 248.50076 250.27887 251.70897 252.84507 253.68017 254.00928
 254.05938 253.84648 253.21958 252.18069 250.79979 248.97389 246.89599 244.74209
 242.54620 240.36330 238.19640 236.04850 233.92161 231.80171 229.84081 228.01091
 226.30702 224.79212 223.43522 222.22032 221.11543 220.08853 219.20563 218.35973
 217.61484 216.80794 215.91904 215.29614 214.75925 213.86908 211.76596 211.69830
 212.25450 212.27992 212.70560 214.57161 217.71970 222.46741 228.44612 233.13718
 236.87941 240.87689 245.20554 249.60493 253.74881 257.40948 260.23160 262.55212
 265.41452 268.03864 270.32407 272.49701 274.83041 277.07690 278.84518 280.40790
 281.90390 283.32257 284.70825 286.06879 287.24689 288.28992 289.24393 290.11075
 290.89355 291.59366 292.20972 293.01657
 366.78100 356.34915 345.79530 334.67545 323.09260 311.30076 299.18491 287.00206
 274.72821 262.63936 250.66251 239.97766 230.11381 221.23196 213.42811 206.44427
 200.29242 195.24457 191.84072 189.89687 188.94802 189.02617 189.87532 191.19747
 192.93663 195.04578 197.32293 199.69608 202.15523 204.64938 206.75153 208.60768
 210.24783 211.40698 211.65014 211.89229 211.84344 211.56259 211.20974 210.85389
 210.48504 210.20919 210.03134 209.90950 209.85165 210.19680 210.59695 211.00010
 211.80725 212.99940 214.26355 216.06070 218.00285 220.06001 222.16916 224.26631
 226.34046 228.43861 230.54976 232.66991 234.81306 236.99921 239.26937 241.65352
 244.28867 246.55382 248.56997 250.34912 251.78027 252.91742 253.75357 254.08372
 254.13488 253.92303 253.29718 252.25933 250.87948 249.05463 246.97778 244.82493
 242.63008 240.44824 238.28239 236.13554 234.00969 231.89084 229.93099 228.10214
 226.39929 224.88544 223.52959 222.31575 221.21190 220.18605 219.30420 218.45935
 217.71550 216.90965 216.02180 215.39995 214.86411 213.93684 211.74605 211.74214
 212.32907 212.37286 212.81145 214.59377 217.69228 222.40855 228.38611 233.06172
 236.80014 240.80106 245.14015 249.55783 253.70992 257.34247 260.15796 262.49939
 265.34299 267.94501 270.22897 272.41959 274.76981 277.02759 278.81665 280.39343
 281.87949 283.29105 284.67468 286.03506 287.21295 288.25693 289.21088 290.07855
 290.86197 291.56152 292.17529 292.98450
 366.78100 356.35032 345.79763 334.67895 323.09727 311.30659 299.19190 287.01022
 274.73754 262.64985 250.67417 239.99049 230.12781 221.24712 213.44444 206.46176
 200.31107 195.26439 191.86171 189.91903 188.97134 189.05066 189.90098 191.22429
 192.96461 195.07493 197.35325 199.72756 202.18788 204.68320 206.78651 208.64383
 210.28515 211.44547 211.68978 211.93310 211.88542 211.60573 211.25405 210.89937
 210.53169 210.25700 210.08032 209.95964 209.90295 210.24927 210.65059 211.05491
 211.86322 213.05654 214.32186 216.12017 218.06349 220.12181 222.23212 224.33044
 226.40576 228.50508 230.61739 232.73871 234.88303 237.07034 239.34166 241.72698
 244.36330 246.62961 248.64693 250.42725 251.85956 252.99788 253.83520 254.16652
 254.21883 254.00815 253.38347 252.34678 250.96810 249.14442 247.06874 244.91705
 242.72337 240.54269 238.37800 236.23232 234.10764 231.98996 230.03127 228.20359
 226.50191 224.98922 223.63454 222.42186 221.31918 220.29449 219.41381 218.57013
 217.82744 217.02276 216.13608 215.51540 214.98071 214.01414 211.73056 211.71635
 212.48039 212.50117 212.84258 214.57886 217.65282 222.39113 228.35405 233.01274
 236.73657 240.73383 245.08038 249.51471 253.67160 257.27090 260.07144 262.44095
 265.26215 267.83743 270.12289 272.33789 274.70810 276.97562 278.78717 280.38190
 281.85812 283.26013 284.63837 285.99979 287.17682 288.22061 289.17657 290.04236
 290.82538 291.52576 292.13965 292.94687
 366.78100 356.35100 345.79899 334.68099 323.09998 311.30998 299.19598 287.01497
 274.74297 262.65597 250.68096 239.99796 230.13595 221.25595 213.45395 206.47194
 200.32194 195.27593 191.87393 189.93193 188.98492 189.06492 189.91592 191.23991
 192.98091 195.09190 197.37090 199.74590 202.20689 204.70289 206.80688 208.66488
 210.30688 211.46787 211.71287 211.95687 211.90986 211.63086 211.27985 210.92585
 210.55885 210.28484 210.10884 209.98883 209.93283 210.27983 210.68182 211.08682
 211.89581 213.08981 214.35581 216.15480 218.09880 220.15780 222.26879 224.36779
 226.44378 228.54378 230.65678 232.77877 234.92377 237.11176 239.38376 241.76976
 244.40675 246.67375 248.69175 250.47274 251.90574 253.04473 253.88273 254.21473
 254.26772 254.05772 253.43371 252.39771 251.01971 249.19670 247.12170 244.97070
 242.77769 240.59769 238.43368 236.28868 234.16468 232.04767 230.08967 228.26266
 226.56166 225.04966 223.69565 222.48365 221.38165 220.35764 219.47764 218.63463
 217.89263 217.08863 216.20262 215.58262 215.04861 214.06631 211.74553 211.68977
 212.57384 212.61768 212.91533 214.62187 217.63475 222.35475 228.32394 232.95264
 236.65564 240.65324 245.01239 249.46573 253.62404 257.18384 259.98544 262.38177
 265.18225 267.73721 270.02808 272.26617 274.65192 276.92996 278.76535 280.37146
 281.83215 283.22476 284.60739 285.96927 287.14636 288.19070 289.14435 290.01413
 290.79681 291.49667 292.11130 292.91669
 366.78100 356.35087 345.79874 334.68062 323.09949 311.30936 299.19523 287.01410
 274.74198 262.65485 250.67972 239.99659 230.13447 221.25434 213.45221 206.47008
 200.31995 195.27383 191.87170 189.92957 188.98244 189.06231 189.91319 191.23706
 192.97793 195.08880 197.36767 199.74255 202.20342 204.69929 206.80316 208.66103
 210.30291 211.46378 211.70865 211.95252 211.90540 211.62627 211.27514 210.92101
 210.55388 210.27976 210.10363 209.98350 209.92737 210.27424 210.67612 211.08099
 211.88986 213.08373 214.34960 216.14848 218.09235 220.15122 222.26209 224.36097
 226.43684 228.53671 230.64958 232.77145 234.91633 237.10420 239.37607 241.76194
 244.39881 246.66569 248.68356 250.46443 251.89730 253.03617 253.87405 254.20592
 254.25879 254.04866 253.42453 252.38841 251.01028 249.18715 247.11202 244.96090
 242.76777 240.58764 238.42351 236.27838 234.15426 232.03713 230.07900 228.25187
 226.55074 225.03862 223.68449 222.47236 221.37023 220.34610 219.46598 218.62285
 217.88072 217.07659 216.19046 215.57034 215.03621 214.07260 211.79599 211.71745
 212.57639 212.64980 213.02194 214.75128 217.66304 222.23091 228.28067 232.89165
 236.58226 240.58510 244.96220 249.43915 253.60686 257.14224 259.92395 262.35742
 265.12296 267.64365 269.93076 272.18698 274.58914 276.87170 278.72504 280.34866
 281.80304 283.18777 284.56467 285.92383 287.09805 288.14069 289.09628 289.96182
 290.74359 291.44229 292.05576 292.86240
 366.78100 356.34994 345.79688 334.67782 323.09575 311.30469 299.18963 287.00757
 274.73451 262.64645 250.67039 239.98632 230.12326 221.24220 213.43914 206.45608
 200.30502 195.25796 191.85489 189.91183 188.96377 189.04271 189.89265 191.21559
 192.95553 195.06546 197.34340 199.71734 202.17728 204.67222 206.77516 208.63210
 210.27303 211.43297 211.67691 211.91985 211.87179 211.59173 211.23967 210.88460
 210.51654 210.24148 210.06442 209.94336 209.88630 210.23224 210.63317 211.03711
 211.84505 213.03799 214.30293 216.10087 218.04381 220.10174 222.21168 224.30962
 226.38456 228.48350 230.59544 232.71637 234.86031 237.04725 239.31819 241.70313
 244.33907 246.60501 248.62194 250.40188 251.83382 252.97176 253.80870 254.13964
 254.19158 253.98051 253.35545 252.31839 250.93933 249.11527 247.03921 244.88715
 242.69308 240.51202 238.34696 236.20090 234.07584 231.95778 229.99872 228.17065
 226.46859 224.95553 223.60047 222.38741 221.28435 220.25929 219.37822 218.53416
 217.79110 216.98604 216.09898 215.47792 214.94286 214.03210 211.88124 211.78445
 212.59712 212.66216 213.00688 214.80272 217.72643 222.15088 228.21030 232.83676
 236.50975 240.53000 244.92340 249.42496 253.60640 257.12253 259.93723 262.37225
 265.08255 267.57910 269.86578 272.13608 274.53241 276.80643 278.68250 280.31412
 281.75662 283.14459 284.52963 285.89273 287.07047 288.11560 289.07407 289.94348
 290.73047 291.43442 292.05692 292.86810
 366.78100 356.34939 345.79578 334.67617 323.09356 311.30195 299.18634 287.00373
 274.73012 262.64152 250.66491 239.98030 230.11669 221.23508 213.43147 206.44786
 200.29625 195.24864 191.84503 189.90142 188.95281 189.03120 189.88059 191.20298
 192.94237 195.05177 197.32916 199.70255 202.16194 204.65633 206.75872 208.61511
 210.25550 211.41489 211.65828 211.90067 211.85206 211.57145 211.21884 210.86323
 210.49462 210.21902 210.04141 209.91980 209.86219 210.20758 210.60797 211.01136
 211.81875 213.01114 214.27553 216.07292 218.01531 220.07270 222.18209 224.27948
 226.35387 228.45227 230.56366 232.68405 234.82744 237.01383 239.28422 241.66861
 244.30400 246.56939 248.58578 250.36517 251.79656 252.93395 253.77034 254.10073
 254.15212 253.94051 253.31491 252.27730 250.89769 249.07308 246.99647 244.84386
 242.64925 240.46764 238.30203 236.15542 234.02981 231.91120 229.95159 228.12298
 226.42037 224.90676 223.55116 222.33755 221.23394 220.20833 219.32672 218.48211
 217.73850 216.93289 216.04528 215.42367 214.88806 214.00595 211.92465 211.88783
 212.67377 212.71620 212.96648 214.80249 217.76556 222.11728 228.13126 232.76540
 236.42281 240.45990 244.86693 249.38458 253.56627 257.05234 259.85190 262.35229
 265.02234 267.51111 269.82526 272.11938 274.50812 276.77628 278.67566 280.31006
 281.73788 283.11255 284.49271 285.85101 287.02682 288.06796 289.02237 289.88608
 290.66415 291.35791 291.96997 292.76056
 366.78100 356.35066 345.79832 334.67997 323.09863 311.30829 299.19395 287.01261
 274.74026 262.65292 250.67758 239.99424 230.13190 221.25155 213.44921 206.46687
 200.31653 195.27019 191.86784 189.92550 188.97816 189.05782 189.90848 191.23213
 192.97279 195.08345 197.36211 199.73677 202.19742 204.69308 206.79674 208.65440
 210.29606 211.45671 211.70137 211.94503 211.89769 211.61835 211.26700 210.91266
 210.54532 210.27098 210.09464 209.97429 209.91795 210.26461 210.66627 211.07093
 211.87958 213.07324 214.33890 216.13756 218.08122 220.13987 222.25053 224.34919
 226.42485 228.52451 230.63716 232.75882 234.90348 237.09114 239.36280 241.74845
 244.38511 246.65177 248.66943 250.45009 251.88274 253.02140 253.85906 254.19072
 254.24338 254.03303 253.40869 252.37235 250.99401 249.17067 247.09532 244.94398
 242.75064 240.57030 238.40596 236.26061 234.13627 232.01893 230.06059 228.23325
 226.53190 225.01956 223.66522 222.45288 221.35054 220.32619 219.44585 218.60251
 217.86017 217.05583 216.16949 215.54914 215.01480 214.07317 211.84842 211.95401
 212.80380 212.90048 213.08376 214.82336 217.73911 222.06175 228.05270 232.64386
 236.29477 240.34293 244.77333 249.30777 253.46379 256.87762 259.64120 262.23068
 264.86874 267.35999 269.71170 272.05014 274.46640 276.75989 278.70764 280.36926
 281.78839 283.12302 284.46552 285.79535 286.95193 287.98755 288.93631 289.79788
 290.56970 291.25790 291.86459 292.65906
 366.78100 356.35216 345.80133 334.68449 323.10465 311.31581 299.20298 287.02314
 274.75230 262.66646 250.69263 240.01079 230.14995 221.27111 213.47028 206.48944
 200.34060 195.29577 191.89493 189.95409 189.00825 189.08942 189.94158 191.26674
 193.00890 195.12107 197.40123 199.77739 202.23956 204.73672 206.84188 208.70104
 210.34421 211.50637 211.75253 211.99769 211.95186 211.67402 211.32418 210.97134
 210.60551 210.33267 210.15783 210.03900 209.98416 210.33232 210.73548 211.14165
 211.95181 213.14697 214.41413 216.21430 218.15946 220.21962 222.33178 224.43195
 226.50911 228.61027 230.72444 232.84760 234.99376 237.18292 239.45609 241.84325
 244.48141 246.74957 248.76874 250.55090 251.98506 253.12522 253.96439 254.29755
 254.35171 254.14288 253.52004 252.48520 251.10836 249.28653 247.21269 245.06285
 242.87101 240.69218 238.52934 236.38550 234.26267 232.14683 230.18999 228.36415
 226.66432 225.15348 223.80064 222.58980 221.48897 220.46613 219.58729 218.74545
 218.00462 217.20178 216.31694 215.69811 215.16527 214.16405 211.79854 211.90781
 212.83253 213.08035 213.33131 214.92439 217.74690 222.03378 228.00636 232.56810
 236.19519 240.25075 244.69649 249.23828 253.36099 256.71490 259.48358 262.13242
 264.73129 267.21289 269.59201 271.97247 274.41235 276.72366 278.70966 280.39185
 281.80753 283.12057 284.44174 285.74185 286.88907 287.92471 288.87479 289.73608
 290.51117 291.20270 291.81372 292.62012
 366.78100 356.35205 345.80110 334.68416 323.10421 311.31526 299.20231 287.02237
 274.75142 262.66547 250.69152 240.00958 230.14863 221.26968 213.46873 206.48779
 200.33884 195.29389 191.89294 189.95199 189.00605 189.08710 189.93915 191.26420
 193.00626 195.11831 197.39836 199.77441 202.23647 204.73352 206.83857 208.69762
 210.34068 211.50273 211.74878 211.99383 211.94788 211.66994 211.31999 210.96704
 210.60109 210.32815 210.15320 210.03425 209.97930 210.32736 210.73041 211.13646
 211.94651 213.14157 214.40862 216.20867 218.15372 220.21377 222.32583 224.42588
 226.50293 228.60398 230.71804 232.84109 234.98714 237.17619 239.44925 241.83630
 244.47435 246.74240 248.76146 250.54351 251.97756 253.11761 253.95667 254.28972
 254.34377 254.13482 253.51187 252.47693 251.09998 249.27803 247.20408 245.05414
 242.86219 240.68324 238.52029 236.37635 234.25340 232.13745 230.18050 228.35456
 226.65461 225.14366 223.79071 222.57976 221.47882 220.45587 219.57692 218.73497
 217.99403 217.19108 216.30613 215.68718 215.15424 214.17108 211.84828 211.89397
 212.79483 213.12605 213.45651 214.97124 217.75906 222.02657 228.00206 232.55721
 236.17088 240.23065 244.68562 249.24290 253.37056 256.71368 259.49075 262.14194
 264.69046 267.14615 269.52188 271.90903 274.34998 276.65872 278.65714 280.34662
 281.75806 283.07059 284.39453 285.68011 286.83246 287.87106 288.82233 289.68396
 290.46146 291.15469 291.76410 292.56921
 366.78100 356.35039 345.79778 334.67917 323.09756 311.30695 299.19234 287.01073
 274.73812 262.65051 250.67490 239.99129 230.12868 221.24807 213.44546 206.46285
 200.31224 195.26563 191.86302 189.92041 188.97280 189.05219 189.90258 191.22597
 192.96636 195.07675 197.35514 199.72953 202.18992 204.68531 206.78870 208.64609
 210.28748 211.44787 211.69226 211.93565 211.88804 211.60843 211.25682 210.90221
 210.53460 210.25999 210.08338 209.96277 209.90616 210.25255 210.65394 211.05833
 211.86672 213.06011 214.32550 216.12389 218.06728 220.12567 222.23606 224.33445
 226.40984 228.50923 230.62161 232.74300 234.88739 237.07478 239.34617 241.73156
 244.36795 246.63434 248.65173 250.43212 251.86451 253.00290 253.84029 254.17168
 254.22407 254.01346 253.38885 252.35224 250.97363 249.15002 247.07441 244.92280
 242.72919 240.54858 238.38397 236.23836 234.11375 231.99614 230.03753 228.20992
 226.50831 224.99570 223.64109 222.42848 221.32587 220.30126 219.42065 218.57704
 217.83443 217.02982 216.14321 215.52260 214.98799 214.08482 211.95099 211.97702
 212.84634 213.15839 213.43153 214.89850 217.68578 221.96840 227.98030 232.50479
 236.12131 240.18427 244.66223 249.24980 253.40390 256.74081 259.50836 262.14792
 264.64297 267.05905 269.41925 271.80765 274.25226 276.55609 278.55984 280.25446
 281.66647 282.99344 284.33011 285.62039 286.77719 287.81451 288.76669 289.62775
 290.40375 291.09726 291.70480 292.49960
 366.78100 356.35045 345.79791 334.67936 323.09782 311.30727 299.19273 287.01118
 274.73864 262.65109 250.67554 239.99200 230.12945 221.24891 213.44636 206.46382
 200.31327 195.26673 191.86418 189.92163 188.97409 189.05354 189.90400 191.22745
 192.96791 195.07836 197.35682 199.73127 202.19172 204.68718 206.79063 208.64809
 210.28954 211.45000 211.69445 211.93791 211.89036 211.61081 211.25927 210.90472
 210.53718 210.26263 210.08609 209.96554 209.90900 210.25545 210.65691 211.06136
 211.86981 213.06327 214.32872 216.12718 218.07063 220.12909 222.23954 224.33800
 226.41345 228.51290 230.62536 232.74681 234.89127 237.07872 239.35018 241.73563
 244.37209 246.63854 248.65599 250.43645 251.86890 253.00736 253.84481 254.17627
 254.22872 254.01818 253.39363 252.35708 250.97854 249.15499 247.07945 244.92790
 242.73436 240.55381 238.38927 236.24372 234.11917 232.00163 230.04308 228.21554
 226.51399 225.00145 223.64690 222.43436 221.33181 220.30726 219.42672 218.58317
 217.84063 217.03608 216.14954 215.52899 214.99445 214.08566 211.93854 212.02858
 213.01987 213.29446 213.48755 214.88167 217.61121 221.90387 227.89508 232.38280
 235.99808 240.07721 244.58606 249.19615 253.35406 256.67117 259.45160 262.10580
 264.56686 266.95840 269.32156 271.72342 274.17502 276.47839 278.48148 280.16895
 281.57068 282.90894 284.26312 285.57306 286.72739 287.76263 288.71152 289.56976
 290.34451 291.03156 291.63535 292.41626
 366.78100 356.35241 345.80182 334.68523 323.10564 311.31705 299.20446 287.02487
 274.75429 262.66870 250.69511 240.01352 230.15293 221.27434 213.47375 206.49316
 200.34457 195.29998 191.89939 189.95880 189.01321 189.09462 189.94703 191.27244
 193.01486 195.12727 197.40768 199.78409 202.24650 204.74391 206.84932 208.70873
 210.35214 211.51455 211.76096 212.00637 211.96078 211.68319 211.33360 210.98101
 210.61543 210.34284 210.16825 210.04966 209.99507 210.34348 210.74689 211.15330
 211.96371 213.15912 214.42653 216.22694 218.17235 220.23276 222.34517 224.44558
 226.52300 228.62441 230.73882 232.86223 235.00864 237.19805 239.47146 241.85887
 244.49728 246.76569 248.78510 250.56751 252.00192 253.14233 253.98174 254.31516
 254.36957 254.16098 253.53839 252.50380 251.12721 249.30562 247.23203 245.08244
 242.89085 240.71226 238.54967 236.40608 234.28349 232.16790 230.21131 228.38573
 226.68614 225.17555 223.82296 222.61237 221.51178 220.48919 219.61060 218.76901
 218.02842 217.22583 216.34124 215.72265 215.19006 214.19794 211.85391 211.96548
 213.14153 213.49020 213.72781 215.00587 217.61613 221.87189 227.79141 232.25894
 235.86327 239.95796 244.49022 249.10352 253.23409 256.53653 259.35904 262.05307
 264.51709 266.91916 269.31073 271.72263 274.16214 276.45370 278.44659 280.11743
 281.50201 282.84180 284.20877 285.52795 286.67892 287.70975 288.65628 289.51462
 290.28537 290.97208 291.57150 292.33167
 366.78100 356.35259 345.80218 334.68577 323.10636 311.31795 299.20554 287.02613
 274.75572 262.67031 250.69690 240.01549 230.15508 221.27667 213.47626 206.49585
 200.34744 195.30303 191.90262 189.96221 189.01680 189.09839 189.95098 191.27657
 193.01916 195.13175 197.41234 199.78893 202.25152 204.74911 206.85470 208.71429
 210.35788 211.52047 211.76706 212.01265 211.96724 211.68983 211.34042 210.98801
 210.62260 210.35019 210.17578 210.05737 210.00296 210.35155 210.75514 211.16173
 211.97232 213.16791 214.43550 216.23609 218.18168 220.24227 222.35486 224.45545
 226.53304 228.63463 230.74922 232.87281 235.01940 237.20899 239.48258 241.87017
 244.50876 246.77735 248.79694 250.57953 252.01411 253.15470 253.99429 254.32788
 254.38247 254.17406 253.55165 252.51724 251.14083 249.31942 247.24601 245.09660
 242.90519 240.72678 238.56437 236.42096 234.29855 232.18314 230.22673 228.40132
 226.70191 225.19150 223.83909 222.62868 221.52827 220.50586 219.62745 218.78604
 218.04563 217.24322 216.35881 215.74040 215.20799 214.21956 211.88429 211.93805
 213.10202 213.58653 213.92744 215.12486 217.65877 221.86501 227.73041 232.18439
 235.77649 239.87683 244.41840 249.02400 253.12022 256.40244 259.26669 261.98837
 264.47107 266.90231 269.33054 271.74438 274.15750 276.42737 278.40912 280.07083
 281.44580 282.79117 284.16147 285.47406 286.61716 287.64093 288.58655 289.44272
 290.21112 290.89688 291.49002 292.23001
 366.78100 356.35071 345.79843 334.68014 323.09886 311.30857 299.19429 287.01300
 274.74072 262.65343 250.67815 239.99486 230.13258 221.25229 213.45001 206.46772
 200.31744 195.27115 191.86887 189.92658 188.97930 189.05901 189.90973 191.23344
 192.97416 195.08487 197.36359 199.73830 202.19902 204.69473 206.79845 208.65616
 210.29788 211.45859 211.70331 211.94702 211.89974 211.62045 211.26917 210.91488
 210.54760 210.27331 210.09703 209.97674 209.92046 210.26717 210.66889 211.07360
 211.88232 213.07603 214.34175 216.14046 218.08418 220.14289 222.25361 224.35232
 226.42804 228.52775 230.64047 232.76218 234.90690 237.09461 239.36633 241.75204
 244.38876 246.65547 248.67319 250.45390 251.88661 253.02533 253.86304 254.19476
 254.24747 254.03719 253.41290 252.37662 250.99833 249.17505 247.09976 244.94848
 242.75519 240.57491 238.41062 236.26534 234.14105 232.02377 230.06548 228.23820
 226.53691 225.02463 223.67034 222.45806 221.35577 220.33149 219.45120 218.60792
 217.86563 217.06135 216.17506 215.55478 215.02049 214.12141 211.99724 212.02977
 213.03926 213.55725 213.99667 215.14040 217.67673 221.86633 227.70230 232.15508
 235.73627 239.84251 244.38428 248.97887 253.04544 256.31784 259.18228 261.90402
 264.39676 266.85031 269.29770 271.70386 274.09872 276.35388 278.33209 279.98499
 281.37228 282.73434 284.11560 285.41147 286.54349 287.56537 288.50580 289.35828
 290.12170 290.80109 291.38983 292.10886
 366.78100 356.34906 345.79511 334.67517 323.09223 311.30028 299.18434 287.00140
 274.72745 262.63851 250.66157 239.97662 230.11268 221.23074 213.42679 206.44285
 200.29091 195.24296 191.83902 189.89508 188.94614 189.02419 189.87325 191.19531
 192.93436 195.04342 197.32048 199.69353 202.15259 204.64665 206.74870 208.60476
 210.24482 211.40387 211.64693 211.88899 211.84004 211.55910 211.20616 210.85021
 210.48127 210.20533 210.02738 209.90544 209.84750 210.19255 210.59261 210.99567
 211.80272 212.99478 214.25884 216.05589 217.99795 220.05501 222.16406 224.26112
 226.33518 228.43323 230.54429 232.66435 234.80741 236.99346 239.26352 241.64758
 244.28263 246.54769 248.56375 250.34280 251.77386 252.91092 253.74697 254.07703
 254.12809 253.91614 253.29020 252.25226 250.87231 249.04737 246.97043 244.81748
 242.62254 240.44060 238.27465 236.12771 234.00177 231.88282 229.92288 228.09394
 226.39099 224.87705 223.52111 222.30716 221.20322 220.17728 219.29533 218.45039
 217.70645 216.90051 216.01256 215.39062 214.85468 214.03499 212.09839 212.09767
 213.05699 213.54599 214.03259 215.12955 217.65523 221.85234 227.67844 232.12848
 235.70828 239.82593 244.37042 248.96072 253.01562 256.27966 259.13663 261.83249
 264.30829 266.75595 269.20328 271.60315 273.98993 276.23026 278.20139 279.87610
 281.28949 282.67563 284.04306 285.31580 286.43863 287.45157 288.38367 289.23199
 289.99551 290.67212 291.25085 291.93051
 366.78100 356.34818 345.79336 334.67255 323.08873 311.29591 299.17909 286.99528
 274.72046 262.63064 250.65282 239.96700 230.10219 221.21937 213.41455 206.42973
 200.27692 195.22810 191.82328 189.87846 188.92865 189.00583 189.85401 191.17519
 192.91337 195.02156 197.29774 199.66992 202.12810 204.62129 206.72247 208.57765
 210.21683 211.37501 211.61720 211.85838 211.80856 211.52674 211.17293 210.81611
 210.44629 210.16947 209.99066 209.86784 209.80902 210.15320 210.55238 210.95457
 211.76075 212.95193 214.21511 216.01130 217.95248 220.00866 222.11684 224.21302
 226.28621 228.38339 230.49357 232.61275 234.75494 236.94012 239.20930 241.59248
 244.22667 246.49085 248.50603 250.28421 251.71439 252.85058 253.68576 254.01494
 254.06512 253.85231 253.22549 252.18667 250.80585 248.98003 246.90222 244.74840
 242.55258 240.36976 238.20295 236.05513 233.92831 231.80849 229.84768 228.01786
 226.31404 224.79922 223.44240 222.22759 221.12277 220.09595 219.21313 218.36732
 217.62250 216.81568 215.92686 215.30404 214.76723 214.00482 212.20354 212.13295
 213.02461 213.55043 214.07227 215.09546 217.63196 221.83656 227.64236 232.09973
 235.67694 239.81390 244.36548 248.95169 253.00374 256.27817 259.12720 261.78369
 264.24719 266.70389 269.16034 271.55804 273.92093 276.15399 278.13235 279.77612
 281.19824 282.60260 283.98505 285.26688 286.39032 287.39545 288.31644 289.15738
 289.90887 290.56610 291.09961 291.72058
 366.78100 356.34636 345.78971 334.66707 323.08143 311.28679 299.16814 286.98250
 274.70586 262.61421 250.63457 239.94693 230.08029 221.19564 213.38900 206.40236
 200.24771 195.19707 191.79043 189.84379 188.89214 188.96750 189.81386 191.13321
 192.86957 194.97593 197.25029 199.62064 202.07700 204.56836 206.66772 208.52107
 210.15843 211.31479 211.55514 211.79450 211.74286 211.45922 211.10357 210.74493
 210.37329 210.09464 209.91400 209.78936 209.72872 210.07107 210.46843 210.86879
 211.67314 212.86250 214.12386 215.91822 217.85757 219.91193 222.01829 224.11264
 226.18400 228.27936 230.38772 232.50507 234.64543 236.82879 239.09614 241.47750
 244.10986 246.37222 248.38557 250.16193 251.59029 252.72464 253.55800 253.88536
 253.93372 253.71907 253.09043 252.04979 250.66714 248.83950 246.75986 244.60422
 242.40657 240.22193 238.05329 235.90364 233.77500 231.65336 229.69072 227.85907
 226.15343 224.63679 223.27815 222.06150 220.95486 219.92622 219.04157 218.19393
 217.44729 216.63865 215.74800 215.12336 214.58472 213.91753 212.35417 212.26965
 212.99733 213.42999 214.06207 215.12057 217.57256 221.75122 227.52104 232.00555
 235.60104 239.78099 244.34171 248.93387 253.02696 256.42389 259.31897 261.94916
 264.39380 266.81870 269.23904 271.58179 273.88809 276.04355 277.97861 279.66846
 281.12009 282.48633 283.79443 285.01367 286.10144 287.07391 287.98010 288.81189
 289.55737 290.16183 290.64767 291.26678
 366.78100 356.34528 345.78755 334.66383 323.07711 311.28138 299.16166 286.97493
 274.69721 262.60449 250.62376 239.93504 230.06732 221.18159 213.37387 206.38615
 200.23042 195.17870 191.77097 189.82325 188.87053 188.94480 189.79008 191.10836
 192.84363 194.94891 197.22219 199.59146 202.04674 204.53702 206.63529 208.48757
 210.12384 211.27912 211.51840 211.75667 211.70395 211.41923 211.06250 210.70278
 210.33006 210.05033 209.86861 209.74288 209.68116 210.02244 210.41871 210.81799
 211.62127 212.80954 214.06982 215.86310 217.80137 219.85465 221.95992 224.05320
 226.12348 228.21775 230.32503 232.44131 234.58058 236.76286 239.02914 241.40941
 244.04069 246.30197 248.31424 250.08952 251.51679 252.65007 253.48235 253.80862
 253.85590 253.64018 253.01045 251.96873 250.58501 248.75628 246.67556 244.51883
 242.32011 240.13439 237.96466 235.81394 233.68422 231.56149 229.59777 227.76505
 226.05832 224.54060 223.18087 221.96315 220.85543 219.82570 218.93998 218.09126
 217.34353 216.53381 215.64209 215.01636 214.47664 213.86490 212.44707 212.33110
 213.19817 213.50160 214.02995 215.06741 217.44920 221.63631 227.33511 231.80920
 235.43250 239.66716 244.25539 248.83633 252.95940 256.49185 259.54376 262.10519
 264.46396 266.86203 269.22687 271.48502 273.72357 275.86084 277.70117 279.26755
 280.67453 282.17139 283.52710 284.70383 285.74890 286.69647 287.56693 288.32904
 288.91113 289.41199 289.84952 290.40710
 366.78100 356.34703 345.79107 334.66910 323.08413 311.29016 299.17220 286.98723
 274.71126 262.62029 250.64133 239.95436 230.08839 221.20442 213.39846 206.41249
 200.25852 195.20856 191.80259 189.85662 188.90565 188.98169 189.82872 191.14875
 192.88578 194.99282 197.26785 199.63888 202.09591 204.58795 206.68798 208.54201
 210.18005 211.33708 211.57811 211.81814 211.76718 211.48421 211.12924 210.77127
 210.40031 210.12234 209.94237 209.81841 209.75844 210.10147 210.49950 210.90054
 211.70557 212.89560 214.15763 215.95267 217.89270 219.94773 222.05476 224.14980
 226.22183 228.31786 230.42690 232.54493 234.68596 236.86999 239.13803 241.52006
 244.15309 246.41612 248.43016 250.20719 251.63622 252.77125 253.60529 253.93332
 253.98235 253.76839 253.14042 252.10045 250.71848 248.89152 246.81255 244.65758
 242.46061 240.27665 238.10868 235.95971 233.83174 231.71078 229.74881 227.91784
 226.21288 224.69691 223.33894 222.12297 221.01701 219.98904 219.10507 218.25810
 217.51214 216.70417 215.81420 215.19023 214.65227 213.98737 212.46080 212.17929
 213.34946 213.64835 214.10187 215.25137 217.60643 221.65205 227.18742 231.68910
 235.29843 239.54436 244.15433 248.67516 252.74623 256.23544 259.41913 262.15302
 264.54395 266.92007 269.27588 271.48740 273.56387 275.56763 277.55774 279.27570
 280.58356 281.85928 283.13141 284.26923 285.30374 286.24570 286.94421 287.55725
 288.10861 288.59958 289.02847 289.57507
 366.78100 356.34988 345.79676 334.67764 323.09552 311.30441 299.18929 287.00717
 274.73405 262.64593 250.66981 239.98569 230.12257 221.24145 213.43833 206.45522
 200.30410 195.25698 191.85386 189.91074 188.96262 189.04150 189.89138 191.21426
 192.95414 195.06403 197.34191 199.71579 202.17567 204.67055 206.77343 208.63031
 210.27119 211.43107 211.67496 211.91784 211.86972 211.58960 211.23748 210.88236
 210.51424 210.23912 210.06200 209.94088 209.88377 210.22965 210.63053 211.03441
 211.84229 213.03517 214.30005 216.09793 218.04081 220.09869 222.20858 224.30646
 226.38134 228.48022 230.59210 232.71298 234.85686 237.04374 239.31462 241.69951
 244.33539 246.60127 248.61815 250.39803 251.82991 252.96779 253.80467 254.13555
 254.18743 253.97632 253.35120 252.31408 250.93496 249.11084 247.03472 244.88260
 242.68848 240.50736 238.34224 236.19613 234.07101 231.95289 229.99377 228.16565
 226.46353 224.95041 223.59529 222.38217 221.27906 220.25394 219.37282 218.52870
 217.78558 216.98046 216.09334 215.47222 214.93710 214.17921 212.44296 212.05299
 213.40657 213.96846 214.39975 215.53671 217.84186 221.76544 227.15974 231.61761
 235.24622 239.49745 244.12561 248.61559 252.71083 256.16809 259.40378 262.16489
 264.62390 267.02179 269.41312 271.60941 273.63699 275.43625 277.56607 279.23602
 280.54404 281.84274 283.03818 284.11096 285.14066 286.03940 286.85938 287.60220
 288.27032 288.86526 289.38501 290.04736
 366.78100 356.34940 345.79580 334.67620 323.09360 311.30200 299.18640 287.00380
 274.73020 262.64160 250.66500 239.98040 230.11680 221.23520 213.43160 206.44800
 200.29640 195.24880 191.84520 189.90160 188.95300 189.03140 189.88081 191.20321
 192.94261 195.05201 197.32941 199.70281 202.16221 204.65661 206.75901 208.61541
 210.25581 211.41521 211.65861 211.90101 211.85241 211.57181 211.21921 210.86361
 210.49501 210.21941 210.04181 209.92021 209.86261 210.20801 210.60841 211.01181
 211.81921 213.01161 214.27601 216.07341 218.01581 220.07321 222.18261 224.28001
 226.35441 228.45281 230.56421 232.68461 234.82801 237.01441 239.28481 241.66921
 244.30461 246.57001 248.58642 250.36582 251.79722 252.93462 253.77102 254.10142
 254.15282 253.94122 253.31562 252.27802 250.89842 249.07382 246.99722 244.84462
 242.65002 240.46842 238.30282 236.15622 234.03062 231.91202 229.95242 228.12382
 226.42122 224.90762 223.55202 222.33842 221.23482 220.20922 219.32762 218.48302
 217.73942 216.93382 216.04622 215.42462 214.88902 214.16591 212.50142 212.07080
 213.23582 214.00690 214.54803 215.65482 217.88556 221.70705 227.04227 231.50462
 235.14427 239.42236 244.02374 248.47244 252.46848 255.94745 259.13391 261.96567
 264.53308 267.08072 269.58292 271.85013 273.90164 275.77289 277.69211 279.44281
 280.91632 282.18341 283.33319 284.40842 285.46533 286.49734 287.47632 288.36316
 289.16080 289.87109 290.49161 291.28238
 366.78100 356.34869 345.79439 334.67408 323.09077 311.29846 299.18216 286.99885
 274.72454 262.63523 250.65793 239.97262 230.10831 221.22600 213.42170 206.43739
 200.28508 195.23678 191.83247 189.88816 188.93885 189.01655 189.86524 191.18693
 192.92562 195.03432 197.31101 199.68370 202.14239 204.63609 206.73778 208.59347
 210.23317 211.39186 211.63455 211.87624 211.82694 211.54563 211.19232 210.83601
 210.46671 210.19040 210.01209 209.88979 209.83148 210.17617 210.57586 210.97856
 211.78525 212.97694 214.24063 216.03733 217.97902 220.03571 222.14440 224.24110
 226.31479 228.41248 230.52318 232.64287 234.78556 236.97125 239.24095 241.62464
 244.25933 246.52402 248.53972 250.31841 251.74910 252.88579 253.72149 254.05118
 254.10187 253.88957 253.26326 252.22495 250.84464 249.01934 246.94203 244.78872
 242.59341 240.41111 238.24480 236.09749 233.97118 231.85188 229.89157 228.06226
 226.35896 224.84465 223.48834 222.27403 221.16973 220.14342 219.26111 218.41580
 217.67150 216.86519 215.97688 215.35458 214.81827 214.11084 212.45213 212.23013
 213.42090 214.06473 214.64999 215.75253 217.90115 221.60513 227.07819 231.44716
 235.07829 239.31447 243.85413 248.23015 252.11745 255.53799 258.60703 261.43851
 264.06793 266.65439 269.20065 271.57468 273.76895 275.81396 277.72333 279.50540
 281.08466 282.43765 283.63120 284.69431 285.64093 286.50687 287.32635 288.08002
 288.72815 289.22443 289.63943 290.16830
 366.78100 356.34799 345.79298 334.67197 323.08796 311.29495 299.17794 286.99393
 274.71892 262.62891 250.65090 239.96489 230.09988 221.21687 213.41186 206.42685
 200.27384 195.22483 191.81982 189.87481 188.92480 189.00179 189.84978 191.17077
 192.90876 195.01675 197.29274 199.66473 202.12272 204.61571 206.71670 208.57169
 210.21068 211.36867 211.61066 211.85165 211.80163 211.51962 211.16561 210.80860
 210.43859 210.16158 209.98257 209.85956 209.80055 210.14454 210.54353 210.94552
 211.75151 212.94250 214.20549 216.00148 217.94247 219.99846 222.10645 224.20244
 226.27543 228.37242 230.48241 232.60140 234.74339 236.92838 239.19737 241.58036
 244.21435 246.47834 248.49333 250.27132 251.70131 252.83730 253.67229 254.00128
 254.05127 253.83826 253.21125 252.17224 250.79123 248.96522 246.88721 244.73320
 242.53719 240.35418 238.18717 236.03916 233.91215 231.79214 229.83113 228.00112
 226.29711 224.78210 223.42509 222.21008 221.10507 220.07806 219.19505 218.34904
 217.60403 216.79702 215.90801 215.28500 214.74799 214.08322 212.51265 212.24660
 213.58740 214.08960 214.52242 215.74788 217.93648 221.59735 227.20474 231.48785
 235.07619 239.32709 243.90468 248.32190 252.18130 255.56985 258.54547 261.23334
 263.80212 266.38351 268.92004 271.25140 273.45721 275.52484 277.46722 279.26392
 280.84045 282.22272 283.45224 284.55203 285.52942 286.39261 287.16891 287.85733
 288.45496 288.97745 289.37888 289.74857
 366.78100 356.34645 345.78991 334.66736 323.08181 311.28727 299.16872 286.98317
 274.70663 262.61508 250.63553 239.94799 230.08144 221.19689 213.39035 206.40380
 200.24925 195.19871 191.79216 189.84561 188.89407 188.96952 189.81597 191.13543
 192.87188 194.97833 197.25279 199.62324 202.07969 204.57115 206.67060 208.52405
 210.16151 211.31796 211.55841 211.79787 211.74632 211.46277 211.10723 210.74868
 210.37713 210.09859 209.91804 209.79349 209.73295 210.07540 210.47285 210.87331
 211.67776 212.86721 214.12866 215.92312 217.86257 219.91702 222.02348 224.11793
 226.18938 228.28484 230.39329 232.51074 234.65120 236.83465 239.10210 241.48356
 244.11601 246.37846 248.39192 250.16837 251.59682 252.73128 253.56473 253.89218
 253.94064 253.72609 253.09754 252.05700 250.67445 248.84690 246.76736 244.61181
 242.41426 240.22972 238.06117 235.91162 233.78308 231.66153 229.69898 227.86744
 226.16189 224.64534 223.28680 222.07025 220.96370 219.93516 219.05061 218.20306
 217.45652 216.64797 215.75742 215.13288 214.59433 214.02893 212.69577 212.29346
 213.57425 214.01266 214.27768 215.61757 217.93649 221.61009 227.16437 231.53760
 235.07733 239.34077 243.93047 248.38890 252.29913 255.68832 258.73911 261.39584
 263.90903 266.47339 268.98593 271.27328 273.40952 275.43231 277.32516 279.07147
 280.61508 281.97205 283.18988 284.29019 285.25333 286.07965 286.79214 287.39890
 287.91721 288.46115 288.99637 289.67844
 366.78100 356.34643 345.78986 334.66729 323.08172 311.28714 299.16857 286.98300
 274.70643 262.61486 250.63529 239.94772 230.08115 221.19658 213.39000 206.40343
 200.24886 195.19829 191.79172 189.84515 188.89358 188.96901 189.81544 191.13486
 192.87129 194.97772 197.25215 199.62258 202.07901 204.57044 206.66987 208.52330
 210.16072 211.31715 211.55758 211.79701 211.74544 211.46187 211.10630 210.74773
 210.37616 210.09758 209.91701 209.79244 209.73187 210.07430 210.47173 210.87216
 211.67659 212.86602 214.12744 215.92187 217.86130 219.91573 222.02216 224.11659
 226.18802 228.28345 230.39188 232.50930 234.64973 236.83316 239.10059 241.48202
 244.11445 246.37688 248.39031 250.16674 251.59516 252.72959 253.56302 253.89045
 253.93888 253.72431 253.09574 252.05517 250.67260 248.84502 246.76545 244.60988
 242.41231 240.22774 238.05917 235.90960 233.78103 231.65946 229.69688 227.86531
 226.15974 224.64317 223.28460 222.06803 220.96146 219.93289 219.04832 218.20074
 217.45417 216.64560 215.75503 215.13046 214.59189 214.04678 212.77393 212.42284
 213.63777 213.97005 214.19792 215.52205 217.86441 221.54997 226.99701 231.40944
 234.97527 239.26575 243.86630 248.31902 252.23891 255.66475 258.77493 261.50452
 264.04797 266.61288 269.11456 271.36404 273.44174 275.41083 277.27127 278.96976
 280.45416 281.79193 282.97974 284.04553 284.96646 285.71811 286.42444 287.18958
 287.97217 288.67111 289.28168 290.05981
 366.78100 356.34650 345.79000 334.66750 323.08200 311.28750 299.16900 286.98349
 274.70699 262.61549 250.63599 239.94849 230.08199 221.19749 213.39099 206.40449
 200.24999 195.19949 191.79299 189.84649 188.89498 188.97048 189.81698 191.13648
 192.87298 194.97948 197.25398 199.62448 202.08098 204.57248 206.67198 208.52548
 210.16298 211.31947 211.55997 211.79947 211.74797 211.46447 211.10897 210.75047
 210.37897 210.10047 209.91997 209.79547 209.73497 210.07747 210.47496 210.87546
 211.67996 212.86946 214.13096 215.92546 217.86496 219.91946 222.02596 224.12046
 226.19196 228.28746 230.39596 232.51345 234.65395 236.83745 239.10495 241.48645
 244.11895 246.38145 248.39495 250.17145 251.59995 252.73445 253.56795 253.89545
 253.94394 253.72944 253.10094 252.06044 250.67794 248.85044 246.77094 244.61544
 242.41794 240.23344 238.06494 235.91544 233.78694 231.66543 229.70293 227.87143
 226.16593 224.64943 223.29093 222.07443 220.96793 219.93943 219.05493 218.20743
 217.46093 216.65243 215.76192 215.13742 214.59892 214.07381 212.84749 212.40034
 213.65762 214.03590 214.29877 215.58548 217.89468 221.54634 226.88252 231.28987
 234.87025 239.17070 243.76955 248.19861 252.10442 255.54951 258.68045 261.47009
 264.08243 266.67856 269.20026 271.44376 273.44650 275.37418 277.21872 278.89020
 280.33279 281.68768 282.84198 283.84811 284.72333 285.61145 286.52481 287.40436
 288.19540 288.89984 289.51523 290.29944
 366.78100 356.34595 345.78891 334.66586 323.07982 311.28477 299.16572 286.97968
 274.70263 262.61059 250.63054 239.94249 230.07545 221.19040 213.38336 206.39631
 200.24126 195.19022 191.78317 189.83613 188.88408 188.95903 189.80499 191.12394
 192.85990 194.96585 197.23980 199.60976 202.06571 204.55667 206.65562 208.50857
 210.14553 211.30148 211.54144 211.78039 211.72835 211.44430 211.08825 210.72921
 210.35716 210.07812 209.89707 209.77202 209.71098 210.05293 210.44989 210.84984
 211.65379 212.84275 214.10370 215.89766 217.83661 219.89056 221.99652 224.09047
 226.16143 228.25638 230.36433 232.48129 234.62124 236.80420 239.07115 241.45210
 244.08406 246.34601 248.35897 250.13492 251.56287 252.69683 253.52978 253.85674
 253.90469 253.68964 253.06060 252.01955 250.63651 248.80846 246.72841 244.57237
 242.37432 240.18928 238.02023 235.87018 233.74114 231.61909 229.65605 227.82400
 226.11795 224.60091 223.24186 222.02482 220.91777 219.88872 219.00368 218.15563
 217.40859 216.59954 215.70850 215.08345 214.54440 214.06192 212.92966 212.41689
 213.55876 213.96193 214.40732 215.82422 218.11037 221.66785 226.90454 231.29784
 234.83826 239.10973 243.67662 248.04892 251.90417 255.33022 258.47559 261.34637
 264.09280 266.81979 269.34454 271.55539 273.52170 275.30206 277.15445 278.84216
 280.18265 281.38730 282.58118 283.59131 284.49921 285.39456 286.27731 287.10464
 287.84872 288.51132 289.09018 289.82785
 366.78100 356.34505 345.78711 334.66316 323.07622 311.28027 299.16032 286.97338
 274.69543 262.60249 250.62154 239.93259 230.06465 221.17870 213.37076 206.38281
 200.22687 195.17492 191.76697 189.81903 188.86608 188.94014 189.78519 191.10324
 192.83830 194.94335 197.21641 199.58546 202.04051 204.53057 206.62862 208.48068
 210.11673 211.27178 211.51084 211.74889 211.69595 211.41100 211.05405 210.69411
 210.32116 210.04122 209.85927 209.73332 209.67138 210.01243 210.40849 210.80754
 211.61060 212.79865 214.05870 215.85176 217.78981 219.84287 221.94792 224.04097
 226.11103 228.20508 230.31214 232.42819 234.56724 236.74930 239.01535 241.39541
 244.02646 246.28751 248.29957 250.07462 251.50168 252.63473 253.46678 253.79284
 253.83989 253.62395 252.99400 251.95206 250.56811 248.73916 246.65822 244.50127
 242.30233 240.11638 237.94643 235.79549 233.66554 231.54260 229.57865 227.74570
 226.03876 224.52081 223.16087 221.94292 220.83497 219.80503 218.91908 218.07014
 217.32219 216.51224 215.62030 214.99435 214.45441 214.04401 213.06372 212.49605
 213.43420 213.94072 214.69463 216.13612 218.33052 221.83195 226.92061 231.28551
 234.83578 239.06436 243.59158 247.90131 251.66595 255.01190 258.04465 260.93051
 263.85046 266.76089 269.47522 271.68845 273.57809 275.28156 277.13287 278.76709
 280.08035 281.01956 281.94656 282.88348 283.86322 284.87173 285.79688 286.63498
 287.38876 288.06000 288.64639 289.39368
 366.78100 356.34465 345.78630 334.66196 323.07461 311.27826 299.15791 286.97056
 274.69222 262.59887 250.61752 239.92817 230.05982 221.17348 213.36513 206.37678
 200.22043 195.16808 191.75974 189.81139 188.85804 188.93169 189.77634 191.09400
 192.82865 194.93330 197.20595 199.57460 202.02926 204.51891 206.61656 208.46821
 210.10386 211.25852 211.49717 211.73482 211.68147 211.39612 211.03878 210.67843
 210.30508 210.02473 209.84238 209.71604 209.65369 209.99434 210.38999 210.78864
 211.59130 212.77895 214.03860 215.83125 217.76890 219.82156 221.92621 224.01886
 226.08851 228.18216 230.28882 232.40447 234.54312 236.72477 238.99042 241.37008
 244.00073 246.26138 248.27303 250.04768 251.47434 252.60699 253.43864 253.76429
 253.81094 253.59460 252.96425 251.92190 250.53755 248.70820 246.62686 244.46951
 242.27016 240.08381 237.91346 235.76212 233.63177 231.50842 229.54407 227.71072
 226.00338 224.48503 223.12468 221.90633 220.79798 219.76764 218.88129 218.03194
 217.28359 216.47324 215.58090 214.95455 214.41420 214.08971 213.20456 212.53281
 213.35965 214.19484 215.09802 216.38060 218.37791 221.81567 226.98480 231.28847
 234.88701 239.08926 243.53409 247.74162 251.47798 254.78561 257.76074 260.86441
 263.87195 266.59225 269.05588 271.15594 273.37234 275.52039 277.31287 278.71185
 279.89114 280.78345 281.43701 282.01086 282.50748 282.94687 283.34775 283.71091
 284.03754 284.32840 284.58249 284.90631
 366.78100 356.34440 345.78579 334.66119 323.07358 311.27698 299.15637 286.96877
 274.69016 262.59656 250.61495 239.92535 230.05674 221.17014 213.36153 206.37293
 200.21633 195.16372 191.75512 189.80651 188.85291 188.92630 189.77070 191.08809
 192.82249 194.92688 197.19928 199.56767 202.02207 204.51147 206.60886 208.46026
 210.09565 211.25005 211.48844 211.72584 211.67223 211.38663 211.02902 210.66842
 210.29481 210.01421 209.83160 209.70500 209.64240 209.98279 210.37819 210.77658
 211.57898 212.76637 214.02577 215.81816 217.75556 219.80795 221.91235 224.00474
 226.07414 228.16753 230.27393 232.38933 234.52772 236.70912 238.97451 241.35391
 243.98430 246.24470 248.25609 250.03049 251.45688 252.58928 253.42067 253.74607
 253.79246 253.57586 252.94526 251.90265 250.51805 248.68844 246.60684 244.44923
 242.24963 240.06302 237.89242 235.74081 233.61021 231.48660 229.52200 227.68840
 225.98079 224.46219 223.10158 221.88298 220.77437 219.74377 218.85716 218.00756
 217.25895 216.44835 215.55574 214.92914 214.38853 214.13486 213.30292 212.47339
 213.18022 214.25949 215.24184 216.60266 218.60962 221.83743 226.96068 231.31137
 234.93570 239.15277 243.59404 247.81119 251.58687 254.90366 257.89188 260.90875
 263.85980 266.55957 268.95502 271.26056 273.54785 275.56454 277.21481 278.59326
 279.56439 280.35559 281.04025 281.64142 282.16168 282.62201 283.04196 283.42239
 283.76459 284.06927 284.33548 284.67471
 366.78100 356.34346 345.78392 334.65839 323.06985 311.27231 299.15077 286.96224
 274.68270 262.58816 250.60562 239.91508 230.04555 221.15801 213.34847 206.35893
 200.20140 195.14786 191.73832 189.78878 188.83425 188.90671 189.75017 191.06663
 192.80009 194.90356 197.17502 199.54248 201.99594 204.48441 206.58087 208.43133
 210.06579 211.21925 211.45672 211.69318 211.63864 211.35210 210.99357 210.63203
 210.25749 209.97595 209.79242 209.66488 209.60134 209.94080 210.33526 210.73273
 211.53419 212.72065 213.97911 215.77058 217.70704 219.75850 221.86196 223.95342
 226.02189 228.11435 230.21981 232.33427 234.47174 236.65220 238.91666 241.29512
 243.92459 246.18405 248.19451 249.96797 251.39343 252.52490 253.35536 253.67982
 253.72528 253.50775 252.87621 251.83267 250.44713 248.61659 246.53406 244.37552
 242.17498 239.98744 237.81591 235.66337 233.53183 231.40729 229.44176 227.60722
 225.89868 224.37914 223.01760 221.79807 220.68853 219.65699 218.76945 217.91892
 217.16938 216.35784 215.46430 214.83676 214.29523 214.11943 213.42352 212.47932
 212.98862 214.10182 215.26358 216.75177 218.75717 221.93556 226.96075 231.31264
 234.93489 239.15210 243.60667 247.85776 251.64987 254.99315 257.96512 260.91180
 263.85016 266.52646 268.96115 271.31961 273.55444 275.47690 277.10583 278.40594
 279.33588 280.12610 280.80994 281.41037 281.92999 282.38974 282.80920 283.18918
 283.53094 283.83527 284.10114 284.43994
 366.78100 356.34141 345.77982 334.65224 323.06165 311.26206 299.13847 286.94788
 274.66630 262.56971 250.58512 239.89253 230.02094 221.13136 213.31977 206.32818
 200.16859 195.11300 191.70142 189.74983 188.79324 188.86365 189.70506 191.01947
 192.75089 194.85230 197.12171 199.48712 201.93853 204.42495 206.51936 208.36777
 210.00018 211.15159 211.38701 211.62142 211.56483 211.27624 210.91565 210.55207
 210.17548 209.89189 209.70630 209.57671 209.51113 209.84854 210.24095 210.63636
 211.43577 212.62019 213.87660 215.66601 217.60042 219.64983 221.75125 223.84066
 225.90707 227.99748 230.10089 232.21330 234.34872 236.52713 238.78954 241.16595
 243.79336 246.05078 248.05919 249.83060 251.25401 252.38342 253.21184 253.53425
 253.57766 253.35807 252.72448 251.67890 250.29131 248.45872 246.37413 244.21354
 242.01096 239.82137 237.64778 235.49319 233.35960 231.23302 229.26543 227.42884
 225.71825 224.19666 222.83308 221.61149 220.49990 219.46631 218.57672 217.72413
 216.97255 216.15896 215.26337 214.63378 214.09019 214.04968 213.57469 212.53099
 212.80396 213.85168 215.19296 216.80536 218.86751 222.09608 226.95389 231.30946
 234.92882 239.14941 243.58578 247.82021 251.64133 255.00441 257.96826 260.85580
 263.82510 266.51929 269.00302 271.39453 273.55133 275.36514 276.92630 278.07318
 278.98929 279.77457 280.45407 281.05072 281.56708 282.02393 282.44073 282.81833
 283.15793 283.46036 283.72455 284.06122
 366.78100 356.34041 345.77781 334.64922 323.05763 311.25703 299.13244 286.94085
 274.65825 262.56066 250.57507 239.88147 230.00888 221.11829 213.30569 206.31310
 200.15250 195.09591 191.68332 189.73072 188.77313 188.84254 189.68294 190.99635
 192.72676 194.82716 197.09557 199.45998 201.91038 204.39579 206.48920 208.33660
 209.96801 211.11842 211.35282 211.58623 211.52864 211.23904 210.87745 210.51286
 210.13526 209.85067 209.66407 209.53348 209.46689 209.80329 210.19470 210.58911
 211.38751 212.57092 213.82633 215.61473 217.54814 219.59655 221.69695 223.78536
 225.85077 227.94017 230.04258 232.15399 234.28839 236.46580 238.72721 241.10261
 243.72902 245.98543 247.99283 249.76324 251.18565 252.31405 253.14146 253.46286
 253.50527 253.28468 252.65008 251.60349 250.21490 248.38130 246.29571 244.13412
 241.93052 239.73993 237.56534 235.40974 233.27515 231.14756 229.17896 227.34137
 225.62978 224.10718 222.74259 221.52000 220.40740 219.37281 218.48222 217.62862
 216.87603 216.06143 215.16484 214.53425 213.98965 214.00880 213.67740 212.60934
 212.68292 213.68768 215.12511 216.80757 218.88460 222.12727 226.94849 231.31224
 234.95181 239.16759 243.58051 247.81874 251.68628 255.11914 258.12973 260.95438
 263.82132 266.55524 269.04315 271.43115 273.56860 275.36554 276.87589 277.95334
 278.81689 279.55710 280.19760 280.76004 281.24677 281.67740 282.07025 282.42618
 282.74631 283.03137 283.28040 283.59775
 366.78100 356.33954 345.77608 334.64663 323.05417 311.25271 299.12725 286.93480
 274.65134 262.55288 250.56642 239.87197 229.99851 221.10705 213.29359 206.30013
 200.13868 195.08122 191.66776 189.71430 188.75585 188.82439 189.66393 190.97647
 192.70601 194.80556 197.07310 199.43664 201.88618 204.37073 206.46327 208.30981
 209.94035 211.08990 211.32344 211.55598 211.49752 211.20706 210.84461 210.47915
 210.10069 209.81523 209.62778 209.49632 209.42886 209.76440 210.15495 210.54849
 211.34603 212.52857 213.78311 215.57066 217.50320 219.55074 221.65028 223.73783
 225.80237 227.89091 229.99245 232.10299 234.23654 236.41308 238.67362 241.04816
 243.67371 245.92925 247.93579 249.70533 251.12688 252.25442 253.08096 253.40150
 253.44304 253.22159 252.58613 251.53867 250.14921 248.31476 246.22830 244.06584
 241.86138 239.66993 237.49447 235.33801 233.20255 231.07409 229.10464 227.26618
 225.55372 224.03026 222.66481 221.44135 220.32789 219.29243 218.40098 217.54652
 216.79306 215.97760 215.08014 214.44869 213.90323 213.97041 213.76106 212.67325
 212.64136 213.64313 215.14183 216.91267 218.95177 222.11282 226.94717 231.26939
 234.91330 239.11307 243.49352 247.68620 251.53287 254.96022 258.01422 260.90558
 263.81668 266.56769 269.10709 271.44626 273.51306 275.24466 276.70944 278.34064
 280.55237 282.44815 284.08865 285.52911 286.77573 287.87863 288.88489 289.79648
 290.61636 291.34647 291.98428 292.79709
 366.78100 356.33957 345.77613 334.64670 323.05427 311.25284 299.12740 286.93497
 274.65154 262.55311 250.56667 239.87224 229.99881 221.10738 213.29394 206.30051
 200.13908 195.08165 191.66821 189.71478 188.75635 188.82492 189.66448 190.97705
 192.70662 194.80619 197.07375 199.43732 201.88689 204.37146 206.46402 208.31059
 209.94116 211.09073 211.32429 211.55686 211.49843 211.20800 210.84556 210.48013
 210.10170 209.81627 209.62883 209.49740 209.42997 209.76554 210.15610 210.54967
 211.34724 212.52981 213.78437 215.57194 217.50451 219.55208 221.65164 223.73921
 225.80378 227.89235 229.99391 232.10448 234.23805 236.41462 238.67518 241.04975
 243.67532 245.93089 247.93745 249.70702 251.12859 252.25616 253.08272 253.40329
 253.44486 253.22342 252.58799 251.54056 250.15113 248.31669 246.23026 244.06783
 241.86340 239.67196 237.49653 235.34010 233.20467 231.07623 229.10680 227.26837
 225.55594 224.03250 222.66707 221.44364 220.33021 219.29477 218.40334 217.54891
 216.79548 215.98004 215.08261 214.45118 213.90575 213.98598 213.80725 212.76439
 212.52002 213.39029 215.05669 216.99867 219.09669 222.26604 227.00822 231.32341
 234.93845 239.11287 243.44632 247.60236 251.41945 254.82303 257.85962 260.80154
 263.81104 266.63312 269.15509 271.47217 273.49878 275.08572 276.48907 278.55969
 280.78174 282.68637 284.33453 285.78171 287.03415 288.14221 289.15317 290.06900
 290.89270 291.62622 292.26700 293.08362
 366.78100 356.34207 345.78114 334.65421 323.06429 311.26536 299.14243 286.95250
 274.67157 262.57564 250.59171 239.89978 230.02886 221.13993 213.32900 206.33807
 200.17914 195.12421 191.71328 189.76235 188.80643 188.87750 189.71957 191.03464
 192.76671 194.86878 197.13885 199.50492 201.95700 204.44407 206.53914 208.38821
 210.02128 211.17335 211.40942 211.64449 211.58857 211.30064 210.94071 210.57778
 210.20185 209.91892 209.73399 209.60507 209.54014 209.87821 210.27128 210.66735
 211.46742 212.65249 213.90956 215.69964 217.63471 219.68478 221.78685 223.87692
 225.94399 228.03506 230.13913 232.25221 234.38828 236.56735 238.83042 241.20749
 243.83556 246.09363 248.10270 249.87478 251.29885 252.42892 253.25799 253.58106
 253.62513 253.40620 252.77327 251.72835 250.34142 248.50949 246.42556 244.26563
 242.06370 239.87477 237.70184 235.54792 233.41499 231.28906 229.32213 227.48620
 225.77627 224.25534 222.89242 221.67149 220.56056 219.52763 218.63870 217.78677
 217.03584 216.22291 215.32799 214.69906 214.15613 214.10129 213.76042 212.92366
 212.53717 213.20793 214.87202 216.85692 219.07922 222.29976 227.06267 231.38712
 235.01619 239.19817 243.54646 247.72462 251.58238 255.00975 258.03952 260.92569
 263.82257 266.64713 269.22864 271.56726 273.45221 274.93610 276.32452 278.49023
 280.62878 282.46185 284.04807 285.44089 286.64624 287.71268 288.68564 289.56708
 290.35983 291.06577 291.68246 292.46838
 366.78100 356.34308 345.78316 334.65725 323.06833 311.27041 299.14849 286.95957
 274.67965 262.58474 250.60182 239.91090 230.04098 221.15306 213.34315 206.35323
 200.19531 195.14139 191.73147 189.78156 188.82664 188.89872 189.74180 191.05788
 192.79096 194.89405 197.16513 199.53221 201.98529 204.47337 206.56946 208.41954
 210.05362 211.20670 211.44378 211.67987 211.62495 211.33803 210.97911 210.61719
 210.24227 209.96036 209.77644 209.64852 209.58460 209.92368 210.31777 210.71485
 211.51593 212.70201 213.96009 215.75118 217.68726 219.73834 221.84142 223.93250
 226.00058 228.09267 230.19775 232.31183 234.44891 236.62899 238.89308 241.27116
 243.90024 246.15932 248.16940 249.94249 251.36757 252.49865 253.32873 253.65281
 253.69789 253.47998 252.84806 251.80414 250.41822 248.58730 246.50439 244.34547
 242.14455 239.95663 237.78471 235.63180 233.49988 231.37496 229.40904 227.57412
 225.86520 224.34529 222.98337 221.76345 220.65353 219.62161 218.73370 217.88278
 217.13286 216.32094 215.42702 214.79911 214.25719 214.14076 213.74850 213.02269
 212.71600 213.34399 214.78447 216.63542 218.88675 222.19037 226.95570 231.36638
 235.02213 239.17686 243.48613 247.66144 251.55652 255.04366 258.11157 261.01004
 263.87656 266.68378 269.26547 271.54391 273.37378 274.82321 276.14743 277.63910
 279.53763 281.39166 282.99600 284.40472 285.62387 286.70248 287.68658 288.57809
 289.37991 290.09393 290.71768 291.51257
 366.78100 356.34308 345.78315 334.65723 323.06831 311.27039 299.14846 286.95954
 274.67962 262.58470 250.60177 239.91085 230.04093 221.15301 213.34308 206.35316
 200.19524 195.14132 191.73139 189.78147 188.82655 188.89863 189.74170 191.05778
 192.79086 194.89394 197.16501 199.53209 201.98517 204.47325 206.56932 208.41940
 210.05348 211.20656 211.44363 211.67971 211.62479 211.33787 210.97894 210.61702
 210.24210 209.96018 209.77625 209.64833 209.58441 209.92348 210.31756 210.71464
 211.51572 212.70179 213.95987 215.75095 217.68703 219.73810 221.84118 223.93226
 226.00034 228.09241 230.19749 232.31157 234.44865 236.62872 238.89280 241.27088
 243.89996 246.15903 248.16911 249.94219 251.36727 252.49834 253.32842 253.65250
 253.69758 253.47965 252.84773 251.80381 250.41789 248.58696 246.50404 244.34512
 242.14420 239.95627 237.78435 235.63143 233.49951 231.37458 229.40866 227.57374
 225.86482 224.34489 222.98297 221.76305 220.65312 219.62120 218.73328 217.88236
 217.13243 216.32051 215.42659 214.79867 214.25674 214.13939 213.77826 213.08577
 212.75574 213.43573 214.84439 216.58823 218.75909 222.18459 226.81659 231.29221
 234.94353 239.08514 243.35922 247.48813 251.34953 254.84904 257.97839 260.92798
 263.86240 266.70453 269.29620 271.53546 273.29605 274.75024 276.09949 277.41141
 278.63754 280.26898 281.91147 283.35367 284.60178 285.70602 286.71350 287.62619
 288.44705 289.17804 289.81662 290.63040
 366.78100 356.34361 345.78423 334.65884 323.07046 311.27307 299.15169 286.96330
 274.68392 262.58953 250.60714 239.91676 230.04737 221.15999 213.35060 206.36122
 200.20383 195.15044 191.74106 189.79167 188.83729 188.90990 189.75352 191.07013
 192.80375 194.90736 197.17897 199.54659 202.00020 204.48882 206.58543 208.43605
 210.07066 211.22428 211.46189 211.69850 211.64412 211.35773 210.99935 210.63796
 210.26358 209.98219 209.79880 209.67142 209.60803 209.94765 210.34226 210.73988
 211.54149 212.72811 213.98672 215.77833 217.71495 219.76656 221.87018 223.96179
 226.03041 228.12302 230.22864 232.34325 234.48086 236.66148 238.92609 241.30471
 243.93432 246.19394 248.20455 249.97816 251.40378 252.53539 253.36601 253.69062
 253.73624 253.51885 252.88747 251.84408 250.45869 248.62831 246.54592 244.38754
 242.18715 239.99977 237.82838 235.67600 233.54461 231.42022 229.45484 227.62045
 225.91207 224.39268 223.03130 221.81191 220.70252 219.67114 218.78375 217.93337
 217.18398 216.37260 215.47921 214.85183 214.31044 214.17142 213.78050 213.12000
 212.73851 213.42262 214.89854 216.66905 218.85074 222.22461 226.73206 231.24461
 234.88666 239.02126 243.27129 247.36591 251.21072 254.73462 257.93652 260.96255
 263.89508 266.72720 269.30881 271.53513 273.27826 274.72531 276.17072 277.52771
 278.50140 279.96396 281.64838 283.12744 284.40744 285.53992 286.57312 287.50912
 288.35095 289.10062 289.75552 290.59009
 366.78100 356.34300 345.78300 334.65700 323.06799 311.26999 299.14799 286.95899
 274.67899 262.58399 250.60099 239.90999 230.03998 221.15198 213.34198 206.35198
 200.19398 195.13998 191.72998 189.77998 188.82497 188.89697 189.73997 191.05597
 192.78897 194.89197 197.16297 199.52997 201.98296 204.47096 206.56696 208.41696
 210.05096 211.20396 211.44096 211.67695 211.62195 211.33495 210.97595 210.61395
 210.23895 209.95695 209.77295 209.64494 209.58094 209.91994 210.31394 210.71094
 211.51194 212.69794 213.95594 215.74693 217.68293 219.73393 221.83693 223.92793
 225.99593 228.08793 230.19293 232.30692 234.44392 236.62392 238.88792 241.26592
 243.89492 246.15392 248.16391 249.93691 251.36191 252.49291 253.32291 253.64691
 253.69191 253.47391 252.84190 251.79790 250.41190 248.58090 246.49790 244.33890
 242.13790 239.94990 237.77789 235.62489 233.49289 231.36789 229.40189 227.56689
 225.85789 224.33789 222.97588 221.75588 220.64588 219.61388 218.72588 217.87488
 217.12488 216.31287 215.41887 214.79087 214.24887 214.14931 213.83496 213.12405
 212.69609 213.33028 214.89725 216.77409 219.00452 222.32440 226.71667 231.22076
 234.83888 238.95773 243.18044 247.24376 251.08167 254.64613 257.93143 261.04437
 264.01004 266.74945 269.30475 271.49814 273.24289 274.70065 276.20047 277.52475
 278.45590 279.97113 281.61670 283.10242 284.38821 285.52579 286.56366 287.50391
 288.34955 289.10260 289.76047 290.59882
 366.78100 356.34260 345.78221 334.65581 323.06641 311.26802 299.14562 286.95622
 274.67582 262.58043 250.59703 239.90563 230.03524 221.14684 213.33644 206.34605
 200.18765 195.13325 191.72285 189.77246 188.81706 188.88866 189.73127 191.04687
 192.77947 194.88208 197.15268 199.51928 201.97189 204.45949 206.55509 208.40469
 210.03830 211.19090 211.42750 211.66311 211.60771 211.32031 210.96092 210.59852
 210.22312 209.94072 209.75633 209.62793 209.56353 209.90214 210.29574 210.69234
 211.49295 212.67855 213.93615 215.72676 217.66236 219.71296 221.81556 223.90617
 225.97377 228.06537 230.16998 232.28358 234.42018 236.59979 238.86339 241.24099
 243.86960 246.12820 248.13780 249.91040 251.33501 252.46561 253.29521 253.61882
 253.66342 253.44502 252.81263 251.76823 250.38183 248.55043 246.46704 244.30764
 242.10624 239.91785 237.74545 235.59205 233.45966 231.33426 229.36786 227.53247
 225.82307 224.30267 222.94027 221.71988 220.60948 219.57708 218.68869 217.83729
 217.08689 216.27450 215.38010 214.75170 214.20930 214.13181 213.88190 213.22249
 212.66193 213.16002 214.75441 216.76335 219.08844 222.41147 226.79825 231.25941
 234.84076 238.92491 243.11205 247.14777 250.98128 254.57576 257.92737 261.11816
 264.12122 266.84805 269.29196 271.44888 273.17993 274.67142 276.16025 277.47180
 278.36237 279.99310 281.61252 283.09256 284.37344 285.50668 286.54059 287.47723
 288.31964 289.06979 289.72513 290.56027
 366.78100 356.34299 345.78298 334.65697 323.06795 311.26994 299.14793 286.95892
 274.67891 262.58390 250.60088 239.90987 230.03986 221.15185 213.34184 206.35183
 200.19382 195.13980 191.72979 189.77978 188.82477 188.89676 189.73975 191.05574
 192.78872 194.89171 197.16270 199.52969 201.98268 204.47067 206.56665 208.41664
 210.05063 211.20362 211.44061 211.67660 211.62159 211.33457 210.97556 210.61355
 210.23854 209.95653 209.77252 209.64450 209.58049 209.91948 210.31347 210.71046
 211.51145 212.69744 213.95542 215.74641 217.68240 219.73339 221.83638 223.92737
 225.99536 228.08734 230.19233 232.30632 234.44331 236.62330 238.88729 241.26527
 243.89426 246.15325 248.16324 249.93623 251.36122 252.49221 253.32219 253.64618
 253.69117 253.47316 252.84115 251.79714 250.41112 248.58011 246.49710 244.33809
 242.13708 239.94907 237.77706 235.62404 233.49203 231.36702 229.40101 227.56600
 225.85699 224.33698 222.97496 221.75495 220.64494 219.61293 218.72492 217.87391
 217.12389 216.31188 215.41787 214.78986 214.24785 214.14995 213.88437 213.36182
 212.73956 213.07024 214.52736 216.56795 218.99927 222.41353 226.89142 231.30992
 234.87788 238.93246 243.09061 247.09795 250.91756 254.52078 257.91769 261.15961
 264.20029 266.96170 269.36023 271.41068 273.14438 274.63834 276.24887 277.59937
 278.48691 280.05515 281.64005 283.12195 284.40997 285.54953 286.58920 287.53110
 288.37820 289.13257 289.79153 290.63135
 366.78100 356.34210 345.78120 334.65430 323.06440 311.26550 299.14260 286.95270
 274.67180 262.57590 250.59200 239.90009 230.02919 221.14029 213.32939 206.33849
 200.17959 195.12469 191.71379 189.76289 188.80699 188.87809 189.72019 191.03529
 192.76739 194.86949 197.13959 199.50569 201.95779 204.44489 206.53999 208.38908
 210.02218 211.17428 211.41038 211.64548 211.58958 211.30168 210.94178 210.57888
 210.20298 209.92008 209.73518 209.60628 209.54138 209.87948 210.27258 210.66868
 211.46878 212.65388 213.91098 215.70107 217.63617 219.68627 221.78837 223.87847
 225.94557 228.03667 230.14077 232.25387 234.38997 236.56907 238.83217 241.20927
 243.83737 246.09547 248.10457 249.87667 251.30077 252.43087 253.25997 253.58307
 253.62716 253.40826 252.77536 251.73046 250.34356 248.51166 246.42776 244.26786
 242.06596 239.87706 237.70416 235.55026 233.41736 231.29146 229.32456 227.48866
 225.77876 224.25786 222.89496 221.67406 220.56315 219.53025 218.64135 217.78945
 217.03855 216.22565 215.33075 214.70185 214.15895 214.10788 213.94501 213.40543
 212.77068 213.14235 214.50551 216.42169 218.85048 222.32698 226.89610 231.31378
 234.89409 238.92018 243.04237 247.03569 250.85117 254.45325 257.87759 261.13498
 264.17014 266.92596 269.29675 271.34753 273.09451 274.63855 276.34988 277.72910
 278.69675 280.15662 281.71860 283.12766 284.40674 285.53839 286.57086 287.50620
 288.34744 289.09656 289.75098 290.58496
 366.78100 356.34032 345.77764 334.64896 323.05729 311.25661 299.13193 286.94025
 274.65757 262.55989 250.57422 239.88054 230.00786 221.11718 213.30450 206.31182
 200.15114 195.09447 191.68179 189.72911 188.77143 188.84075 189.68107 190.99440
 192.72472 194.82504 197.09336 199.45768 201.90800 204.39333 206.48665 208.33397
 209.96529 211.11561 211.34993 211.58325 211.52558 211.23590 210.87422 210.50954
 210.13186 209.84718 209.66051 209.52983 209.46315 209.79947 210.19079 210.58511
 211.38343 212.56676 213.82208 215.61040 217.54372 219.59204 221.69236 223.78069
 225.84601 227.93533 230.03765 232.14897 234.28329 236.46061 238.72194 241.09726
 243.72358 245.97990 247.98722 249.75754 251.17987 252.30819 253.13551 253.45683
 253.49915 253.27847 252.64379 251.59712 250.20844 248.37476 246.28908 244.12740
 241.92372 239.73305 237.55837 235.40269 233.26801 231.14033 229.17165 227.33398
 225.62230 224.09962 222.73494 221.51226 220.39958 219.36490 218.47423 217.62055
 216.86787 216.05319 215.15651 214.52583 213.98116 214.03183 214.06883 213.38976
 212.70277 213.20992 214.67624 216.51892 218.85043 222.29942 226.87914 231.26750
 234.87013 238.88187 242.98346 246.95978 250.75934 254.36143 257.82910 261.09943
 264.14670 266.88156 269.24979 271.25098 272.97058 274.52606 276.21130 277.47812
 278.62216 280.34024 281.90125 283.30774 284.54868 285.64658 286.64825 287.55569
 288.37183 289.09863 289.73352 290.54263
 366.78100 356.33892 345.77483 334.64475 323.05167 311.24959 299.12350 286.93042
 274.64634 262.54725 250.56017 239.86509 229.99101 221.09892 213.28484 206.29076
 200.12867 195.07059 191.65651 189.70243 188.74334 188.81126 189.65018 190.96209
 192.69101 194.78993 197.05685 199.41976 201.86868 204.35260 206.44451 208.29043
 209.92035 211.06927 211.30218 211.53410 211.47502 211.18393 210.82085 210.45477
 210.07569 209.78960 209.60152 209.46944 209.40135 209.73627 210.12619 210.51911
 211.31602 212.49794 213.75186 215.53877 217.47069 219.51761 221.61653 223.70344
 225.76736 227.85528 229.95619 232.06611 234.19903 236.37495 238.63486 241.00878
 243.63370 245.88861 247.89453 249.66345 251.08437 252.21128 253.03720 253.35712
 253.39803 253.17595 252.53987 251.49179 250.10170 248.26662 246.17954 244.01645
 241.81137 239.61929 237.44321 235.28612 233.15004 231.02096 229.05087 227.21179
 225.49871 223.97463 222.60854 221.38446 220.27038 219.23429 218.34221 217.48713
 216.73304 215.91696 215.01888 214.38680 213.84071 213.98660 214.18143 213.39949
 212.64842 213.19374 214.77690 216.63651 218.89774 222.31911 226.93452 231.26018
 234.86209 238.84567 242.92010 246.89340 250.68471 254.32816 257.83667 261.12665
 264.20370 266.92108 269.21133 271.16931 272.87762 274.45200 275.99512 277.32990
 278.85730 280.64114 282.33118 283.81512 285.09937 286.23557 287.27219 288.21130
 289.05594 289.80807 290.46515 291.30249
 366.78100 356.33906 345.77513 334.64519 323.05226 311.25032 299.12438 286.93145
 274.64751 262.54858 250.56164 239.86670 229.99277 221.10083 213.28690 206.29296
 200.13103 195.07309 191.65915 189.70522 188.74628 188.81435 189.65341 190.96547
 192.69454 194.79360 197.06067 199.42373 201.87279 204.35686 206.44892 208.29499
 209.92505 211.07411 211.30718 211.53924 211.48031 211.18937 210.82643 210.46050
 210.08156 209.79563 209.60769 209.47576 209.40782 209.74288 210.13295 210.52601
 211.32308 212.50514 213.75920 215.54627 217.47833 219.52540 221.62446 223.71152
 225.77559 227.86365 229.96472 232.07478 234.20784 236.38391 238.64397 241.01804
 243.64310 245.89817 247.90423 249.67329 251.09436 252.22142 253.04749 253.36755
 253.40861 253.18668 252.55074 251.50281 250.11287 248.27793 246.19100 244.02806
 241.82313 239.63119 237.45525 235.29832 233.16238 231.03345 229.06351 227.22457
 225.51164 223.98770 222.62177 221.39783 220.28390 219.24796 218.35602 217.50109
 216.74715 215.93122 215.03328 214.40134 213.85541 214.01712 214.21207 213.43449
 212.67046 213.15695 214.68637 216.57460 218.90277 222.25589 226.95894 231.25307
 234.84477 238.81584 242.88245 246.86729 250.65237 254.33864 257.87793 261.18365
 264.27219 267.02203 269.25000 271.12265 272.84467 274.44864 276.08752 277.63339
 279.86084 281.94257 283.74393 285.32568 286.69452 287.90561 289.01056 290.01154
 290.91183 291.71353 292.41388 293.30643
 366.78100 356.34108 345.77915 334.65123 323.06031 311.26038 299.13646 286.94553
 274.66361 262.56669 250.58176 239.88884 230.01692 221.12699 213.31507 206.32314
 200.16322 195.10730 191.69537 189.74345 188.78653 188.85660 189.69768 191.01175
 192.74283 194.84391 197.11298 199.47806 201.92914 204.41521 206.50929 208.35736
 209.98944 211.14052 211.37559 211.60967 211.55275 211.26382 210.90290 210.53897
 210.16205 209.87813 209.69220 209.56228 209.49636 209.83343 210.22551 210.62058
 211.41966 212.60374 213.85981 215.64889 217.58297 219.63204 221.73312 223.82219
 225.88827 227.97835 230.08142 232.19350 234.32858 236.50665 238.76873 241.14480
 243.77188 246.02896 248.03703 249.80811 251.23119 252.36026 253.18834 253.51041
 253.55349 253.33357 252.69964 251.65372 250.26580 248.43287 246.34795 244.18702
 241.98410 239.79418 237.62025 235.46533 233.33141 231.20448 229.23656 227.39963
 225.68871 224.16679 222.80286 221.58094 220.46902 219.43509 218.54517 217.69224
 216.94032 216.12640 215.23047 214.60055 214.05663 214.13197 214.15134 213.46436
 212.78479 213.20152 214.62886 216.48822 218.85803 222.22185 226.91243 231.22093
 234.79083 238.74533 242.81084 246.81529 250.61749 254.33115 257.88107 261.18539
 264.30002 267.05789 269.31305 271.08548 272.77921 274.47305 276.22214 278.47092
 280.97232 283.13632 285.00891 286.65320 288.07617 289.33514 290.48376 291.52432
 292.46021 293.29361 294.02164 294.94946
 366.78100 356.34231 345.78161 334.65492 323.06522 311.26653 299.14383 286.95414
 274.67344 262.57775 250.59405 239.90236 230.03166 221.14297 213.33227 206.34158
 200.18289 195.12819 191.71750 189.76680 188.81111 188.88241 189.72472 191.04002
 192.77233 194.87463 197.14494 199.51124 201.96355 204.45086 206.54616 208.39547
 210.02877 211.18108 211.41738 211.65269 211.59699 211.30930 210.94960 210.58691
 210.21121 209.92852 209.74382 209.61513 209.55044 209.88874 210.28205 210.67835
 211.47866 212.66396 213.92127 215.71157 217.64688 219.69718 221.79949 223.88979
 225.95710 228.04840 230.15271 232.26602 234.40232 236.58163 238.84493 241.22224
 243.85054 246.10885 248.11815 249.89046 251.31476 252.44507 253.27437 253.59768
 253.64199 253.42329 252.79060 251.74590 250.35921 248.52751 246.44382 244.28412
 242.08243 239.89373 237.72104 235.56734 233.43465 231.30895 229.34226 227.50657
 225.79687 224.27618 222.91348 221.69279 220.58209 219.54940 218.66070 217.80901
 217.05831 216.24562 215.35092 214.72223 214.17953 214.20442 214.12633 213.46924
 212.85146 213.27362 214.68979 216.49702 218.85614 222.24834 226.92740 231.23618
 234.76871 238.67892 242.72037 246.70845 250.51982 254.26440 257.82938 261.14645
 264.29089 267.05719 269.21268 270.96005 272.72940 274.44791 276.19974 278.31253
 280.73203 282.84610 284.67548 286.28183 287.67197 288.90189 290.02399 291.04056
 291.95483 292.76901 293.48026 294.38666
 366.78100 356.34162 345.78025 334.65287 323.06249 311.26312 299.13974 286.94936
 274.66799 262.57161 250.58723 239.89485 230.02348 221.13410 213.32272 206.33135
 200.17197 195.11659 191.70522 189.75384 188.79746 188.86809 189.70971 191.02433
 192.75596 194.85758 197.12720 199.49282 201.94445 204.43107 206.52569 208.37432
 210.00694 211.15856 211.39419 211.62881 211.57243 211.28406 210.92368 210.56030
 210.18393 209.90055 209.71517 209.58579 209.52042 209.85804 210.25066 210.64629
 211.44591 212.63053 213.88716 215.67678 217.61140 219.66103 221.76265 223.85227
 225.91890 228.00952 230.11314 232.22576 234.36139 236.54001 238.80263 241.17926
 243.80688 246.06450 248.07313 249.84475 251.26837 252.39800 253.22662 253.54924
 253.59287 253.37349 252.74011 251.69473 250.30736 248.47498 246.39060 244.23023
 242.02785 239.83847 237.66510 235.51072 233.37734 231.25097 229.28359 227.44721
 225.73684 224.21546 222.85208 221.63070 220.51933 219.48595 218.59657 217.74420
 216.99282 216.17944 215.28407 214.65469 214.11131 214.17805 214.18880 213.50468
 212.82211 213.18904 214.61023 216.46307 218.89265 222.34409 227.00223 231.31772
 234.82430 238.69466 242.70038 246.65990 250.47565 254.23878 257.80576 261.11960
 264.22839 266.93478 269.06735 270.89001 272.71771 274.46097 276.09961 277.81335
 280.11929 282.19284 283.98718 285.56271 286.92624 288.13257 289.23318 290.23029
 291.12704 291.92560 292.62323 293.51224
 366.78100 356.34104 345.77908 334.65111 323.06015 311.26019 299.13623 286.94527
 274.66330 262.56634 250.58138 239.88842 230.01646 221.12649 213.31453 206.32257
 200.16261 195.10665 191.69468 189.74272 188.78576 188.85580 189.69683 191.01087
 192.74191 194.84295 197.11199 199.47702 201.92806 204.41410 206.50814 208.35618
 209.98821 211.13925 211.37429 211.60833 211.55137 211.26240 210.90144 210.53748
 210.16052 209.87656 209.69059 209.56063 209.49467 209.83171 210.22375 210.61878
 211.41782 212.60186 213.85790 215.64694 217.58097 219.63001 221.73105 223.82009
 225.88613 227.97616 230.07920 232.19124 234.32628 236.50432 238.76635 241.14239
 243.76943 246.02647 248.03450 249.80554 251.22858 252.35762 253.18566 253.50769
 253.55073 253.33077 252.69681 251.65085 250.26288 248.42992 246.34496 244.18400
 241.98104 239.79107 237.61711 235.46215 233.32819 231.20123 229.23326 227.39630
 225.68534 224.16338 222.79942 221.57745 220.46549 219.43153 218.54157 217.68861
 216.93664 216.12268 215.22672 214.59676 214.05280 214.14554 214.23981 213.62508
 212.86076 213.04610 214.40578 216.23126 218.77536 222.37650 227.00697 231.38808
 234.89597 238.74890 242.72737 246.67680 250.53014 254.32234 257.92139 261.26340
 264.38016 267.10565 269.22827 270.87622 272.62378 274.39703 276.04434 277.62772
 279.61343 281.71722 283.53772 285.13626 286.51965 287.74359 288.86026 289.87189
 290.78174 291.59195 292.29974 293.20175
 366.78100 356.34142 345.77985 334.65227 323.06169 311.26211 299.13854 286.94796
 274.66638 262.56981 250.58523 239.89265 230.02108 221.13150 213.31992 206.32834
 200.16877 195.11319 191.70161 189.75004 188.79346 188.86388 189.70530 191.01973
 192.75115 194.85257 197.12200 199.48742 201.93884 204.42527 206.51969 208.36811
 210.00053 211.15196 211.38738 211.62180 211.56523 211.27665 210.91607 210.55249
 210.17592 209.89234 209.70676 209.57719 209.51161 209.84903 210.24145 210.63688
 211.43630 212.62072 213.87715 215.66657 217.60099 219.65042 221.75184 223.84126
 225.90768 227.99811 230.10153 232.21395 234.34938 236.52780 238.79022 241.16664
 243.79407 246.05149 248.05991 249.83134 251.25476 252.38418 253.21261 253.53503
 253.57845 253.35887 252.72530 251.67972 250.29214 248.45957 246.37499 244.21441
 242.01183 239.82226 237.64868 235.49410 233.36053 231.23395 229.26637 227.42980
 225.71922 224.19764 222.83406 221.61249 220.50091 219.46733 218.57776 217.72518
 216.97360 216.16002 215.26445 214.63487 214.09129 214.14850 214.22354 213.78668
 213.06561 213.06007 214.19930 215.99821 218.61145 222.31990 226.83124 231.31219
 234.80823 238.65593 242.62178 246.58954 250.48093 254.28743 257.91745 261.30264
 264.44836 267.24292 269.45294 271.11981 272.67874 274.44800 276.25983 277.89758
 279.33145 280.84680 282.52277 284.10333 285.47119 286.68137 287.78549 288.78574
 289.68536 290.48648 291.18631 292.07819
 366.78100 356.34207 345.78113 334.65420 323.06426 311.26533 299.14239 286.95246
 274.67152 262.57559 250.59165 239.89972 230.02878 221.13985 213.32891 206.33798
 200.17904 195.12411 191.71317 189.76224 188.80630 188.87737 189.71943 191.03450
 192.76656 194.86863 197.13869 199.50476 201.95682 204.44389 206.53895 208.38802
 210.02108 211.17315 211.40921 211.64428 211.58834 211.30041 210.94047 210.57754
 210.20160 209.91867 209.73373 209.60480 209.53986 209.87793 210.27099 210.66706
 211.46712 212.65219 213.90925 215.69932 217.63438 219.68445 221.78651 223.87658
 225.94364 228.03471 230.13877 232.25184 234.38790 236.56697 238.83003 241.20710
 243.83516 246.09323 248.10229 249.87436 251.29842 252.42849 253.25755 253.58062
 253.62468 253.40575 252.77281 251.72788 250.34094 248.50901 246.42507 244.26514
 242.06320 239.87427 237.70133 235.54740 233.41446 231.28853 229.32159 227.48566
 225.77572 224.25479 222.89185 221.67092 220.55998 219.52705 218.63811 217.78618
 217.03524 216.22231 215.32737 214.69844 214.15550 214.17719 214.19667 213.86110
 213.20915 213.19254 214.20222 215.91504 218.49269 222.18207 226.73688 231.16255
 234.64186 238.47267 242.43193 246.40607 250.31160 254.13870 257.77628 261.16226
 264.29776 267.08167 269.35507 271.08575 272.68433 274.51089 276.38031 277.98804
 279.32184 280.66885 282.14694 283.58600 284.88849 286.04083 287.09216 288.04462
 288.90125 289.66406 290.33044 291.17969
 366.78100 356.34228 345.78156 334.65484 323.06512 311.26640 299.14368 286.95396
 274.67324 262.57752 250.59380 239.90209 230.03137 221.14265 213.33193 206.34121
 200.18249 195.12777 191.71705 189.76633 188.81061 188.88189 189.72417 191.03945
 192.77173 194.87401 197.14429 199.51057 201.96285 204.45013 206.54541 208.39469
 210.02798 211.18026 211.41654 211.65182 211.59610 211.30838 210.94866 210.58594
 210.21022 209.92750 209.74278 209.61406 209.54934 209.88762 210.28090 210.67718
 211.47746 212.66274 213.92002 215.71030 217.64558 219.69587 221.79815 223.88843
 225.95571 228.04699 230.15127 232.26455 234.40083 236.58011 238.84339 241.22067
 243.84895 246.10723 248.11651 249.88879 251.31307 252.44335 253.27263 253.59591
 253.64019 253.42147 252.78876 251.74404 250.35732 248.52560 246.44188 244.28216
 242.08044 239.89172 237.71900 235.56528 233.43256 231.30684 229.34012 227.50440
 225.79468 224.27396 222.91124 221.69052 220.57980 219.54708 218.65836 217.80665
 217.05593 216.24321 215.34849 214.71977 214.17705 214.20102 214.21994 213.83926
 213.16394 213.23187 214.28111 215.98944 218.54585 222.21437 226.76894 231.15129
 234.60754 238.41910 242.38164 246.36513 250.27470 254.10622 257.75085 261.12704
 264.23914 266.98724 269.25607 271.00470 272.67279 274.57822 276.42526 277.96918
 279.21036 280.65536 282.21085 283.66974 284.96915 286.11880 287.16766 288.11789
 288.97250 289.73352 290.39835 291.24561
 366.78100 356.34174 345.78048 334.65321 323.06295 311.26369 299.14043 286.95017
 274.66890 262.57264 250.58838 239.89612 230.02485 221.13559 213.32433 206.33307
 200.17381 195.11854 191.70728 189.75602 188.79976 188.87050 189.71223 191.02697
 192.75871 194.86045 197.13018 199.49592 201.94766 204.43440 206.52914 208.37787
 210.01061 211.16235 211.39809 211.63283 211.57656 211.28830 210.92804 210.56478
 210.18851 209.90525 209.71999 209.59073 209.52547 209.86320 210.25594 210.65168
 211.45142 212.63616 213.89289 215.68263 217.61737 219.66711 221.76885 223.85858
 225.92532 228.01606 230.11980 232.23253 234.36827 236.54701 238.80975 241.18649
 243.81422 246.07196 248.08070 249.85244 251.27618 252.40591 253.23465 253.55739
 253.60113 253.38186 252.74860 251.70334 250.31608 248.48382 246.39955 244.23929
 242.03703 239.84777 237.67451 235.52024 233.38698 231.26072 229.29346 227.45720
 225.74693 224.22567 222.86241 221.64115 220.52988 219.49662 218.60736 217.75510
 217.00384 216.19057 215.29531 214.66605 214.12279 214.18349 214.27924 213.85495
 213.08972 213.08023 214.20964 216.01596 218.60641 222.27771 226.87016 231.20595
 234.65585 238.45171 242.42087 246.41748 250.32022 254.15221 257.79224 261.14410
 264.23032 266.94156 269.16287 270.90823 272.60385 274.51871 276.33670 277.88193
 279.19635 280.67264 282.22711 283.64661 284.91861 286.04401 287.07077 288.00095
 288.83752 289.58252 290.23331 291.06268
 366.78100 356.34052 345.77804 334.64956 323.05808 311.25760 299.13312 286.94164
 274.65916 262.56168 250.57620 239.88272 230.01024 221.11976 213.30729 206.31481
 200.15433 195.09785 191.68537 189.73289 188.77541 188.84493 189.68545 190.99897
 192.72949 194.83001 197.09853 199.46305 201.91357 204.39909 206.49261 208.34013
 209.97165 211.12217 211.35669 211.59021 211.53273 211.24325 210.88177 210.51729
 210.13982 209.85534 209.66886 209.53838 209.47190 209.80842 210.19994 210.59446
 211.39298 212.57650 213.83202 215.62054 217.55406 219.60258 221.70310 223.79162
 225.85714 227.94666 230.04918 232.16070 234.29522 236.47274 238.73426 241.10978
 243.73630 245.99282 248.00034 249.77087 251.19339 252.32191 253.14943 253.47095
 253.51347 253.29299 252.65851 251.61203 250.22355 248.39007 246.30459 244.14311
 241.93963 239.74915 237.57467 235.41919 233.28471 231.15723 229.18875 227.35127
 225.63979 224.11731 222.75283 221.53035 220.41787 219.38339 218.49292 217.63944
 216.88696 216.07248 215.17600 214.54552 214.00104 214.12816 214.36906 213.92049
 213.08562 212.96024 214.07735 215.95087 218.58757 222.27222 226.90657 231.20694
 234.65349 238.43358 242.40070 246.40683 250.31541 254.16093 257.80441 261.14389
 264.21307 266.89316 269.04068 270.74402 272.46701 274.54715 276.31903 277.75009
 279.06543 280.58853 282.13495 283.51566 284.78210 285.90262 286.92493 287.85104
 288.68399 289.42572 290.07370 290.89948
 366.78100 356.33968 345.77636 334.64704 323.05472 311.25340 299.12808 286.93576
 274.65244 262.55412 250.56779 239.87347 230.00015 221.10883 213.29551 206.30219
 200.14087 195.08355 191.67023 189.71691 188.75859 188.82727 189.66695 190.97963
 192.70931 194.80899 197.07667 199.44035 201.89002 204.37470 206.46738 208.31406
 209.94474 211.09442 211.32810 211.56078 211.50246 211.21214 210.84982 210.48450
 210.10618 209.82086 209.63354 209.50222 209.43490 209.77058 210.16126 210.55493
 211.35261 212.53529 213.78997 215.57765 217.51033 219.55801 221.65769 223.74537
 225.81005 227.89873 230.00041 232.11109 234.24477 236.42145 238.68213 241.05681
 243.68249 245.93817 247.94484 249.71452 251.13620 252.26388 253.09056 253.41124
 253.45292 253.23160 252.59628 251.54896 250.15964 248.32532 246.23900 244.07668
 241.87236 239.68104 237.50572 235.34940 233.21407 231.08575 229.11643 227.27811
 225.56579 224.04247 222.67715 221.45383 220.34051 219.30519 218.41387 217.55955
 216.80623 215.99091 215.09359 214.46227 213.91695 214.08928 214.43553 214.01881
 213.12643 212.92133 213.94781 215.83560 218.52034 222.23256 226.89253 231.18436
 234.62106 238.38826 242.35469 246.37167 250.29620 254.16187 257.81296 261.15186
 264.21655 266.89319 269.02454 270.73495 272.48795 274.47531 276.23758 277.67114
 278.95819 280.46545 282.00717 283.37137 284.62549 285.73950 286.75586 287.67661
 288.50473 289.24216 289.88638 290.70737
 366.78100 356.34009 345.77718 334.64828 323.05637 311.25546 299.13055 286.93865
 274.65574 262.55783 250.57192 239.87802 230.00511 221.11420 213.30129 206.30839
 200.14748 195.09057 191.67766 189.72475 188.76685 188.83594 189.67603 190.98912
 192.71922 194.81931 197.08740 199.45149 201.90159 204.38668 206.47977 208.32686
 209.95796 211.10805 211.34214 211.57523 211.51733 211.22742 210.86551 210.50060
 210.12269 209.83779 209.65088 209.51997 209.45306 209.78916 210.18025 210.57434
 211.37243 212.55553 213.81062 215.59871 217.53180 219.57990 221.67999 223.76808
 225.83317 227.92226 230.02436 232.13545 234.26954 236.44663 238.70773 241.08282
 243.70891 245.96500 247.97210 249.74219 251.16428 252.29237 253.11947 253.44056
 253.48265 253.26174 252.62684 251.57993 250.19102 248.35711 246.27120 244.10930
 241.90539 239.71448 237.53957 235.38367 233.24876 231.12085 229.15194 227.31404
 225.60213 224.07922 222.71431 221.49141 220.37850 219.34359 218.45268 217.59877
 216.84587 216.03096 215.13405 214.50314 213.95824 214.12175 214.44318 214.06401
 213.30060 213.03233 213.88066 215.71405 218.42392 222.17657 226.83861 231.13614
 234.55641 238.30717 242.27734 246.31248 250.24675 254.12679 257.77991 261.12448
 264.19174 266.85834 268.98096 270.69730 272.52185 274.46268 276.23257 277.57605
 278.80161 280.48914 282.03622 283.42676 284.66251 285.75583 286.75333 287.65698
 288.46976 289.19351 289.82574 290.63150
 366.78100 356.34062 345.77824 334.64986 323.05848 311.25810 299.13372 286.94234
 274.65996 262.56258 250.57720 239.88382 230.01144 221.12106 213.30868 206.31630
 200.15592 195.09954 191.68716 189.73478 188.77740 188.84702 189.68764 191.00126
 192.73188 194.83250 197.10112 199.46574 201.91636 204.40198 206.49560 208.34322
 209.97484 211.12546 211.36008 211.59370 211.53632 211.24694 210.88556 210.52118
 210.14380 209.85942 209.67304 209.54266 209.47628 209.81290 210.20452 210.59914
 211.39776 212.58138 213.83700 215.62562 217.55924 219.60786 221.70848 223.79710
 225.86272 227.95234 230.05496 232.16658 234.30120 236.47882 238.74044 241.11606
 243.74268 245.99930 248.00692 249.77754 251.20016 252.32878 253.15640 253.47802
 253.52064 253.30026 252.66588 251.61950 250.23112 248.39774 246.31236 244.15098
 241.94760 239.75722 237.58284 235.42746 233.29308 231.16570 229.19732 227.35994
 225.64856 224.12618 222.76180 221.53942 220.42704 219.39266 218.50228 217.64890
 216.89652 216.08214 215.18576 214.55538 214.01100 214.17909 214.46132 214.00722
 213.45964 213.24376 213.95097 215.70451 218.36047 222.11913 226.83122 231.06212
 234.48375 238.23833 242.21082 246.23770 250.19243 254.06287 257.71439 261.06790
 264.14951 266.78082 268.88510 270.66122 272.49466 274.47238 276.21399 277.61624
 278.79861 280.41129 281.97083 283.34024 284.52533 285.57385 286.53046 287.39706
 288.17648 288.87057 289.47690 290.24960
 366.78100 356.34054 345.77808 334.64962 323.05816 311.25770 299.13324 286.94178
 274.65932 262.56186 250.57639 239.88293 230.01047 221.12001 213.30755 206.31509
 200.15463 195.09817 191.68571 189.73325 188.77579 188.84533 189.68587 190.99941
 192.72995 194.83049 197.09903 199.46357 201.91410 204.39964 206.49318 208.34072
 209.97226 211.12280 211.35734 211.59088 211.53342 211.24396 210.88250 210.51804
 210.14058 209.85612 209.66966 209.53920 209.47274 209.80928 210.20081 210.59535
 211.39389 212.57743 213.83297 215.62151 217.55505 219.60359 221.70413 223.79267
 225.85821 227.94775 230.05029 232.16183 234.29637 236.47391 238.73545 241.11099
 243.73752 245.99406 248.00160 249.77214 251.19468 252.32322 253.15076 253.47230
 253.51484 253.29438 252.65992 251.61346 250.22500 248.39154 246.30608 244.14462
 241.94116 239.75070 237.57623 235.42077 233.28631 231.15885 229.19039 227.35293
 225.64147 224.11901 222.75455 221.53209 220.41963 219.38517 218.49471 217.64125
 216.88879 216.07433 215.17787 214.54741 214.00294 214.22105 214.51253 213.95340
 213.44466 213.24236 213.92239 215.83211 218.49844 222.11514 226.89503 231.06456
 234.45026 238.20667 242.19386 246.21654 250.16466 254.01433 257.65414 261.01526
 264.07520 266.66278 268.74875 270.63596 272.60043 274.55469 276.23816 277.60022
 278.59683 279.44644 280.18167 280.82724 281.38593 281.88022 282.33121 282.73975
 283.10718 283.43439 283.72025 284.08453
 366.78100 356.34051 345.77802 334.64953 323.05804 311.25755 299.13307 286.94158
 274.65909 262.56160 250.57611 239.88262 230.01013 221.11964 213.30715 206.31466
 200.15417 195.09769 191.68520 189.73271 188.77522 188.84473 189.68524 190.99875
 192.72926 194.82977 197.09828 199.46279 201.91331 204.39882 206.49233 208.33984
 209.97135 211.12186 211.35637 211.58988 211.53239 211.24290 210.88141 210.51693
 210.13944 209.85495 209.66846 209.53797 209.47148 209.80799 210.19950 210.59401
 211.39252 212.57603 213.83155 215.62006 217.55357 219.60208 221.70259 223.79110
 225.85661 227.94612 230.04863 232.16014 234.29465 236.47217 238.73368 241.10919
 243.73570 245.99221 247.99972 249.77023 251.19274 252.32125 253.14876 253.47028
 253.51279 253.29230 252.65781 251.61132 250.22283 248.38934 246.30385 244.14236
 241.93887 239.74838 237.57390 235.41841 233.28392 231.15643 229.18794 227.35045
 225.63896 224.11647 222.75198 221.52949 220.41700 219.38252 218.49203 217.63854
 216.88605 216.07156 215.17507 214.54458 214.00009 214.26241 214.56398 213.95689
 213.22675 212.86710 213.80229 215.81468 218.52069 222.26755 226.95171 231.16936
 234.56622 238.34271 242.33162 246.36209 250.31551 254.14738 257.77008 261.13358
 264.19250 266.79553 268.88394 270.67969 272.73035 274.60464 276.15479 277.45447
 278.58255 279.54950 280.38623 281.12094 281.75677 282.31934 282.83255 283.29752
 283.71570 284.08807 284.41339 284.82797
 366.78100 356.34223 345.78145 334.65468 323.06491 311.26614 299.14336 286.95359
 274.67282 262.57705 250.59327 239.90150 230.03073 221.14195 213.33118 206.34041
 200.18164 195.12686 191.71609 189.76532 188.80954 188.88077 189.72300 191.03823
 192.77045 194.87268 197.14291 199.50914 201.96136 204.44859 206.54382 208.39304
 210.02627 211.17850 211.41473 211.64995 211.59418 211.30641 210.94663 210.58386
 210.20809 209.92532 209.74054 209.61177 209.54700 209.88523 210.27845 210.67468
 211.47491 212.66013 213.91736 215.70759 217.64282 219.69304 221.79527 223.88550
 225.95272 228.04395 230.14818 232.26141 234.39763 236.57686 238.84009 241.21732
 243.84554 246.10377 248.11300 249.88522 251.30945 252.43968 253.26891 253.59213
 253.63636 253.41759 252.78481 251.74004 250.35327 248.52150 246.43772 244.27795
 242.07618 239.88741 237.71463 235.56086 233.42809 231.30231 229.33554 227.49977
 225.79000 224.26922 222.90645 221.68568 220.57490 219.54213 218.65336 217.80159
 217.05081 216.23804 215.34327 214.71450 214.17172 214.34566 214.55894 214.07755
 213.24615 212.63394 213.52718 215.54793 218.42036 222.18454 226.96208 231.19481
 234.60271 238.42676 242.49167 246.58545 250.57288 254.45071 258.14810 261.57797
 264.70383 267.44156 269.70557 271.41025 272.66379 274.63498 276.25229 277.62885
 278.82364 279.84775 280.73395 281.51212 282.18555 282.78134 283.32492 283.81738
 284.26028 284.65469 284.99924 285.43832
 366.78100 356.34440 345.78581 334.66121 323.07361 311.27701 299.15642 286.96882
 274.69022 262.59662 250.61503 239.92543 230.05683 221.17023 213.36164 206.37304
 200.21644 195.16384 191.75525 189.80665 188.85305 188.92645 189.77086 191.08826
 192.82266 194.92706 197.19947 199.56787 202.02227 204.51167 206.60908 208.46048
 210.09588 211.25028 211.48869 211.72609 211.67249 211.38689 211.02930 210.66870
 210.29510 210.01450 209.83191 209.70531 209.64271 209.98311 210.37852 210.77692
 211.57932 212.76672 214.02613 215.81853 217.75593 219.80833 221.91274 224.00514
 226.07454 228.16794 230.27435 232.38975 234.52815 236.70955 238.97496 241.35436
 243.98476 246.24516 248.25657 250.03097 251.45737 252.58977 253.42118 253.74658
 253.79298 253.57638 252.94579 251.90319 250.51859 248.68899 246.60740 244.44980
 242.25020 240.06360 237.89301 235.74141 233.61081 231.48721 229.52262 227.68902
 225.98142 224.46282 223.10223 221.88363 220.77503 219.74443 218.85784 218.00824
 217.25964 216.44904 215.55645 214.92985 214.38925 214.42102 214.45753 214.21703
 213.64844 213.02997 213.40770 215.18170 218.05009 221.99365 226.60638 230.98489
 234.40726 238.25877 242.32428 246.42548 250.41397 254.26341 257.93939 261.35892
 264.49094 267.34586 269.87604 271.95425 273.42703 274.56479 276.08795 277.74191
 279.47821 281.27640 283.01691 284.54517 285.86777 287.03793 288.10550 289.07266
 289.94254 290.71713 291.39383 292.25620
 366.78100 356.34435 345.78569 334.66104 323.07339 311.27673 299.15608 286.96843
 274.68977 262.59612 250.61447 239.92482 230.05616 221.16951 213.36086 206.37220
 200.21555 195.16290 191.75424 189.80559 188.85194 188.92528 189.76963 191.08698
 192.82132 194.92567 197.19802 199.56636 202.02071 204.51006 206.60740 208.45875
 210.09410 211.24845 211.48679 211.72414 211.67049 211.38483 211.02718 210.66653
 210.29287 210.01222 209.82957 209.70291 209.64026 209.98061 210.37595 210.77430
 211.57665 212.76399 214.02334 215.81569 217.75303 219.80538 221.90973 224.00208
 226.07142 228.16477 230.27112 232.38646 234.52481 236.70616 238.97150 241.35085
 243.98120 246.24154 248.25289 250.02724 251.45358 252.58593 253.41728 253.74262
 253.78897 253.57232 252.94166 251.89901 250.51436 248.68471 246.60305 244.44540
 242.24575 240.05909 237.88844 235.73679 233.60613 231.48248 229.51783 227.68417
 225.97652 224.45787 223.09721 221.87856 220.76991 219.73925 218.85260 218.00295
 217.25429 216.44364 215.55099 214.92434 214.38368 214.39980 214.42703 214.25578
 213.73361 213.22237 213.50859 215.12134 217.89906 221.73988 226.49892 230.71823
 234.21365 238.05132 242.11659 246.21574 250.19028 254.00793 257.62112 260.94730
 263.95865 266.70847 269.24310 271.48358 273.30634 274.76181 276.08173 277.51871
 279.05478 280.40979 281.61847 282.80145 283.93405 285.05490 286.10333 287.05310
 287.90735 288.66803 289.33255 290.17941
 366.78100 356.34263 345.78227 334.65590 323.06654 311.26817 299.14581 286.95644
 274.67607 262.58071 250.59734 239.90598 230.03561 221.14724 213.33688 206.34651
 200.18815 195.13378 191.72342 189.77305 188.81768 188.88932 189.73195 191.04759
 192.78022 194.88285 197.15349 199.52012 201.97276 204.46039 206.55603 208.40566
 210.03929 211.19193 211.42856 211.66420 211.60883 211.32146 210.96210 210.59973
 210.22437 209.94200 209.75764 209.62927 209.56490 209.90354 210.29717 210.69381
 211.49444 212.68007 213.93771 215.72834 217.66398 219.71461 221.81725 223.90788
 225.97551 228.06715 230.17178 232.28542 234.42205 236.60168 238.86532 241.24295
 243.87159 246.13022 248.13986 249.91249 251.33712 252.46776 253.29739 253.62103
 253.66566 253.44729 252.81493 251.77056 250.38420 248.55283 246.46947 244.31010
 242.10873 239.92037 237.74800 235.59464 233.46227 231.33690 229.37054 227.53517
 225.82581 224.30544 222.94308 221.72271 220.61234 219.57998 218.69161 217.84025
 217.08988 216.27752 215.38315 214.75478 214.21242 214.31232 214.53641 214.32953
 213.56828 213.08083 213.52885 215.16302 217.88138 221.70895 226.58882 230.64046
 234.21941 238.04524 242.13454 246.25797 250.24663 254.07048 257.69931 260.99731
 263.88000 266.45404 268.90948 271.24200 273.08105 274.49716 275.80545 277.21304
 278.68369 280.18030 281.59778 282.67502 283.51831 284.48575 285.44257 286.41278
 287.28540 288.06247 288.74133 289.60641
 366.78100 356.34150 345.78001 334.65251 323.06201 311.26251 299.13902 286.94852
 274.66702 262.57052 250.58603 239.89353 230.02203 221.13253 213.32104 206.32954
 200.17004 195.11454 191.70305 189.75155 188.79505 188.86555 189.70706 191.02156
 192.75306 194.85456 197.12407 199.48957 201.94107 204.42757 206.52208 208.37058
 210.00308 211.15459 211.39009 211.62459 211.56809 211.27960 210.91910 210.55560
 210.17910 209.89561 209.71011 209.58061 209.51511 209.85262 210.24512 210.64062
 211.44012 212.62463 213.88113 215.67063 217.60513 219.65464 221.75614 223.84564
 225.91214 228.00265 230.10615 232.21865 234.35416 236.53266 238.79516 241.17166
 243.79917 246.05667 248.06517 249.83667 251.26018 252.38968 253.21818 253.54068
 253.58419 253.36469 252.73119 251.68569 250.29820 248.46570 246.38120 244.22070
 242.01821 239.82871 237.65521 235.50071 233.36722 231.24072 229.27322 227.43672
 225.72623 224.20473 222.84123 221.61974 220.50824 219.47474 218.58524 217.73275
 216.98125 216.16775 215.27225 214.64276 214.09926 214.27933 214.65959 214.33151
 213.42667 212.78810 213.50121 215.41589 218.15976 221.90596 226.72717 230.87642
 234.27681 238.11380 242.19817 246.32893 250.31804 254.14697 257.78867 261.12653
 263.97455 266.44263 268.74332 270.93295 272.75140 274.14066 275.62875 277.18393
 278.54025 279.90088 281.19669 282.31223 283.42419 284.50064 285.48276 286.37247
 287.17267 287.88525 288.50775 289.30106
 366.78100 356.34369 345.78438 334.65907 323.07075 311.27344 299.15213 286.96382
 274.68451 262.59020 250.60789 239.91758 230.04826 221.16095 213.35164 206.36233
 200.20502 195.15171 191.74240 189.79309 188.83877 188.91146 189.75515 191.07184
 192.80553 194.90922 197.18091 199.54860 202.00228 204.49097 206.58766 208.43835
 210.07304 211.22673 211.46442 211.70110 211.64679 211.36048 211.00217 210.64086
 210.26655 209.98524 209.80193 209.67461 209.61130 209.95099 210.34568 210.74337
 211.54506 212.73175 213.99044 215.78212 217.71881 219.77050 221.87419 223.96588
 226.03457 228.12726 230.23295 232.34763 234.48532 236.66601 238.93070 241.30939
 243.93908 246.19877 248.20945 249.98314 251.40883 252.54052 253.37121 253.69590
 253.74159 253.52428 252.89296 251.84965 250.46434 248.63403 246.55172 244.39341
 242.19310 240.00579 237.83447 235.68216 233.55085 231.42654 229.46123 227.62692
 225.91861 224.39930 223.03798 221.81867 220.70936 219.67805 218.79074 217.94043
 217.19112 216.37980 215.48649 214.85918 214.31787 214.42531 214.62720 214.37431
 213.45729 212.60320 213.30762 215.41515 218.23486 222.00497 226.97444 231.03973
 234.43060 238.26114 242.33742 246.44989 250.43913 254.27145 257.90277 261.20743
 264.03192 266.49197 268.76831 270.82315 272.41061 274.03867 275.81818 277.34824
 278.71030 280.06741 281.62628 282.99506 284.17963 285.22769 286.18387 287.05011
 287.82916 288.52295 289.12903 289.90137
 366.78100 356.34592 345.78884 334.66575 323.07967 311.28459 299.16551 286.97943
 274.70235 262.61026 250.63018 239.94210 230.07502 221.18994 213.38285 206.39577
 200.24069 195.18961 191.78253 189.83545 188.88336 188.95828 189.80420 191.12312
 192.85904 194.96495 197.23887 199.60879 202.06471 204.55563 206.65455 208.50746
 210.14438 211.30030 211.54022 211.77914 211.72705 211.44297 211.08689 210.72781
 210.35573 210.07665 209.89556 209.77048 209.70940 210.05132 210.44824 210.84815
 211.65207 212.84099 214.10191 215.89583 217.83474 219.88866 221.99458 224.08850
 226.15942 228.25434 230.36225 232.47917 234.61909 236.80201 239.06893 241.44984
 244.08176 246.34368 248.35660 250.13252 251.56044 252.69435 253.52727 253.85419
 253.90211 253.68703 253.05794 252.01686 250.63378 248.80570 246.72562 244.56954
 242.37145 240.18637 238.01729 235.86721 233.73813 231.61604 229.65296 227.82088
 226.11480 224.59772 223.23864 222.02155 220.91447 219.88539 219.00031 218.15223
 217.40514 216.59606 215.70498 215.07990 214.54082 214.55527 214.57672 214.48878
 213.67566 212.45004 212.89865 215.09016 217.98882 221.88136 226.92015 231.04277
 234.46162 238.33266 242.46150 246.62852 250.65485 254.51804 258.19141 261.56201
 264.48709 266.98267 269.18237 271.16565 272.60742 274.09320 275.87683 277.37106
 278.67581 280.54437 282.18854 283.63223 284.88162 285.98703 286.99554 287.90918
 288.73090 289.46262 290.10187 290.91650
 366.78100 356.34613 345.78926 334.66639 323.08052 311.28566 299.16679 286.98092
 274.70405 262.61218 250.63231 239.94444 230.07757 221.19270 213.38583 206.39897
 200.24410 195.19323 191.78636 189.83949 188.88762 188.96275 189.80888 191.12801
 192.86414 194.97028 197.24441 199.61454 202.07067 204.56180 206.66093 208.51406
 210.15119 211.30732 211.54746 211.78659 211.73472 211.45085 211.09498 210.73611
 210.36424 210.08537 209.90450 209.77963 209.71877 210.06090 210.45803 210.85816
 211.66229 212.85142 214.11255 215.90668 217.84581 219.89994 222.00608 224.10021
 226.17134 228.26647 230.37460 232.49173 234.63186 236.81499 239.08212 241.46326
 244.09539 246.35752 248.37065 250.14678 251.57491 252.70904 253.54217 253.86930
 253.91743 253.70257 253.07370 252.03283 250.64996 248.82209 246.74222 244.58635
 242.38848 240.20361 238.03474 235.88488 233.75601 231.63414 229.67127 227.83940
 226.13353 224.61666 223.25779 222.04092 220.93406 219.90519 219.02032 218.17245
 217.42558 216.61671 215.72584 215.10097 214.56210 214.56561 214.56773 214.53072
 214.06015 212.80106 212.80205 214.71873 217.63693 221.67506 226.53593 230.79517
 234.24606 238.16560 242.33510 246.52852 250.56470 254.43234 258.12711 261.56610
 264.62531 267.26761 269.58548 271.70673 273.34631 274.31830 275.73422 277.20758
 278.73337 280.40155 282.04626 283.56000 284.87000 286.02902 287.08646 288.04440
 288.90598 289.67322 290.34344 291.19760
 366.78100 356.34601 345.78901 334.66602 323.08002 311.28503 299.16603 286.98004
 274.70305 262.61105 250.63106 239.94306 230.07607 221.19107 213.38408 206.39709
 200.24209 195.19110 191.78410 189.83711 188.88512 188.96012 189.80613 191.12513
 192.86114 194.96714 197.24115 199.61116 202.06716 204.55817 206.65717 208.51018
 210.14718 211.30319 211.54320 211.78220 211.73021 211.44621 211.09022 210.73122
 210.35923 210.08024 209.89924 209.77425 209.71325 210.05526 210.45226 210.85227
 211.65628 212.84528 214.10629 215.90029 217.83930 219.89331 221.99931 224.09332
 226.16432 228.25933 230.36733 232.48434 234.62435 236.80735 239.07436 241.45536
 244.08737 246.34937 248.36238 250.13839 251.56639 252.70040 253.53340 253.86041
 253.90841 253.69342 253.06443 252.02343 250.64044 248.81244 246.73245 244.57645
 242.37846 240.19347 238.02447 235.87448 233.74548 231.62349 229.66050 227.82850
 226.12251 224.60551 223.24652 222.02952 220.92253 219.89354 219.00854 218.16055
 217.41355 216.60456 215.71356 215.08857 214.54958 214.56024 214.57648 214.48645
 214.11475 213.14520 213.03557 214.65518 217.48381 221.45192 226.31073 230.58760
 234.06750 238.00710 242.18460 246.36234 250.35609 254.16147 257.78488 261.16818
 264.21973 266.92377 269.38464 271.65326 273.50754 274.64539 275.67294 277.22037
 278.78677 280.31824 281.86670 283.26215 284.60678 285.80328 286.89487 287.88379
 288.77322 289.56525 290.25717 291.13892
 366.78100 356.34599 345.78897 334.66596 323.07995 311.28494 299.16592 286.97991
 274.70290 262.61089 250.63087 239.94286 230.07585 221.19084 213.38382 206.39681
 200.24180 195.19079 191.78377 189.83676 188.88475 188.95974 189.80572 191.12471
 192.86070 194.96669 197.24067 199.61066 202.06665 204.55764 206.65662 208.50961
 210.14660 211.30259 211.54257 211.78156 211.72955 211.44554 211.08952 210.73051
 210.35850 210.07949 209.89847 209.77346 209.71245 210.05444 210.45142 210.85141
 211.65540 212.84438 214.10537 215.89936 217.83835 219.89233 221.99832 224.09231
 226.16330 228.25828 230.36627 232.48326 234.62325 236.80623 239.07322 241.45421
 244.08620 246.34818 248.36117 250.13716 251.56515 252.69913 253.53212 253.85911
 253.90710 253.69208 253.06307 252.02206 250.63905 248.81103 246.73102 244.57501
 242.37700 240.19198 238.02297 235.87296 233.74395 231.62193 229.65892 227.82691
 226.12090 224.60388 223.24487 222.02786 220.92085 219.89183 219.00682 218.15881
 217.41179 216.60278 215.71177 215.08676 214.54774 214.56966 214.60893 214.47318
 213.98665 212.99919 213.21165 214.91705 217.55127 221.39780 226.30620 230.56247
 234.06294 238.01756 242.22008 246.41998 250.40883 254.17703 257.73245 261.02747
 263.98123 266.59555 269.04550 271.34482 273.19229 274.43726 275.55991 277.09460
 278.83856 280.46539 282.04034 283.44400 284.75705 285.98712 287.10941 288.12610
 289.04050 289.85477 290.56610 291.47263
 366.78100 356.34604 345.78907 334.66611 323.08014 311.28518 299.16621 286.98025
 274.70328 262.61132 250.63135 239.94339 230.07642 221.19146 213.38449 206.39753
 200.24256 195.19160 191.78463 189.83767 188.88570 188.96074 189.80677 191.12581
 192.86184 194.96788 197.24192 199.61195 202.06799 204.55902 206.65806 208.51109
 210.14813 211.30416 211.54420 211.78323 211.73127 211.44730 211.09134 210.73237
 210.36041 210.08144 209.90048 209.77551 209.71455 210.05658 210.45362 210.85365
 211.65769 212.84673 214.10776 215.90180 217.84083 219.89487 222.00090 224.09494
 226.16597 228.26101 230.36904 232.48608 234.62611 236.80915 239.07618 241.45722
 244.08925 246.35129 248.36432 250.14036 251.56839 252.70243 253.53546 253.86250
 253.91053 253.69557 253.06661 252.02564 250.64268 248.81471 246.73475 244.57878
 242.38082 240.19585 238.02689 235.87692 233.74796 231.62599 229.66303 227.83106
 226.12510 224.60813 223.24917 222.03220 220.92524 219.89627 219.01131 218.16334
 217.41638 216.60742 215.71645 215.09149 214.55252 214.58569 214.64980 214.51646
 213.92834 212.90353 213.23940 214.94487 217.53555 221.38867 226.29100 230.54475
 234.05034 238.03687 242.28606 246.54288 250.57881 254.36674 257.90454 261.15930
 264.04492 266.56616 268.92258 271.14709 272.87906 274.08231 275.48346 277.11819
 278.84879 280.62256 282.20422 283.57870 284.79068 285.86301 286.84131 287.72760
 288.52472 289.23456 289.85468 290.64493
 366.78100 356.34605 345.78911 334.66616 323.08021 311.28526 299.16632 286.98037
 274.70342 262.61148 250.63153 239.94358 230.07663 221.19169 213.38474 206.39779
 200.24285 195.19190 191.78495 189.83801 188.88606 188.96111 189.80716 191.12622
 192.86227 194.96832 197.24238 199.61243 202.06848 204.55953 206.65859 208.51164
 210.14869 211.30475 211.54480 211.78385 211.73190 211.44796 211.09201 210.73306
 210.36112 210.08217 209.90122 209.77628 209.71533 210.05738 210.45443 210.85449
 211.65854 212.84759 214.10865 215.90270 217.84175 219.89580 222.00186 224.09591
 226.16696 228.26202 230.37007 232.48712 234.62717 236.81023 239.07728 241.45833
 244.09039 246.35244 248.36549 250.14154 251.56960 252.70365 253.53670 253.86376
 253.91181 253.69686 253.06792 252.02697 250.64402 248.81607 246.73613 244.58018
 242.38223 240.19729 238.02834 235.87839 233.74944 231.62750 229.66455 227.83260
 226.12666 224.60971 223.25076 222.03381 220.92687 219.89792 219.01297 218.16503
 217.41808 216.60913 215.71818 215.09324 214.55429 214.59830 214.68834 214.58846
 213.99686 212.91162 213.08684 214.75934 217.45569 221.38637 226.27824 230.49464
 233.99236 237.99866 242.28957 246.59967 250.67268 254.49191 258.05521 261.33170
 264.22711 266.71878 268.98608 271.13361 272.71616 273.89371 275.48120 277.16544
 278.95468 280.72748 282.29800 283.68158 284.87366 285.92834 286.89056 287.76230
 288.54633 289.24448 289.85440 290.63165
 366.78100 356.34664 345.79028 334.66792 323.08256 311.28820 299.16984 286.98448
 274.70813 262.61677 250.63741 239.95005 230.08369 221.19933 213.39297 206.40661
 200.25225 195.20189 191.79553 189.84917 188.89781 188.97345 189.82009 191.13974
 192.87638 194.98302 197.25766 199.62830 202.08494 204.57658 206.67622 208.52986
 210.16750 211.32414 211.56478 211.80442 211.75306 211.46971 211.11435 210.75599
 210.38463 210.10627 209.92591 209.80155 209.74119 210.08383 210.48147 210.88211
 211.68675 212.87639 214.13803 215.93267 217.87232 219.92696 222.03360 224.12824
 226.19988 228.29552 230.40416 232.52180 234.66244 236.84608 239.11372 241.49536
 244.12800 246.39064 248.40428 250.18093 251.60957 252.74421 253.57785 253.90549
 253.95413 253.73977 253.11141 252.07105 250.68869 248.86133 246.78197 244.62661
 242.42925 240.24489 238.07654 235.92718 233.79882 231.67746 229.71510 227.88374
 226.17838 224.66202 223.30366 222.08730 220.98094 219.95258 219.06822 218.22086
 217.47450 216.66615 215.77579 215.15143 214.61307 214.64081 214.69615 214.62857
 214.13788 213.02347 212.88429 214.49359 217.35742 221.38257 226.28712 230.45718
 233.92336 237.93300 242.24477 246.56558 250.65347 254.49075 258.08810 261.41852
 264.37665 266.91348 269.16183 271.22787 272.79343 273.99094 275.48489 277.22864
 279.08069 280.86768 282.48453 284.06839 285.44373 286.66055 287.77072 288.77646
 289.68100 290.48651 291.19019 292.08691
 366.78100 356.34757 345.79213 334.67070 323.08627 311.29283 299.17540 286.99097
 274.71554 262.62510 250.64667 239.96024 230.09480 221.21137 213.40594 206.42050
 200.26707 195.21764 191.81220 189.86677 188.91634 188.99290 189.84047 191.16104
 192.89861 195.00617 197.28174 199.65331 202.11087 204.60344 206.70401 208.55857
 210.19714 211.35471 211.59627 211.83684 211.78641 211.50397 211.14954 210.79211
 210.42168 210.14424 209.96481 209.84138 209.78194 210.12551 210.52408 210.92564
 211.73121 212.92178 214.18434 215.97991 217.92048 219.97604 222.08361 224.17918
 226.25175 228.34831 230.45788 232.57645 234.71801 236.90258 239.17115 241.55371
 244.18728 246.45085 248.46541 250.24298 251.67255 252.80812 253.64268 253.97125
 254.02082 253.80738 253.17995 252.14052 250.75908 248.93265 246.85422 244.69978
 242.50335 240.31992 238.15248 236.00405 233.87662 231.75619 229.79475 227.96432
 226.25989 224.74445 223.38702 222.17159 221.06615 220.03872 219.15529 218.30885
 217.56342 216.75599 215.86655 215.24312 214.70569 214.70126 214.68103 214.59943
 214.27545 213.25555 212.82170 214.25066 217.23026 221.34413 226.25586 230.39699
 233.83943 237.85182 242.17419 246.49605 250.57312 254.39877 258.00821 261.39047
 264.43701 267.06497 269.35385 271.44464 273.06158 274.28342 275.63016 277.35132
 279.23917 281.03271 282.66934 284.26193 285.64017 286.85953 287.97205 288.97989
 289.88632 290.69354 291.39868 292.29730
 366.78100 356.34777 345.79254 334.67131 323.08708 311.29385 299.17662 286.99239
 274.71716 262.62693 250.64870 239.96247 230.09724 221.21401 213.40878 206.42355
 200.27032 195.22109 191.81587 189.87064 188.92041 188.99718 189.84495 191.16572
 192.90349 195.01126 197.28703 199.65880 202.11657 204.60934 206.71011 208.56488
 210.20365 211.36142 211.60319 211.84396 211.79373 211.51150 211.15727 210.80004
 210.42981 210.15258 209.97335 209.85012 209.79089 210.13466 210.53343 210.93520
 211.74097 212.93174 214.19451 215.99028 217.93105 219.98683 222.09460 224.19037
 226.26314 228.35991 230.46968 232.58845 234.73022 236.91499 239.18376 241.56653
 244.20030 246.46407 248.47884 250.25661 251.68638 252.82215 253.65692 253.98569
 254.03546 253.82223 253.19500 252.15577 250.77454 248.94831 246.87008 244.71585
 242.51962 240.33639 238.16916 236.02093 233.89370 231.77347 229.81224 227.98201
 226.27779 224.76256 223.40533 222.19010 221.08487 220.05764 219.17441 218.32818
 217.58295 216.77572 215.88649 215.26326 214.72603 214.71869 214.68779 214.55927
 214.33295 213.46742 212.92873 214.13586 217.13754 221.29010 226.19197 230.33942
 233.77660 237.77719 242.08101 246.37856 250.41785 254.20114 257.79303 261.19565
 264.29123 266.99982 269.36234 271.47287 273.17038 274.48590 275.85114 277.54318
 279.40619 281.18005 282.76929 284.24670 285.62366 286.84192 287.95340 288.96030
 289.86591 290.67236 291.37686 292.27469
 366.78100 356.34842 345.79385 334.67327 323.08969 311.29712 299.18054 286.99696
 274.72238 262.63281 250.65523 239.96965 230.10508 221.22250 213.41792 206.43335
 200.28077 195.23219 191.82761 189.88304 188.93346 189.01088 189.85931 191.18073
 192.91915 195.02758 197.30400 199.67642 202.13485 204.62827 206.72969 208.58511
 210.22454 211.38296 211.62538 211.86681 211.81723 211.53565 211.18208 210.82550
 210.45592 210.17935 210.00077 209.87819 209.81961 210.16404 210.56346 210.96588
 211.77231 212.96373 214.22715 216.02358 217.96500 220.02142 222.12984 224.22627
 226.29969 228.39711 230.50754 232.62696 234.76938 236.95481 239.22423 241.60765
 244.24208 246.50650 248.52192 250.30034 251.73077 252.86719 253.70261 254.03204
 254.08246 253.86988 253.24331 252.20473 250.82415 248.99858 246.92100 244.76742
 242.57184 240.38927 238.22269 236.07511 233.94854 231.82896 229.86838 228.03881
 226.33523 224.82065 223.46407 222.24950 221.14492 220.11834 219.23577 218.39019
 217.64561 216.83904 215.95046 215.32788 214.79131 214.76089 214.68076 214.56058
 214.37813 213.53659 213.02690 214.11424 217.07825 221.25215 226.17200 230.31345
 233.74342 237.73640 242.03641 246.31598 250.32535 254.05862 257.60419 260.99527
 264.11124 266.84387 269.20789 271.28833 272.97012 274.33734 275.84964 277.60785
 279.50372 281.27783 282.85611 284.27808 285.57950 286.73654 287.79221 288.74854
 289.60867 290.37460 291.04373 291.89642
 366.78100 356.34901 345.79502 334.67503 323.09204 311.30006 299.18407 287.00108
 274.72709 262.63810 250.66111 239.97612 230.11213 221.23014 213.42616 206.44217
 200.29018 195.24219 191.83820 189.89421 188.94522 189.02323 189.87224 191.19426
 192.93327 195.04228 197.31929 199.69230 202.15131 204.64532 206.74733 208.60335
 210.24336 211.40237 211.64538 211.88739 211.83840 211.55741 211.20442 210.84843
 210.47945 210.20346 210.02547 209.90348 209.84549 210.19050 210.59051 210.99352
 211.80053 212.99255 214.25656 216.05357 217.99558 220.05259 222.16160 224.25861
 226.33262 228.43063 230.54165 232.66166 234.80467 236.99068 239.26069 241.64470
 244.27971 246.54472 248.56073 250.33975 251.77076 252.90777 253.74378 254.07379
 254.12480 253.91281 253.28682 252.24883 250.86885 249.04386 246.96687 244.81388
 242.61889 240.43690 238.27091 236.12392 233.99793 231.87895 229.91896 228.08997
 226.38698 224.87299 223.51700 222.30301 221.19902 220.17304 219.29105 218.44606
 217.70207 216.89608 216.00809 215.38610 214.85011 214.80820 214.69556 214.53865
 214.39085 213.59511 213.07932 214.12024 217.05696 221.22997 226.15712 230.29994
 233.72388 237.73247 242.05885 246.36916 250.38794 254.10468 257.61908 260.98001
 264.09955 266.85071 269.22189 271.26086 272.85297 274.25244 275.82733 277.68164
 279.58295 281.36234 282.95236 284.42117 285.74475 286.91580 287.98419 288.95209
 289.82260 290.59781 291.27502 292.13803
 366.78100 356.34802 345.79303 334.67205 323.08807 311.29508 299.17810 286.99412
 274.71913 262.62915 250.65117 239.96518 230.10020 221.21722 213.41223 206.42725
 200.27426 195.22528 191.82030 189.87531 188.92533 189.00235 189.85036 191.17138
 192.90940 195.01741 197.29343 199.66545 202.12346 204.61648 206.71750 208.57251
 210.21153 211.36955 211.61156 211.85258 211.80260 211.52061 211.16663 210.80965
 210.43966 210.16268 209.98370 209.86071 209.80173 210.14575 210.54476 210.94678
 211.75279 212.94381 214.20683 216.00284 217.94386 219.99988 222.10789 224.20391
 226.27693 228.37394 230.48396 232.60298 234.74499 236.93001 239.19903 241.58204
 244.21606 246.48008 248.49509 250.27311 251.70313 252.83914 253.67416 254.00318
 254.05319 253.84021 253.21323 252.17424 250.79326 248.96728 246.88929 244.73531
 242.53932 240.35634 238.18936 236.04137 233.91439 231.79441 229.83342 228.00344
 226.29946 224.78447 223.42749 222.21251 221.10752 220.08054 219.19756 218.35157
 217.60659 216.79961 215.91062 215.28764 214.75066 214.76958 214.77809 214.51585
 214.40828 213.65305 213.04384 214.04317 216.98161 221.16290 226.09456 230.25212
 233.69270 237.72112 242.07018 246.40320 250.44408 254.16188 257.65744 261.01169
 264.16254 266.96823 269.36670 271.38138 272.95724 274.36017 275.95956 277.78458
 279.58893 281.27121 282.79932 284.18640 285.48087 286.62613 287.67102 288.61761
 289.46896 290.22708 290.88937 291.73340
 366.78100 356.34639 345.78978 334.66717 323.08156 311.28694 299.16833 286.98272
 274.70611 262.61450 250.63489 239.94728 230.08067 221.19605 213.38944 206.40283
 200.24822 195.19761 191.79100 189.84439 188.89278 188.96816 189.81455 191.13394
 192.87033 194.97672 197.25111 199.62150 202.07789 204.56927 206.66866 208.52205
 210.15944 211.31583 211.55622 211.79561 211.74400 211.46038 211.10477 210.74616
 210.37455 210.09594 209.91533 209.79072 209.73011 210.07249 210.46988 210.87027
 211.67466 212.86405 214.12544 215.91983 217.85922 219.91360 222.01999 224.11438
 226.18577 228.28116 230.38955 232.50694 234.64733 236.83071 239.09810 241.47949
 244.11188 246.37427 248.38766 250.16405 251.59244 252.72682 253.56021 253.88760
 253.93599 253.72138 253.09277 252.05216 250.66955 248.84193 246.76232 244.60671
 242.40910 240.22449 238.05588 235.90627 233.77766 231.65604 229.69343 227.86182
 226.15621 224.63960 223.28099 222.06438 220.95777 219.92915 219.04454 218.19693
 217.45032 216.64171 215.75110 215.12649 214.58788 214.69696 214.88918 214.47305
 214.48473 213.78224 213.03949 213.95300 216.88142 221.05811 225.96521 230.12003
 233.58426 237.63911 242.00812 246.34512 250.38692 254.10228 257.58463 260.94324
 264.13089 266.99371 269.44437 271.48303 273.08344 274.50320 276.12491 277.90918
 279.66486 281.18039 282.67093 284.07343 285.46725 286.72769 287.87762 288.91940
 289.85638 290.69077 291.41965 292.34854
 366.78100 356.34486 345.78673 334.66259 323.07545 311.27932 299.15918 286.97204
 274.69390 262.60077 250.61963 239.93049 230.06236 221.17622 213.36808 206.37995
 200.22381 195.17167 191.76353 189.81540 188.86226 188.93612 189.78099 191.09885
 192.83371 194.93858 197.21144 199.58030 202.03516 204.52503 206.62289 208.47475
 210.11062 211.26548 211.50434 211.74221 211.68907 211.40393 211.04680 210.68666
 210.31352 210.03338 209.85125 209.72511 209.66297 210.00384 210.39970 210.79856
 211.60143 212.78929 214.04915 215.84201 217.77988 219.83274 221.93760 224.03047
 226.10033 228.19419 230.30106 232.41692 234.55578 236.73764 239.00351 241.38337
 244.01423 246.27510 248.28696 250.06182 251.48869 252.62155 253.45341 253.77927
 253.82614 253.61000 252.97986 251.93773 250.55359 248.72445 246.64332 244.48618
 242.28704 240.10091 237.93077 235.77963 233.64949 231.52636 229.56222 227.72908
 226.02195 224.50381 223.14367 221.92554 220.81740 219.78726 218.90112 218.05199
 217.30385 216.49371 215.60158 214.97544 214.43530 214.62672 214.99977 214.39391
 214.46432 213.91731 213.11012 213.90297 216.82301 220.98509 225.90190 230.03233
 233.51881 237.57712 241.94656 246.27563 250.31036 254.01634 257.49368 260.84470
 264.05530 266.96240 269.46121 271.53500 273.18744 274.64658 276.27966 278.06848
 279.75677 281.15988 282.54587 283.92719 285.18875 286.40201 287.50894 288.51172
 289.41364 290.21680 290.91840 291.81253
 366.78100 356.34581 345.78862 334.66543 323.07924 311.28405 299.16486 286.97866
 274.70147 262.60928 250.62909 239.94090 230.07371 221.18852 213.38133 206.39414
 200.23895 195.18776 191.78057 189.83338 188.88118 188.95599 189.80180 191.12061
 192.85642 194.96223 197.23604 199.60585 202.06166 204.55247 206.65128 208.50409
 210.14090 211.29670 211.53651 211.77532 211.72313 211.43894 211.08275 210.72356
 210.35137 210.07218 209.89099 209.76580 209.70461 210.04642 210.44322 210.84303
 211.64684 212.83565 214.09646 215.89027 217.82908 219.88289 221.98870 224.08251
 226.15332 228.24813 230.35594 232.47274 234.61255 236.79536 239.06217 241.44298
 244.07479 246.33660 248.34941 250.12522 251.55303 252.68684 253.51965 253.84645
 253.89426 253.67907 253.04988 252.00869 250.62550 248.79731 246.71712 244.56093
 242.36274 240.17755 238.00836 235.85817 233.72897 231.60678 229.64359 227.81140
 226.10521 224.58802 223.22883 222.01164 220.90445 219.87526 218.99007 218.14188
 217.39469 216.58549 215.69430 215.06911 214.52992 214.67189 214.96696 214.49245
 214.42532 213.74818 213.02034 213.82321 216.80458 220.99501 225.96574 230.03973
 233.53766 237.57520 241.94234 246.27271 250.29675 253.97130 257.41037 260.72083
 263.90820 266.83292 269.37872 271.49673 273.19983 274.71811 276.36536 278.10147
 279.73398 281.08871 282.26733 283.53452 284.71216 285.77405 286.78961 287.70969
 288.53717 289.27405 289.91776 290.73810
 366.78100 356.34707 345.79114 334.66921 323.08428 311.29035 299.17243 286.98750
 274.71157 262.62064 250.64171 239.95478 230.08885 221.20492 213.39899 206.41306
 200.25914 195.20921 191.80328 189.85735 188.90642 188.98249 189.82956 191.14963
 192.88670 194.99377 197.26885 199.63992 202.09699 204.58906 206.68913 208.54320
 210.18127 211.33834 211.57941 211.81948 211.76856 211.48563 211.13070 210.77277
 210.40184 210.12391 209.94398 209.82005 209.76012 210.10319 210.50126 210.90234
 211.70741 212.89748 214.15955 215.95462 217.89469 219.94976 222.05683 224.15190
 226.22397 228.32005 230.42912 232.54719 234.68826 236.87233 239.14040 241.52247
 244.15554 246.41861 248.43268 250.20976 251.63883 252.77390 253.60797 253.93604
 253.98511 253.77118 253.14325 252.10332 250.72139 248.89447 246.81554 244.66061
 242.46368 240.27975 238.11182 235.96289 233.83496 231.71403 229.75210 227.92117
 226.21625 224.70032 223.34239 222.12646 221.02053 219.99260 219.10867 218.26174
 217.51581 216.70788 215.81796 215.19403 214.65610 214.74573 214.92087 214.58290
 214.50870 213.58122 212.94815 213.88483 216.83533 221.00645 225.96866 230.08142
 233.54951 237.60291 241.97845 246.33572 250.38255 254.05153 257.45959 260.71387
 263.84378 266.72891 269.24841 271.36053 273.09064 274.67838 276.35623 278.07953
 279.63760 280.91644 282.01096 283.23450 284.44073 285.57928 286.63217 287.58600
 288.44388 289.20782 289.87518 290.72568
 366.78100 356.34545 345.78790 334.66436 323.07781 311.28226 299.16271 286.97616
 274.69862 262.60607 250.62552 239.93697 230.06942 221.18388 213.37633 206.38878
 200.23323 195.18168 191.77414 189.82659 188.87404 188.94849 189.79394 191.11240
 192.84785 194.95330 197.22675 199.59620 202.05166 204.54211 206.64056 208.49301
 210.12946 211.28492 211.52437 211.76282 211.71027 211.42572 211.06918 210.70963
 210.33708 210.05753 209.87598 209.75044 209.68889 210.03034 210.42679 210.82624
 211.62970 212.81815 214.07860 215.87205 217.81050 219.86396 221.96941 224.06286
 226.13331 228.22776 230.33522 232.45167 234.59112 236.77357 239.04003 241.42048
 244.05193 246.31338 248.32583 250.10129 251.52874 252.66219 253.49464 253.82109
 253.86855 253.65300 253.02345 251.98190 250.59835 248.76981 246.68926 244.53271
 242.33416 240.14861 237.97907 235.82852 233.69897 231.57642 229.61287 227.78033
 226.07378 224.55623 223.19668 221.97913 220.87159 219.84204 218.95649 218.10794
 217.36039 216.55085 215.65930 215.03375 214.49420 214.67278 215.03732 214.56891
 214.38898 213.65381 212.99651 213.84459 216.74716 220.93362 225.88440 229.99553
 233.49065 237.58629 242.00708 246.42210 250.53023 254.22951 257.62094 260.83319
 263.93237 266.80026 269.33047 271.46545 273.20764 274.80756 276.46600 278.11237
 279.54745 280.71094 281.71921 282.87906 284.05984 285.17328 286.19470 287.12003
 287.95224 288.69336 289.34076 290.16583
 366.78100 356.34632 345.78964 334.66696 323.08128 311.28660 299.16792 286.98224
 274.70556 262.61388 250.63420 239.94652 230.07984 221.19516 213.38848 206.40180
 200.24712 195.19644 191.78976 189.84308 188.89140 188.96672 189.81304 191.13236
 192.86867 194.97499 197.24931 199.61963 202.07595 204.56727 206.66659 208.51991
 210.15723 211.31355 211.55387 211.79319 211.74151 211.45783 211.10215 210.74347
 210.37179 210.09311 209.91243 209.78775 209.72707 210.06939 210.46671 210.86703
 211.67135 212.86067 214.12199 215.91631 217.85563 219.90995 222.01627 224.11059
 226.18191 228.27723 230.38555 232.50287 234.64319 236.82651 239.09383 241.47515
 244.10747 246.36979 248.38311 250.15943 251.58775 252.72207 253.55538 253.88270
 253.93102 253.71634 253.08766 252.04698 250.66430 248.83662 246.75694 244.60126
 242.40358 240.21890 238.05022 235.90054 233.77186 231.65018 229.68750 227.85582
 226.15014 224.63346 223.27478 222.05810 220.95142 219.92274 219.03806 218.19038
 217.44370 216.63502 215.74434 215.11966 214.58098 214.70021 214.97154 214.81120
 214.30904 213.64099 213.03371 213.75482 216.56140 220.75443 225.76407 229.79515
 233.36548 237.47603 241.91750 246.34357 250.47533 254.21439 257.63333 260.85583
 263.93900 266.82324 269.40540 271.61896 273.44913 275.04941 276.64697 278.18082
 279.51788 280.65204 281.66327 282.72925 283.77283 284.51529 285.40347 286.28036
 287.07034 287.77383 288.38840 289.17160
 366.78100 356.34882 345.79465 334.67447 323.09130 311.29912 299.18294 286.99977
 274.72559 262.63642 250.65924 239.97406 230.10989 221.22771 213.42353 206.43936
 200.28718 195.23901 191.83483 189.89065 188.94148 189.01930 189.86813 191.18995
 192.92877 195.03760 197.31442 199.68725 202.14607 204.63989 206.74172 208.59754
 210.23736 211.39619 211.63901 211.88084 211.83166 211.55048 211.19731 210.84113
 210.47196 210.19578 210.01760 209.89543 209.83725 210.18208 210.58190 210.98472
 211.79155 212.98337 214.24720 216.04402 217.98584 220.04267 222.15149 224.24831
 226.32214 228.41996 230.53079 232.65061 234.79343 236.97926 239.24908 241.63291
 244.26773 246.53255 248.54838 250.32720 251.75803 252.89485 253.73067 254.06050
 254.11132 253.89914 253.27297 252.23479 250.85462 249.02944 246.95226 244.79909
 242.60391 240.42174 238.25556 236.10838 233.98221 231.86303 229.90286 228.07368
 226.37050 224.85633 223.50015 222.28598 221.18180 220.15562 219.27345 218.42827
 217.68409 216.87792 215.98974 215.36757 214.83139 214.82216 214.80188 214.97525
 214.52338 213.81654 213.07092 213.59737 216.45558 220.68349 225.70981 229.59578
 233.23975 237.35635 241.82718 246.24419 250.37024 254.10219 257.51407 260.73892
 263.82733 266.72845 269.34467 271.61078 273.51343 275.17438 276.75970 278.23593
 279.49158 280.58517 281.59860 282.63989 283.65189 284.44998 285.23508 286.07230
 286.87039 287.59027 288.21915 289.02057
 366.78100 356.34788 345.79277 334.67165 323.08754 311.29442 299.17731 286.99319
 274.71808 262.62796 250.64985 239.96373 230.09862 221.21550 213.41039 206.42527
 200.27216 195.22304 191.81793 189.87281 188.92270 188.99958 189.84747 191.16835
 192.90624 195.01412 197.29001 199.66189 202.11978 204.61266 206.71355 208.56843
 210.20732 211.36520 211.60709 211.84797 211.79786 211.51574 211.16163 210.80451
 210.43440 210.15728 209.97816 209.85505 209.79593 210.13982 210.53870 210.94059
 211.74647 212.93736 214.20024 215.99613 217.93701 219.99290 222.10078 224.19667
 226.26955 228.36644 230.47632 232.59521 234.73709 236.92198 239.19086 241.57375
 244.20763 246.47152 248.48640 250.26429 251.69417 252.83006 253.66494 253.99383
 254.04371 253.83060 253.20348 252.16437 250.78325 248.95714 246.87902 244.72491
 242.52879 240.34568 238.17856 236.03044 233.90333 231.78321 229.82210 227.99198
 226.28787 224.77275 223.41564 222.20052 221.09541 220.06829 219.18518 218.33906
 217.59395 216.78683 215.89772 215.27460 214.73749 214.79048 214.91132 214.83070
 214.55327 213.72968 212.93651 213.54982 216.50537 220.73889 225.72475 229.74034
 233.24442 237.38431 241.85321 246.26901 250.38541 254.11296 257.51431 260.71832
 263.77951 266.65756 269.27936 271.58389 273.53665 275.25449 276.84903 278.23914
 279.37201 280.36987 281.33661 282.35062 283.41187 284.41718 285.34293 286.22565
 287.02518 287.73718 288.35919 289.15182
 366.78100 356.34577 345.78854 334.66531 323.07908 311.28385 299.16462 286.97840
 274.70117 262.60894 250.62871 239.94048 230.07325 221.18802 213.38079 206.39356
 200.23833 195.18710 191.77987 189.83264 188.88042 188.95519 189.80096 191.11973
 192.85550 194.96127 197.23504 199.60481 202.06058 204.55135 206.65012 208.50289
 210.13966 211.29544 211.53521 211.77398 211.72175 211.43752 211.08129 210.72206
 210.34983 210.07060 209.88937 209.76414 209.70291 210.04468 210.44146 210.84123
 211.64500 212.83377 214.09454 215.88831 217.82708 219.88085 221.98662 224.08039
 226.15116 228.24593 230.35370 232.47048 234.61025 236.79302 239.05979 241.44056
 244.07233 246.33410 248.34687 250.12264 251.55041 252.68418 253.51695 253.84372
 253.89150 253.67627 253.04704 252.00581 250.62258 248.79435 246.71412 244.55789
 242.35966 240.17443 238.00520 235.85497 233.72574 231.60352 229.64029 227.80806
 226.10183 224.58460 223.22537 222.00814 220.90091 219.87168 218.98645 218.13822
 217.39099 216.58176 215.69054 215.06531 214.52608 214.70189 215.07872 214.73103
 214.51460 213.59669 212.80597 213.54066 216.56874 220.80792 225.79817 229.88866
 233.33009 237.45586 241.91081 246.33308 250.45573 254.17616 257.56799 260.75140
 263.79404 266.65677 269.29007 271.63397 273.65359 275.43231 276.99542 278.27521
 279.26733 280.10251 280.80539 281.87473 283.06024 284.19669 285.29449 286.28906
 287.18356 287.98010 288.67596 289.56274
 366.78100 356.34540 345.78779 334.66419 323.07758 311.28198 299.16237 286.97577
 274.69817 262.60556 250.62496 239.93635 230.06875 221.18314 213.37554 206.38794
 200.23233 195.18073 191.77312 189.82552 188.87291 188.94731 189.79271 191.11110
 192.84650 194.95189 197.22529 199.59468 202.05008 204.54048 206.63887 208.49127
 210.12766 211.28306 211.52245 211.76085 211.70825 211.42364 211.06704 210.70743
 210.33483 210.05522 209.87362 209.74802 209.68641 210.02781 210.42420 210.82360
 211.62699 212.81539 214.07579 215.86918 217.80758 219.86097 221.96637 224.05976
 226.13016 228.22456 230.33195 232.44835 234.58774 236.77014 239.03653 241.41693
 244.04833 246.30972 248.32212 250.09751 251.52491 252.65830 253.49070 253.81710
 253.86449 253.64889 253.01928 251.97768 250.59407 248.76547 246.68487 244.52826
 242.32966 240.14405 237.97445 235.82384 233.69424 231.57164 229.60803 227.77543
 226.06882 224.55122 223.19161 221.97401 220.86641 219.83680 218.95120 218.10259
 217.35499 216.54538 215.65378 215.02818 214.48857 214.69287 215.12120 214.73888
 214.57179 213.59918 212.74596 213.45110 216.54382 220.81656 225.83203 229.92088
 233.34975 237.45816 241.90930 246.33586 250.45323 254.15919 257.54333 260.72379
 263.77283 266.64731 269.32187 271.74243 273.84933 275.68686 277.23495 278.44879
 279.33209 279.81516 280.17908 281.27072 282.49167 283.72839 284.86230 285.88956
 286.81348 287.63620 288.35495 289.27087
 366.78100 356.34612 345.78924 334.66636 323.08047 311.28559 299.16671 286.98083
 274.70395 262.61207 250.63219 239.94431 230.07742 221.19254 213.38566 206.39878
 200.24390 195.19302 191.78614 189.83925 188.88737 188.96249 189.80861 191.12773
 192.86385 194.96997 197.24409 199.61420 202.07032 204.56144 206.66056 208.51368
 210.15080 211.30692 211.54703 211.78615 211.73427 211.45039 211.09451 210.73563
 210.36375 210.08487 209.90398 209.77910 209.71822 210.06034 210.45746 210.85758
 211.66170 212.85081 214.11193 215.90605 217.84517 219.89929 222.00541 224.09953
 226.17065 228.26576 230.37388 232.49100 234.63112 236.81424 239.08136 241.46248
 244.09460 246.35671 248.36983 250.14595 251.57407 252.70819 253.54131 253.86843
 253.91654 253.70166 253.07278 252.03190 250.64902 248.82114 246.74126 244.58538
 242.38749 240.20261 238.03373 235.88385 233.75497 231.63309 229.67021 227.83832
 226.13244 224.61556 223.25668 222.03980 220.93292 219.90404 219.01916 218.17127
 217.42439 216.61551 215.72463 215.09975 214.56087 214.74133 215.10530 214.76524
 214.64865 213.63629 212.73642 213.42502 216.50502 220.78244 225.82367 229.88556
 233.31624 237.41774 241.87878 246.32291 250.43558 254.11882 257.48450 260.66357
 263.70749 266.58813 269.30295 271.79672 273.99435 275.90433 277.45395 278.66153
 279.33163 279.38498 279.55408 280.70612 282.04413 283.27469 284.39734 285.41443
 286.32916 287.14374 287.85535 288.76218
 366.78100 356.34595 345.78889 334.66584 323.07979 311.28473 299.16568 286.97963
 274.70257 262.61052 250.63047 239.94241 230.07536 221.19031 213.38325 206.39620
 200.24114 195.19009 191.78304 189.83598 188.88393 188.95888 189.80482 191.12377
 192.85972 194.96566 197.23961 199.60956 202.06550 204.55645 206.65540 208.50834
 210.14529 211.30124 211.54118 211.78013 211.72808 211.44402 211.08797 210.72892
 210.35686 210.07781 209.89676 209.77170 209.71065 210.05259 210.44954 210.84949
 211.65343 212.84238 214.10333 215.89727 217.83622 219.89017 221.99611 224.09006
 226.16101 228.25595 230.36390 232.48085 234.62079 236.80374 239.07069 241.45163
 244.08358 246.34553 248.35847 250.13442 251.56237 252.69631 253.52926 253.85621
 253.90415 253.68910 253.06004 252.01899 250.63594 248.80788 246.72783 244.57178
 242.37372 240.18867 238.01962 235.86956 233.74051 231.61846 229.65540 227.82335
 226.11730 224.60024 223.24119 222.02414 220.91708 219.88803 219.00298 218.15492
 217.40787 216.59882 215.70776 215.08271 214.54366 214.75362 215.14561 214.75053
 214.63113 213.69699 212.77350 213.47461 216.51469 220.73752 225.82039 229.81937
 233.25826 237.37019 241.86089 246.33325 250.45050 254.13489 257.50327 260.67462
 263.69568 266.56958 269.30649 271.85257 274.12079 276.08469 277.65424 278.71252
 278.99060 278.70493 279.47742 281.06458 282.47430 283.72159 284.85953 285.89041
 286.81760 287.64325 288.36453 289.28372
 366.78100 356.34576 345.78852 334.66528 323.07904 311.28380 299.16457 286.97833
 274.70109 262.60885 250.62861 239.94037 230.07313 221.18789 213.38065 206.39341
 200.23817 195.18693 191.77970 189.83246 188.88022 188.95498 189.80074 191.11950
 192.85526 194.96102 197.23478 199.60454 202.06030 204.55106 206.64983 208.50259
 210.13935 211.29511 211.53487 211.77363 211.72139 211.43715 211.08091 210.72167
 210.34943 210.07020 209.88896 209.76372 209.70248 210.04424 210.44100 210.84076
 211.64452 212.83328 214.09404 215.88780 217.82656 219.88033 221.98609 224.07985
 226.15061 228.24537 230.35313 232.46989 234.60965 236.79241 239.05917 241.43993
 244.07169 246.33346 248.34622 250.12198 251.54974 252.68350 253.51626 253.84302
 253.89078 253.67554 253.04630 252.00506 250.62182 248.79359 246.71335 244.55711
 242.35887 240.17363 238.00439 235.85415 233.72491 231.60267 229.63943 227.80719
 226.10096 224.58372 223.22448 222.00724 220.90000 219.87076 218.98552 218.13728
 217.39004 216.58080 215.68956 215.06432 214.52509 214.75688 215.17859 214.75314
 214.57196 213.71759 212.75993 213.43132 216.47784 220.69402 225.79260 229.80110
 233.24100 237.35548 241.84702 246.33752 250.48032 254.18958 257.56546 260.72845
 263.72986 266.59250 269.35153 271.96661 274.33652 276.38614 277.97745 278.92825
 278.95853 278.61292 280.07120 281.65097 283.01813 284.22769 285.33124 286.33099
 287.23016 288.03085 288.73035 289.62177
 366.78100 356.34648 345.78996 334.66743 323.08191 311.28739 299.16887 286.98335
 274.70682 262.61530 250.63578 239.94826 230.08174 221.19721 213.39069 206.40417
 200.24965 195.19913 191.79260 189.84608 188.89456 188.97004 189.81652 191.13599
 192.87247 194.97895 197.25343 199.62391 202.08038 204.57186 206.67134 208.52482
 210.16230 211.31877 211.55925 211.79873 211.74721 211.46369 211.10816 210.74964
 210.37812 210.09960 209.91908 209.79455 209.73403 210.07651 210.47399 210.87447
 211.67894 212.86842 214.12990 215.92438 217.86386 219.91833 222.02481 224.11929
 226.19077 228.28625 230.39473 232.51220 234.65268 236.83616 239.10364 241.48512
 244.11759 246.38007 248.39355 250.17003 251.59851 252.73298 253.56646 253.89394
 253.94242 253.72790 253.09937 252.05885 250.67633 248.84881 246.76929 244.61376
 242.41624 240.23172 238.06320 235.91368 233.78515 231.66363 229.70111 227.86959
 226.16407 224.64754 223.28902 222.07250 220.96598 219.93746 219.05293 218.20541
 217.45889 216.65037 215.75985 215.13532 214.59680 214.79971 215.16028 214.77019
 214.56854 213.74672 212.74277 213.36043 216.40913 220.61467 225.68553 229.70856
 233.17065 237.30397 241.81050 246.31070 250.46431 254.18034 257.55685 260.71988
 263.72592 266.60400 269.39630 272.05847 274.49957 276.63016 278.28867 279.22260
 279.02908 278.77536 280.36798 281.90457 283.23434 284.41083 285.48422 286.45663
 287.33121 288.11002 288.79037 289.65741
 366.78100 356.34610 345.78919 334.66629 323.08038 311.28548 299.16658 286.98067
 274.70377 262.61186 250.63196 239.94406 230.07715 221.19225 213.38534 206.39844
 200.24354 195.19263 191.78573 189.83882 188.88692 188.96201 189.80811 191.12721
 192.86330 194.96940 197.24349 199.61359 202.06969 204.56078 206.65988 208.51297
 210.15007 211.30617 211.54626 211.78536 211.73345 211.44955 211.09365 210.73474
 210.36284 210.08393 209.90303 209.77813 209.71722 210.05932 210.45641 210.85651
 211.66060 212.84970 214.11080 215.90489 217.84399 219.89808 222.00418 224.09828
 226.16937 228.26447 230.37256 232.48966 234.62976 236.81285 239.07995 241.46104
 244.09314 246.35524 248.36833 250.14443 251.57252 252.70662 253.53972 253.86681
 253.91491 253.70000 253.07110 252.03020 250.64729 248.81939 246.73948 244.58358
 242.38567 240.20077 238.03187 235.88196 233.75306 231.63115 229.66825 227.83635
 226.13044 224.61354 223.25463 222.03773 220.93083 219.90192 219.01702 218.16911
 217.42221 216.61331 215.72240 215.09750 214.55859 214.77869 215.19104 214.73204
 214.45457 213.77441 212.84920 213.40131 216.40207 220.61684 225.57239 229.62971
 233.09508 237.23427 241.75604 246.25844 250.37761 254.05794 257.41205 260.57101
 263.58374 266.48892 269.33759 272.13226 274.72955 277.02353 278.76956 279.77957
 279.68536 278.69043 279.77335 281.36325 282.75290 283.98239 285.10413 286.12033
 287.03427 287.84818 288.55917 289.46524
 366.78100 356.34591 345.78883 334.66574 323.07965 311.28457 299.16548 286.97939
 274.70231 262.61022 250.63013 239.94204 230.07496 221.18987 213.38278 206.39570
 200.24061 195.18952 191.78244 189.83535 188.88326 188.95818 189.80409 191.12300
 192.85892 194.96483 197.23874 199.60865 202.06457 204.55548 206.65439 208.50731
 210.14422 211.30013 211.54005 211.77896 211.72687 211.44279 211.08670 210.72761
 210.35553 210.07644 209.89535 209.77026 209.70918 210.05109 210.44800 210.84792
 211.65183 212.84074 214.10166 215.89557 217.83448 219.88840 221.99431 224.08822
 226.15914 228.25405 230.36196 232.47888 234.61879 236.80170 239.06861 241.44953
 244.08144 246.34335 248.35627 250.13218 251.56009 252.69401 253.52692 253.85383
 253.90175 253.68666 253.05757 252.01649 250.63340 248.80531 246.72522 244.56914
 242.37105 240.18596 238.01688 235.86679 233.73770 231.61562 229.65253 227.82044
 226.11436 224.59727 223.23818 222.02110 220.91401 219.88492 218.99983 218.15175
 217.40466 216.59557 215.70449 215.07940 214.54031 214.74980 215.19357 214.81200
 214.32289 213.50992 212.76633 213.34984 216.36937 220.64610 225.58488 229.70778
 233.18556 237.28346 241.75739 246.22447 250.32057 253.96506 257.27304 260.38736
 263.38199 266.31314 269.21271 272.03571 274.63110 276.85455 278.54474 279.53619
 279.86996 279.56049 279.42596 280.45108 281.64932 282.83344 283.91379 284.89252
 285.77277 286.55661 287.24139 288.11404
 366.78100 356.34641 345.78982 334.66723 323.08164 311.28706 299.16847 286.98288
 274.70629 262.61470 250.63511 239.94752 230.08093 221.19635 213.38976 206.40317
 200.24858 195.19799 191.79140 189.84481 188.89322 188.96863 189.81505 191.13446
 192.87087 194.97728 197.25169 199.62210 202.07851 204.56992 206.66934 208.52275
 210.16016 211.31657 211.55698 211.79639 211.74480 211.46121 211.10562 210.74704
 210.37545 210.09686 209.91627 209.79168 209.73109 210.07350 210.47091 210.87133
 211.67574 212.86515 214.12656 215.92097 217.86038 219.91479 222.02120 224.11562
 226.18703 228.28244 230.39085 232.50826 234.64867 236.83208 239.09949 241.48090
 244.11332 246.37573 248.38914 250.16555 251.59396 252.72837 253.56178 253.88919
 253.93761 253.72302 253.09443 252.05384 250.67125 248.84366 246.76407 244.60848
 242.41089 240.22631 238.05772 235.90813 233.77954 231.65795 229.69536 227.86377
 226.15818 224.64160 223.28301 222.06642 220.95983 219.93124 219.04665 218.19906
 217.45247 216.64388 215.75330 215.12871 214.59012 214.77509 215.16922 214.84554
 214.41455 213.41479 212.55705 213.19460 216.27698 220.59460 225.56273 229.71423
 233.21182 237.31386 241.78946 246.28363 250.41946 254.08656 257.36792 260.42072
 263.34375 266.21924 269.10126 271.94110 274.54379 276.74176 278.36200 279.22638
 279.43979 279.21860 279.08563 280.30597 281.52051 282.71164 283.80057 284.78705
 285.67429 286.46436 287.15457 288.03415
 366.78100 356.34545 345.78789 334.66434 323.07779 311.28224 299.16268 286.97613
 274.69858 262.60602 250.62547 239.93692 230.06937 221.18381 213.37626 206.38871
 200.23315 195.18160 191.77405 189.82650 188.87394 188.94839 189.79384 191.11228
 192.84773 194.95318 197.22663 199.59607 202.05152 204.54197 206.64041 208.49286
 210.12931 211.28476 211.52420 211.76265 211.71010 211.42554 211.06899 210.70944
 210.33689 210.05733 209.87578 209.75023 209.68867 210.03012 210.42657 210.82602
 211.62946 212.81791 214.07836 215.87180 217.81025 219.86370 221.96915 224.06259
 226.13304 228.22749 230.33493 232.45138 234.59083 236.77328 239.03972 241.42017
 244.05162 246.31306 248.32551 250.10096 251.52841 252.66185 253.49430 253.82075
 253.86819 253.65264 253.02309 251.98154 250.59798 248.76943 246.68888 244.53232
 242.33377 240.14822 237.97866 235.82811 233.69856 231.57601 229.61245 227.77990
 226.07335 224.55579 223.19624 221.97869 220.87114 219.84158 218.95603 218.10748
 217.35992 216.55037 215.65882 215.03327 214.49371 214.73245 215.23650 214.78145
 214.30145 213.46886 212.60924 213.14349 216.19743 220.52715 225.49860 229.67235
 233.19698 237.31438 241.80820 246.33826 250.51489 254.20233 257.49142 260.53162
 263.42557 266.25653 269.11362 271.96793 274.62137 276.88339 278.47424 279.28564
 279.42426 279.24829 279.28012 280.42349 281.64880 282.84955 283.94501 284.93744
 285.83002 286.62488 287.31924 288.20413
 366.78100 356.34473 345.78647 334.66220 323.07493 311.27866 299.15840 286.97113
 274.69286 262.59960 250.61833 239.92906 230.06079 221.17453 213.36626 206.37799
 200.22173 195.16946 191.76119 189.81292 188.85966 188.93339 189.77812 191.09586
 192.83059 194.93532 197.20805 199.57679 202.03152 204.52125 206.61899 208.47072
 210.10645 211.26118 211.49992 211.73765 211.68438 211.39912 211.04185 210.68158
 210.30831 210.02805 209.84578 209.71951 209.65725 209.99798 210.39371 210.79244
 211.59518 212.78291 214.04264 215.83538 217.77311 219.82584 221.93057 224.02331
 226.09304 228.18677 230.29351 232.40924 234.54797 236.72971 238.99544 241.37517
 244.00590 246.26664 248.27837 250.05310 251.47984 252.61257 253.44430 253.77003
 253.81677 253.60050 252.97023 251.92797 250.54370 248.71443 246.63316 244.47590
 242.27663 240.09036 237.92010 235.76883 233.63856 231.51529 229.55103 227.71776
 226.01049 224.49223 223.13196 221.91369 220.80542 219.77516 218.88889 218.03962
 217.29136 216.48109 215.58882 214.96255 214.42229 214.68465 215.27264 214.85255
 214.18488 213.23297 212.53499 213.04497 216.09679 220.46860 225.47540 229.62717
 233.18533 237.28656 241.75470 246.25516 250.42398 254.13118 257.45557 260.52435
 263.43497 266.27441 269.12833 271.99353 274.66190 276.89508 278.48151 279.37714
 279.71036 279.72961 279.85825 280.50812 281.60983 282.64551 283.63177 284.53653
 285.35028 286.07492 286.70795 287.51468
 366.78100 356.34443 345.78585 334.66128 323.07370 311.27713 299.15656 286.96898
 274.69041 262.59684 250.61526 239.92569 230.05711 221.17054 213.36197 206.37339
 200.21682 195.16424 191.75567 189.80710 188.85352 188.92695 189.77138 191.08880
 192.82323 194.92765 197.20008 199.56851 202.02293 204.51236 206.60979 208.46121
 210.09664 211.25106 211.48949 211.72692 211.67334 211.38777 211.03019 210.66962
 210.29605 210.01547 209.83290 209.70633 209.64375 209.98418 210.37960 210.77803
 211.58046 212.76788 214.02731 215.81973 217.75716 219.80959 221.91401 224.00644
 226.07587 228.16929 230.27572 232.39114 234.52957 236.71100 238.97642 241.35585
 243.98627 246.24670 248.25813 250.03255 251.45898 252.59141 253.42283 253.74826
 253.79468 253.57811 252.94754 251.90496 250.52039 248.69081 246.60924 244.45167
 242.25209 240.06552 237.89495 235.74337 233.61280 231.48922 229.52465 227.69108
 225.98350 224.46493 223.10436 221.88578 220.77721 219.74663 218.86006 218.01049
 217.26191 216.45134 215.55876 214.93219 214.39162 214.66986 215.29430 214.84048
 214.30510 213.15796 212.41251 212.95750 216.04358 220.42822 225.44455 229.61029
 233.16545 237.26137 241.72092 246.21216 250.36671 254.06558 257.39410 260.47284
 263.38425 266.21902 269.08063 271.96866 274.65726 276.88113 278.43021 279.31323
 279.70917 279.89111 280.13831 280.71820 281.75171 282.78091 283.78723 284.72903
 285.57611 286.33041 286.98938 287.82913
 366.78100 356.34366 345.78431 334.65897 323.07062 311.27328 299.15194 286.96359
 274.68425 262.58991 250.60756 239.91722 230.04787 221.16053 213.35119 206.36184
 200.20450 195.15116 191.74181 189.79247 188.83812 188.91078 189.75444 191.07109
 192.80475 194.90841 197.18006 199.54772 202.00137 204.49003 206.58669 208.43734
 210.07200 211.22565 211.46331 211.69997 211.64562 211.35928 211.00094 210.63959
 210.26525 209.98390 209.80056 209.67322 209.60987 209.94953 210.34419 210.74184
 211.54350 212.73015 213.98881 215.78047 217.71712 219.76878 221.87244 223.96409
 226.03275 228.12540 230.23106 232.34572 234.48337 236.66403 238.92869 241.30734
 243.93700 246.19665 248.20731 249.98097 251.40662 252.53828 253.36893 253.69359
 253.73925 253.52190 252.89056 251.84722 250.46187 248.63153 246.54918 244.39084
 242.19050 240.00315 237.83181 235.67947 233.54812 231.42378 229.45843 227.62409
 225.91575 224.39640 223.03506 221.81572 220.70637 219.67503 218.78768 217.93734
 217.18800 216.37665 215.48331 214.85596 214.31462 214.63208 215.34227 214.81497
 214.22733 213.11581 212.40245 212.92046 216.02438 220.42345 225.45522 229.64758
 233.19313 237.28049 241.72728 246.21411 250.36823 254.07188 257.41159 260.50293
 263.41574 266.23892 269.09229 271.99057 274.69519 276.91522 278.42261 279.24222
 279.59323 279.80283 280.15030 280.83786 281.90018 282.92502 283.90521 284.80426
 285.61282 286.33289 286.96188 287.76352
 366.78100 356.34343 345.78387 334.65830 323.06973 311.27217 299.15060 286.96203
 274.68247 262.58790 250.60533 239.91476 230.04520 221.15763 213.34806 206.35850
 200.20093 195.14736 191.73780 189.78823 188.83366 188.90610 189.74953 191.06596
 192.79940 194.90283 197.17426 199.54169 201.99513 204.48356 206.57999 208.43043
 210.06486 211.21829 211.45573 211.69216 211.63759 211.35103 210.99246 210.63089
 210.25633 209.97476 209.79119 209.66362 209.60006 209.93949 210.33392 210.73136
 211.53279 212.71922 213.97766 215.76909 217.70552 219.75696 221.86039 223.95182
 226.02026 228.11269 230.21812 232.33255 234.46999 236.65042 238.91485 241.29329
 243.92272 246.18215 248.19259 249.96602 251.39145 252.52289 253.35332 253.67775
 253.72319 253.50562 252.87405 251.83048 250.44492 248.61435 246.53178 244.37322
 242.17265 239.98508 237.81352 235.66095 233.52938 231.40482 229.43925 227.60468
 225.89612 224.37655 223.01498 221.79541 220.68585 219.65428 218.76671 217.91615
 217.16658 216.35501 215.46145 214.83388 214.29231 214.61063 215.34109 214.92542
 214.21585 213.12434 212.33342 212.71835 215.93900 220.39304 225.45166 229.64285
 233.21326 237.27628 241.70198 246.18665 250.33730 254.04922 257.41635 260.54202
 263.47409 266.29974 269.15030 272.03656 274.73114 276.94568 278.35281 279.05609
 279.39462 279.68945 280.21228 281.04623 282.02975 283.00067 283.91171 284.76425
 285.53189 286.21548 286.81268 287.57370
 366.78100 356.34313 345.78326 334.65739 323.06852 311.27065 299.14878 286.95991
 274.68005 262.58518 250.60231 239.91144 230.04157 221.15370 213.34383 206.35396
 200.19609 195.14222 191.73235 189.78248 188.82761 188.89974 189.74288 191.05901
 192.79214 194.89527 197.16640 199.53353 201.98666 204.47479 206.57092 208.42105
 210.05518 211.20831 211.44544 211.68157 211.62671 211.33984 210.98097 210.61910
 210.24423 209.96236 209.77849 209.65062 209.58675 209.92588 210.32001 210.71714
 211.51827 212.70440 213.96253 215.75367 217.68980 219.74093 221.84406 223.93519
 226.00332 228.09545 230.20058 232.31471 234.45184 236.63197 238.89610 241.27423
 243.90336 246.16250 248.17263 249.94576 251.37089 252.50202 253.33215 253.65628
 253.70141 253.48354 252.85167 251.80780 250.42193 248.59106 246.50819 244.34933
 242.14846 239.96059 237.78872 235.63585 233.50398 231.37911 229.41324 227.57837
 225.86950 224.34963 222.98776 221.76789 220.65802 219.62615 218.73829 217.88742
 217.13755 216.32568 215.43181 214.80394 214.26207 214.59521 215.34451 214.96172
 214.24466 213.07426 212.18486 212.65057 215.86584 220.29916 225.37103 229.63354
 233.19016 237.27129 241.70059 246.17206 250.32243 254.05084 257.43661 260.56918
 263.49591 266.31775 269.17014 272.06772 274.76437 276.91403 278.26566 278.93823
 279.28589 279.73621 280.36932 281.26797 282.30756 283.31998 284.28000 285.15219
 285.93665 286.63519 287.24545 288.02313
 366.78100 356.34301 345.78303 334.65704 323.06805 311.27007 299.14808 286.95909
 274.67911 262.58412 250.60113 239.91015 230.04016 221.15217 213.34218 206.35220
 200.19421 195.14022 191.73024 189.78025 188.82526 188.89728 189.74029 191.05630
 192.78932 194.89233 197.16334 199.53036 201.98337 204.47138 206.56740 208.41741
 210.05142 211.20444 211.44145 211.67746 211.62248 211.33549 210.97650 210.61451
 210.23953 209.95754 209.77355 209.64557 209.58158 209.92059 210.31461 210.71162
 211.51263 212.69865 213.95666 215.74767 217.68369 219.73470 221.83771 223.92873
 225.99674 228.08875 230.19377 232.30778 234.44479 236.62481 238.88882 241.26683
 243.89585 246.15486 248.16487 249.93788 251.36290 252.49391 253.32392 253.64794
 253.69295 253.47496 252.84298 251.79899 250.41300 248.58202 246.49903 244.34004
 242.13906 239.95107 237.77908 235.62610 233.49411 231.36912 229.40314 227.56815
 225.85916 224.33918 222.97719 221.75720 220.64721 219.61523 218.72724 217.87625
 217.12627 216.31428 215.42029 214.79231 214.25032 214.59283 215.34833 214.94772
 214.27501 213.13739 212.12662 212.57822 215.83731 220.26190 225.32925 229.65323
 233.22812 237.29678 241.72099 246.19028 250.31416 254.03464 257.46069 260.65875
 263.60718 266.41882 269.26263 272.14877 274.80865 276.90616 278.15302 278.77835
 279.31616 280.01016 280.87677 281.98105 283.03915 284.02518 284.93848 285.76584
 286.50995 287.17261 287.75146 288.48917
 366.78100 356.34254 345.78208 334.65562 323.06615 311.26769 299.14523 286.95577
 274.67531 262.57985 250.59639 239.90493 230.03446 221.14600 213.33554 206.34508
 200.18662 195.13216 191.72170 189.77123 188.81577 188.88731 189.72985 191.04539
 192.77793 194.88047 197.15101 199.51754 201.97008 204.45762 206.55316 208.40270
 210.03624 211.18878 211.42531 211.66085 211.60539 211.31793 210.95847 210.59601
 210.22055 209.93808 209.75362 209.62516 209.56070 209.89924 210.29278 210.68932
 211.48986 212.67539 213.93293 215.72347 217.65901 219.70955 221.81209 223.90263
 225.97016 228.06170 230.16624 232.27978 234.41632 236.59586 238.85940 241.23694
 243.86547 246.12401 248.13355 249.90609 251.33063 252.46117 253.29071 253.61424
 253.65878 253.44032 252.80786 251.76340 250.37694 248.54548 246.46202 244.30255
 242.10109 239.91263 237.74017 235.58671 233.45425 231.32879 229.36232 227.52686
 225.81740 224.29694 222.93448 221.71402 220.60356 219.57110 218.68263 217.83117
 217.08071 216.26825 215.37379 214.74533 214.20287 214.54909 215.31090 214.96021
 214.30042 213.14592 212.01765 212.44566 215.81241 220.22032 225.27415 229.67627
 233.27589 237.30760 241.72768 246.19373 250.26625 253.96623 257.44226 260.72269
 263.69415 266.50787 269.33380 272.20081 274.83981 276.93732 278.08228 278.73337
 279.43558 280.31586 281.35019 282.49048 283.50977 284.46741 285.34628 286.14246
 286.85855 287.49625 288.05331 288.76321
 354.97500 345.04800 334.58700 324.11500 313.32600 302.53700 291.65000 280.76700
 269.93100 259.19300 248.62200 238.61700 229.08700 220.35500 212.54000 205.53500
 199.46400 194.49300 191.14300 189.19000 188.08900 188.01400 188.72400 189.90600
 191.46900 193.38200 195.40300 197.55600 199.80700 202.06000 204.28800 206.47900
 208.55200 210.37800 212.02500 213.65900 214.99800 216.11800 217.17200 218.25900
 219.49400 220.64500 221.67900 222.61400 223.54500 224.98200 226.57100 228.19000
 229.79700 231.81100 233.86500 235.97200 238.24200 240.55300 242.89900 245.25300
 247.48800 249.53500 251.36600 252.84800 254.09800 255.16700 256.02700 256.25300
 256.09500 255.54300 253.93500 252.56600 251.38400 250.24500 249.05200 247.70100
 246.01600 243.99600 241.78400 239.39300 236.81300 234.22300 231.65800 229.14400
 226.74000 224.47300 222.33500 220.32500 218.44000 216.67700 214.96200 213.47200
 212.20000 211.10800 210.26000 209.63900 209.24400 209.03100 209.05800 209.33300
 209.78400 210.62600 211.33100 212.39100 213.62500 214.84668 217.72949 219.47640
 220.32566 220.86828 220.88710 220.27371 219.43733 218.84250 219.04934 220.86203
 222.60583 225.72206 229.03064 232.61777 236.12270 239.51333 242.70767 245.68587
 248.41061 250.90679 253.19353 254.91714 256.48655 257.94920 259.39966 260.69384
 261.81714 262.77997 263.71679 264.54570 265.26305 265.89772 266.47676 267.00133
 267.47312 267.89325 268.26027 268.72800
