|-------------------------------------------------------------------------|
|   File Name : in_temp.dat
|   Subject   : temperature profiles used for initial guess atmosphere
|   File Type : input of gmtr
|   Data Type : atmospherical data
|   Author/s  : WRF-Chem
|   Date      : Fri Jul 26 15:39:24 2024
|-------------------------------------------------------------------------|

 WRF-Chem temperature
#
 values of T (K)    (8f10.5)
#
 354.97500 345.04800 334.58700 324.11500 313.32600 302.53700 291.65000 280.76700
 269.93100 259.19300 248.62200 238.61700 229.08700 220.35500 212.54000 205.53500
 199.46400 194.49300 191.14300 189.19000 188.08900 188.01400 188.72400 189.90600
 191.46900 193.38200 195.40300 197.55600 199.80700 202.06000 204.28800 206.47900
 208.55200 210.37800 212.02500 213.65900 214.99800 216.11800 217.17200 218.25900
 219.49400 220.64500 221.67900 222.61400 223.54500 224.98200 226.57100 228.19000
 229.79700 231.81100 233.86500 235.97200 238.24200 240.55300 242.89900 245.25300
 247.48800 249.53500 251.36600 252.84800 254.09800 255.16700 256.02700 256.25300
 256.09500 255.54300 253.93500 252.56600 251.38400 250.24500 249.05200 247.70100
 246.01600 243.99600 241.78400 239.39300 236.81300 234.22300 231.65800 229.14400
 226.74000 224.47300 222.33500 220.32500 218.44000 216.67700 214.96200 213.47200
 212.20000 211.10800 210.26000 209.63900 209.24400 209.03100 209.05800 209.33300
 209.78400 210.62600 211.33100 212.39100 213.62500 214.84668 217.72949 219.47640
 220.32566 220.86828 220.88710 220.27371 219.43733 218.84250 219.04934 220.86203
 222.60583 225.72206 229.03064 232.61777 236.12270 239.51333 242.70767 245.68587
 248.41061 250.90679 253.19353 254.91714 256.48655 257.94920 259.39966 260.69384
 261.81714 262.77997 263.71679 264.54570 265.26305 265.89772 266.47676 267.00133
 267.47312 267.89325 268.26027 268.72800
 366.78100 356.33500 345.76700 334.63300 323.03600 311.23000 299.10000 286.90300
 274.61500 262.51200 250.52100 239.82200 229.94400 221.04800 213.23000 206.23200
 200.06600 195.00400 191.58600 189.62800 188.66500 188.72900 189.56400 190.87200
 192.59700 194.69200 196.95500 199.31400 201.75900 204.23900 206.32700 208.16900
 209.79500 210.94000 211.16900 211.39700 211.33400 211.03900 210.67200 210.30200
 209.91900 209.62900 209.43700 209.30100 209.22900 209.56000 209.94600 210.33500
 211.12800 212.30600 213.55600 215.33900 217.26700 219.31000 221.40500 223.48800
 225.54800 227.63200 229.72900 231.83500 233.96400 236.13600 238.39200 240.76200
 243.38300 245.63400 247.63600 249.40100 250.81800 251.94100 252.76300 253.07900
 253.11600 252.89000 252.25000 251.19800 249.80400 247.96500 245.87400 243.70700
 241.49800 239.30200 237.12200 234.96100 232.82100 230.68800 228.71400 226.87100
 225.15400 223.62600 222.25600 221.02800 219.91000 218.87000 217.97400 217.11500
 216.35700 215.53700 214.63500 213.99900 213.44900 212.85855 212.01316 212.61654
 214.26826 216.08686 218.14273 220.53346 223.40855 226.78828 231.49734 235.90155
 239.42278 243.28576 247.23140 251.11907 254.80144 258.23331 261.38913 264.27520
 266.89312 269.26852 271.44504 273.08845 274.58484 275.98591 277.39845 278.65879
 279.75272 280.69038 281.56708 282.34086 283.01050 283.60295 284.14348 284.63317
 285.07358 285.46577 285.80838 286.24500
 381.81900 372.39900 361.20600 349.77600 337.62200 324.85300 311.81000 298.35300
 284.86000 271.32400 258.56100 246.30400 236.08700 226.79600 218.44800 211.29000
 205.52200 200.89400 197.38100 194.84800 193.01500 192.31500 192.25000 192.43100
 192.91200 193.53700 194.13600 194.71200 195.26200 195.83100 196.39300 196.97600
 197.60400 198.14900 198.58400 199.05700 199.69500 200.37800 201.05400 201.70800
 202.31300 202.85700 203.35500 203.86200 204.56900 205.29700 206.02600 206.98700
 208.19300 209.44100 210.96900 212.57600 214.46200 216.51300 218.63000 220.85300
 223.34100 225.96200 228.73900 231.69700 234.70600 237.70600 240.69200 243.65700
 246.73700 249.69900 252.52100 255.06300 257.29000 259.23300 260.63300 261.68000
 262.46100 262.79800 262.69100 262.22400 261.06900 259.52500 257.70700 255.50700
 253.00100 250.30200 247.39800 244.45200 241.65400 239.05400 236.73300 234.59000
 232.59500 230.72500 228.83400 226.82600 224.66600 222.38700 220.10400 217.71500
 215.45900 213.06600 210.54600 208.09300 205.35400 202.08130 196.05959 200.71215
 209.01611 216.90438 223.84126 229.78593 235.00632 240.20838 245.98943 250.68668
 254.32982 257.93487 261.55666 264.96801 268.15192 271.06452 273.76717 276.25691
 278.57680 280.74479 282.77456 284.60533 286.27232 287.81705 289.31715 290.65561
 291.81734 292.81312 293.70701 294.49387 295.17482 295.77730 296.32696 296.82492
 297.27278 297.67160 298.02000 298.46400
 399.33000 389.90700 379.81300 368.66800 357.52200 345.30100 333.07400 320.22700
 307.21600 293.84800 280.37600 267.29600 254.61000 242.98700 232.15100 221.97700
 212.67200 204.28600 197.66900 192.82100 189.48600 187.45200 186.81400 187.08900
 187.78100 189.05400 190.64800 192.54200 194.63000 196.75200 198.67100 200.15800
 201.53500 202.48700 202.97500 203.34000 203.53900 203.49700 203.38500 203.24700
 203.00500 202.78600 202.60300 202.43700 202.42600 202.88800 203.42000 203.95100
 204.89500 205.99200 207.30100 208.95800 210.73800 213.10000 215.56400 218.18000
 220.96600 223.91800 226.96100 230.09200 233.29300 236.55700 239.95500 243.53700
 246.84500 249.39000 251.54200 253.47400 255.19500 256.48400 257.43100 258.05900
 258.21200 258.04000 257.58200 256.64300 255.23900 253.50700 251.40800 249.05600
 246.57600 243.99400 241.38900 238.83000 236.34400 233.98600 231.96900 230.11800
 228.42300 226.89900 225.54800 224.29700 223.10500 221.96500 220.95800 220.11300
 219.49000 218.92000 218.32500 217.88100 217.42300 216.96366 216.35568 216.80261
 217.73415 218.28582 218.64258 219.10077 220.44626 222.53987 226.38451 230.35736
 233.59734 237.39164 241.29814 245.22796 248.98002 252.51130 255.78595 258.80109
 261.54781 264.05210 266.34239 268.04198 269.58951 271.01303 272.35754 273.55718
 274.59842 275.49092 276.28989 276.99307 277.60161 278.14001 278.63122 279.07623
 279.47646 279.83287 280.14422 280.54100
 399.73800 389.78500 379.66200 368.15100 356.64100 344.35000 331.79200 318.88800
 305.72600 292.49300 279.20900 266.73800 254.69600 244.21100 234.45700 225.43300
 217.56900 210.45100 204.30000 199.30600 195.45800 192.57600 191.02700 190.38600
 190.23900 190.53400 191.16600 191.92500 192.79500 193.76600 194.73200 195.31200
 195.80000 196.05200 196.11500 196.11500 196.03900 195.72300 195.34000 194.98900
 194.75100 194.79200 195.13300 195.59800 196.50600 198.13600 199.85800 201.56600
 204.17900 206.82300 209.89300 213.28400 216.82800 220.60500 224.38700 228.20900
 232.03200 235.82500 239.56000 243.25800 246.84500 250.20100 253.70900 257.46800
 261.53000 264.22100 266.60100 268.68100 270.32900 271.74100 272.83600 273.47400
 273.89800 274.00200 273.75700 273.28800 272.37100 271.10000 269.58900 267.77900
 265.81600 263.72100 261.39300 258.91600 256.29800 253.42300 250.33100 247.11400
 243.83700 240.52900 237.24900 233.99900 230.72800 227.51500 224.25400 220.95200
 217.62700 213.65600 210.12100 206.78900 204.01000 201.99491 199.07309 198.76551
 199.40006 200.48994 201.46112 202.31912 203.45100 204.96110 207.47502 210.85391
 213.70530 217.29629 220.99574 224.72316 228.28753 231.64854 234.68024 237.40893
 239.70644 241.60899 243.46854 245.67368 247.68154 249.52395 251.24767 252.78566
 254.12057 255.26479 256.23740 257.09036 257.82852 258.48160 259.07744 259.61723
 260.10271 260.53504 260.91270 261.39400
 399.73800 389.78500 379.66200 368.15100 356.64100 344.35000 331.79200 318.88800
 305.72600 292.49300 279.20900 266.73800 254.69600 244.21100 234.45700 225.43300
 217.56900 210.45100 204.30000 199.30600 195.45800 192.57600 191.02700 190.38600
 190.23900 190.53400 191.16600 191.92500 192.79500 193.76600 194.73200 195.31200
 195.80000 196.05200 196.11500 196.11500 196.03900 195.72300 195.34000 194.98900
 194.75100 194.79200 195.13300 195.59800 196.50600 198.13600 199.85800 201.56600
 204.17900 206.82300 209.89300 213.28400 216.82800 220.60500 224.38700 228.20900
 232.03200 235.82500 239.56000 243.25800 246.84500 250.20100 253.70900 257.46800
 261.53000 264.22100 266.60100 268.68100 270.32900 271.74100 272.83600 273.47400
 273.89800 274.00200 273.75700 273.28800 272.37100 271.10000 269.58900 267.77900
 265.81600 263.72100 261.39300 258.91600 256.29800 253.42300 250.33100 247.11400
 243.83700 240.52900 237.24900 233.99900 230.72800 227.51500 224.25400 220.95200
 217.62700 213.65600 210.12100 206.78900 204.01000 201.99491 199.07309 198.76551
 199.40006 200.48994 201.46112 202.31912 203.45100 204.96110 207.47502 210.85391
 213.70530 217.29629 220.99574 224.72316 228.28753 231.64854 234.68024 237.40893
 239.70644 241.60899 243.46854 245.67368 247.68154 249.52395 251.24767 252.78566
 254.12057 255.26479 256.23740 257.09036 257.82852 258.48160 259.07744 259.61723
 260.10271 260.53504 260.91270 261.39400
 399.33000 389.90700 379.81300 368.66800 357.52200 345.30100 333.07400 320.22700
 307.21600 293.84800 280.37600 267.29600 254.61000 242.98700 232.15100 221.97700
 212.67200 204.28600 197.66900 192.82100 189.48600 187.45200 186.81400 187.08900
 187.78100 189.05400 190.64800 192.54200 194.63000 196.75200 198.67100 200.15800
 201.53500 202.48700 202.97500 203.34000 203.53900 203.49700 203.38500 203.24700
 203.00500 202.78600 202.60300 202.43700 202.42600 202.88800 203.42000 203.95100
 204.89500 205.99200 207.30100 208.95800 210.73800 213.10000 215.56400 218.18000
 220.96600 223.91800 226.96100 230.09200 233.29300 236.55700 239.95500 243.53700
 246.84500 249.39000 251.54200 253.47400 255.19500 256.48400 257.43100 258.05900
 258.21200 258.04000 257.58200 256.64300 255.23900 253.50700 251.40800 249.05600
 246.57600 243.99400 241.38900 238.83000 236.34400 233.98600 231.96900 230.11800
 228.42300 226.89900 225.54800 224.29700 223.10500 221.96500 220.95800 220.11300
 219.49000 218.92000 218.32500 217.88100 217.42300 216.96366 216.35568 216.80261
 217.73415 218.28582 218.64258 219.10077 220.44626 222.53987 226.38451 230.35736
 233.59734 237.39164 241.29814 245.22796 248.98002 252.51130 255.78595 258.80109
 261.54781 264.05210 266.34239 268.04198 269.58951 271.01303 272.35754 273.55718
 274.59842 275.49092 276.28989 276.99307 277.60161 278.14001 278.63122 279.07623
 279.47646 279.83287 280.14422 280.54100
 381.81900 372.39900 361.20600 349.77600 337.62200 324.85300 311.81000 298.35300
 284.86000 271.32400 258.56100 246.30400 236.08700 226.79600 218.44800 211.29000
 205.52200 200.89400 197.38100 194.84800 193.01500 192.31500 192.25000 192.43100
 192.91200 193.53700 194.13600 194.71200 195.26200 195.83100 196.39300 196.97600
 197.60400 198.14900 198.58400 199.05700 199.69500 200.37800 201.05400 201.70800
 202.31300 202.85700 203.35500 203.86200 204.56900 205.29700 206.02600 206.98700
 208.19300 209.44100 210.96900 212.57600 214.46200 216.51300 218.63000 220.85300
 223.34100 225.96200 228.73900 231.69700 234.70600 237.70600 240.69200 243.65700
 246.73700 249.69900 252.52100 255.06300 257.29000 259.23300 260.63300 261.68000
 262.46100 262.79800 262.69100 262.22400 261.06900 259.52500 257.70700 255.50700
 253.00100 250.30200 247.39800 244.45200 241.65400 239.05400 236.73300 234.59000
 232.59500 230.72500 228.83400 226.82600 224.66600 222.38700 220.10400 217.71500
 215.45900 213.06600 210.54600 208.09300 205.35400 202.08130 196.05959 200.71215
 209.01611 216.90438 223.84126 229.78593 235.00632 240.20838 245.98943 250.68668
 254.32982 257.93487 261.55666 264.96801 268.15192 271.06452 273.76717 276.25691
 278.57680 280.74479 282.77456 284.60533 286.27232 287.81705 289.31715 290.65561
 291.81734 292.81312 293.70701 294.49387 295.17482 295.77730 296.32696 296.82492
 297.27278 297.67160 298.02000 298.46400
 366.78100 356.32591 345.74881 334.60572 322.99963 311.18453 299.04544 286.83935
 274.54226 262.43016 250.43007 239.72198 229.83488 220.92979 213.10270 206.09560
 199.92051 194.84942 191.42232 189.45523 188.48314 188.53804 189.36395 190.66286
 192.37877 194.46467 196.71858 199.06849 201.50439 203.97530 206.05421 207.88711
 209.50402 210.63993 210.85983 211.07874 211.00665 210.70255 210.32646 209.94737
 209.55528 209.25618 209.05509 208.91000 208.82890 209.15081 209.52772 209.90762
 210.69153 211.86044 213.10134 214.87525 216.79416 218.82806 220.91397 222.98788
 225.03879 227.11369 229.20160 231.29851 233.41841 235.58132 237.82823 240.18913
 242.80104 245.04295 247.03585 248.79176 250.19967 251.31357 252.12648 252.43339
 252.46130 252.22620 251.57711 250.51602 249.11292 247.26483 245.16474 242.98864
 240.77055 238.56546 236.37636 234.20627 232.05718 229.91508 227.93199 226.07990
 224.35381 222.81671 221.43762 220.20053 219.07343 218.02434 217.11925 216.25115
 215.48406 214.65497 213.74387 213.09878 212.53969 212.45952 212.28033 213.43269
 215.22670 217.34064 218.53723 218.59760 219.84656 223.20587 228.33606 232.94824
 236.73676 240.54846 244.23647 247.74957 251.06496 253.83247 256.15369 258.55991
 261.74976 264.61801 266.75323 268.51157 270.32257 272.27042 274.06992 275.65778
 277.05295 278.42957 279.91794 281.28253 282.46619 283.51932 284.48495 285.36578
 286.16507 286.88373 287.51944 288.36523
 366.78100 356.32587 345.74873 334.60560 322.99946 311.18433 299.04519 286.83906
 274.54192 262.42979 250.42966 239.72152 229.83439 220.92925 213.10212 206.09498
 199.91985 194.84871 191.42158 189.45445 188.48231 188.53718 189.36304 190.66191
 192.37777 194.46364 196.71750 199.06737 201.50323 203.97410 206.05297 207.88583
 209.50270 210.63856 210.85843 211.07729 211.00516 210.70102 210.32489 209.94576
 209.55362 209.25449 209.05335 208.90822 208.82708 209.14895 209.52581 209.90568
 210.68955 211.85841 213.09928 214.87314 216.79201 218.82587 220.91174 222.98560
 225.03647 227.11134 229.19920 231.29607 233.41593 235.57880 237.82566 240.18653
 242.79839 245.04026 247.03312 248.78899 250.19686 251.31072 252.12359 252.43045
 252.45832 252.22318 251.57405 250.51291 249.10978 247.26165 245.16151 242.98538
 240.76724 238.56211 236.37297 234.20284 232.05370 229.91157 227.92844 226.07630
 224.35017 222.81303 221.43390 220.19676 219.06963 218.02049 217.11536 216.24723
 215.48009 214.65096 213.73982 213.09469 212.53555 212.48888 212.38734 213.56163
 215.30255 217.37033 218.67131 218.81677 219.99876 223.24847 228.27364 232.81549
 236.56429 240.37372 244.08369 247.59987 250.87007 253.59491 255.94325 258.42661
 261.59567 264.43808 266.58475 268.36600 270.18079 272.11780 273.91473 275.51587
 276.94327 278.34076 279.84378 281.20963 282.39490 283.44727 284.41260 285.29333
 286.09268 286.81058 287.44730 288.29346
 366.78100 356.32578 345.74857 334.60535 322.99913 311.18391 299.04470 286.83848
 274.54126 262.42905 250.42883 239.72061 229.83340 220.92818 213.10096 206.09374
 199.91853 194.84731 191.42009 189.45288 188.48066 188.53544 189.36123 190.66001
 192.37579 194.46157 196.71536 199.06514 201.50092 203.97171 206.05049 207.88327
 209.50006 210.63584 210.85562 211.07440 211.00219 210.69797 210.32175 209.94254
 209.55032 209.25110 209.04989 208.90467 208.82345 209.14523 209.52202 209.90180
 210.68558 211.85437 213.09515 214.86893 216.78771 218.82150 220.90728 222.98106
 225.03185 227.10663 229.19441 231.29120 233.41098 235.57376 237.82054 240.18133
 242.79311 245.03489 247.02768 248.78346 250.19124 251.30503 252.11781 252.42459
 252.45237 252.21716 251.56794 250.50672 249.10351 247.25529 245.15507 242.97886
 240.76064 238.55542 236.36620 234.19599 232.04677 229.90455 227.92134 226.06912
 224.34290 222.80569 221.42647 220.18925 219.06203 218.01282 217.10760 216.23938
 215.47217 214.64295 213.73173 213.08651 212.52730 212.51768 212.50226 213.69412
 215.35936 217.40895 218.79353 219.04492 220.17543 223.30414 228.21080 232.67981
 236.38744 240.19626 243.92432 247.43350 250.65802 253.35013 255.73061 258.29108
 261.43927 264.25458 266.41171 268.22089 270.04520 271.97589 273.77005 275.38550
 276.84467 278.26300 279.77209 281.14032 282.32550 283.37897 284.34482 285.22565
 286.02530 286.74411 287.38010 288.22662
 366.78100 356.32573 345.74847 334.60520 322.99893 311.18366 299.04440 286.83813
 274.54086 262.42860 250.42833 239.72006 229.83280 220.92753 213.10026 206.09299
 199.91773 194.84646 191.41919 189.45193 188.47966 188.53439 189.36012 190.65886
 192.37459 194.46032 196.71406 199.06379 201.49952 203.97025 206.04899 207.88172
 209.49845 210.63419 210.85392 211.07265 211.00039 210.69612 210.31985 209.94058
 209.54832 209.24905 209.04778 208.90252 208.82125 209.14298 209.51971 209.89945
 210.68318 211.85191 213.09265 214.86638 216.78511 218.81885 220.90458 222.97831
 225.02904 227.10378 229.19151 231.28824 233.40798 235.57071 237.81744 240.17817
 242.78991 245.03164 247.02437 248.78011 250.18784 251.30157 252.11431 252.42104
 252.44877 252.21350 251.56424 250.50297 249.09970 247.25144 245.15117 242.97490
 240.75663 238.55137 236.36210 234.19183 232.04257 229.90030 227.91703 226.06476
 224.33850 222.80123 221.42196 220.18470 219.05743 218.00816 217.10290 216.23463
 215.46736 214.63809 213.72683 213.08156 212.52229 212.54984 212.62077 213.82628
 215.41435 217.44699 218.90318 219.28024 220.37344 223.37112 228.15477 232.53575
 236.21243 240.02423 243.75673 247.24561 250.42422 253.09406 255.51413 258.15146
 261.27902 264.06915 266.23666 268.07568 269.91678 271.84482 273.63846 275.26590
 276.75446 278.19308 279.70602 281.07391 282.26050 283.31421 284.28033 285.16110
 285.96115 286.67999 287.31607 288.16302
 366.78100 356.32573 345.74846 334.60520 322.99893 311.18366 299.04439 286.83813
 274.54086 262.42859 250.42832 239.72006 229.83279 220.92752 213.10025 206.09298
 199.91772 194.84645 191.41918 189.45191 188.47965 188.53438 189.36011 190.65884
 192.37458 194.46031 196.71404 199.06377 201.49950 203.97024 206.04897 207.88170
 209.49843 210.63417 210.85390 211.07263 211.00036 210.69610 210.31983 209.94056
 209.54829 209.24903 209.04776 208.90249 208.82122 209.14295 209.51969 209.89942
 210.68315 211.85188 213.09262 214.86635 216.78508 218.81881 220.90455 222.97828
 225.02901 227.10374 229.19147 231.28821 233.40794 235.57067 237.81740 240.17814
 242.78987 245.03160 247.02433 248.78007 250.18780 251.30153 252.11426 252.42099
 252.44873 252.21346 251.56419 250.50292 249.09966 247.25139 245.15112 242.97485
 240.75659 238.55132 236.36205 234.19178 232.04251 229.90025 227.91698 226.06471
 224.33844 222.80118 221.42191 220.18464 219.05737 218.00811 217.10284 216.23457
 215.46730 214.63804 213.72677 213.08150 212.52223 212.58551 212.73962 213.95921
 215.46861 217.48247 219.01855 219.50954 220.57971 223.44785 228.10641 232.39378
 236.04095 239.85434 243.57877 247.03841 250.17261 252.82794 255.29330 258.00674
 261.11667 263.88135 266.05997 267.93106 269.79382 271.72534 273.51877 275.15796
 276.67081 278.12897 279.64273 281.01141 282.19846 283.25241 284.21970 285.09976
 285.89938 286.61874 287.25513 288.10266
 366.78100 356.32578 345.74857 334.60535 322.99913 311.18392 299.04470 286.83848
 274.54127 262.42905 250.42883 239.72062 229.83340 220.92818 213.10097 206.09375
 199.91853 194.84732 191.42010 189.45288 188.48067 188.53545 189.36123 190.66002
 192.37580 194.46158 196.71537 199.06515 201.50093 203.97172 206.05050 207.88328
 209.50007 210.63585 210.85563 211.07441 211.00220 210.69798 210.32176 209.94255
 209.55033 209.25111 209.04990 208.90468 208.82346 209.14525 209.52203 209.90181
 210.68560 211.85438 213.09516 214.86895 216.78773 218.82151 220.90730 222.98108
 225.03186 227.10665 229.19443 231.29121 233.41100 235.57378 237.82056 240.18135
 242.79313 245.03491 247.02770 248.78348 250.19126 251.30505 252.11783 252.42461
 252.45240 252.21718 251.56796 250.50675 249.10353 247.25531 245.15510 242.97888
 240.76066 238.55545 236.36623 234.19601 232.04680 229.90458 227.92136 226.06915
 224.34293 222.80571 221.42650 220.18928 219.06206 218.01285 217.10763 216.23941
 215.47220 214.64298 213.73176 213.08655 212.52733 212.62474 212.85832 214.09134
 215.52396 217.52083 219.14041 219.72734 220.78831 223.53094 228.06299 232.26860
 235.87744 239.68344 243.38925 246.81253 249.90685 252.55580 255.06905 257.85437
 260.94852 263.69089 265.87848 267.78329 269.67517 271.61636 273.41351 275.06451
 276.59619 278.06723 279.58246 280.95108 282.13721 283.19241 284.15866 285.04034
 285.83893 286.55963 287.19482 288.04590
 366.78100 356.32591 345.74881 334.60572 322.99962 311.18453 299.04543 286.83934
 274.54224 262.43015 250.43005 239.72196 229.83486 220.92977 213.10267 206.09558
 199.92048 194.84939 191.42229 189.45520 188.48310 188.53801 189.36391 190.66282
 192.37872 194.46463 196.71854 199.06844 201.50435 203.97525 206.05416 207.88706
 209.50397 210.63987 210.85978 211.07868 211.00659 210.70249 210.32640 209.94730
 209.55521 209.25611 209.05502 208.90992 208.82883 209.15073 209.52764 209.90754
 210.69145 211.86035 213.10126 214.87517 216.79407 218.82798 220.91388 222.98779
 225.03869 227.11360 229.20150 231.29841 233.41831 235.58122 237.82812 240.18903
 242.80093 245.04284 247.03574 248.79165 250.19955 251.31346 252.12636 252.43327
 252.46117 252.22608 251.57698 250.51589 249.11280 247.26470 245.16461 242.98851
 240.77042 238.56532 236.37623 234.20613 232.05704 229.91494 227.93185 226.07975
 224.35366 222.81656 221.43747 220.20037 219.07328 218.02418 217.11909 216.25099
 215.48390 214.65480 213.74371 213.09862 212.53952 212.66835 212.97505 214.21820
 215.58492 217.56122 219.25899 219.93811 220.99989 223.61986 228.02551 232.16292
 235.72952 239.51669 243.19095 246.56706 249.62399 252.27586 254.84044 257.69025
 260.77011 263.49289 265.69250 267.63635 269.56366 271.52017 273.32391 274.98419
 276.53152 278.01028 279.52548 280.89301 282.08084 283.13547 284.10178 284.98312
 285.78305 286.50305 287.14044 287.98956
 366.78100 356.32616 345.74932 334.60649 323.00065 311.18581 299.04697 286.84113
 274.54430 262.43246 250.43262 239.72478 229.83794 220.93311 213.10627 206.09943
 199.92459 194.85375 191.42692 189.46008 188.48824 188.54340 189.36956 190.66873
 192.38489 194.47105 196.72521 199.07537 201.51154 203.98270 206.06186 207.89502
 209.51218 210.64835 210.86851 211.08767 211.01583 210.71199 210.33616 209.95732
 209.56548 209.26664 209.06580 208.92097 208.84013 209.16229 209.53945 209.91961
 210.70378 211.87294 213.11410 214.88826 216.80742 218.84159 220.92775 223.00191
 225.05307 227.12823 229.21640 231.31356 233.43372 235.59688 237.84404 240.20521
 242.81737 245.05953 247.05269 248.80885 250.21702 251.33118 252.14434 252.45150
 252.47966 252.24483 251.59599 250.53515 249.13231 247.28447 245.18464 243.00880
 240.79096 238.58612 236.39728 234.22745 232.07861 229.93677 227.95393 226.10209
 224.37626 222.83942 221.46058 220.22374 219.09690 218.04807 217.14323 216.27539
 215.50855 214.67971 213.76888 213.12404 212.56520 212.71902 213.08382 214.34352
 215.65492 217.60242 219.37019 220.14569 221.21188 223.71785 227.99736 232.07072
 235.60071 239.36148 242.99005 246.30142 249.31793 251.98280 254.60519 257.51572
 260.58249 263.28839 265.50803 267.49680 269.46286 271.43793 273.24927 274.91583
 276.47311 277.95673 279.47223 280.84039 282.02826 283.08295 284.04953 284.93143
 285.73172 286.45209 287.08954 287.94174
 366.78100 356.32652 345.75004 334.60755 323.00207 311.18759 299.04911 286.84362
 274.54714 262.43566 250.43618 239.72869 229.84221 220.93773 213.11125 206.10477
 199.93028 194.85980 191.43332 189.46684 188.49535 188.55087 189.37739 190.67691
 192.39342 194.47994 196.73446 199.08498 201.52150 203.99301 206.07253 207.90605
 209.52357 210.66008 210.88060 211.10012 211.02864 210.72515 210.34967 209.97119
 209.57971 209.28123 209.08074 208.93626 208.85578 209.17830 209.55581 209.93633
 210.72085 211.89037 213.13188 214.90640 216.82592 218.86044 220.94696 223.02147
 225.07299 227.14851 229.23703 231.33454 233.45506 235.61858 237.86610 240.22761
 242.84013 245.08265 247.07617 248.83269 250.24120 251.35572 252.16924 252.47676
 252.50527 252.27079 251.62231 250.56183 249.15934 247.31186 245.21238 243.03690
 240.81942 238.61493 236.42645 234.25697 232.10849 229.96700 227.98452 226.13304
 224.40756 222.87107 221.49259 220.25611 219.12963 218.08115 217.17666 216.30918
 215.54270 214.71422 213.80373 213.15925 212.60077 212.77441 213.18517 214.46837
 215.73030 217.65019 219.48286 220.34810 221.41649 223.82050 227.97531 231.98473
 235.48526 239.21556 242.78470 246.01898 248.99474 251.67790 254.36191 257.33188
 260.39072 263.08743 265.33115 267.36581 269.37225 271.36682 273.18326 274.85440
 276.42023 277.90671 279.42245 280.79181 281.97977 283.03513 284.00198 284.88388
 285.68460 286.40598 287.04416 287.89648
 366.78100 356.32684 345.75068 334.60852 323.00336 311.18920 299.05104 286.84588
 274.54972 262.43856 250.43940 239.73224 229.84608 220.94193 213.11577 206.10961
 199.93545 194.86529 191.43913 189.47297 188.50181 188.55765 189.38449 190.68433
 192.40117 194.48801 196.74285 199.09369 201.53053 204.00237 206.08221 207.91605
 209.53389 210.67073 210.89157 211.11141 211.04025 210.73710 210.36194 209.98378
 209.59262 209.29446 209.09430 208.95014 208.86998 209.19282 209.57066 209.95150
 210.73634 211.90618 213.14802 214.92286 216.84270 218.87754 220.96438 223.03922
 225.09106 227.16690 229.25574 231.35358 233.47442 235.63827 237.88611 240.24795
 242.86079 245.10363 247.09747 248.85431 250.26315 251.37799 252.19183 252.49967
 252.52851 252.29435 251.64619 250.58603 249.18387 247.33671 245.23755 243.06239
 240.84523 238.64107 236.45291 234.28375 232.13559 229.99444 228.01228 226.16112
 224.43596 222.89980 221.52164 220.28548 219.15932 218.11116 217.20700 216.33984
 215.57368 214.74552 213.83536 213.19120 212.63304 212.82750 213.28697 214.58495
 215.81349 217.71069 219.60379 220.54216 221.60977 223.91629 227.95277 231.90002
 235.38049 239.08223 242.58182 245.72531 248.65602 251.36253 254.11520 257.14801
 260.20398 262.89255 265.15729 267.23795 269.28799 271.30539 273.12744 274.80072
 276.37509 277.86050 279.37790 280.74649 281.93454 282.99130 283.95972 284.84012
 285.64246 286.36398 287.00308 287.85730
 366.78100 356.32721 345.75142 334.60963 323.00484 311.19105 299.05326 286.84847
 274.55267 262.44188 250.44309 239.73630 229.85051 220.94672 213.12093 206.11514
 199.94135 194.87156 191.44577 189.47998 188.50919 188.56540 189.39261 190.69282
 192.41002 194.49723 196.75244 199.10365 201.54086 204.01307 206.09328 207.92749
 209.54570 210.68291 210.90412 211.12433 211.05354 210.75075 210.37596 209.99817
 209.60737 209.30958 209.10979 208.96600 208.88621 209.20942 209.58763 209.96884
 210.75405 211.92426 213.16647 214.94168 216.86189 218.89710 220.98431 223.05952
 225.11172 227.18793 229.27714 231.37535 233.49656 235.66077 237.90898 240.27119
 242.88440 245.12761 247.12182 248.87903 250.28824 251.40345 252.21766 252.52587
 252.55507 252.32128 251.67349 250.61370 249.21191 247.36512 245.26633 243.09154
 240.87475 238.67096 236.48317 234.31438 232.16659 230.02580 228.04401 226.19322
 224.46842 222.93263 221.55484 220.31905 219.19326 218.14547 217.24168 216.37489
 215.60910 214.78131 213.87152 213.22773 212.66994 212.88185 213.38251 214.70230
 215.89705 217.78627 219.73137 220.72771 221.79333 224.00058 227.93393 231.82359
 235.27914 238.94948 242.37169 245.42480 248.31863 251.05519 253.87457 256.96341
 260.01254 262.68854 264.98083 267.11594 269.21417 271.25711 273.08405 274.75809
 276.33966 277.82010 279.33713 280.70621 281.89517 282.95288 283.91885 284.80240
 285.60535 286.32739 286.96652 287.82242
 366.78100 356.32768 345.75235 334.61103 323.00671 311.19338 299.05606 286.85174
 274.55641 262.44609 250.44777 239.74144 229.85612 220.95280 213.12747 206.12215
 199.94883 194.87950 191.45418 189.48886 188.51853 188.57521 189.40289 190.70357
 192.42124 194.50892 196.76460 199.11627 201.55395 204.02663 206.10730 207.94198
 209.56066 210.69833 210.92001 211.14069 211.07036 210.76804 210.39372 210.01639
 209.62607 209.32875 209.12942 208.98610 208.90678 209.23045 209.60913 209.99081
 210.77648 211.94716 213.18984 214.96551 216.88619 218.92187 221.00954 223.08522
 225.13790 227.21457 229.30425 231.40293 233.52460 235.68928 237.93796 240.30064
 242.91431 245.15799 247.15267 248.91034 250.32002 251.43570 252.25037 252.55905
 252.58873 252.35540 251.70808 250.64876 249.24743 247.40111 245.30279 243.12846
 240.91214 238.70882 236.52149 234.35317 232.20585 230.06552 228.08420 226.23388
 224.50955 222.97423 221.59691 220.36158 219.23626 218.18894 217.28561 216.41929
 215.65397 214.82664 213.91732 213.27400 212.71667 212.93991 213.46732 214.81422
 216.00255 217.85356 219.86815 220.92581 221.95898 224.06889 227.90608 231.74788
 235.18616 238.82620 242.17194 245.13351 247.98297 250.74403 253.62560 256.76624
 259.81024 262.48282 264.81311 267.00720 269.15442 271.22125 273.05161 274.72195
 276.30591 277.78403 279.30054 280.67056 281.86053 282.91727 283.88559 284.76880
 285.57016 286.29507 286.93442 287.79193
 366.78100 356.32841 345.75383 334.61324 323.00965 311.19706 299.06048 286.85689
 274.56230 262.45271 250.45513 239.74954 229.86495 220.96236 213.13778 206.13319
 199.96060 194.89201 191.46743 189.50284 188.53325 188.59066 189.41908 190.72049
 192.43890 194.52731 196.78373 199.13614 201.57455 204.04796 206.12938 207.96479
 209.58420 210.72261 210.94503 211.16644 211.09685 210.79526 210.42168 210.04509
 209.65550 209.35891 209.16033 209.01774 208.93915 209.26356 209.64298 210.02539
 210.81180 211.98321 213.22663 215.00304 216.92445 218.96086 221.04928 223.12569
 225.17910 227.25651 229.34693 231.44634 233.56875 235.73416 237.98358 240.34699
 242.96140 245.20581 247.20123 248.95964 250.37005 251.48646 252.30188 252.61129
 252.64170 252.40911 251.76253 250.70394 249.30335 247.45776 245.36018 243.18659
 240.97100 238.76841 236.58183 234.41424 232.26765 230.12806 228.14748 226.29789
 224.57430 223.03971 221.66313 220.42854 219.30395 218.25736 217.35478 216.48919
 215.72460 214.89802 213.98943 213.34684 212.79025 213.01059 213.53116 214.92287
 216.13048 217.93503 220.00607 221.12285 222.09102 224.11354 227.87939 231.69029
 235.11659 238.72650 241.98967 244.83701 247.62572 250.41100 253.36446 256.56531
 259.61429 262.29236 264.66034 266.91132 269.10425 271.19269 273.02313 274.69025
 276.27576 277.75238 279.26849 280.63828 281.82846 282.88522 283.85452 284.73773
 285.54114 286.26456 286.90549 287.76550
 366.78100 356.32887 345.75474 334.61461 323.01148 311.19935 299.06322 286.86009
 274.56596 262.45683 250.45970 239.75457 229.87044 220.96831 213.14418 206.14005
 199.96792 194.89979 191.47566 189.51153 188.54240 188.60027 189.42914 190.73101
 192.44988 194.53875 196.79562 199.14849 201.58736 204.06123 206.14310 207.97897
 209.59884 210.73771 210.96058 211.18245 211.11332 210.81220 210.43907 210.06294
 209.67381 209.37768 209.17955 209.03742 208.95929 209.28416 209.66403 210.04690
 210.83377 212.00564 213.24951 215.02638 216.94825 218.98512 221.07399 223.15086
 225.20473 227.28260 229.37347 231.47334 233.59621 235.76208 238.01195 240.37582
 242.99069 245.23556 247.23143 248.99030 250.40117 251.51804 252.33391 252.64378
 252.67465 252.44252 251.79639 250.73826 249.33813 247.49300 245.39587 243.22274
 241.00761 238.80548 236.61935 234.45222 232.30609 230.16696 228.18683 226.33770
 224.61457 223.08044 221.70431 220.47018 219.34605 218.29992 217.39779 216.53266
 215.76853 214.94240 214.03427 213.39214 212.83601 213.06586 213.60886 215.01224
 216.25534 218.05994 220.11577 221.31512 222.20847 224.15260 227.87791 231.67252
 235.06564 238.62524 241.78337 244.50443 247.24490 250.07167 253.10886 256.37399
 259.43008 262.11090 264.51569 266.82468 269.06464 271.17276 273.00049 274.65985
 276.23959 277.72351 279.24109 280.61105 281.80182 282.85956 283.82925 284.71246
 285.51440 286.23959 286.87918 287.74228
 366.78100 356.32916 345.75532 334.61548 323.01264 311.20080 299.06496 286.86212
 274.56828 262.45944 250.46260 239.75776 229.87392 220.97208 213.14825 206.14441
 199.97257 194.90473 191.48089 189.51705 188.54821 188.60637 189.43553 190.73769
 192.45685 194.54601 196.80317 199.15633 201.59549 204.06965 206.15181 207.98797
 209.60813 210.74729 210.97045 211.19261 211.12377 210.82293 210.45009 210.07425
 209.68541 209.38957 209.19174 209.04990 208.97206 209.29722 209.67738 210.06054
 210.84770 212.01986 213.26402 215.04118 216.96334 219.00050 221.08966 223.16682
 225.22098 227.29914 229.39030 231.49046 233.61362 235.77978 238.02994 240.39410
 243.00926 245.25442 247.25058 249.00974 250.42090 251.53806 252.35423 252.66439
 252.69555 252.46371 251.81787 250.76003 249.36019 247.51535 245.41851 243.24567
 241.03083 238.82899 236.64315 234.47631 232.33047 230.19163 228.21179 226.36295
 224.64011 223.10627 221.73043 220.49659 219.37275 218.32691 217.42507 216.56023
 215.79639 214.97055 214.06272 213.42088 212.86504 213.11063 213.69087 215.10335
 216.36827 218.19810 220.20566 221.49170 222.33179 224.20995 227.91273 231.66945
 235.01323 238.50066 241.54033 244.15295 246.86620 249.74449 252.86443 256.19003
 259.24994 261.93237 264.37714 266.74503 269.03326 271.16385 272.99072 274.64325
 276.21530 277.69675 279.21448 280.58435 281.77637 282.83261 283.80264 284.68784
 285.49094 286.21494 286.85587 287.72339
 366.78100 356.33005 345.75710 334.61814 323.01619 311.20524 299.07029 286.86833
 274.57538 262.46743 250.47148 239.76752 229.88457 220.98362 213.16067 206.15771
 199.98676 194.91981 191.49686 189.53391 188.56595 188.62500 189.45505 190.75810
 192.47814 194.56819 196.82624 199.18029 201.62033 204.09538 206.17843 208.01548
 209.63653 210.77657 211.00062 211.22367 211.15572 210.85576 210.48381 210.10886
 209.72091 209.42595 209.22900 209.08805 209.01110 209.33714 209.71819 210.10224
 210.89029 212.06334 213.30838 215.08643 217.00948 219.04753 221.13757 223.21562
 225.27067 227.34972 229.44176 231.54281 233.66686 235.83391 238.08495 240.45000
 243.06605 245.31210 247.30915 249.06919 250.48124 251.59929 252.41634 252.72738
 252.75943 252.52848 251.88353 250.82657 249.42762 247.58367 245.48772 243.31577
 241.10181 238.90086 236.71591 234.54996 232.40500 230.26705 228.28810 226.44015
 224.71819 223.18524 221.81029 220.57734 219.45438 218.40943 217.50848 216.64453
 215.88158 215.05662 214.14967 213.50872 212.95377 213.18376 213.72716 215.21346
 216.50681 218.33438 220.29837 221.63281 222.47571 224.28242 227.95004 231.64407
 234.93332 238.34515 241.27992 243.81075 246.49599 249.42366 252.62939 256.01413
 259.08398 261.77444 264.25388 266.67398 269.00214 271.14938 272.97635 274.63202
 276.20416 277.67337 279.19009 280.55997 281.75134 282.80957 283.77954 284.66318
 285.46829 286.19492 286.83612 287.70175
 366.78100 356.33072 345.75845 334.62017 323.01889 311.20862 299.07434 286.87306
 274.58079 262.47351 250.47823 239.77495 229.89268 220.99240 213.17012 206.16785
 199.99757 194.93129 191.50902 189.54674 188.57946 188.63919 189.46991 190.77363
 192.49436 194.58508 196.84380 199.19853 201.63925 204.11497 206.19869 208.03642
 209.65814 210.79886 211.02359 211.24731 211.18003 210.88076 210.50948 210.13520
 209.74793 209.45365 209.25737 209.11710 209.04082 209.36754 209.74927 210.13399
 210.92271 212.09644 213.34216 215.12088 217.04460 219.08333 221.17405 223.25277
 225.30850 227.38822 229.48094 231.58267 233.70739 235.87511 238.12684 240.49256
 243.10928 245.35601 247.35373 249.11445 250.52718 251.64590 252.46362 252.77534
 252.80807 252.57779 251.93351 250.87724 249.47896 247.63568 245.54041 243.36913
 241.15585 238.95558 236.77130 234.60602 232.46175 230.32447 228.34619 226.49892
 224.77764 223.24536 221.87108 220.63881 219.51653 218.47225 217.57198 216.70870
 215.94642 215.12215 214.21587 213.57559 213.02132 213.24373 213.76920 215.31142
 216.66452 218.49344 220.40414 221.74423 222.64148 224.36307 227.96022 231.59689
 234.82738 238.16110 241.00439 243.46744 246.12703 249.10899 252.40564 255.85036
 258.93884 261.63751 264.14990 266.61487 268.97632 271.12909 272.94550 274.59048
 276.14987 277.65799 279.18039 280.55142 281.74246 282.80084 283.76990 284.65445
 285.45834 286.18106 286.82550 287.68781
 366.78100 356.33060 345.75820 334.61980 323.01839 311.20799 299.07359 286.87219
 274.57979 262.47239 250.47698 239.77358 229.89118 220.99078 213.16838 206.16598
 199.99557 194.92917 191.50677 189.54437 188.57697 188.63657 189.46716 190.77076
 192.49136 194.58196 196.84056 199.19516 201.63575 204.11135 206.19495 208.03255
 209.65415 210.79475 211.01934 211.24294 211.17554 210.87614 210.50474 210.13034
 209.74293 209.44853 209.25213 209.11173 209.03533 209.36193 209.74352 210.12812
 210.91672 212.09032 213.33592 215.11452 217.03811 219.07671 221.16731 223.24591
 225.30151 227.38111 229.47370 231.57530 233.69990 235.86750 238.11910 240.48470
 243.10129 245.34789 247.34549 249.10609 250.51869 251.63729 252.45488 252.76648
 252.79908 252.56868 251.92428 250.86788 249.46947 247.62607 245.53067 243.35927
 241.14587 238.94547 236.76106 234.59566 232.45126 230.31386 228.33546 226.48806
 224.76665 223.23425 221.85985 220.62745 219.50505 218.46065 217.56024 216.69684
 215.93444 215.11004 214.20364 213.56324 213.00883 213.25969 213.85236 215.38875
 216.82085 218.67062 220.50859 221.84486 222.82309 224.46509 227.95181 231.54585
 234.71773 237.96013 240.70757 243.10558 245.76068 248.80466 252.19034 255.69670
 258.80222 261.51285 264.05762 266.56802 268.95956 271.11630 272.92151 274.55365
 276.10709 277.63870 279.16541 280.53558 281.72757 282.78574 283.75589 284.64001
 285.44388 286.16849 286.81104 287.67508
 366.78100 356.33063 345.75826 334.61989 323.01852 311.20815 299.07378 286.87241
 274.58004 262.47267 250.47731 239.77394 229.89157 220.99120 213.16883 206.16646
 199.99609 194.92972 191.50735 189.54498 188.57761 188.63724 189.46787 190.77150
 192.49213 194.58276 196.84139 199.19602 201.63666 204.11229 206.19592 208.03355
 209.65518 210.79581 211.02044 211.24407 211.17670 210.87733 210.50596 210.13159
 209.74422 209.44985 209.25348 209.11311 209.03674 209.36337 209.74501 210.12964
 210.91827 212.09190 213.33753 215.11616 217.03979 219.07842 221.16905 223.24768
 225.30331 227.38294 229.47557 231.57720 233.70183 235.86946 238.12109 240.48672
 243.10335 245.34999 247.34762 249.10825 250.52088 251.63951 252.45714 252.76877
 252.80140 252.57103 251.92666 250.87029 249.47192 247.62855 245.53318 243.36181
 241.14844 238.94807 236.76370 234.59834 232.45397 230.31660 228.33823 226.49086
 224.76949 223.23712 221.86275 220.63038 219.50801 218.46364 217.56327 216.69990
 215.93753 215.11316 214.20679 213.56642 213.01205 213.28133 213.91751 215.47745
 216.98178 218.84102 220.62120 221.93546 222.99388 224.59650 227.94824 231.48999
 234.60042 237.73978 240.38266 242.73083 245.40570 248.51907 251.98956 255.55721
 258.67444 261.39749 263.97354 266.52286 268.94208 271.10760 272.91089 274.53677
 275.99176 277.66077 279.18143 280.53690 281.71948 282.77249 283.73822 284.61908
 285.42340 286.14520 286.78769 287.65137
 366.78100 356.33089 345.75877 334.62066 323.01955 311.20944 299.07532 286.87421
 274.58210 262.47499 250.47987 239.77676 229.89465 220.99454 213.17242 206.17031
 200.00020 194.93408 191.51197 189.54986 188.58275 188.64263 189.47352 190.77741
 192.49830 194.58918 196.84807 199.20296 201.64385 204.11973 206.20362 208.04151
 209.66340 210.80428 211.02917 211.25306 211.18594 210.88683 210.51572 210.14161
 209.75449 209.46038 209.26427 209.12416 209.04804 209.37493 209.75682 210.14171
 210.93059 212.10448 213.35037 215.12925 217.05314 219.09203 221.18292 223.26180
 225.31769 227.39758 229.49047 231.59235 233.71724 235.88513 238.13702 240.50290
 243.11979 245.36668 247.36457 249.12545 250.53834 251.65723 252.47511 252.78700
 252.81989 252.58978 251.94566 250.88955 249.49144 247.64833 245.55321 243.38210
 241.16899 238.96888 236.78476 234.61965 232.47554 230.33842 228.36031 226.51320
 224.79209 223.25997 221.88586 220.65375 219.53164 218.48752 217.58741 216.72430
 215.96219 215.13807 214.23196 213.59185 213.03773 213.31349 213.96501 215.56746
 217.14948 219.01102 220.75363 222.03015 223.14297 224.74644 227.96628 231.42513
 234.45549 237.47842 240.01865 242.34625 245.06261 248.25264 251.80438 255.42979
 258.56302 261.29745 263.90280 266.48276 268.92410 271.09930 272.89700 274.51443
 275.96976 277.61691 279.15341 280.51788 281.70529 282.75977 283.72684 284.60828
 285.41241 286.13705 286.78070 287.64911
 366.78100 356.33109 345.75918 334.62127 323.02036 311.21045 299.07654 286.87563
 274.58372 262.47681 250.48190 239.77898 229.89707 220.99716 213.17525 206.17334
 200.00343 194.93752 191.51561 189.55370 188.58679 188.64688 189.47797 190.78206
 192.50315 194.59424 196.85333 199.20842 201.64951 204.12560 206.20969 208.04778
 209.66986 210.81095 211.03604 211.26013 211.19322 210.89431 210.52340 210.14949
 209.76258 209.46867 209.27276 209.13285 209.05694 209.38403 209.76612 210.15121
 210.94030 212.11439 213.36048 215.13957 217.06366 219.10275 221.19383 223.27292
 225.32901 227.40910 229.50219 231.60428 233.72937 235.89746 238.14955 240.51564
 243.13273 245.37982 247.37791 249.13900 250.55209 251.67118 252.48927 252.80136
 252.83445 252.60454 251.96063 250.90471 249.50680 247.66389 245.56898 243.39807
 241.18516 238.98525 236.80134 234.63643 232.49252 230.35561 228.37770 226.53079
 224.80988 223.27797 221.90406 220.67215 219.55024 218.50633 217.60642 216.74351
 215.98159 215.15768 214.25177 213.61186 213.05795 213.34140 214.01106 215.65282
 217.31407 219.18401 220.89394 222.13330 223.28497 224.91441 228.01512 231.35835
 234.28342 237.16740 239.61125 241.95091 244.73122 248.00479 251.63567 255.31129
 258.46249 261.21167 263.83951 266.44427 268.90341 271.08606 272.87561 274.48721
 275.99500 277.58322 279.11743 280.48718 281.67776 282.73599 283.70474 284.59103
 285.39496 286.11896 286.76428 287.63229
 366.78100 356.33109 345.75917 334.62126 323.02035 311.21043 299.07652 286.87560
 274.58369 262.47678 250.48186 239.77895 229.89704 220.99712 213.17521 206.17329
 200.00338 194.93747 191.51555 189.55364 188.58673 188.64681 189.47790 190.78199
 192.50307 194.59416 196.85324 199.20833 201.64942 204.12550 206.20959 208.04768
 209.66976 210.81085 211.03594 211.26002 211.19311 210.89419 210.52328 210.14937
 209.76245 209.46854 209.27263 209.13271 209.05680 209.38388 209.76597 210.15106
 210.94014 212.11423 213.36032 215.13940 217.06349 219.10258 221.19366 223.27275
 225.32883 227.40892 229.50201 231.60409 233.72918 235.89727 238.14935 240.51544
 243.13252 245.37961 247.37770 249.13878 250.55187 251.67096 252.48904 252.80113
 252.83422 252.60430 251.96039 250.90447 249.50656 247.66365 245.56873 243.39782
 241.18491 238.98499 236.80108 234.63616 232.49225 230.35534 228.37742 226.53051
 224.80960 223.27768 221.90377 220.67186 219.54994 218.50603 217.60611 216.74320
 215.98129 215.15737 214.25146 213.61155 213.05763 213.35701 214.06430 215.73862
 217.46971 219.35684 221.03206 222.23700 223.43591 225.10083 228.08746 231.30905
 234.10005 236.80919 239.16171 241.54527 244.41121 247.77287 251.47986 255.20154
 258.37567 261.13898 263.78354 266.40527 268.87512 271.06104 272.84769 274.45746
 275.96417 277.57355 279.11368 280.48444 281.67880 282.73917 283.71237 284.60327
 285.41882 286.15610 286.80328 287.67593
 366.78100 356.33088 345.75876 334.62065 323.01953 311.20941 299.07529 286.87417
 274.58205 262.47494 250.47982 239.77670 229.89458 220.99446 213.17235 206.17023
 200.00011 194.93399 191.51187 189.54976 188.58264 188.64252 189.47340 190.77728
 192.49816 194.58905 196.84793 199.20281 201.64369 204.11957 206.20346 208.04134
 209.66322 210.80410 211.02898 211.25286 211.18575 210.88663 210.51551 210.14139
 209.75427 209.46016 209.26404 209.12392 209.04780 209.37468 209.75657 210.14145
 210.93033 212.10421 213.35009 215.12897 217.05286 219.09174 221.18262 223.26150
 225.31738 227.39727 229.49015 231.59203 233.71691 235.88479 238.13668 240.50256
 243.11944 245.36632 247.36420 249.12508 250.53797 251.65685 252.47473 252.78661
 252.81949 252.58938 251.94526 250.88914 249.49102 247.64790 245.55278 243.38167
 241.16855 238.96843 236.78431 234.61919 232.47508 230.33796 228.35984 226.51272
 224.79160 223.25949 221.88537 220.65325 219.53113 218.48701 217.58689 216.72378
 215.96166 215.13754 214.23142 213.59130 213.03719 213.36018 214.12332 215.83270
 217.61357 219.51630 221.17012 222.34317 223.59074 225.30614 228.17500 231.25363
 233.90056 236.43089 238.68787 241.12885 244.09895 247.55998 251.34106 255.10345
 258.30057 261.07727 263.73535 266.36536 268.84055 271.02704 272.81686 274.42236
 275.88522 277.58200 279.12903 280.49750 281.68857 282.74683 283.72028 284.61252
 285.42603 286.16492 286.81198 287.68542
 366.78100 356.33058 345.75815 334.61973 323.01830 311.20788 299.07345 286.87203
 274.57960 262.47218 250.47676 239.77333 229.89091 220.99048 213.16806 206.16563
 199.99521 194.92879 191.50636 189.54394 188.57651 188.63609 189.46666 190.77024
 192.49081 194.58139 196.83997 199.19454 201.63512 204.11069 206.19427 208.03184
 209.65342 210.79400 211.01857 211.24215 211.17472 210.87530 210.50387 210.12945
 209.74202 209.44760 209.25118 209.11075 209.03433 209.36090 209.74248 210.12705
 210.91563 212.08921 213.33478 215.11336 217.03693 219.07551 221.16608 223.24466
 225.30023 227.37981 229.47239 231.57396 233.69854 235.86611 238.11769 240.48326
 243.09984 245.34641 247.34399 249.10457 250.51714 251.63572 252.45329 252.76487
 252.79744 252.56702 251.92260 250.86617 249.46775 247.62432 245.52890 243.35747
 241.14405 238.94362 236.75920 234.59378 232.44935 230.31193 228.33350 226.48608
 224.76465 223.23223 221.85781 220.62538 219.50296 218.45853 217.55811 216.69468
 215.93226 215.10783 214.20141 213.56099 213.00656 213.35609 214.18192 215.93661
 217.74925 219.66174 221.30170 222.45030 223.76205 225.51405 228.26210 231.21188
 233.70639 236.02477 238.18414 240.70926 243.80751 247.37299 251.21832 255.01172
 258.23053 261.02435 263.69421 266.32837 268.80331 270.98776 272.77783 274.38245
 275.86679 277.57486 279.12491 280.49326 281.68445 282.74533 283.71735 284.60852
 285.42520 286.15994 286.80905 287.68216
 366.78100 356.33030 345.75760 334.61889 323.01719 311.20649 299.07179 286.87009
 274.57738 262.46968 250.47398 239.77028 229.88758 220.98687 213.16417 206.16147
 199.99077 194.92407 191.50136 189.53866 188.57096 188.63026 189.46056 190.76386
 192.48415 194.57445 196.83275 199.18705 201.62735 204.10264 206.18594 208.02324
 209.64454 210.78484 211.00913 211.23243 211.16473 210.86503 210.49333 210.11862
 209.73092 209.43622 209.23952 209.09882 209.02211 209.34841 209.72971 210.11401
 210.90231 212.07560 213.32090 215.09920 217.02250 219.06080 221.15109 223.22939
 225.28469 227.36399 229.45629 231.55759 233.68188 235.84918 238.10048 240.46578
 243.08208 245.32837 247.32567 249.08597 250.49827 251.61657 252.43386 252.74516
 252.77746 252.54676 251.90206 250.84535 249.44665 247.60295 245.50725 243.33555
 241.12184 238.92114 236.73644 234.57074 232.42604 230.28833 228.30963 226.46193
 224.74023 223.20753 221.83282 220.60012 219.47742 218.43272 217.53202 216.66832
 215.90561 215.08091 214.17421 213.53351 212.97881 213.35234 214.23488 216.04536
 217.89206 219.78841 221.40991 222.56059 223.93767 225.74225 228.36060 231.16101
 233.48380 235.59589 237.66862 240.30817 243.54459 247.20262 251.10585 254.92578
 258.16556 260.98004 263.65842 266.29221 268.76379 270.94498 272.74020 274.35251
 275.85455 277.56659 279.11664 280.48532 281.67676 282.73730 283.70972 284.60046
 285.41742 286.15350 286.80072 287.67645
 366.78100 356.32954 345.75607 334.61661 323.01415 311.20269 299.06722 286.86476
 274.57130 262.46284 250.46637 239.76191 229.87845 220.97698 213.15352 206.15006
 199.97860 194.91113 191.48767 189.52421 188.55575 188.61428 189.44382 190.74636
 192.46589 194.55543 196.81297 199.16651 201.60604 204.08058 206.16312 207.99965
 209.62019 210.75973 210.98327 211.20580 211.13734 210.83688 210.46442 210.08895
 209.70049 209.40503 209.20756 209.06610 208.98864 209.31418 209.69471 210.07825
 210.86579 212.03833 213.28286 215.06040 216.98294 219.02047 221.11001 223.18755
 225.24209 227.32062 229.41216 231.51270 233.63624 235.80277 238.05331 240.41785
 243.03338 245.27892 247.27546 249.03500 250.44653 251.56407 252.38061 252.69114
 252.72268 252.49122 251.84576 250.78829 249.38883 247.54437 245.44791 243.27544
 241.06098 238.85952 236.67405 234.50759 232.36213 230.22367 228.24420 226.39574
 224.67328 223.13982 221.76435 220.53089 219.40743 218.36196 217.46050 216.59604
 215.83258 215.00711 214.09965 213.45819 212.90273 213.32387 214.31883 216.12354
 218.04515 219.92287 221.50960 222.64415 224.08174 225.95177 228.48880 231.11816
 233.25456 235.15448 237.16893 239.92448 243.29480 247.05283 251.00764 254.84581
 258.10556 260.93832 263.62433 266.25500 268.72287 270.90393 272.70673 274.32669
 275.84354 277.55853 279.10977 280.47794 281.66861 282.72784 283.70078 284.59250
 285.40958 286.14459 286.79501 287.66742
 366.78100 356.32871 345.75443 334.61414 323.01086 311.19857 299.06229 286.85900
 274.56471 262.45543 250.45814 239.75286 229.86857 220.96628 213.14200 206.13771
 199.96543 194.89714 191.47286 189.50857 188.53928 188.59700 189.42571 190.72743
 192.44614 194.53485 196.79157 199.14428 201.58300 204.05671 206.13843 207.97414
 209.59385 210.73257 210.95528 211.17700 211.10771 210.80643 210.43314 210.05685
 209.66757 209.37128 209.17300 209.03071 208.95242 209.27714 209.65685 210.03957
 210.82628 211.99800 213.24171 215.01842 216.94014 218.97685 221.06557 223.14228
 225.19599 227.27371 229.36442 231.46414 233.58685 235.75257 238.00228 240.36599
 242.98071 245.22542 247.22114 248.97985 250.39057 251.50728 252.32299 252.63271
 252.66342 252.43114 251.78485 250.72656 249.32628 247.48099 245.38371 243.21042
 240.99514 238.79285 236.60656 234.43928 232.29299 230.15371 228.17342 226.32413
 224.60085 223.06656 221.69028 220.45599 219.33171 218.28542 217.38313 216.51785
 215.75356 214.92728 214.01899 213.37671 212.82042 213.29143 214.40422 216.21280
 218.16954 220.04214 221.60735 222.69003 224.22328 226.21606 228.57780 231.06319
 233.06340 234.76222 236.65788 239.54904 243.06844 246.92143 250.92017 254.77020
 258.04861 260.90106 263.59500 266.22083 268.67932 270.85620 272.66602 274.29428
 275.83301 277.55441 279.10587 280.47482 281.66528 282.72464 283.69748 284.58981
 285.40726 286.14349 286.79251 287.66776
 366.78100 356.32809 345.75318 334.61226 323.00835 311.19544 299.05853 286.85461
 274.55970 262.44979 250.45188 239.74597 229.86105 220.95814 213.13323 206.12832
 199.95541 194.88649 191.46158 189.49667 188.52676 188.58384 189.41193 190.71302
 192.43111 194.51920 196.77528 199.12737 201.56546 204.03855 206.11963 207.95472
 209.57381 210.71190 210.93399 211.15507 211.08516 210.78325 210.40934 210.03242
 209.64251 209.34560 209.14669 209.00378 208.92486 209.24895 209.62804 210.01013
 210.79622 211.96730 213.21039 214.98648 216.90757 218.94365 221.03174 223.10783
 225.16092 227.23801 229.32809 231.42718 233.54927 235.71436 237.96344 240.32653
 242.94062 245.18471 247.17980 248.93788 250.34797 251.46406 252.27915 252.58824
 252.61832 252.38541 251.73850 250.67959 249.27867 247.43276 245.33485 243.16094
 240.94503 238.74211 236.55520 234.38729 232.24038 230.10046 228.11955 226.26964
 224.54573 223.01082 221.63390 220.39899 219.27408 218.22717 217.32426 216.45834
 215.69343 214.86652 213.95761 213.31469 212.75778 213.26758 214.47202 216.33337
 218.26799 220.15656 221.73479 222.84308 224.33025 226.33562 228.62167 231.05099
 232.92004 234.39249 236.15569 239.18234 242.86255 246.80447 250.83672 254.69229
 257.98502 260.86130 263.56854 266.19217 268.64597 270.82477 272.64542 274.29178
 275.84439 277.53256 279.08157 280.45187 281.64197 282.70178 283.67416 284.56659
 285.38446 286.11975 286.76886 287.64197
 366.78100 356.32715 345.75129 334.60944 323.00458 311.19073 299.05288 286.84802
 274.55217 262.44131 250.44246 239.73560 229.84975 220.94590 213.12004 206.11419
 199.94033 194.87048 191.44463 189.47877 188.50792 188.56406 189.39121 190.69136
 192.40850 194.49565 196.75079 199.10194 201.53909 204.01123 206.09138 207.92552
 209.54367 210.68081 210.90196 211.12211 211.05125 210.74840 210.37354 209.99569
 209.60484 209.30698 209.10713 208.96327 208.88342 209.20657 209.58471 209.96586
 210.75100 211.92115 213.16329 214.93844 216.85859 218.89373 220.98088 223.05602
 225.10817 227.18432 229.27346 231.37161 233.49275 235.65690 237.90505 240.26719
 242.88034 245.12348 247.11763 248.87477 250.28392 251.39907 252.21321 252.52136
 252.55050 252.31665 251.66880 250.60894 249.20709 247.36023 245.26138 243.08653
 240.86967 238.66582 236.47796 234.30911 232.16126 230.02040 228.03855 226.18769
 224.46284 222.92698 221.54913 220.31328 219.18742 218.13957 217.23571 216.36886
 215.60301 214.77515 213.86530 213.22144 212.66359 213.22624 214.55557 216.46313
 218.36403 220.26959 221.82913 223.01067 224.43031 226.39220 228.67590 231.05254
 232.75861 233.99677 235.68277 238.84181 242.68364 246.70503 250.76173 254.62267
 257.94092 260.84323 263.55615 266.16916 268.61200 270.78760 272.60867 274.24423
 275.81461 277.54977 279.10443 280.47534 281.66605 282.72638 283.70129 284.59625
 285.41446 286.15347 286.80777 287.68658
 366.78100 356.32608 345.74916 334.60625 323.00033 311.18541 299.04649 286.84058
 274.54366 262.43174 250.43182 239.72391 229.83699 220.93207 213.10515 206.09824
 199.92332 194.85240 191.42548 189.45856 188.48665 188.54173 189.36781 190.66689
 192.38298 194.46906 196.72314 199.07322 201.50931 203.98039 206.05947 207.89255
 209.50964 210.64572 210.86580 211.08488 211.01296 210.70905 210.33313 209.95421
 209.56229 209.26338 209.06246 208.91754 208.83662 209.15871 209.53579 209.91587
 210.69995 211.86904 213.11012 214.88420 216.80328 218.83736 220.92345 222.99753
 225.04861 227.12369 229.21178 231.30886 233.42894 235.59202 237.83911 240.20019
 242.81227 245.05435 247.04744 248.80352 250.21160 251.32568 252.13877 252.44585
 252.47393 252.23901 251.59009 250.52918 249.12626 247.27834 245.17842 243.00251
 240.78459 238.57967 236.39075 234.22084 232.07192 229.93000 227.94708 226.09517
 224.36925 222.83233 221.45341 220.21649 219.08958 218.04066 217.13574 216.26782
 215.50091 214.67199 213.76107 213.11615 212.55724 213.17863 214.64673 216.58165
 218.47556 220.38370 221.90134 223.12987 224.55699 226.44949 228.73241 231.04347
 232.55443 233.56779 235.23505 238.53297 242.51407 246.61792 250.69778 254.56075
 257.90424 260.83072 263.54672 266.14682 268.57529 270.74872 272.57144 274.21228
 275.79379 277.55487 279.11258 280.48300 281.67596 282.73749 283.71426 284.60959
 285.43341 286.17337 286.83292 287.71777
 366.78100 356.32524 345.74748 334.60371 322.99695 311.18119 299.04143 286.83466
 274.53690 262.42414 250.42338 239.71461 229.82685 220.92109 213.09333 206.08556
 199.90980 194.83804 191.41028 189.44251 188.46975 188.52399 189.34923 190.64747
 192.36270 194.44794 196.70118 199.05042 201.48565 203.95589 206.03413 207.86637
 209.48260 210.61784 210.83708 211.05532 210.98255 210.67779 210.30103 209.92127
 209.52851 209.22874 209.02698 208.88122 208.79946 209.12069 209.49693 209.87617
 210.65941 211.82764 213.06788 214.84112 216.75936 218.79259 220.87783 222.95107
 225.00131 227.07554 229.16278 231.25902 233.37826 235.54050 237.78673 240.14697
 242.75821 244.99945 246.99168 248.74692 250.15416 251.26740 252.07963 252.38587
 252.41311 252.17735 251.52758 250.46582 249.06206 247.21330 245.11254 242.93577
 240.71701 238.51125 236.32149 234.15072 232.00096 229.85820 227.87444 226.02167
 224.29491 222.75715 221.37739 220.13962 219.01186 217.96210 217.05634 216.18757
 215.41981 214.59005 213.67829 213.03253 212.47276 213.14250 214.72484 216.69682
 218.59636 220.47496 221.97565 223.24467 224.71091 226.51170 228.79277 231.02783
 232.33041 233.14191 234.82080 238.24947 242.35362 246.52827 250.63513 254.50005
 257.86414 260.81686 263.54413 266.13614 268.55557 270.72748 272.55997 274.21909
 275.78290 277.54205 279.09866 280.47171 281.66190 282.72412 283.69888 284.59445
 285.41556 286.15408 286.81036 287.68060
 366.78100 356.32445 345.74589 334.60134 322.99379 311.17723 299.03668 286.82912
 274.53057 262.41702 250.41546 239.70591 229.81736 220.91080 213.08225 206.07369
 199.89714 194.82459 191.39603 189.42748 188.45393 188.50737 189.33182 190.62927
 192.34371 194.42816 196.68060 199.02905 201.46350 203.93294 206.01039 207.84184
 209.45728 210.59173 210.81017 211.02762 210.95407 210.64851 210.27096 209.89041
 209.49685 209.19630 208.99375 208.84719 208.76464 209.08508 209.46053 209.83898
 210.62142 211.78887 213.02832 214.80076 216.71821 218.75065 220.83510 222.90755
 224.95699 227.03044 229.11689 231.21233 233.33078 235.49222 237.73767 240.09712
 242.70756 244.94801 246.93946 248.69390 250.10035 251.21280 252.02424 252.32969
 252.35613 252.11958 251.46903 250.40647 249.00192 247.15237 245.05081 242.87326
 240.65370 238.44715 236.25660 234.08504 231.93449 229.79094 227.80638 225.95283
 224.22528 222.68672 221.30617 220.06761 218.93906 217.88851 216.98195 216.11240
 215.34385 214.51329 213.60074 212.95418 212.39363 213.10962 214.80122 216.83154
 218.69283 220.53140 222.04782 223.38716 224.87927 226.58746 228.86606 231.00067
 232.10527 232.75244 234.44356 237.98932 242.19385 246.43312 250.56572 254.42708
 257.80869 260.79181 263.53979 266.13461 268.55405 270.73236 272.57321 274.23111
 275.79102 277.53445 279.09256 280.46164 281.65369 282.71231 283.68781 284.58081
 285.40060 286.14020 286.78128 287.65216
 366.78100 356.32364 345.74427 334.59891 322.99054 311.17318 299.03182 286.82345
 274.52409 262.40972 250.40736 239.69700 229.80763 220.90027 213.07090 206.06154
 199.88417 194.81081 191.38145 189.41208 188.43772 188.49035 189.31399 190.61063
 192.32426 194.40790 196.65953 199.00717 201.44081 203.90944 205.98608 207.81671
 209.43135 210.56499 210.78262 210.99926 210.92489 210.61853 210.24016 209.85880
 209.46444 209.16307 208.95971 208.81234 208.72898 209.04862 209.42325 209.80089
 210.58252 211.74916 212.98780 214.75943 216.67607 218.70770 220.79134 222.86298
 224.91161 226.98425 229.06988 231.16452 233.28215 235.44279 237.68743 240.04606
 242.65570 244.89533 246.88597 248.63961 250.04524 251.15688 251.96751 252.27215
 252.29779 252.06042 251.40906 250.34569 248.94033 247.08997 244.98760 242.80924
 240.58887 238.38151 236.19015 234.01778 231.86642 229.72205 227.73669 225.88232
 224.15396 222.61460 221.23323 219.99387 218.86450 217.81314 216.90578 216.03541
 215.26605 214.43468 213.52132 212.87396 212.31259 213.07434 214.87404 216.98293
 218.78407 220.58296 222.10980 223.53296 225.03085 226.65959 228.93088 230.92343
 231.85698 232.39604 234.12225 237.73250 242.04938 246.36252 250.49203 254.35832
 257.75647 260.76340 263.52914 266.12491 268.53976 270.71982 272.56708 274.22339
 275.81058 277.54404 279.10049 280.47223 281.66458 282.72409 283.69885 284.59360
 285.41595 286.15591 286.79474 287.66776
 366.78100 356.32278 345.74255 334.59633 322.98711 311.16888 299.02666 286.81744
 274.51721 262.40199 250.39877 239.68754 229.79732 220.88910 213.05887 206.04865
 199.87042 194.79620 191.36598 189.39575 188.42053 188.47231 189.29508 190.59086
 192.30364 194.38641 196.63719 198.98397 201.41674 203.88452 205.96030 207.79007
 209.40385 210.53663 210.75340 210.96918 210.89396 210.58673 210.20751 209.82529
 209.43006 209.12784 208.92361 208.77539 208.69117 209.00994 209.38372 209.76050
 210.54127 211.70705 212.94483 214.71560 216.63138 218.66216 220.74493 222.81571
 224.86349 226.93526 229.02004 231.11382 233.23059 235.39037 237.63415 239.99192
 242.60070 244.83948 246.82925 248.58203 249.98680 251.09758 251.90736 252.21113
 252.23591 251.99769 251.34546 250.28124 248.87502 247.02379 244.92057 242.74135
 240.52012 238.31190 236.11968 233.94645 231.79423 229.64901 227.66278 225.80756
 224.07834 222.53811 221.15589 219.91567 218.78544 217.73322 216.82499 215.95377
 215.18355 214.35132 213.43710 212.78888 212.22665 213.03671 214.95058 217.12311
 218.87801 220.64589 222.17842 223.68111 225.17223 226.72824 228.97701 230.79083
 231.56409 232.03151 233.80391 237.52612 241.93480 246.28737 250.41772 254.28728
 257.69830 260.73459 263.52533 266.12546 268.53906 270.71960 272.56564 274.21677
 275.79849 277.53186 279.08789 280.45822 281.64835 282.70837 283.68106 284.57434
 285.39447 286.13400 286.76761 287.63953
 366.78100 356.32197 345.74093 334.59390 322.98387 311.16483 299.02180 286.81177
 274.51073 262.39470 250.39066 239.67863 229.78760 220.87856 213.04753 206.03650
 199.85746 194.78243 191.35140 189.38036 188.40433 188.45530 189.27726 190.57223
 192.28419 194.36616 196.61613 198.96209 201.39406 203.86103 205.93599 207.76496
 209.37793 210.50989 210.72586 210.94083 210.86479 210.55676 210.17673 209.79369
 209.39766 209.09462 208.88959 208.74056 208.65552 208.97349 209.34646 209.72242
 210.50239 211.66736 212.90432 214.67429 216.58926 218.61922 220.70119 222.77115
 224.81812 226.88909 228.97305 231.06602 233.18199 235.34095 237.58392 239.94089
 242.54885 244.78682 246.77579 248.52775 249.93172 251.04169 251.85065 252.15362
 252.17758 251.93855 251.28552 250.22048 248.81345 246.96142 244.85738 242.67735
 240.45532 238.24628 236.05325 233.87922 231.72618 229.58015 227.59311 225.73708
 224.00705 222.46601 221.08298 219.84195 218.71091 217.65788 216.74885 215.87681
 215.10578 214.27275 213.35771 212.70868 212.14565 213.00273 215.02771 217.26633
 218.96768 220.69606 222.24776 223.82755 225.31006 226.79431 229.01038 230.63470
 231.25517 231.67659 233.51700 237.35426 241.83441 246.21848 250.34946 254.22090
 257.65082 260.72260 263.54150 266.14743 268.55835 270.73489 272.56992 274.20334
 275.79761 277.52835 279.08127 280.44983 281.63797 282.69550 283.66739 284.55969
 285.37823 286.11478 286.75385 287.62494
 366.78100 356.32111 345.73921 334.59132 322.98043 311.16053 299.01664 286.80575
 274.50386 262.38696 250.38207 239.66918 229.77728 220.86739 213.03550 206.02360
 199.84371 194.76782 191.33592 189.36403 188.38714 188.43725 189.25835 190.55246
 192.26357 194.34467 196.59378 198.93889 201.36999 203.83610 205.91021 207.73831
 209.35042 210.48153 210.69664 210.91074 210.83385 210.52496 210.14406 209.76017
 209.36328 209.05938 208.85349 208.70360 208.61770 208.93481 209.30692 209.68203
 210.46113 211.62524 212.86135 214.63045 216.54456 218.57367 220.65477 222.72388
 224.76999 226.84009 228.92320 231.01531 233.13042 235.28852 237.53063 239.88674
 242.49384 244.73095 246.71906 248.47016 249.87327 250.98238 251.79048 252.09259
 252.11570 251.87581 251.22191 250.15602 248.74813 246.89523 244.79034 242.60945
 240.38655 238.17666 235.98277 233.80787 231.65398 229.50709 227.51920 225.66230
 223.93141 222.38952 221.00562 219.76373 218.63184 217.57794 216.66805 215.79516
 215.02326 214.18937 213.27348 212.62359 212.05969 212.96671 215.10965 217.41762
 219.04829 220.73087 222.31308 223.96257 225.44031 226.86244 229.03319 230.47136
 230.94412 231.32738 233.25270 237.21228 241.75240 246.15201 250.28297 254.14879
 257.60431 260.71359 263.56244 266.17618 268.58279 270.75684 272.57941 274.21017
 275.79532 277.52588 279.07950 280.44949 281.63782 282.69595 283.66910 284.56226
 285.38217 286.12280 286.77444 287.66583
 366.78100 356.32034 345.73769 334.58903 322.97737 311.15672 299.01206 286.80040
 274.49775 262.38009 250.37444 239.66078 229.76812 220.85747 213.02481 206.01215
 199.83150 194.75484 191.32218 189.34953 188.37187 188.42121 189.24156 190.53490
 192.24524 194.32559 196.57393 198.91828 201.34862 203.81396 205.88731 207.71465
 209.32599 210.45634 210.67068 210.88402 210.80637 210.49671 210.11505 209.73040
 209.33274 209.02808 208.82143 208.67077 208.58412 208.90046 209.27180 209.64615
 210.42449 211.58783 212.82318 214.59152 216.50486 218.53321 220.61355 222.68189
 224.72724 226.79658 228.87892 230.97027 233.08461 235.24196 237.48330 239.83864
 242.44499 244.68133 246.66867 248.41902 249.82136 250.92970 251.73705 252.03839
 252.06073 251.82008 251.16542 250.09876 248.69011 246.83645 244.73080 242.54914
 240.32548 238.11483 235.92017 233.74451 231.58986 229.44220 227.45354 225.59589
 223.86423 222.32157 220.93692 219.69426 218.56160 217.50695 216.59629 215.72264
 214.94998 214.11532 213.19867 212.54801 211.98335 212.93626 215.18761 217.57649
 219.12468 220.75589 222.37454 224.08318 225.57254 226.92264 229.03572 230.32103
 230.64735 230.98677 233.01033 237.09152 241.68471 246.08546 250.21584 254.07025
 257.55115 260.70367 263.58673 266.21094 268.61673 270.79065 272.60208 274.22586
 275.79187 277.52057 279.07559 280.44437 281.63382 282.69238 283.66675 284.55826
 285.37878 286.11807 286.77484 287.66843
 366.78100 356.31972 345.73645 334.58717 322.97489 311.15362 299.00834 286.79606
 274.49279 262.37451 250.36823 239.65396 229.76068 220.84940 213.01613 206.00285
 199.82157 194.74430 191.31102 189.33774 188.35947 188.40819 189.22791 190.52063
 192.23036 194.31008 196.55780 198.90153 201.33125 203.79597 205.86870 207.69542
 209.30614 210.43587 210.64959 210.86231 210.78404 210.47376 210.09148 209.70621
 209.30793 209.00265 208.79538 208.64410 208.55682 208.87255 209.24327 209.61699
 210.39472 211.55744 212.79216 214.55989 216.47261 218.50033 220.58006 222.64778
 224.69250 226.76123 228.84295 230.93367 233.04740 235.20412 237.44484 239.79957
 242.40529 244.64101 246.62773 248.37746 249.77918 250.88690 251.69363 251.99435
 252.01607 251.77480 251.11952 250.05224 248.64297 246.78869 244.68241 242.50014
 240.27586 238.06458 235.86931 233.69303 231.53775 229.38948 227.40020 225.54192
 223.80965 222.26637 220.88109 219.63782 218.50454 217.44926 216.53799 215.66371
 214.89043 214.05516 213.13788 212.48660 211.92133 212.91504 215.26280 217.72285
 219.22008 220.77222 222.41328 224.20308 225.69481 227.00175 229.03752 230.14513
 230.33983 230.66240 232.79938 236.98619 241.61589 246.01523 250.14101 253.99873
 257.50754 260.69855 263.61469 266.25040 268.65634 270.82819 272.62436 274.23242
 275.78705 277.51489 279.06992 280.43918 281.62827 282.68729 283.65826 284.55176
 285.37137 286.11069 286.76355 287.66302
 366.78100 356.31900 345.73500 334.58500 322.97200 311.15000 299.00400 286.79100
 274.48700 262.36800 250.36100 239.64600 229.75200 220.84000 213.00600 205.99200
 199.81000 194.73200 191.29800 189.32400 188.34500 188.39300 189.21200 190.50400
 192.21300 194.29200 196.53900 198.88200 201.31100 203.77500 205.84700 207.67300
 209.28300 210.41200 210.62500 210.83700 210.75800 210.44700 210.06400 209.67800
 209.27900 208.97300 208.76500 208.61300 208.52500 208.84000 209.21000 209.58300
 210.36000 211.52200 212.75600 214.52300 216.43500 218.46200 220.54100 222.60800
 224.65200 226.72000 228.80100 230.89100 233.00400 235.16000 237.40000 239.75400
 242.35900 244.59400 246.58000 248.32900 249.73000 250.83700 251.64300 251.94300
 251.96400 251.72200 251.06600 249.99800 248.58800 246.73300 244.62600 242.44300
 240.21800 238.00600 235.81000 233.63300 231.47700 229.32800 227.33800 225.47900
 223.74600 222.20200 220.81600 219.57200 218.43800 217.38200 216.47000 215.59500
 214.82100 213.98500 213.06700 212.41500 211.84900 212.89157 215.35477 217.84050
 219.30342 220.85316 222.42905 224.24142 225.83679 227.08810 229.04260 230.02045
 230.05588 230.32240 232.56847 236.87848 241.55145 245.96844 250.08914 253.93431
 257.46304 260.69147 263.64160 266.29169 268.69922 270.86679 272.64526 274.23398
 275.78250 277.50977 279.06546 280.43466 281.62372 282.68170 283.65439 284.54657
 285.36475 286.10510 286.75827 287.66132
 366.78100 356.31831 345.73363 334.58294 322.96926 311.14657 298.99989 286.78620
 274.48152 262.36183 250.35415 239.63846 229.74377 220.83109 212.99640 205.98172
 199.79903 194.72035 191.28566 189.31098 188.33129 188.37861 189.19692 190.48824
 192.19655 194.27486 196.52118 198.86349 201.29181 203.75512 205.82644 207.65175
 209.26107 210.38938 210.60170 210.81301 210.73332 210.42164 210.03795 209.65127
 209.25158 208.94490 208.73621 208.58353 208.49484 208.80916 209.17847 209.55078
 210.32710 211.48841 212.72173 214.48804 216.39936 218.42567 220.50399 222.57030
 224.61362 226.68093 228.76124 230.85056 232.96287 235.11819 237.35750 239.71082
 242.31513 244.54945 246.53476 248.28308 249.68339 250.78971 251.59502 251.89433
 251.91465 251.67196 251.01528 249.94659 248.53591 246.68022 244.57254 242.38885
 240.16317 237.95048 235.75379 233.57611 231.41942 229.26974 227.27905 225.41937
 223.68568 222.14100 220.75431 219.50963 218.37494 217.31825 216.40557 215.52988
 214.75520 213.91851 212.99983 212.34714 211.78046 212.87189 215.45050 217.96022
 219.35396 220.92450 222.54678 224.23921 225.75864 227.16043 229.12894 230.11111
 229.84627 229.79341 232.34273 236.83841 241.52068 245.94078 250.04030 253.86752
 257.41272 260.67996 263.66635 266.33398 268.74539 270.91049 272.67020 274.23730
 275.77826 277.50507 279.06186 280.43170 281.62000 282.67783 283.65118 284.54376
 285.36334 286.10275 286.75647 287.66422
 366.78100 356.31792 345.73285 334.58177 322.96770 311.14462 298.99754 286.78347
 274.47839 262.35832 250.35024 239.63416 229.73909 220.82601 212.99094 205.97586
 199.79278 194.71371 191.27863 189.30355 188.32348 188.37040 189.18833 190.47925
 192.18717 194.26510 196.51102 198.85295 201.28087 203.74379 205.81472 207.63964
 209.24857 210.37649 210.58841 210.79934 210.71926 210.40719 210.02311 209.63603
 209.23596 208.92888 208.71981 208.56673 208.47765 208.79158 209.16050 209.53243
 210.30835 211.46927 212.70220 214.46812 216.37904 218.40497 220.48289 222.54882
 224.59174 226.65866 228.73859 230.82751 232.93944 235.09436 237.33328 239.68621
 242.29013 244.52406 246.50898 248.25690 249.65683 250.76275 251.56768 251.86660
 251.88652 251.64345 250.98637 249.91730 248.50622 246.65014 244.54207 242.35799
 240.13192 237.91884 235.72176 233.54369 231.38661 229.23653 227.24546 225.38538
 223.65131 222.10623 220.71915 219.47408 218.33900 217.28193 216.36885 215.49277
 214.71770 213.88062 212.96155 212.30847 211.74139 212.86870 215.53206 218.08398
 219.42155 220.95287 222.65089 224.36147 225.77444 227.19069 229.07780 229.99846
 229.62141 229.45703 232.18301 236.79831 241.49211 245.90335 249.97678 253.79669
 257.36261 260.67029 263.69339 266.38022 268.79532 270.95712 272.69754 274.24210
 275.77264 277.49890 279.05597 280.42630 281.61658 282.67395 283.64612 284.53821
 285.35699 286.09921 286.75220 287.66309
 366.78100 356.31768 345.73236 334.58104 322.96672 311.14340 298.99608 286.78176
 274.47643 262.35611 250.34779 239.63147 229.73615 220.82283 212.98751 205.97219
 199.78887 194.70955 191.27423 189.29891 188.31859 188.36527 189.18295 190.47362
 192.18130 194.25898 196.50466 198.84634 201.27402 203.73670 205.80738 207.63206
 209.24074 210.36842 210.58010 210.79078 210.71046 210.39814 210.01381 209.62649
 209.22617 208.91885 208.70953 208.55621 208.46689 208.78057 209.14925 209.52093
 210.29661 211.45729 212.68997 214.45565 216.36633 218.39201 220.46968 222.53536
 224.57804 226.64472 228.72440 230.81308 232.92476 235.07944 237.31812 239.67080
 242.27448 244.50816 246.49284 248.24052 249.64020 250.74587 251.55055 251.84923
 251.86891 251.62559 250.96827 249.89895 248.48763 246.63131 244.52299 242.33867
 240.11235 237.89903 235.70171 233.52339 231.36606 229.21574 227.22442 225.36410
 223.62978 222.08446 220.69714 219.45182 218.31650 217.25918 216.34586 215.46954
 214.69422 213.85690 212.93758 212.28425 211.71693 212.87404 215.60783 218.20041
 219.49542 221.00734 222.69426 224.46112 225.92117 227.26784 228.92886 229.74948
 229.37785 229.24840 232.06288 236.74017 241.46127 245.86388 249.91583 253.72853
 257.31415 260.65967 263.72028 266.42581 268.84399 270.99988 272.72150 274.24335
 275.76520 277.49197 279.04922 280.42035 281.60968 282.66782 283.63989 284.53223
 285.34982 286.09094 286.74655 287.66110
 366.78100 356.31749 345.73198 334.58048 322.96597 311.14246 298.99495 286.78045
 274.47494 262.35443 250.34592 239.62942 229.73391 220.82040 212.98489 205.96939
 199.78588 194.70637 191.27086 189.29536 188.31485 188.36134 189.17883 190.46933
 192.17682 194.25431 196.49980 198.84130 201.26879 203.73128 205.80177 207.62627
 209.23476 210.36225 210.57374 210.78423 210.70373 210.39122 210.00671 209.61920
 209.21870 208.91119 208.70168 208.54817 208.45867 208.77216 209.14065 209.51214
 210.28764 211.44813 212.68062 214.44611 216.35661 218.38210 220.45959 222.52508
 224.56758 226.63407 228.71356 230.80205 232.91355 235.06804 237.30653 239.65902
 242.26252 244.49601 246.48050 248.22799 249.62748 250.73298 251.53747 251.83596
 251.85545 251.61195 250.95444 249.88493 248.47342 246.61692 244.50841 242.32390
 240.09739 237.88389 235.68638 233.50787 231.35036 229.19986 227.20835 225.34784
 223.61333 222.06783 220.68032 219.43481 218.29930 217.24180 216.32829 215.45178
 214.67627 213.83876 212.91926 212.26575 211.69824 212.88374 215.68463 218.30411
 219.56973 221.09569 222.73750 224.49347 226.07312 227.36360 228.77283 229.50562
 229.13393 229.06389 231.95888 236.67451 241.43100 245.82962 249.86732 253.66905
 257.26752 260.64597 263.74216 266.46790 268.89001 271.03882 272.74524 274.24332
 275.75726 277.48267 279.04089 280.41180 281.60245 282.66052 283.63165 284.52444
 285.34073 286.08490 286.73770 287.66006
 366.78100 356.31745 345.73191 334.58036 322.96582 311.14227 298.99473 286.78018
 274.47464 262.35409 250.34554 239.62900 229.73345 220.81991 212.98436 205.96882
 199.78527 194.70573 191.27018 189.29463 188.31409 188.36054 189.17800 190.46845
 192.17591 194.25336 196.49882 198.84027 201.26772 203.73018 205.80063 207.62509
 209.23354 210.36100 210.57245 210.78290 210.70236 210.38981 210.00527 209.61772
 209.21718 208.90963 208.70009 208.54654 208.45699 208.77045 209.13890 209.51036
 210.28581 211.44627 212.67872 214.44418 216.35463 218.38008 220.45754 222.52299
 224.56545 226.63190 228.71136 230.79981 232.91127 235.06572 237.30417 239.65663
 242.26008 244.49354 246.47799 248.22545 249.62490 250.73036 251.53481 251.83326
 251.85272 251.60917 250.95163 249.88208 248.47054 246.61399 244.50545 242.32090
 240.09435 237.88081 235.68326 233.50472 231.34717 229.19663 227.20508 225.34454
 223.60999 222.06444 220.67690 219.43135 218.29581 217.23826 216.32472 215.44817
 214.67263 213.83508 212.91553 212.26199 211.69444 212.90280 215.75768 218.39395
 219.65741 221.17940 222.80531 224.53523 226.17967 227.41093 228.65550 229.27715
 228.86829 228.88908 231.86613 236.61819 241.39685 245.79376 249.82498 253.61722
 257.22467 260.63113 263.76041 266.50598 268.93344 271.07526 272.76898 274.24408
 275.74765 277.47321 279.03152 280.40320 281.59402 282.65210 283.62436 284.51569
 285.33310 286.07419 286.72934 287.65085
 366.78100 356.31762 345.73223 334.58085 322.96647 311.14308 298.99570 286.78132
 274.47593 262.35555 250.34717 239.63078 229.73540 220.82202 212.98663 205.97125
 199.78787 194.70849 191.27310 189.29772 188.31734 188.36395 189.18157 190.47219
 192.17980 194.25742 196.50304 198.84465 201.27227 203.73489 205.80550 207.63012
 209.23874 210.36635 210.57797 210.78859 210.70820 210.39582 210.01144 209.62405
 209.22367 208.91629 208.70690 208.55352 208.46414 208.77776 209.14637 209.51799
 210.29361 211.45422 212.68684 214.45246 216.36307 218.38869 220.46631 222.53192
 224.57454 226.64116 228.72077 230.80939 232.92101 235.07562 237.31424 239.66686
 242.27047 244.50409 246.48871 248.23632 249.63594 250.74156 251.54617 251.84479
 251.86441 251.62103 250.96364 249.89426 248.48288 246.62649 244.51811 242.33373
 240.10734 237.89396 235.69658 233.51819 231.36081 229.21043 227.21904 225.35866
 223.62428 222.07889 220.69151 219.44613 218.31074 217.25336 216.33998 215.46359
 214.68821 213.85083 212.93144 212.27806 211.71068 212.93336 215.82210 218.47455
 219.75830 221.25624 222.88834 224.60220 226.22763 227.40681 228.58374 229.05209
 228.58058 228.72716 231.79533 236.57254 241.35670 245.75377 249.78288 253.57021
 257.18549 260.61545 263.77371 266.53879 268.97031 271.10580 272.78665 274.24268
 275.73767 277.46115 279.02142 280.39258 281.58353 282.64194 283.61453 284.50409
 285.32318 286.06146 286.71771 287.64282
 366.78100 356.31786 345.73271 334.58157 322.96743 311.14429 298.99714 286.78300
 274.47786 262.35772 250.34957 239.63343 229.73829 220.82515 212.99000 205.97486
 199.79172 194.71258 191.27743 189.30229 188.32215 188.36901 189.18686 190.47772
 192.18558 194.26344 196.50929 198.85115 201.27901 203.74186 205.81272 207.63758
 209.24644 210.37429 210.58615 210.79701 210.71687 210.40472 210.02058 209.63344
 209.23330 208.92615 208.71701 208.56387 208.47473 208.78858 209.15744 209.52930
 210.30516 211.46601 212.69887 214.46473 216.37559 218.40144 220.47930 222.54516
 224.58802 226.65487 228.73473 230.82359 232.93544 235.09030 237.32916 239.68202
 242.28587 244.51973 246.50459 248.25245 249.65230 250.75816 251.56302 251.86188
 251.88173 251.63859 250.98145 249.91231 248.50116 246.64502 244.53688 242.35274
 240.12659 237.91345 235.71631 233.53817 231.38102 229.23088 227.23974 225.37959
 223.64545 222.10031 220.71317 219.46802 218.33288 217.27574 216.36260 215.48645
 214.71131 213.87417 212.95503 212.30188 211.73474 212.96870 215.88408 218.54681
 219.85883 221.34077 222.98068 224.67964 226.23793 227.37755 228.53375 228.82967
 228.29440 228.58327 231.74120 236.52843 241.31129 245.71037 249.74168 253.52843
 257.14999 260.59903 263.78180 266.56427 268.99954 271.12875 272.79572 274.23697
 275.72537 277.44955 279.00864 280.38123 281.57162 282.63135 283.60263 284.49234
 285.31027 286.04987 286.70502 287.63113
 366.78100 356.31811 345.73322 334.58233 322.96844 311.14555 298.99866 286.78477
 274.47988 262.35999 250.35210 239.63621 229.74132 220.82843 212.99354 205.97865
 199.79576 194.71687 191.28198 189.30709 188.32720 188.37431 189.19242 190.48353
 192.19164 194.26975 196.51586 198.85797 201.28608 203.74919 205.82030 207.64541
 209.25452 210.38263 210.59474 210.80585 210.72596 210.41407 210.03018 209.64329
 209.24340 208.93651 208.72762 208.57473 208.48584 208.79995 209.16906 209.54117
 210.31728 211.47839 212.71150 214.47761 216.38872 218.41483 220.49294 222.55905
 224.60216 226.66927 228.74938 230.83849 232.95060 235.10571 237.34482 239.69793
 242.30204 244.53615 246.52126 248.26937 249.66948 250.77559 251.58070 251.87981
 251.89992 251.65703 251.00014 249.93125 248.52036 246.66447 244.55658 242.37269
 240.14680 237.93391 235.73702 233.55913 231.40224 229.25235 227.26146 225.40157
 223.66768 222.12279 220.73590 219.49101 218.35611 217.29922 216.38633 215.51044
 214.73555 213.89866 212.97977 212.32688 211.75999 213.00508 215.94676 218.60956
 219.95349 221.43842 223.07904 224.75453 226.22707 227.34282 228.48560 228.61658
 228.03064 228.45978 231.69179 236.47935 241.26164 245.66603 249.70381 253.49202
 257.11682 260.57925 263.78223 266.58090 269.01996 271.14255 272.80032 274.23114
 275.71283 277.43625 278.99579 280.36819 281.55893 282.61847 283.59082 284.48114
 285.29669 286.03659 286.69153 287.62155
 366.78100 356.31843 345.73385 334.58328 322.96970 311.14713 299.00055 286.78698
 274.48240 262.36283 250.35525 239.63968 229.74510 220.83253 212.99795 205.98338
 199.80080 194.72223 191.28765 189.31308 188.33350 188.38093 189.19935 190.49078
 192.19920 194.27763 196.52405 198.86648 201.29491 203.75833 205.82976 207.65518
 209.26461 210.39303 210.60546 210.81688 210.73731 210.42573 210.04216 209.65558
 209.25601 208.94943 208.74086 208.58828 208.49971 208.81413 209.18356 209.55598
 210.33241 211.49383 212.72726 214.49368 216.40511 218.43154 220.50996 222.57639
 224.61981 226.68724 228.76766 230.85709 232.96951 235.12494 237.36436 239.71779
 242.32221 244.55664 246.54206 248.29049 249.69091 250.79734 251.60276 251.90219
 251.92261 251.68004 251.02346 249.95489 248.54431 246.68874 244.58116 242.39759
 240.17202 237.95944 235.76287 233.58529 231.42872 229.27914 227.28857 225.42899
 223.69542 222.15084 220.76427 219.51969 218.38512 217.32854 216.41597 215.54039
 214.76582 213.92924 213.01067 212.35809 211.79152 213.04524 216.00731 218.66348
 220.04726 221.54375 223.17963 224.82390 226.20959 227.31013 228.43230 228.41556
 227.79370 228.35625 231.64389 236.42455 241.20737 245.62137 249.67050 253.46150
 257.08600 260.55637 263.77527 266.58911 269.03229 271.14734 272.80002 274.22598
 275.70132 277.42340 278.98383 280.35687 281.54733 282.60754 283.58041 284.47086
 285.28671 286.02744 286.68167 287.61624
 366.78100 356.31885 345.73469 334.58454 322.97139 311.14923 299.00308 286.78993
 274.48577 262.36662 250.35947 239.64431 229.75016 220.83801 213.00385 205.98970
 199.80755 194.72939 191.29524 189.32109 188.34193 188.38978 189.20863 190.50047
 192.20932 194.28817 196.53501 198.87786 201.30671 203.77055 205.84240 207.66825
 209.27809 210.40694 210.61979 210.83163 210.75248 210.44133 210.05817 209.67202
 209.27287 208.96671 208.75856 208.60641 208.51825 208.83310 209.20295 209.57579
 210.35264 211.51449 212.74833 214.51518 216.42703 218.45387 220.53272 222.59957
 224.64341 226.71126 228.79211 230.88195 232.99480 235.15065 237.39049 239.74434
 242.34918 244.58403 246.56988 248.31872 249.71957 250.82642 251.63226 251.93211
 251.95296 251.71080 251.05465 249.98650 248.57634 246.72119 244.61404 242.43088
 240.20573 237.99358 235.79742 233.62027 231.46412 229.31496 227.32481 225.46566
 223.73250 222.18835 220.80220 219.55804 218.42389 217.36774 216.45558 215.58043
 214.80628 213.97012 213.05197 212.39982 211.83366 213.09100 216.06160 218.71237
 220.13972 221.65395 223.27977 224.88861 226.19775 227.28247 228.36763 228.22650
 227.58266 228.26543 231.59509 236.36594 241.15080 245.57800 249.64191 253.43802
 257.05917 260.53168 263.76172 266.58963 269.03546 271.14343 272.79398 274.21921
 275.69165 277.41333 278.97458 280.34833 281.53918 282.59860 283.57217 284.46292
 285.27963 286.02020 286.67606 287.61023
 366.78100 356.31927 345.73554 334.58581 322.97308 311.15135 299.00562 286.79289
 274.48916 262.37043 250.36370 239.64897 229.75524 220.84350 213.00977 205.99604
 199.81431 194.73658 191.30285 189.32912 188.35039 188.39866 189.21793 190.51020
 192.21947 194.29874 196.54601 198.88928 201.31855 203.78282 205.85509 207.68136
 209.29163 210.42090 210.63417 210.84644 210.76771 210.45698 210.07425 209.68851
 209.28978 208.98405 208.77632 208.62459 208.53686 208.85213 209.22240 209.59567
 210.37294 211.53521 212.76948 214.53675 216.44902 218.47629 220.55556 222.62283
 224.66710 226.73537 228.81664 230.90691 233.02018 235.17645 237.41672 239.77099
 242.37626 244.61152 246.59779 248.34706 249.74833 250.85560 251.66187 251.96214
 251.98341 251.74168 251.08595 250.01822 248.60849 246.75376 244.64703 242.46430
 240.23957 238.02784 235.83211 233.65538 231.49965 229.35092 227.36119 225.50246
 223.76973 222.22600 220.84027 219.59653 218.46280 217.40707 216.49534 215.62061
 214.84688 214.01115 213.09342 212.44169 211.87596 213.13690 216.11601 218.75224
 220.23145 221.76952 223.38402 224.94275 226.19189 227.26619 228.29680 228.03996
 227.38528 228.18684 231.55113 236.30377 241.08965 245.53383 249.61761 253.42221
 257.03836 260.50751 263.74463 266.58386 269.03049 271.12863 272.77872 274.20596
 275.68289 277.40625 278.96738 280.34103 281.53427 282.59439 283.56738 284.45905
 285.27426 286.01614 286.67307 287.60843
 366.78100 356.31977 345.73655 334.58732 322.97509 311.15387 299.00864 286.79641
 274.49319 262.37496 250.36873 239.65450 229.76128 220.85005 213.01682 206.00360
 199.82237 194.74514 191.31192 189.33869 188.36046 188.40924 189.22901 190.52178
 192.23156 194.31133 196.55910 198.90288 201.33265 203.79742 205.87019 207.69697
 209.30774 210.43751 210.65129 210.86406 210.78583 210.47561 210.09338 209.70815
 209.30993 209.00470 208.79747 208.64625 208.55902 208.87479 209.24557 209.61934
 210.39711 211.55988 212.79466 214.56243 216.47520 218.50298 220.58275 222.65052
 224.69530 226.76407 228.84584 230.93662 233.05039 235.20716 237.44794 239.80271
 242.40848 244.64425 246.63103 248.38080 249.78257 250.89035 251.69712 251.99789
 252.01967 251.77844 251.12321 250.05599 248.64676 246.79253 244.68631 242.50408
 240.27985 238.06863 235.87340 233.69717 231.54194 229.39372 227.40449 225.54626
 223.81404 222.27081 220.88558 219.64236 218.50913 217.45390 216.54268 215.66845
 214.89522 214.06000 213.14277 212.49154 211.92632 213.18689 216.16513 218.78905
 220.32140 221.88150 223.48831 225.00873 226.19586 227.24626 228.22066 227.86261
 227.20221 228.11601 231.50264 236.23648 241.02873 245.49294 249.59987 253.41498
 257.02298 260.48346 263.72223 266.56973 269.01556 271.10364 272.75452 274.18820
 275.67499 277.40005 278.96207 280.33698 281.52905 282.59079 283.56390 284.45746
 285.27115 286.01434 286.66931 287.61151
 366.78100 356.32039 345.73778 334.58917 322.97756 311.15696 299.01235 286.80074
 274.49813 262.38052 250.37491 239.66130 229.76869 220.85808 213.02548 206.01287
 199.83226 194.75565 191.32304 189.35043 188.37282 188.42221 189.24260 190.53600
 192.24639 194.32678 196.57517 198.91956 201.34995 203.81534 205.88873 207.71613
 209.32752 210.45791 210.67230 210.88569 210.80808 210.49847 210.11686 209.73225
 209.33465 209.03004 208.82343 208.67282 208.58621 208.90260 209.27399 209.64838
 210.42677 211.59017 212.82556 214.59395 216.50734 218.53573 220.61612 222.68451
 224.72990 226.79929 228.88169 230.97308 233.08747 235.24486 237.48625 239.84164
 242.44803 244.68442 246.67181 248.42221 249.82460 250.93299 251.74038 252.04177
 252.06416 251.82355 251.16894 250.10234 248.69373 246.84012 244.73451 242.55290
 240.32929 238.11868 235.92407 233.74846 231.59386 229.44625 227.45764 225.60003
 223.86842 222.32581 220.94120 219.69859 218.56598 217.51138 216.60077 215.72716
 214.95455 214.11994 213.20333 212.55272 211.98811 213.24254 216.20624 218.83008
 220.39568 222.00536 223.59280 225.05887 226.21707 227.25519 228.12758 227.69310
 227.04520 228.04533 231.45969 236.17157 240.96353 245.45064 249.58678 253.41374
 257.01105 260.45892 263.69556 266.54965 268.99442 271.07321 272.72769 274.17017
 275.66815 277.39502 278.95700 280.33221 281.52637 282.58804 283.56168 284.45419
 285.27026 286.00995 286.66827 287.60794
 366.78100 356.32110 345.73919 334.59129 322.98038 311.16048 299.01658 286.80567
 274.50377 262.38686 250.38196 239.66906 229.77715 220.86725 213.03534 206.02344
 199.84354 194.76763 191.33573 189.36382 188.38692 188.43701 189.25811 190.55221
 192.26330 194.34440 196.59349 198.93859 201.36969 203.83578 205.90988 207.73797
 209.35007 210.48117 210.69626 210.91036 210.83345 210.52455 210.14365 209.75974
 209.36284 209.05893 208.85303 208.70313 208.61722 208.93432 209.30641 209.68151
 210.46060 211.62470 212.86080 214.62989 216.54399 218.57308 220.65418 222.72328
 224.76937 226.83947 228.92256 231.01466 233.12976 235.28785 237.52995 239.88604
 242.49314 244.73024 246.71833 248.46943 249.87252 250.98162 251.78972 252.09181
 252.11491 251.87500 251.22110 250.15520 248.74729 246.89439 244.78948 242.60858
 240.38567 238.17577 235.98187 233.80696 231.65306 229.50615 227.51825 225.66135
 223.93044 222.38854 221.00463 219.76273 218.63083 217.57692 216.66702 215.79411
 215.02221 214.18831 213.27240 212.62250 212.05859 213.30209 216.24001 218.87552
 220.45309 222.12526 223.73044 225.11136 226.19885 227.24257 228.10445 227.52843
 226.84425 227.97253 231.40048 236.08826 240.89432 245.41615 249.58359 253.42043
 257.00461 260.43622 263.66724 266.52563 268.96762 271.03711 272.69467 274.14609
 275.66016 277.38965 278.95328 280.32852 281.52332 282.58575 283.56100 284.45276
 285.26880 286.01001 286.66507 287.60883
 366.78100 356.32169 345.74039 334.59308 322.98277 311.16347 299.02016 286.80986
 274.50855 262.39224 250.38794 239.67563 229.78432 220.87502 213.04371 206.03240
 199.85310 194.77779 191.34649 189.37518 188.39887 188.44957 189.27126 190.56595
 192.27765 194.35934 196.60903 198.95473 201.38642 203.85312 205.92781 207.75650
 209.36920 210.50089 210.71658 210.93128 210.85497 210.54666 210.16636 209.78305
 209.38674 209.08344 208.87813 208.72883 208.64352 208.96121 209.33391 209.70960
 210.48929 211.65399 212.89068 214.66037 216.57507 218.60476 220.68646 222.75615
 224.80284 226.87354 228.95723 231.04992 233.16562 235.32431 237.56700 239.92370
 242.53139 244.76909 246.75778 248.50947 249.91317 251.02286 251.83155 252.13425
 252.15794 251.91863 251.26533 250.20002 248.79272 246.94041 244.83610 242.65580
 240.43349 238.22418 236.03088 233.85657 231.70326 229.55696 227.56965 225.71335
 223.98304 222.44173 221.05843 219.81712 218.68581 217.63251 216.72320 215.85089
 215.07959 214.24628 213.33098 212.68167 212.11836 213.35577 216.27931 218.91400
 220.52141 222.18939 223.87996 225.27176 226.21115 227.15401 228.02470 227.56738
 226.75209 227.73636 231.30843 236.03691 240.85060 245.40189 249.58981 253.43269
 257.00195 260.41452 263.63794 266.49707 268.93338 270.98889 272.64957 274.11646
 275.65054 277.38400 278.94666 280.32385 281.51932 282.58212 283.55685 284.44949
 285.26456 286.00497 286.66168 287.60999
 366.78100 356.32216 345.74133 334.59449 322.98465 311.16581 299.02298 286.81314
 274.51230 262.39647 250.39263 239.68079 229.78996 220.88112 213.05028 206.03944
 199.86061 194.78577 191.35493 189.38410 188.40826 188.45942 189.28159 190.57675
 192.28891 194.37107 196.62124 198.96740 201.39956 203.86673 205.94189 207.77105
 209.38422 210.51638 210.73254 210.94770 210.87187 210.56403 210.18419 209.80136
 209.40552 209.10268 208.89785 208.74901 208.66417 208.98233 209.35550 209.73166
 210.51182 211.67699 212.91415 214.68431 216.59948 218.62964 220.71180 222.78196
 224.82913 226.90029 228.98445 231.07762 233.19378 235.35294 237.59611 239.95327
 242.56143 244.79959 246.78876 248.54092 249.94508 251.05525 251.86441 252.16757
 252.19173 251.95290 251.30006 250.23522 248.82839 246.97655 244.87271 242.69288
 240.47104 238.26220 236.06936 233.89553 231.74269 229.59685 227.61002 225.75418
 224.02434 222.48351 221.10067 219.85983 218.72899 217.67616 216.76732 215.89548
 215.12465 214.29181 213.37697 212.72814 212.16530 213.40257 216.32574 218.94049
 220.60544 222.25325 223.97906 225.42532 226.29807 227.11694 227.83968 227.52277
 226.72810 227.59322 231.24738 236.00017 240.80870 245.38040 249.58983 253.44417
 257.00131 260.39407 263.60660 266.46411 268.89233 270.93173 272.59357 274.07758
 275.63815 277.37543 278.93927 280.31583 281.51184 282.57550 283.55096 284.44287
 285.26010 286.00061 286.65564 287.60172
 366.78100 356.32272 345.74244 334.59616 322.98688 311.16860 299.02632 286.81704
 274.51676 262.40148 250.39820 239.68692 229.79664 220.88836 213.05808 206.04780
 199.86952 194.79524 191.36496 189.39468 188.41940 188.47112 189.29384 190.58956
 192.30228 194.38500 196.63572 198.98244 201.41516 203.88288 205.95860 207.78832
 209.40204 210.53476 210.75148 210.96720 210.89192 210.58464 210.20536 209.82308
 209.42780 209.12552 208.92124 208.77296 208.68868 209.00740 209.38112 209.75784
 210.53856 211.70428 212.94200 214.71272 216.62844 218.65916 220.74188 222.81260
 224.86032 226.93204 229.01676 231.11048 233.22720 235.38693 237.63065 239.98837
 242.59709 244.83581 246.82553 248.57825 249.98297 251.09369 251.90341 252.20713
 252.23185 251.99357 251.34129 250.27701 248.87073 247.01945 244.91617 242.73689
 240.51561 238.30733 236.11505 233.94177 231.78949 229.64421 227.65793 225.80265
 224.07337 222.53309 221.15081 219.91053 218.78025 217.72797 216.81969 215.94841
 215.17813 214.34585 213.43157 212.78329 212.22101 213.45328 216.36464 218.97336
 220.68005 222.33904 224.03444 225.52452 226.43864 227.14113 227.64499 227.41254
 226.69777 227.50542 231.19994 235.95901 240.76001 245.35368 249.59064 253.45671
 257.00076 260.37308 263.57333 266.42834 268.84659 270.86920 272.53241 274.04501
 275.62061 277.35992 278.92487 280.30264 281.50082 282.56384 283.54175 284.43454
 285.25079 285.99161 286.64667 287.59094
 366.78100 356.32337 345.74374 334.59811 322.98948 311.17185 299.03022 286.82159
 274.52196 262.40733 250.40470 239.69407 229.80444 220.89681 213.06718 206.05754
 199.87991 194.80628 191.37665 189.40702 188.43239 188.48476 189.30813 190.60450
 192.31787 194.40124 196.65261 198.99998 201.43335 203.90172 205.97809 207.80846
 209.42283 210.55620 210.77357 210.98994 210.91531 210.60868 210.23005 209.84842
 209.45379 209.15216 208.94853 208.80089 208.71726 209.03663 209.41100 209.78837
 210.56974 211.73611 212.97448 214.74585 216.66222 218.69359 220.77696 222.84833
 224.89670 226.96907 229.05444 231.14881 233.26618 235.42655 237.67092 240.02929
 242.63866 244.87803 246.86840 248.62177 250.02714 251.13851 251.94888 252.25325
 252.27861 252.04098 251.38935 250.32572 248.92009 247.06946 244.96683 242.78820
 240.56757 238.35994 236.16831 233.99568 231.84405 229.69942 227.71379 225.85916
 224.13053 222.59090 221.20927 219.96964 218.84001 217.78838 216.88075 216.01012
 215.24049 214.40886 213.49523 212.84760 212.28596 213.50766 216.39404 219.01610
 220.74408 222.42883 224.08282 225.58557 226.57970 227.18431 227.49522 227.28366
 226.62848 227.42944 231.15646 235.91367 240.71234 245.33136 249.59480 253.47133
 257.00113 260.35208 263.54016 266.39151 268.79861 270.80286 272.46609 273.96429
 275.60596 277.35550 278.91873 280.29510 281.49146 282.55539 283.53174 284.42538
 285.23984 285.98074 286.63370 287.58813
 366.78100 356.32400 345.74499 334.59999 322.99198 311.17498 299.03397 286.82597
 274.52696 262.41296 250.41095 239.70095 229.81194 220.90494 213.07594 206.06693
 199.88993 194.81692 191.38792 189.41891 188.44491 188.49790 189.32190 190.61889
 192.33289 194.41689 196.66888 199.01688 201.45087 203.91987 205.99686 207.82786
 209.44285 210.57685 210.79484 211.01184 210.93783 210.63183 210.25383 209.87282
 209.47882 209.17781 208.97481 208.82780 208.74480 209.06479 209.43979 209.81778
 210.59978 211.76678 213.00577 214.77777 216.69476 218.72676 220.81075 222.88275
 224.93174 227.00474 229.09073 231.18573 233.30372 235.46472 237.70972 240.06871
 242.67871 244.91870 246.90970 248.66369 250.06969 251.18168 251.99268 252.29767
 252.32367 252.08667 251.43566 250.37266 248.96765 247.11765 245.01564 242.83764
 240.61763 238.41063 236.21962 234.04762 231.89661 229.75261 227.76761 225.91360
 224.18560 222.64659 221.26559 220.02658 218.89758 217.84657 216.93957 216.06956
 215.30056 214.46956 213.55655 212.90955 212.34854 213.56038 216.42351 219.05827
 220.80577 222.50992 224.13354 225.63525 226.69986 227.23250 227.38979 227.13496
 226.51581 227.36331 231.11966 235.87059 240.67064 245.31340 249.59961 253.48480
 257.00058 260.33118 263.50562 266.35052 268.74384 270.72827 272.39035 273.94794
 275.56894 277.31833 278.88620 280.26675 281.46527 282.53308 283.51041 284.40485
 285.22073 285.96146 286.61731 287.56677
 366.78100 356.32453 345.74606 334.60159 322.99412 311.17765 299.03717 286.82970
 274.53123 262.41776 250.41629 239.70682 229.81835 220.91188 213.08341 206.07494
 199.89847 194.82600 191.39752 189.42905 188.45558 188.50911 189.33364 190.63117
 192.34570 194.43023 196.68276 199.03129 201.46582 203.93535 206.01287 207.84440
 209.45993 210.59446 210.81299 211.03052 210.95705 210.65158 210.27411 209.89364
 209.50017 209.19970 208.99722 208.85075 208.76828 209.08881 209.46434 209.84287
 210.62540 211.79293 213.03246 214.80499 216.72252 218.75505 220.83957 222.91210
 224.96163 227.03516 229.12169 231.21722 233.33575 235.49728 237.74281 240.10234
 242.71287 244.95340 246.94492 248.69945 250.10598 251.21851 252.03004 252.33557
 252.36210 252.12563 251.47516 250.41269 249.00822 247.15875 245.05727 242.87980
 240.66033 238.45386 236.26339 234.09192 231.94145 229.79798 227.81351 225.96004
 224.23257 222.69410 221.31362 220.07515 218.94668 217.89621 216.98974 216.12027
 215.35180 214.52133 213.60886 212.96239 212.40192 213.60857 216.45941 219.09325
 220.86937 222.58344 224.18042 225.68187 226.79958 227.28819 227.31410 226.96347
 226.37259 227.31516 231.09392 235.83411 240.63676 245.29745 249.60376 253.49556
 256.99820 260.30905 263.46899 266.30594 268.68365 270.64615 272.30768 273.76511
 275.59558 277.34421 278.88736 280.25626 281.44864 282.51068 283.48788 284.37991
 285.19479 285.93579 286.59155 287.53998
 366.78100 356.32504 345.74708 334.60313 322.99617 311.18021 299.04025 286.83329
 274.53533 262.42238 250.42142 239.71246 229.82450 220.91854 213.09058 206.08263
 199.90667 194.83471 191.40675 189.43879 188.46583 188.51988 189.34492 190.64296
 192.35800 194.44304 196.69608 199.04513 201.48017 203.95021 206.02825 207.86029
 209.47633 210.61138 210.83042 211.04846 210.97550 210.67054 210.29358 209.91363
 209.52067 209.22071 209.01875 208.87279 208.79084 209.11188 209.48792 209.86696
 210.65000 211.81804 213.05809 214.83113 216.74917 218.78221 220.86725 222.94029
 224.99034 227.06438 229.15142 231.24746 233.36650 235.52854 237.77459 240.13463
 242.74567 244.98671 246.97875 248.73379 250.14084 251.25388 252.06592 252.37196
 252.39900 252.16304 251.51309 250.45113 249.04717 247.19821 245.09725 242.92029
 240.70134 238.49538 236.30542 234.13446 231.98450 229.84155 227.85759 226.00463
 224.27767 222.73971 221.35975 220.12180 218.99384 217.94388 217.03792 216.16896
 215.40100 214.57105 213.65909 213.01313 212.45317 213.65556 216.49637 219.12657
 220.93434 222.65060 224.22415 225.72717 226.88287 227.35104 227.25700 226.77109
 226.20724 227.28319 231.07939 235.80545 240.60974 245.28362 249.60521 253.50333
 256.99512 260.28888 263.43454 266.26270 268.62408 270.56305 272.22046 273.63013
 275.55978 277.33145 278.87793 280.24420 281.43442 282.49423 283.46750 284.35785
 285.17111 285.91205 286.56595 287.51416
 366.78100 356.32562 345.74824 334.60487 322.99849 311.18311 299.04373 286.83735
 274.53998 262.42760 250.42722 239.71884 229.83146 220.92609 213.09871 206.09133
 199.91595 194.84457 191.41720 189.44982 188.47744 188.53206 189.35768 190.65631
 192.37193 194.45755 196.71117 199.06079 201.49642 203.96704 206.04566 207.87828
 209.49490 210.63053 210.85015 211.06877 210.99639 210.69201 210.31564 209.93626
 209.54388 209.24450 209.04312 208.89775 208.81637 209.13799 209.51461 209.89423
 210.67786 211.84648 213.08710 214.86072 216.77934 218.81297 220.89859 222.97221
 225.02283 227.09745 229.18508 231.28170 233.40132 235.56394 237.81056 240.17119
 242.78281 245.02443 247.01705 248.77267 250.18030 251.29392 252.10654 252.41316
 252.44078 252.20541 251.55603 250.49465 249.09127 247.24289 245.14252 242.96614
 240.74776 238.54238 236.35300 234.18263 232.03325 229.89087 227.90749 226.05511
 224.32874 222.79136 221.41198 220.17460 219.04722 217.99785 217.09247 216.22409
 215.45671 214.62733 213.71596 213.07058 212.51120 213.70575 216.52800 219.16312
 220.99908 222.70639 224.26770 225.77609 226.95421 227.41467 227.21230 226.56870
 226.02841 227.25954 231.07399 235.78604 240.58948 245.27057 249.60280 253.50653
 256.98849 260.26608 263.39813 266.21738 268.56262 270.48196 272.13562 273.55923
 275.50531 277.28839 278.84012 280.20926 281.39862 282.45828 283.42987 284.32153
 285.13510 285.87494 286.52982 287.47684
 366.78100 356.32624 345.74948 334.60672 323.00095 311.18619 299.04743 286.84167
 274.54491 262.43315 250.43339 239.72562 229.83886 220.93410 213.10734 206.10058
 199.92582 194.85506 191.42829 189.46153 188.48977 188.54501 189.37125 190.67049
 192.38673 194.47297 196.72720 199.07744 201.51368 203.98492 206.06416 207.89740
 209.51464 210.65087 210.87111 211.09035 211.01859 210.71483 210.33907 209.96031
 209.56854 209.26978 209.06902 208.92426 208.84350 209.16574 209.54298 209.92321
 210.70745 211.87669 213.11793 214.89217 216.81141 218.84565 220.93188 223.00612
 225.05736 227.13260 229.22084 231.31808 233.43832 235.60156 237.84879 240.21003
 242.82227 245.06451 247.05775 248.81399 250.22223 251.33646 252.14970 252.45694
 252.48518 252.25042 251.60166 250.54090 249.13813 247.29037 245.19061 243.01485
 240.79709 238.59233 236.40357 234.23380 232.08504 229.94328 227.96052 226.10876
 224.38300 222.84624 221.46747 220.23071 219.10395 218.05519 217.15043 216.28267
 215.51591 214.68714 213.77638 213.13162 212.57286 213.75735 216.55588 219.20041
 221.06485 222.75130 224.30769 225.82765 227.02176 227.47961 227.17523 226.36940
 225.84464 227.23589 231.07466 235.77379 240.57439 245.25769 249.59883 253.50548
 256.97772 260.24002 263.35828 266.16870 268.50143 270.40454 272.05603 273.50024
 275.44797 277.23477 278.78815 280.15643 281.34741 282.40778 283.38098 284.27197
 285.08505 285.82791 286.48163 287.43088
 366.78100 356.32689 345.75078 334.60867 323.00356 311.18945 299.05134 286.84623
 274.55012 262.43901 250.43990 239.73279 229.84668 220.94257 213.11646 206.11035
 199.93624 194.86613 191.44002 189.47391 188.50280 188.55869 189.38558 190.68547
 192.40236 194.48925 196.74414 199.09503 201.53192 204.00381 206.08370 207.91759
 209.53548 210.67237 210.89326 211.11315 211.04204 210.73893 210.36382 209.98571
 209.59460 209.29649 209.09638 208.95227 208.87216 209.19505 209.57294 209.95383
 210.73872 211.90861 213.15050 214.92539 216.84528 218.88017 220.96706 223.04195
 225.09384 227.16973 229.25862 231.35651 233.47740 235.64129 237.88918 240.25107
 242.86396 245.10685 247.10074 248.85763 250.26652 251.38141 252.19530 252.50319
 252.53208 252.29797 251.64986 250.58975 249.18764 247.34053 245.24142 243.06631
 240.84920 238.64509 236.45698 234.28787 232.13976 229.99865 228.01654 226.16543
 224.44032 222.90421 221.52610 220.28999 219.16388 218.11577 217.21166 216.34455
 215.57844 214.75033 213.84022 213.19611 212.63800 213.81038 216.58026 219.23996
 221.12723 222.79024 224.34612 225.87454 227.08470 227.55721 227.14766 226.17142
 225.66156 227.21022 231.07553 235.76888 240.56680 245.24658 249.59105 253.49832
 256.96350 260.21222 263.31711 266.11993 268.43958 270.32840 271.97733 273.44345
 275.39636 277.17514 278.72598 280.09470 281.28470 282.34540 283.31863 284.21112
 285.02618 285.76639 286.42490 287.37231
 366.78100 356.32755 345.75209 334.61064 323.00618 311.19273 299.05528 286.85082
 274.55537 262.44492 250.44646 239.74001 229.85455 220.95110 213.12565 206.12019
 199.94674 194.87728 191.45183 189.48638 188.51592 188.57247 189.40001 190.70056
 192.41811 194.50565 196.76120 199.11275 201.55029 204.02284 206.10338 207.93793
 209.55648 210.69402 210.91557 211.13611 211.06566 210.76321 210.38875 210.01130
 209.62085 209.32339 209.12394 208.98048 208.90103 209.22458 209.60312 209.98467
 210.77021 211.94076 213.18331 214.95885 216.87940 218.91495 221.00249 223.07804
 225.13058 227.20713 229.29668 231.39522 233.51677 235.68131 237.92986 240.29241
 242.90595 245.14950 247.14404 248.90159 250.31114 251.42668 252.24123 252.54978
 252.57932 252.34587 251.69841 250.63896 249.23751 247.39105 245.29260 243.11814
 240.90169 238.69824 236.51078 234.34233 232.19488 230.05442 228.07297 226.22251
 224.49806 222.96261 221.58515 220.34970 219.22424 218.17679 217.27334 216.40688
 215.64143 214.81397 213.90452 213.26107 212.70361 213.86320 216.60289 219.27643
 221.19107 222.81641 224.37769 225.92429 227.15273 227.63528 227.12943 225.98412
 225.47531 227.18430 231.08234 235.76837 240.56123 245.23296 249.57791 253.48596
 256.94580 260.18143 263.27377 266.06851 268.37735 270.25345 271.90717 273.47955
 275.30170 277.07141 278.63101 280.00418 281.19858 282.26163 283.23846 284.13217
 284.94800 285.69098 286.35025 287.29367
 366.78100 356.32825 345.75349 334.61274 323.00899 311.19623 299.05948 286.85573
 274.56097 262.45122 250.45347 239.74771 229.86296 220.96020 213.13545 206.13070
 199.95794 194.88919 191.46444 189.49968 188.52993 188.58718 189.41542 190.71667
 192.43492 194.52316 196.77941 199.13166 201.56990 204.04315 206.12440 207.95964
 209.57889 210.71713 210.93938 211.16063 211.09087 210.78912 210.41537 210.03861
 209.64886 209.35211 209.15335 209.01060 208.93185 209.25609 209.63534 210.01759
 210.80383 211.97508 213.21833 214.99457 216.91582 218.95207 221.04031 223.11656
 225.16980 227.24705 229.33730 231.43654 233.55879 235.72404 237.97328 240.33653
 242.95078 245.19502 247.19027 248.94852 250.35876 251.47501 252.29026 252.59950
 252.62975 252.39700 251.75024 250.69149 249.29073 247.44498 245.34723 243.17347
 240.95772 238.75497 236.56821 234.40046 232.25371 230.11395 228.13320 226.28345
 224.55969 223.02494 221.64819 220.41343 219.28868 218.24193 217.33917 216.47342
 215.70867 214.88191 213.97316 213.33040 212.77365 213.91760 216.62030 219.31429
 221.24864 222.85107 224.39186 225.95178 227.23320 227.74533 227.10883 225.79718
 225.31322 227.16032 231.07675 235.77010 240.56186 245.22148 249.56261 253.46910
 256.92258 260.14645 263.22778 266.01770 268.32047 270.18695 271.84244 273.45901
 275.22116 276.98239 278.54276 279.91687 281.11151 282.17648 283.15402 284.04880
 284.86502 285.61053 286.26923 287.21924
 366.78100 356.32895 345.75491 334.61486 323.01181 311.19977 299.06372 286.86068
 274.56663 262.45758 250.46054 239.75549 229.87144 220.96940 213.14535 206.14130
 199.96926 194.90121 191.47716 189.51312 188.54407 188.60203 189.43098 190.73293
 192.45189 194.54084 196.79779 199.15075 201.58970 204.06365 206.14561 207.98156
 209.60152 210.74047 210.96342 211.18538 211.11633 210.81528 210.44224 210.06619
 209.67714 209.38110 209.18305 209.04100 208.96296 209.28791 209.66787 210.05082
 210.83777 212.00973 213.25368 215.03063 216.95259 218.98954 221.07849 223.15545
 225.20940 227.28736 229.37831 231.47826 233.60122 235.76717 238.01712 240.38108
 242.99603 245.24098 247.23694 248.99589 250.40685 251.52380 252.33975 252.64971
 252.68066 252.44861 251.80257 250.74452 249.34447 247.49943 245.40238 243.22933
 241.01429 238.81224 236.62620 234.45915 232.31310 230.17406 228.19401 226.34496
 224.62192 223.08787 221.71182 220.47778 219.35373 218.30769 217.40564 216.54059
 215.77655 214.95050 214.04245 213.40041 212.84436 213.97139 216.63412 219.34932
 221.31128 222.87181 224.42085 225.96701 227.27122 227.85921 227.15329 225.57852
 225.06833 227.14168 231.10069 235.78983 240.57214 245.20927 249.53917 253.44125
 256.89029 260.10724 263.18005 265.96872 268.26746 270.12552 271.77985 273.41168
 275.14413 276.89832 278.45782 279.83163 281.02557 282.09003 283.06824 283.96332
 284.78122 285.52841 286.18463 287.13553
 366.78100 356.32937 345.75573 334.61610 323.01346 311.20183 299.06619 286.86356
 274.56993 262.46129 250.46466 239.76002 229.87639 220.97475 213.15112 206.14749
 199.97585 194.90822 191.48458 189.52095 188.55231 188.61068 189.44005 190.74241
 192.46178 194.55114 196.80851 199.16188 201.60124 204.07561 206.15797 207.99434
 209.61470 210.75407 210.97744 211.19980 211.13117 210.83053 210.45790 210.08226
 209.69363 209.39800 209.20036 209.05873 208.98109 209.30646 209.68682 210.07019
 210.85756 212.02992 213.27429 215.05165 216.97402 219.01138 221.10075 223.17812
 225.23248 227.31085 229.40221 231.50258 233.62594 235.79231 238.04268 240.40704
 243.02241 245.26777 247.26414 249.02350 250.43487 251.55224 252.36860 252.67897
 252.71033 252.47870 251.83307 250.77543 249.37580 247.53116 245.43453 243.26189
 241.04726 238.84563 236.65999 234.49336 232.34772 230.20909 228.22945 226.38082
 224.65819 223.12455 221.74892 220.51528 219.39165 218.34601 217.44438 216.57975
 215.81611 214.99048 214.08284 213.44121 212.88557 214.00938 216.66449 219.36018
 221.39587 222.90726 224.38046 225.98474 227.35782 227.95299 227.18044 225.46980
 224.90541 227.08311 231.10995 235.80971 240.57527 245.18684 249.50627 253.40741
 256.85678 260.06961 263.13519 265.92096 268.21609 270.06818 271.72122 273.36191
 275.06345 276.81009 278.36816 279.74222 280.93689 281.99924 282.97678 283.87271
 284.69022 285.43747 286.09799 287.04532
 366.78100 356.32982 345.75663 334.61745 323.01526 311.20408 299.06890 286.86671
 274.57353 262.46534 250.46916 239.76497 229.88179 220.98061 213.15742 206.15424
 199.98305 194.91587 191.49269 189.52950 188.56132 188.62013 189.44995 190.75277
 192.47258 194.56240 196.82021 199.17403 201.61384 204.08866 206.17148 208.00829
 209.62911 210.76892 210.99274 211.21556 211.14737 210.84719 210.47500 210.09982
 209.71164 209.41645 209.21927 209.07808 209.00090 209.32671 209.70753 210.09135
 210.87916 212.05198 213.29679 215.07461 216.99743 219.03524 221.12506 223.20287
 225.25769 227.33651 229.42832 231.52914 233.65295 235.81977 238.07058 240.43540
 243.05122 245.29703 247.29385 249.05366 250.46548 251.58330 252.40011 252.71093
 252.74274 252.51156 251.86637 250.80919 249.41001 247.56582 245.46964 243.29745
 241.08327 238.88209 236.69690 234.53072 232.38553 230.24735 228.26817 226.41998
 224.69780 223.16461 221.78943 220.55624 219.43306 218.38788 217.48669 216.62251
 215.85932 215.03414 214.12696 213.48577 212.93059 214.04807 216.68820 219.38242
 221.44876 222.96204 224.40450 226.02931 227.41306 227.96904 227.15852 225.44301
 224.84836 227.02271 231.09259 235.81389 240.56848 245.16110 249.47467 253.37717
 256.82806 260.03433 263.09039 265.87354 268.16531 270.01382 271.66763 273.31097
 274.98087 276.72009 278.27707 279.64923 280.84305 281.90668 282.88452 283.77820
 284.59882 285.34497 286.00754 286.95282
 366.78100 356.33041 345.75783 334.61924 323.01766 311.20707 299.07248 286.87090
 274.57831 262.47073 250.47514 239.77155 229.88897 220.98838 213.16580 206.16321
 199.99262 194.92604 191.50345 189.54087 188.57328 188.63269 189.46311 190.76652
 192.48694 194.57735 196.83576 199.19018 201.63059 204.10601 206.18942 208.02683
 209.64825 210.78866 211.01308 211.23649 211.16890 210.86932 210.49773 210.12315
 209.73556 209.44097 209.24439 209.10380 209.02722 209.35363 209.73505 210.11946
 210.90787 212.08129 213.32670 215.10512 217.02853 219.06694 221.15736 223.23577
 225.29119 227.37060 229.46301 231.56443 233.68884 235.85626 238.10767 240.47308
 243.08950 245.33591 247.33333 249.09374 250.50615 251.62457 252.44198 252.75340
 252.78581 252.55522 251.91064 250.85405 249.45547 247.61188 245.51629 243.34471
 241.13112 238.93054 236.74595 234.58036 232.43578 230.29819 228.31961 226.47202
 224.75043 223.21785 221.84326 220.61068 219.48809 218.44350 217.54292 216.67933
 215.91675 215.09216 214.18557 213.54499 212.99040 214.09305 216.69820 219.41548
 221.49144 223.00552 224.44618 226.06970 227.44234 227.97569 227.14259 225.44598
 224.82957 226.96220 231.05879 235.81274 240.56458 245.13972 249.44611 253.34837
 256.79910 259.99854 263.04630 265.82819 268.11996 269.96509 271.61838 273.26193
 274.89886 276.62872 278.18378 279.55502 280.74780 281.81107 282.78720 283.68265
 284.50156 285.24948 285.91162 286.85635
 366.78100 356.33100 345.75900 334.62100 323.02000 311.21000 299.07600 286.87499
 274.58299 262.47599 250.48099 239.77799 229.89599 220.99599 213.17399 206.17199
 200.00199 194.93599 191.51399 189.55198 188.58498 188.64498 189.47598 190.77998
 192.50098 194.59198 196.85098 199.20598 201.64698 204.12298 206.20698 208.04498
 209.66697 210.80797 211.03297 211.25697 211.18997 210.89097 210.51997 210.14597
 209.75897 209.46497 209.26897 209.12897 209.05296 209.37996 209.76196 210.14696
 210.93596 212.10996 213.35596 215.13496 217.05896 219.09796 221.18896 223.26796
 225.32396 227.40395 229.49695 231.59895 233.72395 235.89195 238.14395 240.50995
 243.12695 245.37395 247.37195 249.13295 250.54595 251.66494 252.48294 252.79494
 252.82794 252.59794 251.95394 250.89794 249.49994 247.65694 245.56194 243.39094
 241.17794 238.97793 236.79393 234.62893 232.48493 230.34793 228.36993 226.52293
 224.80193 223.26993 221.89593 220.66393 219.54193 218.49793 217.59792 216.73492
 215.97292 215.14892 214.24292 213.60292 213.04892 214.13686 216.70721 219.44414
 221.53970 223.04877 224.47726 226.08620 227.45728 227.99951 227.14609 225.44215
 224.80466 226.90573 231.02576 235.81749 240.56642 245.12166 249.41824 253.31848
 256.76849 259.96420 263.00330 265.78491 268.07764 269.92194 271.57529 273.21552
 274.81625 276.53589 278.08987 279.46051 280.65213 281.71426 282.69095 283.58588
 284.40503 285.15512 285.81595 286.75708
 366.78100 356.33153 345.76006 334.62260 323.02213 311.21266 299.07919 286.87873
 274.58726 262.48079 250.48632 239.78385 229.90239 221.00292 213.18145 206.17998
 200.01051 194.94505 191.52358 189.56211 188.59564 188.65618 189.48771 190.79224
 192.51377 194.60530 196.86484 199.22037 201.66190 204.13843 206.22297 208.06150
 209.68403 210.82556 211.05109 211.27563 211.20916 210.91069 210.54022 210.16676
 209.78029 209.48682 209.29135 209.15188 209.07642 209.40395 209.78648 210.17201
 210.96154 212.13608 213.38261 215.16214 217.08667 219.12621 221.21774 223.29727
 225.35380 227.43433 229.52787 231.63040 233.75593 235.92446 238.17700 240.54353
 243.16106 245.40859 247.40712 249.16866 250.58219 251.70172 252.52025 252.83279
 252.86632 252.63685 251.99338 250.93791 249.54045 247.69798 245.60351 243.43304
 241.22057 239.02111 236.83764 234.67317 232.52970 230.39324 228.41577 226.56930
 224.84883 223.31736 221.94390 220.71243 219.59096 218.54749 217.64803 216.78556
 216.02409 215.20062 214.29515 213.65569 213.10222 214.17766 216.71851 219.46709
 221.59238 223.09439 224.50104 226.08670 227.45871 228.02678 227.15706 225.43484
 224.77948 226.85722 231.00098 235.82823 240.56970 245.10385 249.39066 253.28918
 256.73926 259.93024 262.96341 265.74475 268.03946 269.88239 271.53378 273.17023
 274.73831 276.44672 277.99756 279.36600 280.55652 281.61639 282.59290 283.48843
 284.30563 285.05566 285.72025 286.65631
 366.78100 356.33204 345.76107 334.62411 323.02415 311.21518 299.08222 286.88226
 274.59130 262.48533 250.49137 239.78941 229.90844 221.00948 213.18852 206.18755
 200.01859 194.95363 191.53267 189.57170 188.60574 188.66678 189.49881 190.80385
 192.52589 194.61792 196.87796 199.23400 201.67603 204.15307 206.23811 208.07715
 209.70018 210.84222 211.06826 211.29329 211.22733 210.92937 210.55940 210.18644
 209.80048 209.50751 209.31255 209.17359 209.09863 209.42666 209.80970 210.19574
 210.98577 212.16081 213.40785 215.18788 217.11292 219.15296 221.24500 223.32503
 225.38207 227.46311 229.55714 231.66018 233.78622 235.95525 238.20829 240.57533
 243.19336 245.44140 247.44044 249.20248 250.61651 251.73655 252.55559 252.86862
 252.90266 252.67370 252.03073 250.97577 249.57881 247.73684 245.64288 243.47292
 241.26096 239.06199 236.87903 234.71507 232.57210 230.43614 228.45918 226.61321
 224.89325 223.36229 221.98933 220.75836 219.63740 218.59444 217.69547 216.83351
 216.07255 215.24958 214.34462 213.70566 213.15269 214.21655 216.73003 219.48602
 221.64752 223.14201 224.52161 226.08124 227.45070 228.04567 227.16643 225.43700
 224.76741 226.81848 230.98526 235.84047 240.57207 245.08728 249.36511 253.26169
 256.71143 259.89743 262.92484 265.70593 268.00290 269.84747 271.49713 273.12653
 274.66559 276.36041 277.90594 279.27286 280.46240 281.52209 282.49634 283.39218
 284.21072 284.95871 285.62271 286.55515
 366.78100 356.33252 345.76204 334.62556 323.02607 311.21759 299.08511 286.88563
 274.59515 262.48967 250.49618 239.79470 229.91422 221.01574 213.19526 206.19478
 200.02629 194.96181 191.54133 189.58085 188.61537 188.67689 189.50940 190.81492
 192.53744 194.62996 196.89048 199.24700 201.68951 204.16703 206.25255 208.09207
 209.71559 210.85811 211.08462 211.31014 211.24466 210.94718 210.57770 210.20522
 209.81973 209.52725 209.33277 209.19429 209.11981 209.44833 209.83184 210.21836
 211.00888 212.18440 213.43192 215.21244 217.13795 219.17847 221.27099 223.35151
 225.40903 227.49055 229.58506 231.68858 233.81510 235.98462 238.23814 240.60566
 243.22418 245.47269 247.47221 249.23473 250.64925 251.76977 252.58929 252.90280
 252.93732 252.70884 252.06636 251.01188 249.61540 247.77391 245.68043 243.51095
 241.29947 239.10099 236.91851 234.75502 232.61254 230.47706 228.50058 226.65510
 224.93562 223.40513 222.03265 220.80217 219.68169 218.63921 217.74073 216.87924
 216.11876 215.29628 214.39180 213.75332 213.20084 214.25377 216.74141 219.49977
 221.70168 223.19417 224.53946 226.06854 227.43826 228.05103 227.16785 225.45126
 224.77025 226.79054 230.97812 235.85260 240.57396 245.07307 249.34300 253.23671
 256.68436 259.86548 262.88620 265.66650 267.96841 269.81592 271.46353 273.08597
 274.61127 276.27835 277.81525 279.18143 280.36969 281.42770 282.40286 283.29651
 284.11487 284.86127 285.52707 286.45349
 366.78100 356.33299 345.76298 334.62698 323.02797 311.21996 299.08795 286.88895
 274.59894 262.49393 250.50092 239.79992 229.91991 221.02190 213.20189 206.20189
 200.03388 194.96987 191.54986 189.58986 188.62485 188.68684 189.51983 190.82583
 192.54882 194.64181 196.90280 199.25980 201.70279 204.18078 206.26677 208.10677
 209.73076 210.87375 211.10074 211.32674 211.26173 210.96472 210.59571 210.22371
 209.83870 209.54669 209.35268 209.21468 209.14067 209.46966 209.85365 210.24065
 211.03164 212.20763 213.45562 215.23662 217.16261 219.20360 221.29659 223.37758
 225.43558 227.51757 229.61256 231.71655 233.84355 236.01354 238.26753 240.63552
 243.25452 245.50351 247.50350 249.26649 250.68149 251.80248 252.62247 252.93646
 252.97146 252.74345 252.10144 251.04743 249.65143 247.81042 245.71741 243.54840
 241.33740 239.13939 236.95738 234.79437 232.65237 230.51736 228.54135 226.69634
 224.97734 223.44733 222.07532 220.84531 219.72531 218.68330 217.78529 216.92428
 216.16428 215.34227 214.43826 213.80025 213.24825 214.29083 216.75404 219.50851
 221.75201 223.25227 224.55684 226.04953 227.42249 228.04184 227.16139 225.47546
 224.78529 226.77428 230.97885 235.86501 240.57777 245.06285 249.32372 253.21310
 256.65802 259.83371 262.84882 265.62704 267.93292 269.78342 271.42957 273.04773
 274.59070 276.19159 277.71939 279.08646 280.27621 281.33563 282.31061 283.20651
 284.02393 284.77399 285.43826 286.36707
 366.78100 356.33347 345.76393 334.62840 323.02986 311.22233 299.09080 286.89226
 274.60273 262.49819 250.50566 239.80513 229.92559 221.02806 213.20852 206.20899
 200.04145 194.97792 191.55839 189.59885 188.63432 188.69678 189.53025 190.83672
 192.56018 194.65365 196.91511 199.27258 201.71605 204.19451 206.28098 208.12144
 209.74591 210.88938 211.11684 211.34331 211.27877 210.98224 210.61371 210.24217
 209.85764 209.56610 209.37257 209.23504 209.16150 209.49097 209.87543 210.26290
 211.05436 212.23083 213.47930 215.26076 217.18723 219.22869 221.32216 223.40363
 225.46209 227.54456 229.64002 231.74449 233.87196 236.04242 238.29689 240.66535
 243.28482 245.53429 247.53475 249.29822 250.71368 251.83515 252.65562 252.97008
 253.00555 252.77801 252.13648 251.08294 249.68741 247.84688 245.75434 243.58581
 241.37527 239.17774 236.99621 234.83367 232.69214 230.55760 228.58207 226.73754
 225.01900 223.48947 222.11793 220.88840 219.76887 218.72733 217.82980 216.96926
 216.20973 215.38820 214.48466 213.84713 213.29559 214.32809 216.76749 219.51245
 221.79680 223.31541 224.57677 226.02888 227.39888 228.01465 227.14737 225.50690
 224.81264 226.76941 230.98558 235.87956 240.58559 245.05826 249.30814 253.19055
 256.63156 259.80243 262.81015 265.58734 267.89804 269.75281 271.39832 273.01010
 274.55307 276.11716 277.63705 279.00610 280.19479 281.25656 282.23105 283.12820
 283.95105 284.70190 285.37030 286.29221
 366.78100 356.33393 345.76486 334.62978 323.03171 311.22464 299.09357 286.89549
 274.60642 262.50235 250.51028 239.81020 229.93113 221.03406 213.21499 206.21591
 200.04884 194.98577 191.56670 189.60762 188.64355 188.70648 189.54041 190.84733
 192.57126 194.66519 196.92712 199.28504 201.72897 204.20790 206.29483 208.13575
 209.76068 210.90461 211.13254 211.35946 211.29539 210.99932 210.63125 210.26017
 209.87610 209.58503 209.39196 209.25488 209.18181 209.51174 209.89667 210.28459
 211.07652 212.25345 213.50238 215.28430 217.21123 219.25316 221.34709 223.42901
 225.48794 227.57087 229.66680 231.77172 233.89965 236.07058 238.32551 240.69443
 243.31436 245.56429 247.56522 249.32914 250.74507 251.86700 252.68793 253.00285
 253.03878 252.81171 252.17064 251.11756 249.72249 247.88242 245.79035 243.62227
 241.41220 239.21513 237.03406 234.87198 232.73091 230.59684 228.62177 226.77769
 225.05962 223.53055 222.15948 220.93040 219.81133 218.77026 217.87319 217.01311
 216.25404 215.43297 214.52990 213.89282 213.34175 214.36456 216.78108 219.51276
 221.83609 223.38222 224.60318 226.01172 227.36325 227.96623 227.12505 225.54236
 224.85114 226.77480 230.99677 235.89809 240.59917 245.05890 249.29631 253.16901
 256.60388 259.76831 262.77121 265.54752 267.86395 269.72507 271.37067 272.97079
 274.49753 276.05249 277.57037 278.93637 280.12418 281.18481 282.16107 283.05490
 283.87744 284.63055 285.29822 286.20215
 366.78100 356.33438 345.76577 334.63115 323.03354 311.22692 299.09631 286.89869
 274.61007 262.50646 250.51484 239.81523 229.93661 221.04000 213.22138 206.22277
 200.05615 194.99353 191.57492 189.61630 188.65269 188.71607 189.55046 190.85784
 192.58222 194.67661 196.93899 199.29738 201.74176 204.22115 206.30853 208.14992
 209.77530 210.91968 211.14807 211.37545 211.31184 211.01622 210.64861 210.27799
 209.89437 209.60376 209.41114 209.27453 209.20191 209.53230 209.91768 210.30606
 211.09845 212.27583 213.52522 215.30760 217.23499 219.27737 221.37176 223.45414
 225.51352 227.59691 229.69329 231.79868 233.92706 236.09845 238.35383 240.72321
 243.34360 245.59398 247.59537 249.35975 250.77614 251.89852 252.71991 253.03529
 253.07167 252.84506 252.20444 251.15183 249.75721 247.91760 245.82598 243.65836
 241.44875 239.25213 237.07152 234.90990 232.76929 230.63567 228.66105 226.81744
 225.09982 223.57121 222.20059 220.97198 219.85336 218.81275 217.91613 217.05651
 216.29790 215.47728 214.57467 213.93805 213.38744 214.40071 216.79466 219.51302
 221.87012 223.44954 224.63721 225.99860 227.31453 227.89775 227.09372 225.57819
 224.89691 226.78804 231.01151 235.92261 240.62105 245.06664 249.28870 253.14876
 256.57489 259.73215 262.72977 265.50595 267.82959 269.69940 271.34714 272.93277
 274.44495 275.99139 277.50388 278.86926 280.05753 281.11670 282.08990 282.98532
 283.80707 284.56143 285.23038 286.12204
 366.78100 356.33473 345.76645 334.63218 323.03490 311.22863 299.09835 286.90108
 274.61280 262.50953 250.51826 239.81898 229.94071 221.04443 213.22616 206.22788
 200.06161 194.99933 191.58106 189.62279 188.65951 188.72324 189.55796 190.86569
 192.59041 194.68514 196.94786 199.30659 201.75132 204.23104 206.31877 208.16049
 209.78622 210.93094 211.15967 211.38739 211.32412 211.02885 210.66157 210.29130
 209.90802 209.61775 209.42547 209.28920 209.21692 209.54765 209.93338 210.32210
 211.11483 212.29255 213.54228 215.32500 217.25273 219.29545 221.39018 223.47291
 225.53263 227.61636 229.71308 231.81881 233.94753 236.11926 238.37498 240.74471
 243.36543 245.61616 247.61789 249.38261 250.79934 251.92206 252.74379 253.05951
 253.09624 252.86996 252.22969 251.17742 249.78314 247.94387 245.85259 243.68532
 241.47604 239.27977 237.09949 234.93822 232.79795 230.66467 228.69040 226.84712
 225.12985 223.60157 222.23130 221.00302 219.88475 218.84448 217.94820 217.08893
 216.33065 215.51038 214.60810 213.97183 213.42155 214.43109 216.81624 219.50500
 221.90260 223.51833 224.67456 225.99065 227.25743 227.81335 227.05232 225.61108
 224.94725 226.80743 231.02937 235.95146 240.65060 245.08258 249.28691 253.13130
 256.54510 259.69269 262.68356 265.45947 267.79282 269.67468 271.32495 272.89584
 274.39566 275.93286 277.44031 278.80399 279.99075 281.04971 282.02197 282.91534
 283.73709 284.49612 285.15808 286.03595
 366.78100 356.33507 345.76714 334.63321 323.03628 311.23035 299.10042 286.90349
 274.61556 262.51263 250.52170 239.82277 229.94484 221.04891 213.23098 206.23305
 200.06712 195.00519 191.58726 189.62933 188.66640 188.73047 189.56554 190.87361
 192.59868 194.69375 196.95682 199.31589 201.76096 204.24103 206.32910 208.17117
 209.79724 210.94231 211.17138 211.39945 211.33652 211.04159 210.67466 210.30473
 209.92180 209.63187 209.43994 209.30401 209.23208 209.56315 209.94922 210.33829
 211.13136 212.30943 213.55950 215.34257 217.27064 219.31371 221.40878 223.49185
 225.55192 227.63600 229.73307 231.83914 233.96821 236.14028 238.39635 240.76642
 243.38749 245.63856 247.64063 249.40570 250.82277 251.94584 252.76791 253.08398
 253.12105 252.89512 252.25519 251.20326 249.80933 247.97040 245.87947 243.71254
 241.50361 239.30768 237.12775 234.96682 232.82689 230.69396 228.72003 226.87710
 225.16017 223.63224 222.26231 221.03438 219.91645 218.87652 217.98059 217.12166
 216.36373 215.54380 214.64187 214.00594 213.45601 214.46173 216.83786 219.49828
 221.92282 223.58977 224.72258 225.98854 227.19638 227.71204 226.99754 225.64020
 225.00198 226.83195 231.04683 235.98239 240.68341 245.10677 249.29309 253.11807
 256.51718 259.65247 262.63589 265.41251 267.75635 269.65042 271.29968 272.85654
 274.35132 275.87558 277.37582 278.73703 279.92441 280.98199 281.95120 282.84436
 283.66718 284.42615 285.07895 285.94736
 366.78100 356.33548 345.76797 334.63445 323.03793 311.23241 299.10290 286.90638
 274.61886 262.51635 250.52583 239.82731 229.94979 221.05428 213.23676 206.23924
 200.07373 195.01221 191.59469 189.63717 188.67466 188.73914 189.57462 190.88311
 192.60859 194.70407 196.96755 199.32704 201.77252 204.25300 206.34149 208.18397
 209.81045 210.95593 211.18542 211.41390 211.35138 211.05687 210.69035 210.32083
 209.93831 209.64880 209.45728 209.32176 209.25024 209.58173 209.96821 210.35769
 211.15118 212.32966 213.58014 215.36362 217.29211 219.33559 221.43107 223.51456
 225.57504 227.65952 229.75700 231.86349 233.99297 236.16545 238.42194 240.79242
 243.41390 245.66538 247.66787 249.43335 250.85083 251.97432 252.79680 253.11328
 253.15076 252.92525 252.28573 251.23421 249.84070 248.00218 245.91166 243.74514
 241.53663 239.34111 237.16159 235.00108 232.86156 230.72904 228.75552 226.91301
 225.19649 223.66897 222.29946 221.07194 219.95442 218.91490 218.01939 217.16087
 216.40335 215.58384 214.68232 214.04680 213.49728 214.49513 216.85265 219.49974
 221.92921 223.65340 224.79575 226.00272 227.11134 227.58272 226.94136 225.66826
 225.04977 226.85522 231.06488 236.01436 240.72318 245.14061 249.30887 253.10968
 256.48877 259.60977 262.58563 265.36206 267.71634 269.62741 271.28247 272.83438
 274.32388 275.81866 277.30185 278.66025 279.84662 280.90115 281.86563 282.75546
 283.58380 284.35498 284.99304 285.85339
 366.78100 356.33568 345.76836 334.63505 323.03873 311.23341 299.10409 286.90777
 274.62046 262.51814 250.52782 239.82950 229.95219 221.05687 213.23955 206.24223
 200.07691 195.01560 191.59828 189.64096 188.67864 188.74332 189.57901 190.88769
 192.61337 194.70905 196.97274 199.33242 201.77810 204.25878 206.34746 208.19015
 209.81683 210.96251 211.19219 211.42087 211.35856 211.06424 210.69792 210.32860
 209.94628 209.65697 209.46565 209.33033 209.25901 209.59070 209.97738 210.36706
 211.16074 212.33942 213.59011 215.37379 217.30247 219.34615 221.44183 223.52552
 225.58620 227.67088 229.76856 231.87525 234.00493 236.17761 238.43429 240.80497
 243.42666 245.67834 247.68102 249.44670 250.86438 251.98807 252.81075 253.12743
 253.16511 252.93979 252.30048 251.24916 249.85584 248.01752 245.92721 243.76089
 241.55257 239.35725 237.17793 235.01762 232.87830 230.74598 228.77266 226.93034
 225.21403 223.68671 222.31739 221.09007 219.97275 218.93344 218.03812 217.17980
 216.42248 215.60317 214.70185 214.06653 213.51721 214.51695 216.87894 219.50064
 221.91638 223.71260 224.88858 226.02446 227.01752 227.44621 226.88591 225.68945
 225.08961 226.87727 231.08382 236.04114 240.76707 245.18370 249.33159 253.10489
 256.46408 259.57114 262.54044 265.31738 267.68536 269.61078 271.26031 272.79483
 274.28897 275.76758 277.22726 278.57886 279.76193 280.81241 281.77252 282.65897
 283.49246 284.26520 284.90308 285.75381
 366.78100 356.33585 345.76870 334.63555 323.03941 311.23426 299.10511 286.90896
 274.62181 262.51966 250.52951 239.83136 229.95422 221.05907 213.24192 206.24477
 200.07962 195.01847 191.60132 189.64418 188.68203 188.74688 189.58273 190.89158
 192.61743 194.71328 196.97713 199.33699 201.78284 204.26369 206.35254 208.19539
 209.82224 210.96809 211.19795 211.42680 211.36465 211.07050 210.70435 210.33520
 209.95305 209.66390 209.47276 209.33761 209.26646 209.59831 209.98516 210.37501
 211.16886 212.34772 213.59857 215.38242 217.31127 219.35512 221.45097 223.53482
 225.59567 227.68053 229.77838 231.88523 234.01508 236.18793 238.44478 240.81563
 243.43749 245.68934 247.69219 249.45804 250.87589 251.99974 252.82259 253.13945
 253.17730 252.95215 252.31300 251.26185 249.86870 248.03055 245.94040 243.77426
 241.56611 239.37096 237.19181 235.03166 232.89251 230.76036 228.78722 226.94507
 225.22892 223.70177 222.33262 221.10547 219.98832 218.94917 218.05403 217.19588
 216.43873 215.61958 214.71843 214.08328 213.53413 214.53615 216.90355 219.50861
 221.90218 223.75487 224.96098 226.04713 226.94826 227.32623 226.82291 225.68391
 225.11205 226.90962 231.10745 236.07106 240.81938 245.23210 249.35811 253.10262
 256.44064 259.53378 262.49680 265.27386 267.65439 269.59433 271.23743 272.76062
 274.25940 275.70847 277.16440 278.51935 279.70657 280.76715 281.75272 282.66183
 283.48291 284.20758 284.83328 285.67624
 366.78100 356.33628 345.76956 334.63683 323.04111 311.23639 299.10767 286.91194
 274.62522 262.52350 250.53378 239.83605 229.95933 221.06461 213.24789 206.25117
 200.08644 195.02572 191.60900 189.65228 188.69055 188.75583 189.59211 190.90139
 192.62766 194.72394 196.98822 199.34850 201.79477 204.27605 206.36533 208.20861
 209.83589 210.98216 211.21244 211.44172 211.38000 211.08627 210.72055 210.35183
 209.97011 209.68138 209.49066 209.35594 209.28522 209.61750 210.00477 210.39505
 211.18933 212.36861 213.61988 215.40416 217.33344 219.37772 221.47399 223.55827
 225.61955 227.70483 229.80310 231.91038 234.04066 236.21394 238.47122 240.84249
 243.46477 245.71705 247.72033 249.48660 250.90488 252.02916 252.85244 253.16971
 253.20799 252.98327 252.34455 251.29383 249.90110 248.06338 245.97366 243.80794
 241.60021 239.40549 237.22677 235.06705 232.92832 230.79660 228.82388 226.98216
 225.26643 223.73971 222.37099 221.14427 220.02755 218.98882 218.09410 217.23638
 216.47966 215.66093 214.76021 214.12549 213.57677 214.56813 216.91034 219.52153
 221.89778 223.77440 225.00215 226.05345 226.89839 227.24857 226.77808 225.64224
 225.08363 226.93796 231.13879 236.10733 240.87965 245.29817 249.39977 253.11722
 256.43524 259.50589 262.45422 265.22751 267.61865 269.57138 271.20752 272.70569
 274.18283 275.65408 277.14343 278.50427 279.69257 280.75525 281.74948 282.66208
 283.47995 284.19284 284.81494 285.66354
 366.78100 356.33683 345.77067 334.63850 323.04334 311.23917 299.11100 286.91584
 274.62967 262.52851 250.53934 239.84217 229.96601 221.07184 213.25568 206.25951
 200.09534 195.03518 191.61901 189.66285 188.70168 188.76751 189.60435 190.91418
 192.64102 194.73785 197.00268 199.36352 201.81035 204.29219 206.38202 208.22585
 209.85369 211.00052 211.23136 211.46119 211.40002 211.10686 210.74169 210.37353
 209.99236 209.70419 209.51403 209.37986 209.30970 209.64253 210.03036 210.42120
 211.21603 212.39587 213.64770 215.43253 217.36237 219.40720 221.50404 223.58887
 225.65070 227.73654 229.83537 231.94321 234.07404 236.24787 238.50571 240.87754
 243.50038 245.75321 247.75704 249.52388 250.94271 252.06755 252.89138 253.20921
 253.24805 253.02388 252.38572 251.33555 249.94338 248.10622 246.01705 243.85189
 241.64472 239.45055 237.27239 235.11322 232.97506 230.84389 228.87172 227.03056
 225.31539 223.78923 222.42106 221.19489 220.07873 219.04056 218.14640 217.28923
 216.53306 215.71490 214.81473 214.18057 213.63240 214.60663 216.90836 219.52286
 221.91811 223.79430 225.02139 226.02383 226.82681 227.19518 226.77556 225.60841
 225.02985 226.92416 231.15500 236.13832 240.93460 245.36107 249.45741 253.15938
 256.45673 259.51410 262.44806 265.20993 267.59848 269.54263 271.15100 272.62836
 274.13782 275.58887 277.06409 278.41623 279.59341 280.64731 281.63474 282.53949
 283.33942 284.02704 284.62100 285.38055
 366.78100 356.33725 345.77150 334.63974 323.04499 311.24124 299.11349 286.91873
 274.63298 262.53223 250.54348 239.84673 229.97097 221.07722 213.26147 206.26572
 200.10197 195.04221 191.62646 189.67071 188.70996 188.77620 189.61345 190.92370
 192.65095 194.74820 197.01344 199.37469 201.82194 204.30419 206.39443 208.23868
 209.86693 211.01418 211.24543 211.47567 211.41492 211.12217 210.75742 210.38967
 210.00891 209.72116 209.53141 209.39766 209.32790 209.66115 210.04940 210.44065
 211.23590 212.41614 213.66839 215.45364 217.38389 219.42913 221.52638 223.61163
 225.67388 227.76013 229.85937 231.96762 234.09887 236.27312 238.53137 240.90361
 243.52686 245.78011 247.78436 249.55160 250.97085 252.09610 252.92035 253.23860
 253.27784 253.05409 252.41634 251.36659 249.97483 248.13808 246.04933 243.88458
 241.67783 239.48407 237.30632 235.14757 233.00982 230.87906 228.90731 227.06656
 225.35181 223.82606 222.45830 221.23255 220.11680 219.07905 218.18530 217.32854
 216.57279 215.75504 214.85529 214.22153 213.67378 214.64258 216.93147 219.51225
 221.92252 223.80862 225.05659 225.99522 226.72928 227.11336 226.78548 225.64972
 225.03549 226.89827 231.14520 236.14839 240.93140 245.38548 249.47614 253.16414
 256.47229 259.52515 262.45831 265.22223 267.61899 269.57483 271.16119 272.55383
 274.08871 275.52374 276.94577 278.20667 279.24942 280.29852 281.27316 282.16550
 282.95389 283.63593 284.23001 284.99289
 366.78100 356.33705 345.77110 334.63916 323.04421 311.24026 299.11231 286.91736
 274.63141 262.53047 250.54152 239.84457 229.96862 221.07467 213.25872 206.26278
 200.09883 195.03888 191.62293 189.66698 188.70603 188.77209 189.60914 190.91919
 192.64624 194.74329 197.00835 199.36940 201.81645 204.29850 206.38855 208.23260
 209.86066 211.00771 211.23876 211.46881 211.40786 211.11491 210.74997 210.38202
 210.00107 209.71312 209.52317 209.38923 209.31928 209.65233 210.04038 210.43143
 211.22648 212.40654 213.65859 215.44364 217.37369 219.41874 221.51579 223.60085
 225.66290 227.74895 229.84800 231.95605 234.08710 236.26116 238.51921 240.89126
 243.51431 245.76736 247.77142 249.53847 250.95752 252.08257 252.90662 253.22467
 253.26373 253.03978 252.40183 251.35188 249.95993 248.12298 246.03404 243.86909
 241.66214 239.46819 237.29024 235.13130 232.99335 230.86240 228.89045 227.04950
 225.33455 223.80861 222.44066 221.21471 220.09876 219.06081 218.16686 217.30992
 216.55397 215.73602 214.83607 214.20212 213.65417 214.64439 216.98387 219.49554
 221.89648 223.79837 225.08066 226.00214 226.68770 227.03635 226.73491 225.68388
 225.11014 226.91574 231.14378 236.14973 240.94167 245.41109 249.48332 253.13385
 256.44073 259.48813 262.42697 265.20450 267.62067 269.60010 271.20337 272.59955
 274.01666 275.50021 276.85138 278.02475 279.03732 280.03265 281.01419 281.90091
 282.55661 283.21222 283.83716 284.63498
 366.78100 356.33665 345.77030 334.63796 323.04261 311.23826 299.10991 286.91457
 274.62822 262.52687 250.53752 239.84018 229.96383 221.06948 213.25313 206.25679
 200.09244 195.03209 191.61574 189.65940 188.69805 188.76370 189.60035 190.91001
 192.63666 194.73331 196.99796 199.35862 201.80527 204.28692 206.37657 208.22023
 209.84788 210.99453 211.22518 211.45483 211.39349 211.10014 210.73479 210.36644
 209.98510 209.69675 209.50640 209.37205 209.30171 209.63436 210.02201 210.41266
 211.20732 212.38697 213.63862 215.42327 217.35293 219.39758 221.49423 223.57888
 225.64054 227.72619 229.82484 231.93249 234.06315 236.23680 238.49445 240.86610
 243.48876 245.74141 247.74506 249.51171 250.93036 252.05502 252.87867 253.19632
 253.23497 253.01063 252.37228 251.32193 249.92958 248.09224 246.00289 243.83754
 241.63019 239.43585 237.25750 235.09815 232.95980 230.82846 228.85611 227.01476
 225.29941 223.77307 222.40472 221.17837 220.06202 219.02368 218.12933 217.27198
 216.51563 215.69729 214.79694 214.16259 213.61424 214.63474 217.04572 219.47771
 221.86356 223.74158 225.05179 226.01578 226.69319 226.98688 226.64699 225.66600
 225.15070 226.98354 231.15257 236.14482 240.92447 245.45284 249.51585 253.14343
 256.43475 259.45068 262.38522 265.14401 267.55270 269.52841 271.14401 272.58234
 274.02597 275.46823 276.77228 277.90439 278.86148 279.88867 280.86417 281.73953
 282.47867 283.17712 283.80414 284.60315
 366.78100 356.33687 345.77074 334.63860 323.04347 311.23934 299.11121 286.91608
 274.62995 262.52881 250.53968 239.84255 229.96642 221.07229 213.25615 206.26002
 200.09589 195.03576 191.61963 189.66350 188.70236 188.76823 189.60510 190.91497
 192.64184 194.73870 197.00357 199.36444 201.81131 204.29318 206.38305 208.22691
 209.85478 211.00165 211.23252 211.46239 211.40125 211.10812 210.74299 210.37486
 209.99373 209.70560 209.51546 209.38133 209.31120 209.64407 210.03194 210.42280
 211.21767 212.39754 213.64941 215.43428 217.36415 219.40901 221.50588 223.59075
 225.65262 227.73849 229.83735 231.94522 234.07609 236.24996 238.50783 240.87970
 243.50256 245.75543 247.75930 249.52617 250.94504 252.06990 252.89377 253.21164
 253.25051 253.02638 252.38825 251.33811 249.94598 248.10885 246.01972 243.85459
 241.64745 239.45332 237.27519 235.11606 232.97793 230.84680 228.87466 227.03353
 225.31840 223.79227 222.42414 221.19800 220.08187 219.04374 218.14961 217.29248
 216.53635 215.71821 214.81808 214.18395 213.63582 214.65207 217.06038 219.49596
 221.79388 223.63995 225.03217 226.03993 226.69318 226.96071 226.59715 225.65309
 225.14438 227.04318 231.15927 236.11769 240.89079 245.44583 249.50859 253.14055
 256.42700 259.43130 262.35318 265.10144 267.50574 269.49716 271.13489 272.54721
 273.99182 275.38287 276.65973 277.71021 278.74457 279.79800 280.79721 281.71201
 282.55075 283.30234 283.95892 284.79565
 366.78100 356.33764 345.77228 334.64091 323.04655 311.24319 299.11583 286.92147
 274.63610 262.53574 250.54738 239.85102 229.97566 221.08229 213.26693 206.27157
 200.10821 195.04885 191.63348 189.67812 188.71776 188.78440 189.62204 190.93267
 192.66031 194.75795 197.02359 199.38523 201.83286 204.31550 206.40614 208.25078
 209.87942 211.02705 211.25869 211.48933 211.42897 211.13661 210.77224 210.40488
 210.02452 209.73716 209.54780 209.41443 209.34507 209.67871 210.06735 210.45899
 211.25462 212.43526 213.68790 215.47354 217.40418 219.44981 221.54745 223.63309
 225.69573 227.78237 229.88200 231.99064 234.12228 236.29692 238.55556 240.92819
 243.55183 245.80547 247.81011 249.57775 250.99738 252.12302 252.94766 253.26630
 253.30594 253.08257 252.44521 251.39585 250.00449 248.16813 246.07976 243.91540
 241.70904 239.51568 237.33832 235.17995 233.04259 230.91223 228.94087 227.10051
 225.38614 223.86078 222.49342 221.26806 220.15270 219.11533 218.22197 217.36561
 216.61025 215.79289 214.89352 214.26016 213.71280 214.69992 217.04869 219.57509
 221.68665 223.54985 225.04704 226.04543 226.66347 226.92690 226.56546 225.60910
 225.15808 227.10410 231.15909 236.08626 240.89044 245.34756 249.51546 253.15988
 256.42752 259.42621 262.33517 265.05624 267.45441 269.46783 271.12247 272.56830
 274.02023 275.41037 276.66336 277.71100 278.74008 279.80286 280.81195 281.76685
 282.65448 283.44492 284.13544 285.01541
 366.78100 356.33809 345.77319 334.64228 323.04838 311.24547 299.11857 286.92466
 274.63975 262.53985 250.55194 239.85604 229.98113 221.08822 213.27332 206.27841
 200.11551 195.05660 191.64170 189.68679 188.72688 188.79398 189.63207 190.94317
 192.67126 194.76936 197.03545 199.39754 201.84564 204.32873 206.41983 208.26492
 209.89402 211.04211 211.27420 211.50530 211.44539 211.15349 210.78958 210.42267
 210.04277 209.75586 209.56696 209.43405 209.36515 209.69924 210.08833 210.48043
 211.27652 212.45762 213.71071 215.49681 217.42790 219.47399 221.57209 223.65818
 225.72128 227.80837 229.90847 232.01756 234.14965 236.32475 238.58384 240.95694
 243.58103 245.83512 247.84022 249.60831 251.02841 252.15450 252.97960 253.29869
 253.33878 253.11588 252.47897 251.43007 250.03916 248.20326 246.11535 243.95144
 241.74554 239.55263 237.37573 235.21782 233.08092 230.95101 228.98010 227.14020
 225.42629 223.90139 222.53448 221.30957 220.19467 219.15776 218.26486 217.40895
 216.65405 215.83714 214.93823 214.30533 213.75842 214.72443 217.02649 219.63222
 221.64864 223.48010 225.09685 226.07541 226.61932 226.82903 226.51300 225.54695
 225.20940 227.19350 231.21223 236.10385 240.84235 245.29347 249.51480 253.15489
 256.41953 259.43613 262.34180 265.04608 267.42429 269.42657 271.07010 272.52304
 274.00586 275.39670 276.65005 277.68915 278.82092 279.88333 280.88275 281.83301
 282.70291 283.47757 284.15430 285.01669
 366.78100 356.33751 345.77201 334.64052 323.04603 311.24253 299.11504 286.92055
 274.63505 262.53456 250.54607 239.84957 229.97408 221.08059 213.26509 206.26960
 200.10611 195.04662 191.63112 189.67563 188.71514 188.78164 189.61915 190.92966
 192.65716 194.75467 197.02018 199.38168 201.82919 204.31170 206.40220 208.24671
 209.87522 211.02272 211.25423 211.48474 211.42424 211.13175 210.76726 210.39976
 210.01927 209.73178 209.54228 209.40879 209.33930 209.67280 210.06131 210.45282
 211.24832 212.42883 213.68134 215.46685 217.39735 219.44286 221.54037 223.62587
 225.68838 227.77489 229.87439 231.98290 234.11441 236.28891 238.54742 240.91993
 243.54343 245.79694 247.80145 249.56895 250.98846 252.11397 252.93847 253.25698
 253.29649 253.07299 252.43550 251.38601 249.99451 248.15802 246.06953 243.90503
 241.69854 239.50505 237.32755 235.16906 233.03157 230.90108 228.92958 227.08909
 225.37460 223.84910 222.48161 221.25612 220.14062 219.10313 218.20964 217.35314
 216.59765 215.78016 214.88066 214.24717 213.69968 214.70110 217.09142 219.64542
 221.54471 223.42162 225.15776 226.05070 226.55966 226.78177 226.45541 225.61400
 225.19466 227.19847 231.24316 236.11624 240.87476 245.21776 249.45229 253.12399
 256.39075 259.43317 262.34485 265.05356 267.44119 269.43140 271.03641 272.48471
 273.90775 275.27664 276.49353 277.62054 278.75415 279.82867 280.85733 281.91940
 282.88806 283.75064 284.50418 285.46451
 366.78100 356.33728 345.77157 334.63985 323.04513 311.24141 299.11370 286.91898
 274.63326 262.53254 250.54383 239.84711 229.97139 221.07768 213.26196 206.26624
 200.10252 195.04281 191.62709 189.67137 188.71066 188.77694 189.61422 190.92450
 192.65179 194.74907 197.01435 199.37563 201.82292 204.30520 206.39548 208.23977
 209.86805 211.01533 211.24661 211.47690 211.41618 211.12346 210.75875 210.39103
 210.01031 209.72259 209.53288 209.39916 209.32944 209.66272 210.05101 210.44229
 211.23757 212.41786 213.67014 215.45542 217.38570 219.43099 221.52827 223.61355
 225.67583 227.76212 229.86140 231.96968 234.10097 236.27525 238.53353 240.90581
 243.52910 245.78238 247.78666 249.55395 250.97323 252.09851 252.92279 253.24108
 253.28036 253.05664 252.41892 251.36921 249.97749 248.14077 246.05206 243.88734
 241.68062 239.48690 237.30919 235.15047 233.01275 230.88204 228.91032 227.06960
 225.35488 223.82917 222.46145 221.23573 220.12001 219.08230 218.18858 217.33186
 216.57615 215.75843 214.85871 214.22499 213.67728 214.69421 217.12453 219.67416
 221.45290 223.39186 225.20639 225.95752 226.46878 226.76579 226.43559 225.58873
 225.24986 227.23141 231.27626 236.10866 240.88438 245.23396 249.39545 253.09668
 256.37091 259.42517 262.33514 265.04752 267.45312 269.46011 271.05392 272.51218
 273.89618 275.24582 276.46988 277.59888 278.72534 279.80115 280.85046 281.91702
 282.87628 283.73050 284.47675 285.42773
 366.78100 356.33864 345.77428 334.64392 323.05056 311.24820 299.12184 286.92849
 274.64413 262.54477 250.55741 239.86205 229.98769 221.09533 213.28097 206.28661
 200.12425 195.06589 191.65153 189.69718 188.73782 188.80546 189.64410 190.95574
 192.68438 194.78302 197.04966 199.41230 201.86094 204.34458 206.43622 208.28186
 209.91151 211.06015 211.29279 211.52443 211.46507 211.17371 210.81035 210.44399
 210.06463 209.77827 209.58991 209.45755 209.38920 209.72384 210.11348 210.50612
 211.30276 212.48440 213.73804 215.52468 217.45632 219.50296 221.60160 223.68824
 225.75188 227.83953 229.94017 232.04981 234.18245 236.35809 238.61773 240.99137
 243.61601 245.87065 247.87629 249.64493 251.06557 252.19222 253.01786 253.33750
 253.37814 253.15578 252.51942 251.47106 250.08070 248.24534 246.15798 243.99462
 241.78926 239.59690 237.42055 235.26319 233.12683 230.99747 229.02711 227.18775
 225.47439 223.95003 222.58367 221.35931 220.24495 219.20859 218.31624 217.46088
 216.70652 215.89016 214.99180 214.35944 213.81308 214.76962 217.04591 219.67616
 221.63649 223.38763 225.14342 225.92043 226.36929 226.61478 226.44075 225.59680
 225.37566 227.40941 231.32631 236.09248 240.88623 245.22153 249.40388 253.15977
 256.40875 259.41974 262.27881 264.94611 267.36121 269.43896 271.13907 272.62271
 274.01004 275.37424 276.60028 277.75888 278.92184 279.98618 280.96451 281.87433
 282.73380 283.49915 284.16776 285.01981
 366.78100 356.33889 345.77478 334.64467 323.05157 311.24946 299.12335 286.93024
 274.64613 262.54702 250.55992 239.86481 229.99070 221.09859 213.28448 206.29037
 200.12826 195.07016 191.65605 189.70194 188.74283 188.81072 189.64961 190.96150
 192.69040 194.78929 197.05618 199.41907 201.86796 204.35185 206.44375 208.28964
 209.91953 211.06842 211.30131 211.53320 211.47409 211.18299 210.81988 210.45377
 210.07466 209.78855 209.60044 209.46833 209.40023 209.73512 210.12501 210.51790
 211.31479 212.49668 213.75058 215.53747 217.46936 219.51625 221.61514 223.70203
 225.76592 227.85382 229.95471 232.06460 234.19749 236.37338 238.63327 241.00716
 243.63206 245.88695 247.89284 249.66173 251.08262 252.20951 253.03541 253.35530
 253.39619 253.17408 252.53797 251.48986 250.09975 248.26465 246.17754 244.01443
 241.80932 239.61721 237.44110 235.28399 233.14789 231.01878 229.04867 227.20956
 225.49645 223.97234 222.60624 221.38213 220.26802 219.23191 218.33980 217.48469
 216.73058 215.91448 215.01637 214.38426 213.83815 214.79620 217.06644 219.55791
 221.80739 223.48860 224.90651 225.84048 226.39401 226.58859 226.24843 225.67857
 225.60680 227.45943 231.35303 236.07529 240.87584 245.29657 249.41049 253.17497
 256.44812 259.47369 262.30502 264.87927 267.22540 269.33054 271.12543 272.65356
 274.07077 275.44717 276.71259 277.89642 279.08139 280.15466 281.13715 282.03839
 282.94003 283.76288 284.48172 285.39780
 366.78100 356.33906 345.77512 334.64518 323.05224 311.25030 299.12435 286.93141
 274.64747 262.54853 250.56159 239.86665 229.99271 221.10077 213.28683 206.29289
 200.13094 195.07300 191.65906 189.70512 188.74618 188.81424 189.65330 190.96536
 192.69442 194.79348 197.06054 199.42359 201.87265 204.35671 206.44877 208.29483
 209.92489 211.07395 211.30701 211.53907 211.48013 211.18918 210.82624 210.46030
 210.08136 209.79542 209.60748 209.47554 209.40760 209.74266 210.13272 210.52577
 211.32283 212.50489 213.75895 215.54601 217.47807 219.52513 221.62419 223.71125
 225.77531 227.86337 229.96442 232.07448 234.20754 236.38360 238.64366 241.01772
 243.64278 245.89784 247.90390 249.67296 251.09401 252.22107 253.04713 253.36719
 253.40825 253.18631 252.55037 251.50243 250.11249 248.27755 246.19061 244.02766
 241.82272 239.63078 237.45484 235.29790 233.16196 231.03302 229.06308 227.22414
 225.51120 223.98725 222.62131 221.39737 220.28343 219.24749 218.35555 217.50061
 216.74667 215.93073 215.03279 214.40085 213.85490 214.81995 217.12120 219.51930
 221.73798 223.43800 224.70779 225.75519 226.41515 226.62956 226.10780 225.78368
 225.66252 227.27916 231.32382 236.06848 240.86009 245.33852 249.43355 253.16948
 256.49841 259.55823 262.37683 264.90668 267.17346 269.22928 271.03229 272.60574
 274.07840 275.47653 276.71680 278.05905 279.26501 280.36047 281.38202 282.42664
 283.37003 284.21014 284.94403 285.87930
 366.78100 356.33951 345.77602 334.64653 323.05404 311.25256 299.12707 286.93458
 274.65109 262.55260 250.56611 239.87162 229.99813 221.10665 213.29316 206.29967
 200.13818 195.08069 191.66720 189.71371 188.75522 188.82373 189.66325 190.97576
 192.70527 194.80478 197.07229 199.43580 201.88531 204.36982 206.46233 208.30885
 209.93936 211.08887 211.32238 211.55489 211.49640 211.20591 210.84342 210.47794
 210.09945 209.81396 209.62647 209.49498 209.42749 209.76300 210.15351 210.54702
 211.34454 212.52705 213.78156 215.56907 217.50158 219.54909 221.64860 223.73611
 225.80062 227.88914 229.99065 232.10116 234.23467 236.41118 238.67169 241.04620
 243.67171 245.92723 247.93374 249.70325 251.12476 252.25227 253.07878 253.39929
 253.44080 253.21931 252.58383 251.53634 250.14685 248.31236 246.22587 244.06338
 241.85889 239.66740 237.49192 235.33543 233.19994 231.07145 229.10196 227.26347
 225.55098 224.02749 222.66200 221.43852 220.32503 219.28954 218.39805 217.54356
 216.79007 215.97458 215.07709 214.44560 213.90012 214.85133 217.13147 219.55948
 221.61104 223.34605 224.68829 225.69569 226.30986 226.56657 226.06624 225.88304
 225.59094 227.25131 231.40498 236.10307 240.87415 245.36272 249.46765 253.19762
 256.55154 259.61920 262.42899 264.93707 267.16571 269.18527 270.99368 272.59204
 274.08487 275.48624 276.85233 278.22598 279.44757 280.56851 281.68466 282.73755
 283.68451 284.52780 285.26447 286.20328
 366.78100 356.33976 345.77653 334.64729 323.05506 311.25382 299.12858 286.93635
 274.65311 262.55487 250.56864 239.87440 230.00117 221.10993 213.29669 206.30346
 200.14222 195.08499 191.67175 189.71851 188.76028 188.82904 189.66880 190.98157
 192.71133 194.81110 197.07886 199.44262 201.89239 204.37715 206.46992 208.31668
 209.94744 211.09721 211.33097 211.56373 211.50550 211.21526 210.85303 210.48779
 210.10955 209.82432 209.63708 209.50585 209.43861 209.77437 210.16514 210.55890
 211.35666 212.53943 213.79419 215.58196 217.51472 219.56248 221.66225 223.75001
 225.81478 227.90354 230.00530 232.11607 234.24983 236.42659 238.68736 241.06212
 243.68789 245.94365 247.95041 249.72018 251.14194 252.26971 253.09647 253.41723
 253.45900 253.23776 252.60252 251.55529 250.16605 248.33182 246.24558 244.08334
 241.87911 239.68787 237.51264 235.35640 233.22116 231.09293 229.12369 227.28545
 225.57322 224.04998 222.68475 221.46151 220.34827 219.31304 218.42180 217.56757
 216.81433 215.99909 215.10186 214.47062 213.92538 214.86855 217.13153 219.59422
 221.55841 223.28757 224.73668 225.69748 226.12901 226.33990 226.11668 225.81389
 225.44650 227.40233 231.49356 236.14516 240.89661 245.39247 249.51274 253.25165
 256.62076 259.68372 262.46954 264.94617 267.15143 269.14395 270.93021 272.53094
 274.04834 275.48053 276.92572 278.30426 279.52652 280.64621 281.74731 282.78275
 283.71402 284.54330 285.26776 286.19101
 366.78100 356.34020 345.77740 334.64860 323.05680 311.25600 299.13120 286.93940
 274.65660 262.55880 250.57299 239.87919 230.00639 221.11559 213.30279 206.30999
 200.14919 195.09239 191.67959 189.72679 188.76899 188.83819 189.67839 190.99159
 192.72179 194.82199 197.09019 199.45439 201.90459 204.38979 206.48298 208.33018
 209.96138 211.11158 211.34578 211.57898 211.52118 211.23138 210.86958 210.50478
 210.12698 209.84218 209.65538 209.52458 209.45778 209.79398 210.18518 210.57938
 211.37758 212.56077 213.81597 215.60417 217.53737 219.58557 221.68577 223.77397
 225.83917 227.92837 230.03057 232.14177 234.27597 236.45317 238.71437 241.08957
 243.71577 245.97197 247.97917 249.74937 251.17156 252.29976 253.12696 253.44816
 253.49036 253.26956 252.63476 251.58796 250.19916 248.36536 246.27956 244.11776
 241.91396 239.72316 237.54836 235.39256 233.25776 231.12996 229.16116 227.32336
 225.61155 224.08875 222.72395 221.50115 220.38835 219.35355 218.46275 217.60895
 216.85615 216.04135 215.14455 214.51375 213.96895 214.89687 217.12895 219.62166
 221.51738 223.25056 224.80846 225.64111 225.97588 226.09642 226.10042 225.69716
 225.43985 227.59981 231.58820 236.18935 240.92424 245.42799 249.56396 253.32034
 256.70776 259.76538 262.52173 264.96313 267.15268 269.14450 270.91296 272.49753
 274.01669 275.46753 276.92972 278.30899 279.53632 280.66528 281.73380 282.70938
 283.58685 284.36823 285.05081 285.92072
 366.78100 356.34118 345.77935 334.65153 323.06070 311.26088 299.13705 286.94623
 274.66441 262.56758 250.58276 239.88993 230.01811 221.12828 213.31646 206.32464
 200.16481 195.10899 191.69716 189.74534 188.78851 188.85869 189.69987 191.01404
 192.74522 194.84639 197.11557 199.48075 201.93192 204.41810 206.51227 208.36045
 209.99262 211.14380 211.37898 211.61315 211.55633 211.26750 210.90668 210.54285
 210.16603 209.88221 209.69638 209.56656 209.50073 209.83791 210.23008 210.62526
 211.42444 212.60861 213.86479 215.65396 217.58814 219.63731 221.73849 223.82767
 225.89384 227.98402 230.08719 232.19937 234.33454 236.51272 238.77490 241.15107
 243.77825 246.03542 248.04360 249.81477 251.23795 252.36713 253.19530 253.51748
 253.56065 253.34083 252.70700 251.66118 250.27336 248.44053 246.35571 244.19488
 241.99206 239.80224 237.62841 235.47359 233.33976 231.21294 229.24511 227.40829
 225.69747 224.17564 222.81182 221.58999 220.47817 219.44434 218.55452 217.70170
 216.94987 216.13605 215.24022 214.61040 214.06657 214.95117 217.07567 219.67366
 221.53760 223.22690 224.78023 225.51541 225.85173 225.87895 226.00745 225.51735
 225.57605 227.64357 231.68506 236.23805 240.97049 245.48720 249.63686 253.41110
 256.80994 259.84479 262.54227 264.94366 267.13016 269.15536 270.95834 272.56186
 274.07825 275.50430 276.90085 278.26743 279.48450 280.57736 281.58255 282.53894
 283.39911 284.16507 284.83423 285.68695
 366.78100 356.34196 345.78093 334.65389 323.06385 311.26482 299.14178 286.95174
 274.67071 262.57467 250.59064 239.89860 230.02756 221.13853 213.32749 206.33645
 200.17742 195.12238 191.71134 189.76031 188.80427 188.87523 189.71720 191.03216
 192.76413 194.86609 197.13605 199.50202 201.95398 204.44094 206.53591 208.38487
 210.01783 211.16980 211.40576 211.64072 211.58469 211.29665 210.93661 210.57358
 210.19754 209.91451 209.72947 209.60043 209.53540 209.87336 210.26632 210.66229
 211.46225 212.64721 213.90418 215.69414 217.62910 219.67907 221.78103 223.87100
 225.93796 228.02892 230.13289 232.24585 234.38181 236.56078 238.82374 241.20070
 243.82867 246.08663 248.09559 249.86756 251.29152 252.42149 253.25045 253.57341
 253.61738 253.39834 252.76530 251.72027 250.33323 248.50119 246.41716 244.25712
 242.05508 239.86605 237.69301 235.53897 233.40594 231.27990 229.31287 227.47683
 225.76679 224.24576 222.88272 221.66168 220.55065 219.51761 218.62857 217.77654
 217.02550 216.21246 215.31743 214.68839 214.14536 214.99730 217.03056 219.68979
 221.61740 223.27899 224.69099 225.39160 225.72447 225.69218 225.80254 225.37425
 225.78378 227.84668 231.78641 236.31630 241.04285 245.56122 249.71881 253.51566
 256.92572 259.94540 262.58926 264.92337 267.07089 269.09415 270.93292 272.57892
 274.11545 275.56522 276.86411 278.17529 279.37701 280.44772 281.41257 282.33002
 283.18195 283.94058 284.60333 285.44791
 366.78100 356.34188 345.78075 334.65363 323.06350 311.26438 299.14125 286.95113
 274.67001 262.57388 250.58976 239.89763 230.02651 221.13738 213.32626 206.33513
 200.17601 195.12089 191.70976 189.75864 188.80251 188.87339 189.71526 191.03014
 192.76202 194.86389 197.13377 199.49964 201.95152 204.43839 206.53327 208.38215
 210.01502 211.16690 211.40277 211.63765 211.58152 211.29340 210.93328 210.57015
 210.19403 209.91090 209.72578 209.59665 209.53153 209.86940 210.26228 210.65816
 211.45803 212.64291 213.89978 215.68966 217.62453 219.67441 221.77629 223.86616
 225.93304 228.02391 230.12779 232.24066 234.37654 236.55542 238.81829 241.19517
 243.82304 246.08092 248.08979 249.86167 251.28554 252.41542 253.24430 253.56717
 253.61105 253.39192 252.75880 251.71367 250.32655 248.49443 246.41030 244.25018
 242.04805 239.85893 237.68580 235.53168 233.39856 231.27243 229.30531 227.46918
 225.75906 224.23793 222.87481 221.65369 220.54256 219.50944 218.62031 217.76819
 217.01706 216.20394 215.30881 214.67969 214.13657 215.00165 217.06645 219.64384
 221.62086 223.29646 224.58237 225.25676 225.62962 225.51350 225.51506 225.30319
 225.89276 228.00919 231.87553 236.42604 241.14301 245.64906 249.80019 253.60490
 257.02356 260.03287 262.65225 264.94586 267.04764 269.04391 270.87521 272.53815
 274.11221 275.57632 276.84732 278.10718 279.30621 280.37732 281.34515 282.27271
 283.12833 283.89026 284.55588 285.40411
 366.78100 356.34110 345.77920 334.65131 323.06041 311.26051 299.13661 286.94572
 274.66382 262.56692 250.58202 239.88913 230.01723 221.12733 213.31543 206.32354
 200.16364 195.10774 191.69584 189.74395 188.78705 188.85715 189.69825 191.01236
 192.74346 194.84456 197.11366 199.47877 201.92987 204.41597 206.51007 208.35818
 209.99028 211.14138 211.37648 211.61059 211.55369 211.26479 210.90389 210.54000
 210.16310 209.87920 209.69330 209.56341 209.49751 209.83461 210.22671 210.62182
 211.42092 212.60502 213.86112 215.65023 217.58433 219.63343 221.73453 223.82364
 225.88974 227.97984 230.08294 232.19505 234.33015 236.50825 238.77035 241.14646
 243.77356 246.03066 248.03876 249.80987 251.23297 252.36207 253.19017 253.51228
 253.55538 253.33548 252.70158 251.65569 250.26779 248.43489 246.34999 244.18910
 241.98620 239.79630 237.62240 235.46751 233.33361 231.20671 229.23881 227.40192
 225.69102 224.16912 222.80522 221.58333 220.47143 219.43753 218.54763 217.69474
 216.94284 216.12894 215.23304 214.60315 214.05925 214.97217 217.15656 219.56958
 221.59267 223.22092 224.45535 225.19365 225.53021 225.33281 225.20850 225.19035
 225.94737 228.14165 232.00130 236.54980 241.25768 245.75313 249.89359 253.69095
 257.10648 260.10272 262.70468 264.98361 267.06299 269.03778 270.85324 272.52576
 274.09821 275.56067 276.84384 278.12576 279.33240 280.42404 281.42596 282.37634
 283.23111 283.99228 284.65723 285.50461
 366.78100 356.34105 345.77910 334.65115 323.06020 311.26025 299.13630 286.94534
 274.66339 262.56644 250.58149 239.88854 230.01659 221.12664 213.31469 206.32274
 200.16279 195.10684 191.69489 189.74294 188.78598 188.85603 189.69708 191.01113
 192.74218 194.84323 197.11228 199.47733 201.92838 204.41443 206.50848 208.35653
 209.98858 211.13963 211.37467 211.60872 211.55177 211.26282 210.90187 210.53792
 210.16097 209.87702 209.69107 209.56112 209.49517 209.83222 210.22427 210.61931
 211.41836 212.60241 213.85846 215.64751 217.58156 219.63061 221.73166 223.82071
 225.88676 227.97681 230.07986 232.19191 234.32695 236.50500 238.76705 241.14310
 243.77015 246.02720 248.03525 249.80630 251.22935 252.35840 253.18645 253.50850
 253.55155 253.33159 252.69764 251.65169 250.26374 248.43079 246.34584 244.18489
 241.98194 239.79199 237.61804 235.46309 233.32914 231.20219 229.23424 227.39728
 225.68633 224.16438 222.80043 221.57848 220.46653 219.43258 218.54263 217.68968
 216.93773 216.12378 215.22783 214.59788 214.05392 214.97758 217.19516 219.55165
 221.55528 223.18237 224.43742 225.15445 225.34729 225.15042 224.95755 224.96591
 226.07718 228.33615 232.15108 236.68622 241.38419 245.86746 250.00121 253.78802
 257.19089 260.16690 262.75198 265.02087 267.10226 269.07733 270.88577 272.53714
 274.09235 275.53830 276.83084 278.19864 279.42145 280.54593 281.60226 282.56027
 283.42191 284.18921 284.85950 285.71368
 366.78100 356.34158 345.78016 334.65274 323.06232 311.26290 299.13948 286.94906
 274.66763 262.57121 250.58679 239.89437 230.02295 221.13353 213.32211 206.33069
 200.17127 195.11585 191.70443 189.75301 188.79659 188.86717 189.70875 191.02332
 192.75490 194.85648 197.12606 199.49164 201.94322 204.42980 206.52438 208.37296
 210.00554 211.15712 211.39270 211.62728 211.57086 211.28244 210.92201 210.55859
 210.18217 209.89875 209.71333 209.58391 209.51849 209.85607 210.24865 210.64423
 211.44381 212.62839 213.88497 215.67455 217.60913 219.65870 221.76028 223.84986
 225.91644 228.00702 230.11060 232.22318 234.35876 236.53734 238.79992 241.17650
 243.80408 246.06166 248.07024 249.84182 251.26539 252.39497 253.22355 253.54613
 253.58971 253.37029 252.73687 251.69145 250.30403 248.47161 246.38719 244.22677
 242.02435 239.83493 237.66151 235.50708 233.37366 231.24724 229.27982 227.44340
 225.73298 224.21156 222.84814 221.62672 220.51530 219.48188 218.59246 217.74004
 216.98862 216.17520 215.27977 214.65035 214.10693 215.00867 217.17607 219.57928
 221.52029 223.12714 224.39955 225.07190 225.14197 224.92935 224.76540 224.70105
 226.11848 228.46388 232.29462 236.83131 241.52156 245.99100 250.11549 253.89745
 257.28259 260.22968 262.78772 265.05154 267.14536 269.13596 270.94626 272.58676
 274.11438 275.53540 276.87903 278.24759 279.46567 280.59018 281.65607 282.62643
 283.49921 284.27640 284.95532 285.82056
 366.78100 356.34225 345.78151 334.65476 323.06501 311.26627 299.14352 286.95377
 274.67303 262.57728 250.59353 239.90178 230.03104 221.14229 213.33154 206.34080
 200.18205 195.12730 191.71656 189.76581 188.81006 188.88132 189.72357 191.03882
 192.77108 194.87333 197.14358 199.50984 201.96209 204.44934 206.54459 208.39385
 210.02710 211.17935 211.41561 211.65086 211.59511 211.30737 210.94762 210.58487
 210.20913 209.92638 209.74163 209.61289 209.54814 209.88639 210.27965 210.67590
 211.47615 212.66141 213.91866 215.70891 217.64416 219.69442 221.79667 223.88692
 225.95418 228.04543 230.14968 232.26294 234.39919 236.57844 238.84170 241.21895
 243.84720 246.10546 248.11471 249.88696 251.31122 252.44147 253.27072 253.59397
 253.63823 253.41948 252.78673 251.74199 250.35524 248.52349 246.43975 244.28000
 242.07825 239.88951 237.71676 235.56301 233.43027 231.30452 229.33777 227.50203
 225.79228 224.27153 222.90878 221.68804 220.57729 219.54454 218.65580 217.80405
 217.05330 216.24056 215.34581 214.71706 214.17432 215.04707 217.14323 219.60690
 221.53712 223.05000 224.29573 225.00456 224.98369 224.63959 224.55721 224.50397
 226.11667 228.58768 232.45090 237.00185 241.68152 246.12372 250.22182 253.99518
 257.37186 260.30374 262.84363 265.10071 267.19708 269.18024 270.97998 272.60577
 274.11649 275.51083 276.87531 278.24017 279.45474 280.55896 281.60046 282.55722
 283.41772 284.18402 284.85342 285.70648
 366.78100 356.34336 345.78372 334.65808 323.06943 311.27179 299.15015 286.96151
 274.68187 262.58723 250.60459 239.91394 230.04430 221.15666 213.34702 206.35738
 200.19974 195.14609 191.73645 189.78681 188.83217 188.90453 189.74789 191.06425
 192.79760 194.90096 197.17232 199.53968 201.99304 204.48140 206.57776 208.42811
 210.06247 211.21583 211.45319 211.68955 211.63491 211.34826 210.98962 210.62798
 210.25334 209.97170 209.78806 209.66042 209.59677 209.93613 210.33049 210.72785
 211.52921 212.71557 213.97393 215.76528 217.70164 219.75300 221.85636 223.94772
 226.01608 228.10844 230.21379 232.32815 234.46551 236.64587 238.91023 241.28859
 243.91794 246.17730 248.18766 249.96102 251.38638 252.51774 253.34810 253.67245
 253.71781 253.50017 252.86853 251.82489 250.43925 248.60861 246.52596 244.36732
 242.16668 239.97904 237.80740 235.65476 233.52311 231.39847 229.43283 227.59819
 225.88955 224.36991 223.00827 221.78862 220.67898 219.64734 218.75970 217.90906
 217.15942 216.34778 215.45413 214.82649 214.28485 215.10873 217.09917 219.64479
 221.54622 222.92506 224.19725 225.00743 224.83502 224.34041 224.27573 224.35985
 226.13042 228.74255 232.64513 237.19958 241.85120 246.26038 250.32635 254.07855
 257.44553 260.37729 262.92575 265.19348 267.27649 269.23380 271.00226 272.59879
 274.08179 275.45798 276.84293 278.21710 279.43417 280.54764 281.60443 282.57327
 283.44467 284.22064 284.89853 285.76239
 366.78100 356.34371 345.78442 334.65912 323.07083 311.27354 299.15225 286.96396
 274.68467 262.59037 250.60808 239.91779 230.04850 221.16121 213.35192 206.36262
 200.20533 195.15204 191.74275 189.79346 188.83916 188.91187 189.75558 191.07229
 192.80600 194.90971 197.18141 199.54912 202.00283 204.49154 206.58825 208.43896
 210.07366 211.22737 211.46508 211.70179 211.64750 211.36120 211.00291 210.64162
 210.26733 209.98604 209.80275 209.67545 209.61216 209.95187 210.34658 210.74429
 211.54600 212.73270 213.99141 215.78312 217.71983 219.77154 221.87525 223.96695
 226.03566 228.12837 230.23408 232.34879 234.48649 236.66720 238.93191 241.31062
 243.94033 246.20004 248.21074 249.98445 251.41016 252.54187 253.37258 253.69729
 253.74299 253.52570 252.89441 251.85112 250.46583 248.63553 246.55324 244.39495
 242.19466 240.00737 237.83608 235.68378 233.55249 231.42820 229.46291 227.62862
 225.92033 224.40103 223.03974 221.82045 220.71116 219.67987 218.79257 217.94228
 217.19299 216.38170 215.48841 214.86112 214.31982 215.13734 217.13271 219.60713
 221.59314 222.96559 224.20776 224.93277 224.66727 224.11487 223.97401 224.33656
 226.14146 228.89697 232.85245 237.41872 242.03448 246.41869 250.45236 254.17694
 257.51773 260.43201 262.99286 265.31750 267.42627 269.33206 271.02481 272.55826
 274.01419 275.37497 276.84842 278.24066 279.49274 280.68445 281.79309 282.79742
 283.70071 284.50510 285.20779 286.10330
 366.78100 356.34277 345.78253 334.65630 323.06706 311.26883 299.14660 286.95736
 274.67713 262.58190 250.59866 239.90743 230.03719 221.14896 213.33873 206.34849
 200.19026 195.13602 191.72579 189.77556 188.82032 188.89209 189.73486 191.05062
 192.78339 194.88615 197.15692 199.52369 201.97645 204.46422 206.55998 208.40975
 210.04352 211.19628 211.43305 211.66882 211.61358 211.32635 210.96711 210.60488
 210.22965 209.94741 209.76318 209.63495 209.57071 209.90948 210.30324 210.70001
 211.50078 212.68654 213.94431 215.73507 217.67084 219.72161 221.82437 223.91514
 225.98291 228.07467 230.17944 232.29320 234.42997 236.60974 238.87350 241.25127
 243.88003 246.13880 248.14857 249.92133 251.34610 252.47687 253.30663 253.63040
 253.67516 253.45693 252.82470 251.78046 250.39423 248.56299 246.47976 244.32053
 242.11929 239.93106 237.75883 235.60559 233.47336 231.34812 229.38189 227.54666
 225.83742 224.31719 222.95495 221.73472 220.62449 219.59225 218.70402 217.85279
 217.10255 216.29032 215.39608 214.76785 214.22562 215.10695 217.25450 219.50761
 221.62273 223.13290 224.29675 224.69716 224.45772 223.99266 223.74576 224.33859
 225.98390 229.01251 233.09915 237.63828 242.23004 246.58778 250.57295 254.29836
 257.60925 260.47760 263.03317 265.42645 267.62903 269.56207 271.16455 272.57455
 273.93427 275.42117 276.99658 278.48346 279.89981 281.15295 282.29623 283.33197
 284.26349 285.09302 285.81769 286.74118
 366.78100 356.34237 345.78173 334.65510 323.06547 311.26683 299.14420 286.95457
 274.67393 262.57830 250.59467 239.90303 230.03240 221.14377 213.33313 206.34250
 200.18387 195.12923 191.71860 189.76797 188.81233 188.88370 189.72607 191.04143
 192.77380 194.87617 197.14653 199.51290 201.96527 204.45263 206.54800 208.39737
 210.03073 211.18310 211.41947 211.65483 211.59920 211.31157 210.95193 210.58930
 210.21367 209.93103 209.74640 209.61777 209.55313 209.89150 210.28487 210.68123
 211.48160 212.66697 213.92433 215.71470 217.65007 219.70043 221.80280 223.89317
 225.96053 228.05190 230.15627 232.26963 234.40600 236.58537 238.84873 241.22610
 243.85447 246.11283 248.12220 249.89457 251.31893 252.44930 253.27867 253.60203
 253.64640 253.42777 252.79514 251.75050 250.36387 248.53224 246.44860 244.28897
 242.08734 239.89870 237.72607 235.57244 233.43980 231.31417 229.34754 227.51190
 225.80227 224.28164 222.91900 221.69837 220.58774 219.55510 218.66647 217.81484
 217.06420 216.25157 215.35694 214.72830 214.18567 215.09888 217.31615 219.47845
 221.58144 223.24059 224.30061 224.47282 224.24567 223.78099 223.53137 224.24388
 225.86797 229.11469 233.31897 237.86858 242.43542 246.75417 250.71443 254.39908
 257.68579 260.54163 263.08243 265.48703 267.79669 269.87033 271.52899 272.82431
 274.01929 275.62341 277.24670 278.92133 280.44174 281.78696 283.01422 284.12607
 285.12604 286.01651 286.79443 287.78577
 366.78100 356.34321 345.78343 334.65764 323.06885 311.27106 299.14928 286.96049
 274.68070 262.58592 250.60313 239.91234 230.04255 221.15477 213.34498 206.35519
 200.19740 195.14362 191.73383 189.78404 188.82926 188.90147 189.74468 191.06089
 192.79411 194.89732 197.16853 199.53575 201.98896 204.47717 206.57338 208.42360
 210.05781 211.21102 211.44823 211.68445 211.62966 211.34287 210.98409 210.62230
 210.24751 209.96572 209.78194 209.65415 209.59036 209.92958 210.32379 210.72100
 211.52221 212.70843 213.96664 215.75785 217.69407 219.74528 221.84849 223.93970
 226.00792 228.10013 230.20534 232.31955 234.45677 236.63698 238.90119 241.27941
 243.90862 246.16783 248.17804 249.95126 251.37647 252.50768 253.33790 253.66211
 253.70732 253.48953 252.85775 251.81396 250.42817 248.59738 246.51460 244.35581
 242.15502 239.96724 237.79545 235.64266 233.51087 231.38609 229.42030 227.58551
 225.87673 224.35694 222.99515 221.77536 220.66558 219.63379 218.74600 217.89521
 217.14543 216.33364 215.43985 214.81207 214.27028 215.14537 217.29477 219.51607
 221.50993 223.25415 224.25925 224.30263 224.02473 223.49591 223.31065 224.16139
 225.84619 229.21135 233.51353 238.09167 242.64636 246.92828 250.85541 254.50449
 257.76379 260.61990 263.17767 265.57892 267.89316 270.03445 271.80701 273.13184
 274.25290 275.82730 277.47525 279.18896 280.70386 282.04413 283.26694 284.37469
 285.37103 286.25824 287.03333 288.02106
 366.78100 356.34405 345.78511 334.66016 323.07222 311.27527 299.15433 286.96638
 274.68744 262.59349 250.61155 239.92160 230.05266 221.16571 213.35677 206.36782
 200.21088 195.15793 191.74899 189.80004 188.84610 188.91915 189.76320 191.08026
 192.81431 194.91837 197.19042 199.55848 202.01253 204.50159 206.59864 208.44970
 210.08475 211.23881 211.47686 211.71392 211.65997 211.37403 211.01608 210.65514
 210.28119 210.00025 209.81730 209.69036 209.62741 209.96746 210.36252 210.76057
 211.56263 212.74968 214.00874 215.80079 217.73785 219.78990 221.89396 223.98601
 226.05507 228.14812 230.25418 232.36923 234.50729 236.68834 238.95340 241.33245
 243.96251 246.22256 248.23361 250.00767 251.43372 252.56578 253.39683 253.72189
 253.76794 253.55100 252.92005 251.87711 250.49216 248.66222 246.58027 244.42233
 242.22238 240.03544 237.86449 235.71255 233.58160 231.45766 229.49271 227.65876
 225.95082 224.43187 223.07093 221.85198 220.74304 219.71209 218.82515 217.97520
 217.22626 216.41531 215.52237 214.89542 214.35448 215.18901 217.25935 219.55739
 221.42966 223.22960 224.18680 224.12901 223.80315 223.27051 223.05591 224.01569
 225.81090 229.31184 233.70822 238.30836 242.84801 247.10596 251.00185 254.62764
 257.86743 260.71280 263.28693 265.70734 268.00092 270.10556 271.91785 273.30814
 274.35907 276.01395 277.62402 279.21936 280.64166 281.90005 283.04813 284.08820
 285.02362 285.85666 286.58435 287.51172
 366.78100 356.34396 345.78492 334.65987 323.07183 311.27479 299.15375 286.96570
 274.68666 262.59262 250.61058 239.92053 230.05149 221.16445 213.35541 206.36636
 200.20932 195.15628 191.74724 189.79819 188.84415 188.91711 189.76107 191.07802
 192.81198 194.91594 197.18790 199.55585 202.00981 204.49877 206.59573 208.44668
 210.08164 211.23560 211.47356 211.71051 211.65647 211.37043 211.01239 210.65135
 210.27730 209.99626 209.81322 209.68618 209.62313 209.96309 210.35805 210.75601
 211.55796 212.74492 214.00388 215.79584 217.73279 219.78475 221.88871 223.98067
 226.04962 228.14258 230.24854 232.36350 234.50145 236.68241 238.94737 241.32633
 243.95628 246.21624 248.22720 250.00116 251.42711 252.55907 253.39003 253.71499
 253.76095 253.54390 252.91286 251.86982 250.48478 248.65473 246.57269 244.41465
 242.21461 240.02756 237.85652 235.70448 233.57344 231.44939 229.48435 227.65031
 225.94227 224.42322 223.06218 221.84314 220.73410 219.70305 218.81601 217.96597
 217.21693 216.40588 215.51284 214.88580 214.34476 215.18259 217.23366 219.59320
 221.34647 223.04559 224.07845 223.96678 223.56223 223.03394 222.78714 223.82893
 225.71558 229.38919 233.88744 238.49988 243.00768 247.24309 251.14056 254.76198
 258.00305 260.84155 263.42227 265.86603 268.16550 270.21927 271.91156 273.30154
 274.57629 275.94464 277.49786 278.91394 280.22556 281.44922 282.56561 283.57700
 284.48663 285.29666 286.00430 286.90610
 366.78100 356.34389 345.78478 334.65966 323.07155 311.27444 299.15333 286.96522
 274.68611 262.59199 250.60988 239.91977 230.05066 221.16355 213.35444 206.36532
 200.20821 195.15510 191.74599 189.79688 188.84277 188.91565 189.75954 191.07643
 192.81032 194.91421 197.18610 199.55398 202.00787 204.49676 206.59365 208.44454
 210.07943 211.23331 211.47120 211.70809 211.65398 211.36787 211.00976 210.64864
 210.27453 209.99342 209.81031 209.68320 209.62009 209.95997 210.35486 210.75275
 211.55464 212.74153 214.00041 215.79230 217.72919 219.78108 221.88497 223.97686
 226.04574 228.13863 230.24452 232.35941 234.49730 236.67819 238.94307 241.32196
 243.95185 246.21174 248.22263 249.99652 251.42240 252.55429 253.38518 253.71007
 253.75596 253.53885 252.90773 251.86462 250.47951 248.64940 246.56729 244.40918
 242.20906 240.02195 237.85084 235.69873 233.56762 231.44351 229.47839 227.64428
 225.93617 224.41706 223.05595 221.83683 220.72772 219.69661 218.80950 217.95939
 217.21028 216.39916 215.50605 214.87894 214.33783 215.17676 217.19287 219.64543
 221.36436 222.69360 223.94765 223.91159 223.31973 222.66023 222.47087 223.55771
 225.56627 229.48227 234.09561 238.68982 243.17558 247.39505 251.26640 254.86163
 258.09177 260.94769 263.55722 266.02090 268.34158 270.44125 272.14990 273.43979
 274.55176 275.74451 277.11710 278.47012 279.67203 280.76260 281.81271 282.79156
 283.67194 284.45587 285.14075 286.01352
 366.78100 356.34365 345.78430 334.65895 323.07060 311.27325 299.15190 286.96355
 274.68419 262.58984 250.60749 239.91714 230.04779 221.16044 213.35109 206.36174
 200.20439 195.15104 191.74169 189.79234 188.83799 188.91064 189.75429 191.07093
 192.80458 194.90823 197.17988 199.54753 202.00118 204.48983 206.58648 208.43713
 210.07178 211.22543 211.46308 211.69973 211.64538 211.35903 211.00068 210.63932
 210.26497 209.98362 209.80027 209.67292 209.60957 209.94922 210.34387 210.74152
 211.54317 212.72982 213.98847 215.78012 217.71677 219.76842 221.87206 223.96371
 226.03236 228.12501 230.23066 232.34531 234.48296 236.66361 238.92826 241.30691
 243.93656 246.19621 248.20686 249.98051 251.40616 252.53780 253.36845 253.69310
 253.73875 253.52140 252.89005 251.84670 250.46135 248.63100 246.54865 244.39030
 242.18995 240.00260 237.83125 235.67890 233.54754 231.42319 229.45784 227.62349
 225.91514 224.39579 223.03444 221.81509 220.70574 219.67439 218.78704 217.93669
 217.18734 216.37599 215.48264 214.85528 214.31393 215.16768 217.19200 219.62401
 221.51550 222.74483 223.82164 223.77399 223.09430 222.36360 222.22269 223.47316
 225.65701 229.63431 234.31258 238.88222 243.36099 247.56870 251.40585 254.99089
 258.21658 261.06784 263.69388 266.17212 268.49673 270.58392 272.32336 273.68341
 274.76883 275.83444 276.92676 278.02737 279.16342 280.22037 281.21326 282.12210
 282.96536 283.71631 284.37228 285.20828
 366.78100 356.34335 345.78371 334.65806 323.06941 311.27177 299.15012 286.96147
 274.68182 262.58718 250.60453 239.91388 230.04424 221.15659 213.34694 206.35730
 200.19965 195.14600 191.73635 189.78671 188.83206 188.90441 189.74777 191.06412
 192.79747 194.90083 197.17218 199.53953 201.99288 204.48124 206.57759 208.42794
 210.06230 211.21565 211.45300 211.68936 211.63471 211.34806 210.98941 210.62777
 210.25312 209.97147 209.78783 209.66018 209.59653 209.93589 210.33024 210.72759
 211.52894 212.71530 213.97365 215.76500 217.70136 219.75271 221.85606 223.94742
 226.01577 228.10812 230.21348 232.32783 234.46518 236.64553 238.90989 241.28824
 243.91759 246.17695 248.18730 249.96065 251.38601 252.51736 253.34771 253.67206
 253.71742 253.49977 252.86812 251.82448 250.43883 248.60818 246.52554 244.36689
 242.16624 239.97859 237.80695 235.65430 233.52265 231.39801 229.43236 227.59771
 225.88907 224.36942 223.00777 221.78812 220.67848 219.64683 218.75918 217.90854
 217.15889 216.34724 215.45360 214.82595 214.28430 215.15616 217.21600 219.58263
 221.58569 222.83902 223.71883 223.56403 222.87941 222.11270 222.00688 223.32985
 225.73943 229.78484 234.49719 239.07913 243.52617 247.71574 251.54439 255.14668
 258.36749 261.21594 263.84741 266.33527 268.65921 270.72638 272.43460 273.78662
 274.91867 275.97546 277.00970 278.02881 278.97696 279.86807 280.74738 281.61203
 282.39975 283.15341 283.82178 284.67355
 366.78100 356.34317 345.78334 334.65751 323.06868 311.27085 299.14902 286.96019
 274.68035 262.58552 250.60269 239.91186 230.04203 221.15420 213.34437 206.35454
 200.19671 195.14288 191.73305 189.78322 188.82839 188.90056 189.74372 191.05989
 192.79306 194.89623 197.16740 199.53457 201.98774 204.47591 206.57208 208.42225
 210.05642 211.20959 211.44676 211.68293 211.62809 211.34126 210.98243 210.62060
 210.24577 209.96394 209.78011 209.65228 209.58845 209.92762 210.32179 210.71896
 211.52013 212.70630 213.96447 215.75563 217.69180 219.74297 221.84614 223.93731
 226.00548 228.09765 230.20282 232.31699 234.45416 236.63433 238.89850 241.27667
 243.90584 246.16500 248.17517 249.94834 251.37351 252.50468 253.33485 253.65902
 253.70419 253.48636 252.85453 251.81070 250.42487 248.59404 246.51121 244.35237
 242.15154 239.96371 237.79188 235.63905 233.50722 231.38239 229.41656 227.58173
 225.87290 224.35307 222.99124 221.77141 220.66158 219.62975 218.74191 217.89108
 217.14125 216.32942 215.43559 214.80776 214.26593 215.15025 217.23958 219.55342
 221.61842 222.91374 223.62625 223.37576 222.65408 221.82927 221.78844 223.20409
 225.77032 229.91237 234.66074 239.29659 243.70490 247.84882 251.67377 255.26654
 258.49350 261.36749 264.01117 266.50952 268.82343 270.88504 272.57303 273.88309
 274.98730 276.02826 277.03561 278.08224 279.04440 279.87674 280.64963 281.33118
 281.89899 282.59329 283.24060 284.09808
 366.78100 356.34317 345.78333 334.65750 323.06866 311.27083 299.14899 286.96016
 274.68033 262.58549 250.60266 239.91182 230.04199 221.15415 213.34432 206.35448
 200.19665 195.14282 191.73298 189.78315 188.82831 188.90048 189.74364 191.05981
 192.79298 194.89614 197.16731 199.53447 201.98764 204.47580 206.57197 208.42213
 210.05630 211.20947 211.44663 211.68280 211.62796 211.34113 210.98229 210.62046
 210.24563 209.96379 209.77996 209.65212 209.58829 209.92745 210.32162 210.71879
 211.51995 212.70612 213.96428 215.75545 217.69161 219.74278 221.84594 223.93711
 226.00528 228.09744 230.20261 232.31677 234.45394 236.63410 238.89827 241.27644
 243.90560 246.16477 248.17493 249.94810 251.37326 252.50443 253.33459 253.65876
 253.70393 253.48609 252.85426 251.81042 250.42459 248.59375 246.51092 244.35209
 242.15125 239.96342 237.79158 235.63875 233.50691 231.38208 229.41625 227.58141
 225.87258 224.35274 222.99091 221.77107 220.66124 219.62940 218.74157 217.89074
 217.14090 216.32907 215.43523 214.80740 214.26556 215.15538 217.25769 219.52969
 221.61186 222.93262 223.55458 223.23241 222.41418 221.51123 221.52527 223.09267
 225.79504 230.02658 234.81595 239.51884 243.91478 247.99092 251.79878 255.38785
 258.61862 261.51251 264.16876 266.67230 268.97388 271.01437 272.69940 274.01697
 275.09888 276.12048 277.10046 278.14832 279.10706 279.94510 280.70782 281.35007
 281.70377 282.36984 282.98389 283.82574
 366.78100 356.34343 345.78386 334.65829 323.06972 311.27215 299.15058 286.96201
 274.68245 262.58788 250.60531 239.91474 230.04517 221.15760 213.34803 206.35846
 200.20089 195.14732 191.73775 189.78818 188.83361 188.90604 189.74948 191.06591
 192.79934 194.90277 197.17420 199.54163 201.99506 204.48349 206.57992 208.43035
 210.06478 211.21821 211.45564 211.69207 211.63750 211.35094 210.99237 210.63080
 210.25623 209.97466 209.79109 209.66352 209.59995 209.93938 210.33381 210.73124
 211.53267 212.71910 213.97753 215.76896 217.70540 219.75683 221.86026 223.95169
 226.02012 228.11255 230.21798 232.33241 234.46984 236.65027 238.91470 241.29313
 243.92256 246.18199 248.19243 249.96586 251.39129 252.52272 253.35315 253.67758
 253.72301 253.50544 252.87387 251.83030 250.44473 248.61416 246.53159 244.37302
 242.17245 239.98489 237.81332 235.66075 233.52918 231.40461 229.43904 227.60447
 225.89590 224.37633 223.01476 221.79519 220.68562 219.65405 218.76648 217.91592
 217.16635 216.35478 215.46121 214.83364 214.29207 215.17419 217.25832 219.52448
 221.57372 222.91914 223.50734 223.11615 222.17052 221.18983 221.22711 222.96681
 225.82860 230.14122 234.97058 239.71922 244.15410 248.13432 251.91489 255.51244
 258.75223 261.65921 264.32645 266.83066 269.11829 271.13898 272.82355 274.15884
 275.23663 276.23355 277.21692 278.25616 279.20563 280.05499 280.85144 281.46228
 281.76089 282.36987 282.98071 283.80664
 366.78100 356.34403 345.78506 334.66009 323.07212 311.27515 299.15418 286.96621
 274.68725 262.59328 250.61131 239.92134 230.05237 221.16540 213.35643 206.36746
 200.21049 195.15752 191.74855 189.79958 188.84561 188.91864 189.76267 191.07971
 192.81374 194.91777 197.18980 199.55783 202.01186 204.50089 206.59792 208.44895
 210.08398 211.23801 211.47604 211.71307 211.65910 211.37313 211.01517 210.65420
 210.28023 209.99926 209.81629 209.68932 209.62635 209.96638 210.36141 210.75944
 211.56147 212.74850 214.00753 215.79956 217.73659 219.78863 221.89266 223.98469
 226.05372 228.14675 230.25278 232.36781 234.50584 236.68687 238.95190 241.33093
 243.96096 246.22099 248.23202 250.00605 251.43208 252.56412 253.39515 253.72018
 253.76621 253.54924 252.91827 251.87530 250.49033 248.66036 246.57839 244.42042
 242.22045 240.03348 237.86251 235.71054 233.57958 231.45561 229.49064 227.65667
 225.94870 224.42973 223.06876 221.84979 220.74082 219.70985 218.82288 217.97291
 217.22394 216.41297 215.52000 214.89304 214.35207 215.21068 217.23923 219.54282
 221.52348 222.88225 223.49399 223.00945 221.92824 220.85471 220.91534 222.85287
 225.88039 230.26537 235.13257 239.89662 244.36060 248.32396 252.01585 255.62540
 258.88220 261.80356 264.47891 266.98050 269.25623 271.25946 272.95547 274.31351
 275.39017 276.37659 277.35898 278.38306 279.31818 280.17581 280.98767 281.63486
 282.09836 282.61795 283.21909 284.01602
 366.78100 356.34455 345.78609 334.66164 323.07419 311.27773 299.15728 286.96982
 274.69137 262.59792 250.61646 239.92701 230.05856 221.17210 213.36365 206.37520
 200.21874 195.16629 191.75784 189.80938 188.85593 188.92947 189.77402 191.09157
 192.82611 194.93066 197.20321 199.57175 202.02630 204.51585 206.61339 208.46494
 210.10049 211.25503 211.49358 211.73112 211.67767 211.39222 211.03476 210.67431
 210.30086 210.02040 209.83795 209.71150 209.64904 209.98959 210.38513 210.78368
 211.58623 212.77377 214.03332 215.82587 217.76341 219.81596 221.92051 224.01305
 226.08260 228.17615 230.28269 232.39824 234.53678 236.71833 238.98388 241.36342
 243.99397 246.25452 248.26606 250.04061 251.46716 252.59970 253.43125 253.75679
 253.80334 253.58689 252.95643 251.91398 250.52953 248.70007 246.61862 244.46117
 242.26171 240.07526 237.90481 235.75335 233.62290 231.49944 229.53499 227.70154
 225.99408 224.47563 223.11518 221.89672 220.78827 219.75782 218.87136 218.02191
 217.27346 216.46300 215.57055 214.94409 214.40364 215.24356 217.22794 219.54608
 221.49913 222.81415 223.45453 222.98169 221.71587 220.48244 220.55408 222.78894
 225.96873 230.38634 235.29517 240.07625 244.53258 248.53804 252.14796 255.71370
 258.98499 261.93976 264.62155 267.12079 269.38834 271.38290 273.06668 274.44574
 275.55847 276.54532 277.53625 278.54654 279.46756 280.30426 281.05829 281.79422
 282.37601 282.85303 283.44455 284.23099
 366.78100 356.34466 345.78633 334.66199 323.07466 311.27832 299.15798 286.97065
 274.69231 262.59898 250.61764 239.92830 230.05997 221.17363 213.36529 206.37696
 200.22062 195.16829 191.75995 189.81161 188.85828 188.93194 189.77661 191.09427
 192.82893 194.93360 197.20626 199.57493 202.02959 204.51925 206.61692 208.46858
 210.10424 211.25891 211.49757 211.73524 211.68190 211.39656 211.03923 210.67889
 210.30556 210.02522 209.84288 209.71655 209.65421 209.99488 210.39054 210.78920
 211.59187 212.77953 214.03920 215.83186 217.76952 219.82219 221.92685 224.01951
 226.08918 228.18284 230.28951 232.40517 234.54383 236.72550 238.99116 241.37083
 244.00149 246.26215 248.27382 250.04848 251.47515 252.60781 253.43947 253.76514
 253.81180 253.59546 252.96513 251.92279 250.53846 248.70912 246.62778 244.47045
 242.27111 240.08478 237.91444 235.76310 233.63277 231.50943 229.54510 227.71176
 226.00442 224.48609 223.12575 221.90741 220.79908 219.76874 218.88241 218.03307
 217.28473 216.47440 215.58206 214.95573 214.41539 215.25507 217.23886 219.52003
 221.49135 222.77634 223.33351 222.93391 221.68608 220.03473 220.18533 222.74188
 226.01996 230.50137 235.46417 240.26180 244.70584 248.73225 252.33607 255.79947
 259.10568 262.05844 264.73892 267.23816 269.50305 271.48520 273.17294 274.58731
 275.72711 276.72369 277.69031 278.69513 279.63803 280.47989 281.22614 281.99811
 282.64551 283.16937 283.66824 284.43835
 366.78100 356.34475 345.78651 334.66226 323.07501 311.27876 299.15852 286.97127
 274.69302 262.59978 250.61853 239.92928 230.06103 221.17479 213.36654 206.37829
 200.22205 195.16980 191.76155 189.81330 188.86006 188.93381 189.77856 191.09632
 192.83107 194.93582 197.20857 199.57733 202.03208 204.52183 206.61959 208.47134
 210.10709 211.26184 211.50060 211.73835 211.68510 211.39986 211.04261 210.68236
 210.30911 210.02887 209.84662 209.72037 209.65813 209.99888 210.39463 210.79338
 211.59614 212.78389 214.04364 215.83640 217.77415 219.82690 221.93165 224.02441
 226.09416 228.18791 230.29467 232.41042 234.54917 236.73092 238.99668 241.37643
 244.00718 246.26794 248.27969 250.05444 251.48119 252.61395 253.44570 253.77145
 253.81821 253.60196 252.97171 251.92946 250.54522 248.71597 246.63472 244.47748
 242.27823 240.09198 237.92173 235.77049 233.64024 231.51699 229.55275 227.71950
 226.01225 224.49400 223.13376 221.91551 220.80726 219.77702 218.89077 218.04152
 217.29327 216.48303 215.59078 214.96453 214.42429 215.26347 217.24614 219.50281
 221.46536 222.76398 223.22464 222.77699 221.59396 219.76556 219.86780 222.57764
 226.04686 230.63731 235.62090 240.42336 244.84634 248.87556 252.54323 255.94081
 259.19778 262.17871 264.86197 267.36508 269.63211 271.58957 273.28748 274.70145
 275.82941 276.80045 277.78455 278.84409 279.82657 280.67276 281.39200 282.20602
 282.98648 283.69833 284.31662 285.12732
 366.78100 356.34500 345.78701 334.66301 323.07602 311.28002 299.16003 286.97303
 274.69504 262.60204 250.62105 239.93205 230.06406 221.17806 213.37006 206.38207
 200.22607 195.17408 191.76608 189.81809 188.86509 188.93910 189.78410 191.10211
 192.83711 194.94212 197.21512 199.58412 202.03913 204.52913 206.62714 208.47914
 210.11515 211.27015 211.50916 211.74716 211.69417 211.40917 211.05218 210.69218
 210.31919 210.03919 209.85719 209.73120 209.66920 210.01021 210.40621 210.80522
 211.60822 212.79623 214.05623 215.84924 217.78724 219.84025 221.94525 224.03825
 226.10826 228.20226 230.30927 232.42527 234.56428 236.74628 239.01229 241.39229
 244.02330 246.28430 248.29631 250.07131 251.49831 252.63132 253.46332 253.78933
 253.83633 253.62034 252.99034 251.94835 250.56435 248.73536 246.65436 244.49737
 242.29837 240.11237 237.94238 235.79138 233.66139 231.53839 229.57440 227.74140
 226.03441 224.51641 223.15642 221.93842 220.83043 219.80043 218.91444 218.06544
 217.31744 216.50745 215.61545 214.98946 214.44946 215.27928 217.23982 219.49983
 221.43501 222.73727 223.14558 222.60593 221.41704 219.53261 219.57590 222.41371
 226.08105 230.77426 235.77075 240.58008 244.99144 249.04411 252.75215 256.13257
 259.30389 262.26791 264.95828 267.46152 269.73077 271.69156 273.38147 274.79233
 275.88992 276.76227 277.90549 278.99472 280.00879 280.85571 281.56500 282.35895
 283.11578 283.81592 284.37344 285.01779
 366.78100 356.34522 345.78743 334.66365 323.07686 311.28108 299.16129 286.97451
 274.69673 262.60394 250.62316 239.93437 230.06659 221.18080 213.37302 206.38523
 200.22945 195.17767 191.76988 189.82210 188.86931 188.94353 189.78874 191.10696
 192.84218 194.94739 197.22061 199.58982 202.04504 204.53525 206.63347 208.48569
 210.12190 211.27712 211.51633 211.75455 211.70176 211.41698 211.06020 210.70041
 210.32763 210.04784 209.86606 209.74027 209.67849 210.01970 210.41592 210.81514
 211.61835 212.80657 214.06678 215.86000 217.79821 219.85143 221.95665 224.04986
 226.12008 228.21429 230.32151 232.43772 234.57694 236.75916 239.02537 241.40559
 244.03680 246.29802 248.31023 250.08545 251.51266 252.64588 253.47810 253.80431
 253.85153 253.63574 253.00596 251.96417 250.58039 248.75161 246.67082 244.51404
 242.31525 240.12947 237.95968 235.80890 233.67912 231.55633 229.59255 227.75976
 226.05298 224.53519 223.17541 221.95762 220.84984 219.82006 218.93427 218.08549
 217.33770 216.52792 215.63613 215.01035 214.47057 215.29410 217.23982 219.48444
 221.41536 222.71278 223.05412 222.44969 221.20682 219.28633 219.29012 222.25681
 226.12447 230.91159 235.91190 240.72514 245.13649 249.22304 252.99486 256.38852
 259.44174 262.34573 265.04053 267.54028 269.78616 271.72983 273.40884 274.84033
 275.98267 276.89182 278.06171 279.11053 280.15115 281.00177 281.73584 282.56967
 283.35611 284.08206 284.72592 285.56320
 366.78100 356.34530 345.78760 334.66391 323.07721 311.28151 299.16181 286.97511
 274.69742 262.60472 250.62402 239.93532 230.06762 221.18193 213.37423 206.38653
 200.23083 195.17913 191.77144 189.82374 188.87104 188.94534 189.79064 191.10895
 192.84425 194.94955 197.22285 199.59215 202.04746 204.53776 206.63606 208.48836
 210.12466 211.27997 211.51927 211.75757 211.70487 211.42017 211.06348 210.70378
 210.33108 210.05138 209.86968 209.74399 209.68229 210.02359 210.41989 210.81920
 211.62250 212.81080 214.07110 215.86440 217.80271 219.85601 221.96131 224.05461
 226.12491 228.21922 230.32652 232.44282 234.58212 236.76442 239.03073 241.41103
 244.04233 246.30363 248.31593 250.09124 251.51854 252.65184 253.48414 253.81044
 253.85775 253.64205 253.01235 251.97065 250.58695 248.75826 246.67756 244.52086
 242.32216 240.13646 237.96677 235.81607 233.68637 231.56367 229.59997 227.76728
 226.06058 224.54288 223.18318 221.96548 220.85779 219.82809 218.94239 218.09369
 217.34599 216.53630 215.64460 215.01890 214.47920 215.30066 217.24147 219.46822
 221.38374 222.69905 222.97734 222.26894 220.95120 219.04546 219.04527 222.13873
 226.18198 231.04665 236.04955 240.86720 245.29178 249.41092 253.22734 256.65720
 259.66113 262.44458 265.08694 267.56058 269.79321 271.71469 273.37088 274.84308
 276.05597 276.97403 278.18369 279.15546 280.11444 280.98120 281.69821 282.53311
 283.31952 284.04358 284.69717 285.55319
 366.78100 356.34536 345.78773 334.66409 323.07745 311.28181 299.16218 286.97554
 274.69790 262.60526 250.62463 239.93599 230.06835 221.18272 213.37508 206.38744
 200.23180 195.18017 191.77253 189.82489 188.87226 188.94662 189.79198 191.11034
 192.84571 194.95107 197.22443 199.59379 202.04916 204.53952 206.63788 208.49025
 210.12661 211.28197 211.52133 211.75970 211.70706 211.42242 211.06578 210.70615
 210.33351 210.05387 209.87224 209.74660 209.68496 210.02632 210.42269 210.82205
 211.62541 212.81377 214.07414 215.86750 217.80586 219.85923 221.96459 224.05795
 226.12831 228.22268 230.33004 232.44640 234.58577 236.76813 239.03449 241.41485
 244.04622 246.30758 248.31994 250.09530 251.52267 252.65603 253.48839 253.81476
 253.86212 253.64648 253.01684 251.97521 250.59157 248.76293 246.68229 244.52566
 242.32702 240.14138 237.97175 235.82111 233.69147 231.56883 229.60520 227.77256
 226.06592 224.54828 223.18865 221.97101 220.86337 219.83374 218.94810 218.09946
 217.35182 216.54219 215.65055 215.02491 214.48528 215.30339 217.23631 219.46614
 221.33864 222.66920 222.93182 222.08443 220.65733 218.79082 218.84068 222.06131
 226.26292 231.19908 236.20813 241.02029 245.43520 249.57256 253.41888 256.88943
 259.88141 262.57849 265.13068 267.55945 269.74353 271.64575 273.31775 274.79831
 276.03790 277.07553 278.17447 279.21634 280.03558 280.80295 281.51044 282.22247
 282.86777 283.43430 283.89377 284.37537
 354.97500 345.04800 334.58700 324.11500 313.32600 302.53700 291.65000 280.76700
 269.93100 259.19300 248.62200 238.61700 229.08700 220.35500 212.54000 205.53500
 199.46400 194.49300 191.14300 189.19000 188.08900 188.01400 188.72400 189.90600
 191.46900 193.38200 195.40300 197.55600 199.80700 202.06000 204.28800 206.47900
 208.55200 210.37800 212.02500 213.65900 214.99800 216.11800 217.17200 218.25900
 219.49400 220.64500 221.67900 222.61400 223.54500 224.98200 226.57100 228.19000
 229.79700 231.81100 233.86500 235.97200 238.24200 240.55300 242.89900 245.25300
 247.48800 249.53500 251.36600 252.84800 254.09800 255.16700 256.02700 256.25300
 256.09500 255.54300 253.93500 252.56600 251.38400 250.24500 249.05200 247.70100
 246.01600 243.99600 241.78400 239.39300 236.81300 234.22300 231.65800 229.14400
 226.74000 224.47300 222.33500 220.32500 218.44000 216.67700 214.96200 213.47200
 212.20000 211.10800 210.26000 209.63900 209.24400 209.03100 209.05800 209.33300
 209.78400 210.62600 211.33100 212.39100 213.62500 214.84668 217.72949 219.47640
 220.32566 220.86828 220.88710 220.27371 219.43733 218.84250 219.04934 220.86203
 222.60583 225.72206 229.03064 232.61777 236.12270 239.51333 242.70767 245.68587
 248.41061 250.90679 253.19353 254.91714 256.48655 257.94920 259.39966 260.69384
 261.81714 262.77997 263.71679 264.54570 265.26305 265.89772 266.47676 267.00133
 267.47312 267.89325 268.26027 268.72800
