|-------------------------------------------------------------------------|
|   File Name : in_temp.dat
|   Subject   : temperature profiles used for initial guess atmosphere
|   File Type : input of gmtr
|   Data Type : atmospherical data
|   Author/s  : WRF-Chem
|   Date      : Fri Jul 26 15:39:24 2024
|-------------------------------------------------------------------------|

 WRF-Chem temperature
#
 values of T (K)    (8f10.5)
#
 354.97500 345.04800 334.58700 324.11500 313.32600 302.53700 291.65000 280.76700
 269.93100 259.19300 248.62200 238.61700 229.08700 220.35500 212.54000 205.53500
 199.46400 194.49300 191.14300 189.19000 188.08900 188.01400 188.72400 189.90600
 191.46900 193.38200 195.40300 197.55600 199.80700 202.06000 204.28800 206.47900
 208.55200 210.37800 212.02500 213.65900 214.99800 216.11800 217.17200 218.25900
 219.49400 220.64500 221.67900 222.61400 223.54500 224.98200 226.57100 228.19000
 229.79700 231.81100 233.86500 235.97200 238.24200 240.55300 242.89900 245.25300
 247.48800 249.53500 251.36600 252.84800 254.09800 255.16700 256.02700 256.25300
 256.09500 255.54300 253.93500 252.56600 251.38400 250.24500 249.05200 247.70100
 246.01600 243.99600 241.78400 239.39300 236.81300 234.22300 231.65800 229.14400
 226.74000 224.47300 222.33500 220.32500 218.44000 216.67700 214.96200 213.47200
 212.20000 211.10800 210.26000 209.63900 209.24400 209.03100 209.05800 209.33300
 209.78400 210.62600 211.33100 212.39100 213.62500 214.84668 217.72949 219.47640
 220.32566 220.86828 220.88710 220.27371 219.43733 218.84250 219.04934 220.86203
 222.60583 225.72206 229.03064 232.61777 236.12270 239.51333 242.70767 245.68587
 248.41061 250.90679 253.19353 254.91714 256.48655 257.94920 259.39966 260.69384
 261.81714 262.77997 263.71679 264.54570 265.26305 265.89772 266.47676 267.00133
 267.47312 267.89325 268.26027 268.72800
 366.78100 356.33500 345.76700 334.63300 323.03600 311.23000 299.10000 286.90300
 274.61500 262.51200 250.52100 239.82200 229.94400 221.04800 213.23000 206.23200
 200.06600 195.00400 191.58600 189.62800 188.66500 188.72900 189.56400 190.87200
 192.59700 194.69200 196.95500 199.31400 201.75900 204.23900 206.32700 208.16900
 209.79500 210.94000 211.16900 211.39700 211.33400 211.03900 210.67200 210.30200
 209.91900 209.62900 209.43700 209.30100 209.22900 209.56000 209.94600 210.33500
 211.12800 212.30600 213.55600 215.33900 217.26700 219.31000 221.40500 223.48800
 225.54800 227.63200 229.72900 231.83500 233.96400 236.13600 238.39200 240.76200
 243.38300 245.63400 247.63600 249.40100 250.81800 251.94100 252.76300 253.07900
 253.11600 252.89000 252.25000 251.19800 249.80400 247.96500 245.87400 243.70700
 241.49800 239.30200 237.12200 234.96100 232.82100 230.68800 228.71400 226.87100
 225.15400 223.62600 222.25600 221.02800 219.91000 218.87000 217.97400 217.11500
 216.35700 215.53700 214.63500 213.99900 213.44900 212.85855 212.01316 212.61654
 214.26826 216.08686 218.14273 220.53346 223.40855 226.78828 231.49734 235.90155
 239.42278 243.28576 247.23140 251.11907 254.80144 258.23331 261.38913 264.27520
 266.89312 269.26852 271.44504 273.08845 274.58484 275.98591 277.39845 278.65879
 279.75272 280.69038 281.56708 282.34086 283.01050 283.60295 284.14348 284.63317
 285.07358 285.46577 285.80838 286.24500
 381.81900 372.39900 361.20600 349.77600 337.62200 324.85300 311.81000 298.35300
 284.86000 271.32400 258.56100 246.30400 236.08700 226.79600 218.44800 211.29000
 205.52200 200.89400 197.38100 194.84800 193.01500 192.31500 192.25000 192.43100
 192.91200 193.53700 194.13600 194.71200 195.26200 195.83100 196.39300 196.97600
 197.60400 198.14900 198.58400 199.05700 199.69500 200.37800 201.05400 201.70800
 202.31300 202.85700 203.35500 203.86200 204.56900 205.29700 206.02600 206.98700
 208.19300 209.44100 210.96900 212.57600 214.46200 216.51300 218.63000 220.85300
 223.34100 225.96200 228.73900 231.69700 234.70600 237.70600 240.69200 243.65700
 246.73700 249.69900 252.52100 255.06300 257.29000 259.23300 260.63300 261.68000
 262.46100 262.79800 262.69100 262.22400 261.06900 259.52500 257.70700 255.50700
 253.00100 250.30200 247.39800 244.45200 241.65400 239.05400 236.73300 234.59000
 232.59500 230.72500 228.83400 226.82600 224.66600 222.38700 220.10400 217.71500
 215.45900 213.06600 210.54600 208.09300 205.35400 202.08130 196.05959 200.71215
 209.01611 216.90438 223.84126 229.78593 235.00632 240.20838 245.98943 250.68668
 254.32982 257.93487 261.55666 264.96801 268.15192 271.06452 273.76717 276.25691
 278.57680 280.74479 282.77456 284.60533 286.27232 287.81705 289.31715 290.65561
 291.81734 292.81312 293.70701 294.49387 295.17482 295.77730 296.32696 296.82492
 297.27278 297.67160 298.02000 298.46400
 399.33000 389.90700 379.81300 368.66800 357.52200 345.30100 333.07400 320.22700
 307.21600 293.84800 280.37600 267.29600 254.61000 242.98700 232.15100 221.97700
 212.67200 204.28600 197.66900 192.82100 189.48600 187.45200 186.81400 187.08900
 187.78100 189.05400 190.64800 192.54200 194.63000 196.75200 198.67100 200.15800
 201.53500 202.48700 202.97500 203.34000 203.53900 203.49700 203.38500 203.24700
 203.00500 202.78600 202.60300 202.43700 202.42600 202.88800 203.42000 203.95100
 204.89500 205.99200 207.30100 208.95800 210.73800 213.10000 215.56400 218.18000
 220.96600 223.91800 226.96100 230.09200 233.29300 236.55700 239.95500 243.53700
 246.84500 249.39000 251.54200 253.47400 255.19500 256.48400 257.43100 258.05900
 258.21200 258.04000 257.58200 256.64300 255.23900 253.50700 251.40800 249.05600
 246.57600 243.99400 241.38900 238.83000 236.34400 233.98600 231.96900 230.11800
 228.42300 226.89900 225.54800 224.29700 223.10500 221.96500 220.95800 220.11300
 219.49000 218.92000 218.32500 217.88100 217.42300 216.96366 216.35568 216.80261
 217.73415 218.28582 218.64258 219.10077 220.44626 222.53987 226.38451 230.35736
 233.59734 237.39164 241.29814 245.22796 248.98002 252.51130 255.78595 258.80109
 261.54781 264.05210 266.34239 268.04198 269.58951 271.01303 272.35754 273.55718
 274.59842 275.49092 276.28989 276.99307 277.60161 278.14001 278.63122 279.07623
 279.47646 279.83287 280.14422 280.54100
 399.73800 389.78500 379.66200 368.15100 356.64100 344.35000 331.79200 318.88800
 305.72600 292.49300 279.20900 266.73800 254.69600 244.21100 234.45700 225.43300
 217.56900 210.45100 204.30000 199.30600 195.45800 192.57600 191.02700 190.38600
 190.23900 190.53400 191.16600 191.92500 192.79500 193.76600 194.73200 195.31200
 195.80000 196.05200 196.11500 196.11500 196.03900 195.72300 195.34000 194.98900
 194.75100 194.79200 195.13300 195.59800 196.50600 198.13600 199.85800 201.56600
 204.17900 206.82300 209.89300 213.28400 216.82800 220.60500 224.38700 228.20900
 232.03200 235.82500 239.56000 243.25800 246.84500 250.20100 253.70900 257.46800
 261.53000 264.22100 266.60100 268.68100 270.32900 271.74100 272.83600 273.47400
 273.89800 274.00200 273.75700 273.28800 272.37100 271.10000 269.58900 267.77900
 265.81600 263.72100 261.39300 258.91600 256.29800 253.42300 250.33100 247.11400
 243.83700 240.52900 237.24900 233.99900 230.72800 227.51500 224.25400 220.95200
 217.62700 213.65600 210.12100 206.78900 204.01000 201.99491 199.07309 198.76551
 199.40006 200.48994 201.46112 202.31912 203.45100 204.96110 207.47502 210.85391
 213.70530 217.29629 220.99574 224.72316 228.28753 231.64854 234.68024 237.40893
 239.70644 241.60899 243.46854 245.67368 247.68154 249.52395 251.24767 252.78566
 254.12057 255.26479 256.23740 257.09036 257.82852 258.48160 259.07744 259.61723
 260.10271 260.53504 260.91270 261.39400
 399.73800 389.78500 379.66200 368.15100 356.64100 344.35000 331.79200 318.88800
 305.72600 292.49300 279.20900 266.73800 254.69600 244.21100 234.45700 225.43300
 217.56900 210.45100 204.30000 199.30600 195.45800 192.57600 191.02700 190.38600
 190.23900 190.53400 191.16600 191.92500 192.79500 193.76600 194.73200 195.31200
 195.80000 196.05200 196.11500 196.11500 196.03900 195.72300 195.34000 194.98900
 194.75100 194.79200 195.13300 195.59800 196.50600 198.13600 199.85800 201.56600
 204.17900 206.82300 209.89300 213.28400 216.82800 220.60500 224.38700 228.20900
 232.03200 235.82500 239.56000 243.25800 246.84500 250.20100 253.70900 257.46800
 261.53000 264.22100 266.60100 268.68100 270.32900 271.74100 272.83600 273.47400
 273.89800 274.00200 273.75700 273.28800 272.37100 271.10000 269.58900 267.77900
 265.81600 263.72100 261.39300 258.91600 256.29800 253.42300 250.33100 247.11400
 243.83700 240.52900 237.24900 233.99900 230.72800 227.51500 224.25400 220.95200
 217.62700 213.65600 210.12100 206.78900 204.01000 201.99491 199.07309 198.76551
 199.40006 200.48994 201.46112 202.31912 203.45100 204.96110 207.47502 210.85391
 213.70530 217.29629 220.99574 224.72316 228.28753 231.64854 234.68024 237.40893
 239.70644 241.60899 243.46854 245.67368 247.68154 249.52395 251.24767 252.78566
 254.12057 255.26479 256.23740 257.09036 257.82852 258.48160 259.07744 259.61723
 260.10271 260.53504 260.91270 261.39400
 399.33000 389.90700 379.81300 368.66800 357.52200 345.30100 333.07400 320.22700
 307.21600 293.84800 280.37600 267.29600 254.61000 242.98700 232.15100 221.97700
 212.67200 204.28600 197.66900 192.82100 189.48600 187.45200 186.81400 187.08900
 187.78100 189.05400 190.64800 192.54200 194.63000 196.75200 198.67100 200.15800
 201.53500 202.48700 202.97500 203.34000 203.53900 203.49700 203.38500 203.24700
 203.00500 202.78600 202.60300 202.43700 202.42600 202.88800 203.42000 203.95100
 204.89500 205.99200 207.30100 208.95800 210.73800 213.10000 215.56400 218.18000
 220.96600 223.91800 226.96100 230.09200 233.29300 236.55700 239.95500 243.53700
 246.84500 249.39000 251.54200 253.47400 255.19500 256.48400 257.43100 258.05900
 258.21200 258.04000 257.58200 256.64300 255.23900 253.50700 251.40800 249.05600
 246.57600 243.99400 241.38900 238.83000 236.34400 233.98600 231.96900 230.11800
 228.42300 226.89900 225.54800 224.29700 223.10500 221.96500 220.95800 220.11300
 219.49000 218.92000 218.32500 217.88100 217.42300 216.96366 216.35568 216.80261
 217.73415 218.28582 218.64258 219.10077 220.44626 222.53987 226.38451 230.35736
 233.59734 237.39164 241.29814 245.22796 248.98002 252.51130 255.78595 258.80109
 261.54781 264.05210 266.34239 268.04198 269.58951 271.01303 272.35754 273.55718
 274.59842 275.49092 276.28989 276.99307 277.60161 278.14001 278.63122 279.07623
 279.47646 279.83287 280.14422 280.54100
 381.81900 372.39900 361.20600 349.77600 337.62200 324.85300 311.81000 298.35300
 284.86000 271.32400 258.56100 246.30400 236.08700 226.79600 218.44800 211.29000
 205.52200 200.89400 197.38100 194.84800 193.01500 192.31500 192.25000 192.43100
 192.91200 193.53700 194.13600 194.71200 195.26200 195.83100 196.39300 196.97600
 197.60400 198.14900 198.58400 199.05700 199.69500 200.37800 201.05400 201.70800
 202.31300 202.85700 203.35500 203.86200 204.56900 205.29700 206.02600 206.98700
 208.19300 209.44100 210.96900 212.57600 214.46200 216.51300 218.63000 220.85300
 223.34100 225.96200 228.73900 231.69700 234.70600 237.70600 240.69200 243.65700
 246.73700 249.69900 252.52100 255.06300 257.29000 259.23300 260.63300 261.68000
 262.46100 262.79800 262.69100 262.22400 261.06900 259.52500 257.70700 255.50700
 253.00100 250.30200 247.39800 244.45200 241.65400 239.05400 236.73300 234.59000
 232.59500 230.72500 228.83400 226.82600 224.66600 222.38700 220.10400 217.71500
 215.45900 213.06600 210.54600 208.09300 205.35400 202.08130 196.05959 200.71215
 209.01611 216.90438 223.84126 229.78593 235.00632 240.20838 245.98943 250.68668
 254.32982 257.93487 261.55666 264.96801 268.15192 271.06452 273.76717 276.25691
 278.57680 280.74479 282.77456 284.60533 286.27232 287.81705 289.31715 290.65561
 291.81734 292.81312 293.70701 294.49387 295.17482 295.77730 296.32696 296.82492
 297.27278 297.67160 298.02000 298.46400
 366.78100 356.33683 345.77066 334.63849 323.04333 311.23916 299.11099 286.91582
 274.62965 262.52848 250.53931 239.84215 229.96598 221.07181 213.25564 206.25947
 200.09530 195.03513 191.61897 189.66280 188.70163 188.76746 189.60429 190.91412
 192.64095 194.73779 197.00262 199.36345 201.81028 204.29211 206.38194 208.22577
 209.85361 211.00044 211.23127 211.46110 211.39993 211.10676 210.74159 210.37343
 209.99226 209.70409 209.51392 209.37975 209.30958 209.64241 210.03024 210.42108
 211.21591 212.39574 213.64757 215.43240 217.36223 219.40706 221.50390 223.58873
 225.65056 227.73639 229.83522 231.94305 234.07388 236.24772 238.50555 240.87738
 243.50021 245.75304 247.75687 249.52370 250.94254 252.06737 252.89120 253.20903
 253.24786 253.02369 252.38552 251.33536 249.94319 248.10602 246.01685 243.85168
 241.64451 239.45034 237.27218 235.11301 232.97484 230.84367 228.87150 227.03033
 225.31516 223.78900 222.42083 221.19466 220.07849 219.04032 218.14615 217.28898
 216.53282 215.71465 214.81448 214.18031 213.63214 212.87044 211.07430 210.39230
 210.62379 212.09724 213.91333 216.00468 219.17065 223.69611 229.52710 234.69539
 238.60416 242.45772 246.34428 250.30016 254.22292 257.96555 260.79019 262.56027
 265.27756 268.10748 270.45291 272.24210 274.15292 276.11685 277.67084 279.20963
 280.90054 282.47931 283.94769 285.30365 286.48535 287.53259 288.48999 289.36185
 290.14883 290.85486 291.47717 292.30054
 366.78100 356.33716 345.77133 334.63949 323.04465 311.24081 299.11298 286.91814
 274.63230 262.53146 250.54263 239.84579 229.96995 221.07611 213.26028 206.26444
 200.10060 195.04076 191.62493 189.66909 188.70825 188.77441 189.61158 190.92174
 192.64890 194.74606 197.01123 199.37239 201.81955 204.30171 206.39188 208.23604
 209.86420 211.01136 211.24253 211.47269 211.41185 211.11901 210.75418 210.38634
 210.00550 209.71766 209.52783 209.39399 209.32415 209.65731 210.04548 210.43664
 211.23180 212.41196 213.66413 215.44929 217.37945 219.42461 221.52178 223.60694
 225.66910 227.75526 229.85443 231.96259 234.09375 236.26791 238.52608 240.89824
 243.52140 245.77456 247.77873 249.54589 250.96505 252.09021 252.91438 253.23254
 253.27170 253.04786 252.41003 251.36019 249.96835 248.13151 246.04268 243.87784
 241.67100 239.47716 237.29933 235.14049 233.00265 230.87181 228.89998 227.05914
 225.34430 223.81846 222.45063 221.22479 220.10895 219.07111 218.17728 217.32044
 216.56460 215.74677 214.84693 214.21309 213.66525 212.92157 211.16727 210.44794
 210.66737 212.18750 214.01527 216.04504 219.10605 223.62761 229.47906 234.63478
 238.52876 242.36758 246.24185 250.20242 254.15955 257.89703 260.70789 262.49081
 265.21628 268.05316 270.39984 272.16147 274.04346 276.00107 277.56564 279.10965
 280.80789 282.39078 283.84921 285.20477 286.38791 287.43515 288.39230 289.26468
 290.05249 290.75845 291.37900 292.21118
 366.78100 356.33728 345.77155 334.63983 323.04510 311.24138 299.11365 286.91893
 274.63320 262.53248 250.54375 239.84703 229.97131 221.07758 213.26186 206.26613
 200.10241 195.04268 191.62696 189.67123 188.71051 188.77678 189.61406 190.92434
 192.65161 194.74889 197.01416 199.37544 201.82271 204.30499 206.39526 208.23954
 209.86781 211.01509 211.24637 211.47664 211.41592 211.12319 210.75847 210.39074
 210.01002 209.72229 209.53257 209.39884 209.32912 209.66239 210.05067 210.44195
 211.23722 212.41750 213.66977 215.45505 217.38532 219.43060 221.52787 223.61315
 225.67542 227.76170 229.86098 231.96925 234.10053 236.27480 238.53308 240.90535
 243.52863 245.78190 247.78618 249.55345 250.97273 252.09801 252.92228 253.24056
 253.27983 253.05611 252.41838 251.36866 249.97693 248.14021 246.05148 243.88676
 241.68004 239.48631 237.30859 235.14986 233.01214 230.88141 228.90969 227.06896
 225.35424 223.82851 222.46079 221.23507 220.11934 219.08162 218.18789 217.33117
 216.57544 215.75772 214.85799 214.22427 213.67654 212.96011 211.26945 210.50114
 210.72339 212.26723 214.10475 216.09033 219.06706 223.55608 229.42540 234.56671
 238.44701 242.27351 246.13911 250.10643 254.10031 257.83005 260.62445 262.42322
 265.14987 267.99341 270.34387 272.08206 273.93652 275.88806 277.46240 279.01212
 280.71884 282.30441 283.75729 285.11218 286.29395 287.34161 288.30176 289.17242
 289.95938 290.66605 291.28928 292.11572
 366.78100 356.33744 345.77189 334.64033 323.04578 311.24222 299.11466 286.92011
 274.63455 262.53400 250.54544 239.84888 229.97333 221.07977 213.26422 206.26866
 200.10510 195.04555 191.62999 189.67444 188.71388 188.78033 189.61777 190.92821
 192.65566 194.75310 197.01855 199.37999 201.82743 204.30988 206.40032 208.24477
 209.87321 211.02065 211.25210 211.48254 211.42199 211.12943 210.76487 210.39732
 210.01676 209.72921 209.53965 209.40609 209.33654 209.66998 210.05843 210.44987
 211.24531 212.42576 213.67820 215.46365 217.39409 219.43953 221.53698 223.62242
 225.68487 227.77131 229.87075 231.97920 234.11064 236.28509 238.54353 240.91598
 243.53942 245.79286 247.79731 249.56475 250.98420 252.10964 252.93408 253.25253
 253.29197 253.06842 252.43086 251.38130 249.98975 248.15319 246.06464 243.90008
 241.69352 239.49997 237.32241 235.16386 233.02630 230.89574 228.92419 227.08363
 225.36908 223.84352 222.47596 221.25041 220.13485 219.09730 218.20374 217.34718
 216.59163 215.77407 214.87452 214.24096 213.69341 212.99979 211.36246 210.56870
 210.78841 212.32913 214.18336 216.14156 219.04985 223.49017 229.36890 234.49391
 238.36154 242.17732 246.03612 250.01167 254.04341 257.76343 260.53726 262.35254
 265.07736 267.92599 270.28171 272.00137 273.83328 275.77893 277.36627 278.92108
 280.63345 282.22049 283.66785 285.02322 286.20554 287.25403 288.21371 289.08334
 289.87433 290.57828 291.20291 292.03235
 366.78100 356.33766 345.77232 334.64098 323.04664 311.24330 299.11596 286.92162
 274.63628 262.53594 250.54760 239.85126 229.97592 221.08258 213.26724 206.27190
 200.10856 195.04922 191.63388 189.67854 188.71820 188.78486 189.62252 190.93318
 192.66084 194.75850 197.02416 199.38581 201.83347 204.31613 206.40679 208.25145
 209.88011 211.02777 211.25943 211.49009 211.42975 211.13741 210.77307 210.40573
 210.02539 209.73805 209.54871 209.41537 209.34603 209.67969 210.06835 210.46001
 211.25567 212.43633 213.68899 215.47465 217.40531 219.45097 221.54863 223.63429
 225.69695 227.78361 229.88327 231.99193 234.12359 236.29825 238.55691 240.92957
 243.55323 245.80689 247.81155 249.57921 250.99887 252.12453 252.94919 253.26785
 253.30751 253.08417 252.44683 251.39749 250.00615 248.16981 246.08147 243.91713
 241.71078 239.51744 237.34010 235.18176 233.04442 230.91408 228.94274 227.10240
 225.38806 223.86272 222.49538 221.27004 220.15470 219.11736 218.22402 217.36768
 216.61234 215.79500 214.89566 214.26232 213.71498 213.04047 211.44794 210.64897
 210.86026 212.38034 214.25365 216.19556 219.03716 223.43369 229.31229 234.41945
 238.27332 242.07922 245.93230 249.91812 253.98833 257.69565 260.44443 262.27945
 264.99829 267.85025 270.21225 271.91934 273.73373 275.67700 277.27737 278.83804
 280.55365 282.14191 283.58521 284.94049 286.12250 287.17169 288.12985 289.00037
 289.79044 290.49783 291.12299 291.95184
 366.78100 356.33784 345.77269 334.64153 323.04737 311.24422 299.11706 286.92291
 274.63775 262.53759 250.54944 239.85328 229.97812 221.08497 213.26981 206.27466
 200.11150 195.05234 191.63719 189.68203 188.72187 188.78872 189.62656 190.93740
 192.66525 194.76309 197.02894 199.39078 201.83862 204.32147 206.41231 208.25715
 209.88600 211.03384 211.26569 211.49653 211.43637 211.14422 210.78006 210.41290
 210.03275 209.74559 209.55643 209.42328 209.35412 209.68797 210.07681 210.46865
 211.26450 212.44534 213.69818 215.48403 217.41487 219.46071 221.55856 223.64440
 225.70725 227.79409 229.89393 232.00278 234.13462 236.30946 238.56831 240.94115
 243.56500 245.81884 247.82368 249.59153 251.01137 252.13721 252.96206 253.28090
 253.32074 253.09759 252.46043 251.41128 250.02012 248.18396 246.09581 243.93165
 241.72549 239.53234 237.35518 235.19703 233.05987 230.92971 228.95856 227.11840
 225.40424 223.87909 222.51193 221.28677 220.17162 219.13446 218.24131 217.38515
 216.62999 215.81284 214.91368 214.28052 213.73337 213.07826 211.53131 210.73808
 210.93460 212.42886 214.32129 216.25082 219.02180 223.38246 229.25537 234.34459
 238.18282 241.97858 245.82755 249.82693 253.93634 257.62723 260.34958 262.20471
 264.91422 267.76520 270.13403 271.83368 273.63818 275.58102 277.19617 278.76266
 280.47775 282.06958 283.50839 284.86227 286.04471 287.09421 288.05362 288.92422
 289.71378 290.42160 291.04602 291.87793
 366.78100 356.33792 345.77283 334.64175 323.04767 311.24459 299.11750 286.92342
 274.63834 262.53825 250.55017 239.85409 229.97900 221.08592 213.27084 206.27576
 200.11267 195.05359 191.63851 189.68342 188.72334 188.79026 189.62818 190.93909
 192.66701 194.76493 197.03084 199.39276 201.84068 204.32360 206.41451 208.25943
 209.88835 211.03626 211.26818 211.49910 211.43901 211.14693 210.78285 210.41577
 210.03568 209.74860 209.55952 209.42643 209.35735 209.69127 210.08019 210.47210
 211.26802 212.44894 213.70185 215.48777 217.41869 219.46460 221.56252 223.64844
 225.71136 227.79827 229.89819 232.00711 234.13902 236.31394 238.57286 240.94578
 243.56969 245.82361 247.82853 249.59644 251.01636 252.14228 252.96720 253.28611
 253.32603 253.10295 252.46586 251.41678 250.02570 248.18961 246.10153 243.93745
 241.73137 239.53828 237.36120 235.20312 233.06603 230.93595 228.96487 227.12479
 225.41070 223.88562 222.51854 221.29345 220.17837 219.14129 218.24820 217.39212
 216.63704 215.81996 214.92087 214.28779 213.74071 213.10944 211.61858 210.83101
 211.00986 212.47536 214.38962 216.31006 219.00305 223.33110 229.19826 234.26663
 238.08794 241.87335 245.72360 249.74094 253.89037 257.55902 260.25577 262.13303
 264.82468 267.66956 270.04492 271.74106 273.54364 275.49124 277.12158 278.69354
 280.40869 282.00128 283.43643 284.79025 285.97348 287.02313 287.98129 288.85355
 289.64310 290.35135 290.97714 291.80548
 366.78100 356.33782 345.77264 334.64146 323.04728 311.24410 299.11692 286.92274
 274.63756 262.53738 250.54920 239.85302 229.97784 221.08466 213.26948 206.27430
 200.11112 195.05194 191.63676 189.68158 188.72140 188.78822 189.62604 190.93686
 192.66468 194.76250 197.02832 199.39014 201.83796 204.32078 206.41160 208.25642
 209.88524 211.03306 211.26488 211.49570 211.43552 211.14334 210.77916 210.41198
 210.03180 209.74462 209.55544 209.42226 209.35308 209.68690 210.07572 210.46754
 211.26336 212.44418 213.69700 215.48282 217.41364 219.45946 221.55728 223.64310
 225.70592 227.79274 229.89256 232.00138 234.13320 236.30802 238.56684 240.93966
 243.56348 245.81730 247.82212 249.58994 251.00976 252.13558 252.96040 253.27922
 253.31904 253.09586 252.45868 251.40950 250.01832 248.18214 246.09396 243.92978
 241.72360 239.53042 237.35324 235.19506 233.05788 230.92770 228.95652 227.11634
 225.40216 223.87698 222.50980 221.28462 220.16944 219.13226 218.23908 217.38290
 216.62772 215.81054 214.91136 214.27818 213.73100 213.13095 211.71358 210.92825
 211.08592 212.51698 214.45518 216.37341 218.98926 223.27887 229.13814 234.18475
 237.98926 241.76666 245.62233 249.66147 253.85114 257.49445 260.16544 262.06522
 264.73169 267.56293 269.94287 271.64090 273.44843 275.40515 277.05112 278.62933
 280.34253 281.93784 283.37070 284.72528 285.90839 286.95703 287.91611 288.78851
 289.57971 290.28583 290.91464 291.74258
 366.78100 356.33760 345.77220 334.64079 323.04639 311.24299 299.11559 286.92118
 274.63578 262.53538 250.54698 239.85057 229.97517 221.08177 213.26637 206.27097
 200.10756 195.04816 191.63276 189.67736 188.71695 188.78355 189.62115 190.93175
 192.65934 194.75694 197.02254 199.38414 201.83174 204.31433 206.40493 208.24953
 209.87813 211.02572 211.25732 211.48792 211.42752 211.13512 210.77071 210.40331
 210.02291 209.73551 209.54610 209.41270 209.34330 209.67690 210.06549 210.45709
 211.25269 212.43329 213.68589 215.47148 217.40208 219.44768 221.54528 223.63087
 225.69347 227.78007 229.87967 231.98826 234.11986 236.29446 238.55306 240.92566
 243.54925 245.80285 247.80745 249.57505 250.99464 252.12024 252.94484 253.26344
 253.30303 253.07963 252.44223 251.39283 250.00143 248.16502 246.07662 243.91222
 241.70582 239.51241 237.33501 235.17661 233.03921 230.90881 228.93740 227.09700
 225.38260 223.85720 222.48979 221.26439 220.14899 219.11159 218.21818 217.36178
 216.60638 215.78898 214.88958 214.25617 213.70877 213.14447 211.81142 211.03853
 211.15913 212.54716 214.52397 216.44153 218.98039 223.22525 229.07657 234.09497
 237.88251 241.65399 245.52075 249.58711 253.81593 257.43280 260.07877 262.00339
 264.63675 267.44742 269.83060 271.53470 273.35385 275.32416 276.98605 278.56964
 280.28146 281.87762 283.30981 284.66479 285.84787 286.89771 287.85611 288.72812
 289.52002 290.22812 290.85312 291.68884
 366.78100 356.33702 345.77104 334.63905 323.04407 311.24009 299.11211 286.91712
 274.63114 262.53016 250.54118 239.84419 229.96821 221.07423 213.25825 206.26226
 200.09828 195.03830 191.62232 189.66633 188.70535 188.77137 189.60839 190.91840
 192.64542 194.74244 197.00746 199.36847 201.81549 204.29751 206.38753 208.23154
 209.85956 211.00658 211.23760 211.46761 211.40663 211.11365 210.74867 210.38069
 209.99970 209.71172 209.52174 209.38776 209.31777 209.65079 210.03881 210.42983
 211.22484 212.40486 213.65688 215.44190 217.37191 219.41693 221.51395 223.59897
 225.66098 227.74700 229.84602 231.95404 234.08505 236.25907 238.51709 240.88911
 243.51212 245.76514 247.76916 249.53618 250.95519 252.08021 252.90423 253.22225
 253.26126 253.03728 252.39930 251.34932 249.95734 248.12035 246.03137 243.86639
 241.65941 239.46542 237.28744 235.12846 232.99048 230.85949 228.88751 227.04653
 225.33155 223.80556 222.43758 221.21160 220.09562 219.05763 218.16365 217.30667
 216.55069 215.73270 214.83272 214.19874 213.65076 213.13849 211.92821 211.13998
 211.24031 212.58759 214.58493 216.50105 218.97621 223.17500 229.00526 233.99194
 237.76761 241.53737 245.42131 249.51749 253.78523 257.37222 259.99225 261.94614
 264.54233 267.32562 269.71310 271.42847 273.26440 275.25262 276.93109 278.51767
 280.22369 281.82001 283.25433 284.60907 285.79227 286.84106 287.80103 288.67343
 289.46396 290.17493 290.79999 291.63693
 366.78100 356.33710 345.77121 334.63931 323.04441 311.24052 299.11262 286.91772
 274.63183 262.53093 250.54203 239.84514 229.96924 221.07534 213.25945 206.26355
 200.09965 195.03976 191.62386 189.66796 188.70707 188.77317 189.61027 190.92038
 192.64748 194.74458 197.00969 199.37079 201.81789 204.30000 206.39010 208.23420
 209.86231 211.00941 211.24051 211.47062 211.40972 211.11682 210.75193 210.38403
 210.00313 209.71524 209.52534 209.39144 209.32155 209.65465 210.04275 210.43386
 211.22896 212.40906 213.66117 215.44627 217.37637 219.42148 221.51858 223.60368
 225.66579 227.75189 229.85099 231.95910 234.09020 236.26430 238.52241 240.89451
 243.51761 245.77072 247.77482 249.54192 250.96103 252.08613 252.91023 253.22834
 253.26744 253.04354 252.40565 251.35575 249.96385 248.12696 246.03806 243.87316
 241.66627 239.47237 237.29447 235.13558 232.99768 230.86678 228.89489 227.05399
 225.33909 223.81320 222.44530 221.21940 220.10351 219.06561 218.17171 217.31482
 216.55892 215.74102 214.84113 214.20723 213.65933 213.16508 211.99739 211.27533
 211.34126 212.61276 214.64935 216.56392 218.96809 223.11746 228.93204 233.88347
 237.64397 241.41359 245.31845 249.45151 253.75591 257.31064 259.90558 261.89529
 264.45081 267.20166 269.59317 271.32626 273.18134 275.19016 276.88541 278.47327
 280.17163 281.76770 283.20288 284.55765 285.73956 286.78970 287.74786 288.62170
 289.41266 290.12280 290.74982 291.58853
 366.78100 356.33670 345.77039 334.63809 323.04279 311.23849 299.11018 286.91488
 274.62858 262.52727 250.53797 239.84067 229.96437 221.07006 213.25376 206.25746
 200.09315 195.03285 191.61655 189.66025 188.69894 188.76464 189.60134 190.91103
 192.63773 194.73443 196.99913 199.35982 201.80652 204.28822 206.37791 208.22161
 209.84931 210.99601 211.22670 211.45640 211.39510 211.10179 210.73649 210.36819
 209.98689 209.69858 209.50828 209.37398 209.30367 209.63637 210.02407 210.41477
 211.20946 212.38916 213.64086 215.42555 217.35525 219.39995 221.49665 223.58134
 225.64304 227.72874 229.82743 231.93513 234.06583 236.23953 238.49722 240.86892
 243.49162 245.74431 247.74801 249.51471 250.93341 252.05810 252.88180 253.19950
 253.23819 253.01389 252.37559 251.32529 249.93298 248.09568 246.00638 243.84107
 241.63377 239.43947 237.26116 235.10186 232.96356 230.83226 228.85995 227.01865
 225.30335 223.77704 222.40874 221.18244 220.06614 219.02783 218.13353 217.27623
 216.51992 215.70162 214.80132 214.16702 213.61871 213.16663 212.09856 211.38020
 211.45793 212.66440 214.72371 216.59499 218.93016 223.06979 228.85164 233.76173
 237.51096 241.28355 245.21852 249.39375 253.73335 257.25742 259.83130 261.85916
 264.36621 267.07645 269.47006 271.22220 273.09866 275.12811 276.83759 278.42581
 280.11908 281.71198 283.15469 284.51013 285.69305 286.74240 287.70172 288.57547
 289.36588 290.07486 290.70374 291.54440
 366.78100 356.33615 345.76929 334.63644 323.04058 311.23573 299.10688 286.91102
 274.62417 262.52232 250.53246 239.83461 229.95775 221.06290 213.24605 206.24919
 200.08434 195.02348 191.60663 189.64978 188.68792 188.75307 189.58922 190.89836
 192.62451 194.72065 196.98480 199.34495 201.79109 204.27224 206.36138 208.20453
 209.83168 210.97782 211.20797 211.43711 211.37526 211.08141 210.71555 210.34670
 209.96485 209.67599 209.48514 209.35028 209.27943 209.61158 209.99872 210.38887
 211.18301 212.36216 213.61331 215.39745 217.32660 219.37075 221.46689 223.55104
 225.61218 227.69733 229.79548 231.90262 234.03277 236.20591 238.46306 240.83421
 243.45635 245.70850 247.71165 249.47779 250.89594 252.02008 252.84323 253.16038
 253.19852 252.97367 252.33481 251.28396 249.89111 248.05325 245.96340 243.79754
 241.58969 239.39484 237.21598 235.05613 232.91728 230.78542 228.81257 226.97071
 225.25486 223.72801 222.35915 221.13230 220.01544 218.97659 218.08174 217.22388
 216.46703 215.64818 214.74732 214.11247 213.56361 213.15863 212.20184 211.46107
 211.60941 212.77582 214.73277 216.61459 218.93890 222.97731 228.76299 233.63806
 237.37561 241.15730 245.12650 249.34625 253.71747 257.21396 259.76788 261.83185
 264.28482 266.94772 269.33987 271.11111 273.01117 275.06384 276.78397 278.37286
 280.06436 281.65457 283.10901 284.46609 285.64868 286.69757 287.65680 288.52896
 289.32251 290.03207 290.65808 291.50311
 366.78100 356.33527 345.76755 334.63382 323.03709 311.23137 299.10164 286.90491
 274.61719 262.51446 250.52373 239.82501 229.94728 221.05156 213.23383 206.23610
 200.07038 195.00865 191.59092 189.63320 188.67047 188.73474 189.57002 190.87829
 192.60356 194.69884 196.96211 199.32138 201.76666 204.24693 206.33520 208.17748
 209.80375 210.94903 211.17830 211.40657 211.34385 211.04912 210.68239 210.31267
 209.92994 209.64021 209.44849 209.31276 209.24103 209.57231 209.95858 210.34785
 211.14113 212.31940 213.56967 215.35295 217.28122 219.32449 221.41977 223.50304
 225.56332 227.64759 229.74486 231.85114 233.98041 236.15268 238.40896 240.77923
 243.40050 245.65178 247.65405 249.41932 250.83660 251.95987 252.78214 253.09842
 253.13569 252.90996 252.27024 251.21851 249.82479 247.98606 245.89533 243.72861
 241.51988 239.32415 237.14443 234.98370 232.84397 230.71125 228.73752 226.89479
 225.17807 223.65034 222.28061 221.05289 219.93516 218.89543 217.99971 217.14098
 216.38325 215.56353 214.66180 214.02608 213.47635 213.13425 212.32602 211.57437
 211.66548 212.88411 214.79555 216.63969 218.93085 222.88120 228.68336 233.52617
 237.24934 241.04196 245.04628 249.30594 253.70415 257.17081 259.70337 261.80121
 264.20209 266.81613 269.20578 270.99948 272.92572 275.00076 276.73077 278.32059
 280.01144 281.59738 283.06540 284.42245 285.60449 286.65427 287.61401 288.48642
 289.27908 289.99100 290.61792 291.46246
 366.78100 356.33466 345.76632 334.63199 323.03465 311.22831 299.09797 286.90063
 274.61229 262.50896 250.51762 239.81828 229.93994 221.04360 213.22526 206.22693
 200.06059 194.99825 191.57991 189.62157 188.65824 188.72190 189.55656 190.86422
 192.58888 194.68354 196.94621 199.30487 201.74953 204.22919 206.31685 208.15851
 209.78418 210.92884 211.15750 211.38516 211.32182 211.02649 210.65915 210.28881
 209.90547 209.61513 209.42279 209.28646 209.21412 209.54478 209.93044 210.31910
 211.11176 212.28943 213.53909 215.32175 217.24941 219.29207 221.38674 223.46940
 225.52906 227.61272 229.70938 231.81504 233.94371 236.11537 238.37103 240.74069
 243.36135 245.61201 247.61368 249.37834 250.79500 251.91766 252.73932 253.05499
 253.09165 252.86531 252.22497 251.17263 249.77829 247.93896 245.84762 243.68028
 241.47094 239.27460 237.09426 234.93293 232.79259 230.65925 228.68491 226.84157
 225.12424 223.59590 222.22556 220.99722 219.87888 218.83854 217.94221 217.08287
 216.32453 215.50419 214.60185 213.96551 213.41518 213.12138 212.42726 211.72714
 211.69292 212.97258 214.88217 216.67207 218.91196 222.79312 228.60805 233.41901
 237.12604 240.92961 244.97021 249.26730 253.68657 257.11987 259.63049 261.76456
 264.11880 266.68460 269.07428 270.89355 272.84717 274.94360 276.68262 278.27017
 279.96075 281.53418 283.02554 284.38419 285.56656 286.61584 287.57590 288.44778
 289.23962 289.95053 290.58148 291.42581
 366.78100 356.33411 345.76523 334.63034 323.03245 311.22556 299.09468 286.89679
 274.60790 262.50401 250.51213 239.81224 229.93335 221.03646 213.21758 206.21869
 200.05180 194.98891 191.57003 189.61114 188.64725 188.71036 189.54448 190.85159
 192.57570 194.66982 196.93193 199.29004 201.73415 204.21327 206.30038 208.14149
 209.76660 210.91072 211.13883 211.36594 211.30205 211.00617 210.63828 210.26739
 209.88350 209.59262 209.39973 209.26284 209.18995 209.52007 209.90518 210.29329
 211.08540 212.26252 213.51163 215.29374 217.22086 219.26297 221.35708 223.43919
 225.49831 227.58142 229.67753 231.78264 233.91076 236.08187 238.33698 240.70609
 243.32621 245.57632 247.57743 249.34154 250.75766 251.87977 252.70088 253.01599
 253.05211 252.82522 252.18433 251.13145 249.73656 247.89667 245.80478 243.63690
 241.42701 239.23012 237.04923 234.88735 232.74646 230.61257 228.63768 226.79380
 225.07591 223.54702 222.17613 220.94725 219.82836 218.78747 217.89058 217.03070
 216.27181 215.45092 214.54803 213.91115 213.36026 213.11111 212.52249 211.87706
 211.74240 213.05116 214.95584 216.70280 218.89806 222.71620 228.53256 233.30855
 236.99954 240.81792 244.89702 249.23103 253.66437 257.06158 259.55292 261.72525
 264.03796 266.55679 268.94733 270.79538 272.77448 274.89059 276.63705 278.21985
 279.90781 281.46411 282.98853 284.34915 285.53070 286.58142 287.53891 288.41275
 289.20486 289.91626 290.54501 291.39182
 366.78100 356.33341 345.76381 334.62822 323.02963 311.22203 299.09044 286.89185
 274.60225 262.49766 250.50507 239.80447 229.92488 221.02729 213.20769 206.20810
 200.04051 194.97691 191.55732 189.59773 188.63313 188.69554 189.52895 190.83535
 192.55876 194.65217 196.91357 199.27098 201.71439 204.19280 206.27920 208.11961
 209.74402 210.88742 211.11483 211.34124 211.27664 210.98005 210.61146 210.23986
 209.85527 209.56368 209.37008 209.23249 209.15890 209.48830 209.87271 210.26012
 211.05152 212.22793 213.47634 215.25774 217.18415 219.22556 221.31896 223.40037
 225.45878 227.54118 229.63659 231.74100 233.86840 236.03881 238.29322 240.66162
 243.28103 245.53044 247.53084 249.29425 250.70966 251.83106 252.65147 252.96588
 253.00128 252.77369 252.13210 251.07850 249.68291 247.84232 245.74972 243.58113
 241.37054 239.17295 236.99135 234.82876 232.68717 230.55257 228.57698 226.73239
 225.01379 223.48420 222.11261 220.88301 219.76342 218.72183 217.82423 216.96364
 216.20405 215.38245 214.47886 213.84127 213.28967 213.09296 212.62816 212.00984
 211.81349 213.12897 215.01814 216.72499 218.88600 222.64769 228.45790 233.19415
 236.87268 240.71005 244.83006 249.19736 253.63744 256.99921 259.47269 261.68207
 263.95844 266.43372 268.82425 270.70367 272.70685 274.83987 276.59094 278.16928
 279.85376 281.41306 282.94733 284.30963 285.49454 286.54333 287.50314 288.37701
 289.16809 289.88202 290.51001 291.35880
 366.78100 356.33264 345.76228 334.62592 323.02656 311.21821 299.08585 286.88649
 274.59613 262.49077 250.49741 239.79605 229.91569 221.01733 213.19697 206.19662
 200.02826 194.96390 191.54354 189.58318 188.61782 188.67946 189.51210 190.81774
 192.54039 194.63303 196.89367 199.25031 201.69295 204.17059 206.25623 208.09587
 209.71951 210.86215 211.08880 211.31444 211.24908 210.95172 210.58236 210.21000
 209.82464 209.53228 209.33792 209.19956 209.12521 209.45385 209.83749 210.22413
 211.01477 212.19041 213.43805 215.21869 217.14433 219.18498 221.27762 223.35826
 225.41590 227.49754 229.59218 231.69582 233.82246 235.99210 238.24574 240.61339
 243.23203 245.48067 247.48031 249.24295 250.65759 251.77823 252.59787 252.91151
 252.94616 252.71780 252.07544 251.02108 249.62472 247.78336 245.69000 243.52064
 241.30928 239.11092 236.92857 234.76521 232.62285 230.48749 228.51113 226.66577
 224.94641 223.41605 222.04369 220.81333 219.69298 218.65062 217.75226 216.89090
 216.13054 215.30818 214.40382 213.76546 213.21310 213.07179 212.73793 212.13625
 211.89670 213.20515 215.07248 216.74248 218.87436 222.58507 228.38330 233.07877
 236.75012 240.61046 244.77036 249.16643 253.60535 256.93182 259.38705 261.63098
 263.87836 266.31500 268.70813 270.61987 272.64502 274.79236 276.54608 278.11856
 279.80045 281.36902 282.90512 284.27066 285.45395 286.50409 287.46442 288.33780
 289.13095 289.84500 290.47067 291.32492
 366.78100 356.33197 345.76094 334.62391 323.02388 311.21485 299.08182 286.88179
 274.59076 262.48473 250.49070 239.78867 229.90764 221.00861 213.18758 206.18655
 200.01752 194.95249 191.53146 189.57043 188.60440 188.66537 189.49734 190.80231
 192.52428 194.61625 196.87622 199.23219 201.67416 204.15113 206.23610 208.07507
 209.69804 210.84001 211.06598 211.29095 211.22492 210.92689 210.55686 210.18383
 209.79780 209.50477 209.30974 209.17071 209.09568 209.42365 209.80662 210.19259
 210.98256 212.15753 213.40450 215.18447 217.10944 219.14941 221.24138 223.32135
 225.37832 227.45929 229.55326 231.65623 233.78220 235.95117 238.20414 240.57111
 243.18908 245.43705 247.43602 249.19799 250.61196 251.73193 252.55090 252.86387
 252.89784 252.66881 252.02578 250.97075 249.57372 247.73169 245.63766 243.46763
 241.25560 239.05657 236.87354 234.70951 232.56648 230.43045 228.45342 226.60739
 224.88736 223.35633 221.98330 220.75227 219.63124 218.58821 217.68918 216.82715
 216.06612 215.24309 214.33806 213.69903 213.14600 213.05551 212.84171 212.26753
 211.98775 213.27553 215.11520 216.75821 218.86464 222.52905 228.30817 232.96689
 236.63498 240.52046 244.71820 249.13753 253.56522 256.85516 259.29263 261.56848
 263.79709 266.20319 268.60056 270.54666 272.59238 274.74796 276.50027 278.06857
 279.74698 281.32574 282.86484 284.22934 285.41364 286.46420 287.42468 288.29962
 289.09235 289.80591 290.43219 291.28745
 366.78100 356.33146 345.75992 334.62238 323.02184 311.21230 299.07876 286.87822
 274.58668 262.48014 250.48560 239.78306 229.90152 221.00198 213.18044 206.17890
 200.00937 194.94383 191.52229 189.56075 188.59421 188.65467 189.48613 190.79059
 192.51205 194.60351 196.86297 199.21843 201.65989 204.13635 206.22081 208.05927
 209.68173 210.82319 211.04865 211.27311 211.20657 210.90803 210.53749 210.16395
 209.77741 209.48387 209.28833 209.14879 209.07325 209.40071 209.78317 210.16863
 210.95810 212.13256 213.37902 215.15848 217.08294 219.12240 221.21386 223.29332
 225.34978 227.43024 229.52370 231.62616 233.75162 235.92008 238.17254 240.53900
 243.15646 245.40392 247.40238 249.16384 250.57730 251.69676 252.51522 252.82768
 252.86114 252.63160 251.98806 250.93252 249.53498 247.69244 245.59790 243.42737
 241.21483 239.01529 236.83175 234.66721 232.52367 230.38713 228.40959 226.56305
 224.84251 223.31097 221.93743 220.70589 219.58435 218.54081 217.64127 216.77873
 216.01719 215.19365 214.28811 213.64857 213.09503 213.04707 212.93378 212.40593
 212.09019 213.33456 215.13857 216.77406 218.86148 222.47974 228.23265 232.86136
 236.53072 240.44209 244.67474 249.10904 253.51566 256.76782 259.18854 261.49332
 263.71344 266.09842 268.50143 270.48322 272.54709 274.70612 276.45520 278.01883
 279.69333 281.28317 282.82397 284.18900 285.37320 286.42456 287.38394 288.25970
 289.05353 289.76566 290.39514 291.24899
 366.78100 356.33101 345.75901 334.62102 323.02002 311.21003 299.07603 286.87504
 274.58304 262.47605 250.48105 239.77806 229.89606 220.99607 213.17407 206.17208
 200.00208 194.93609 191.51410 189.55210 188.58511 188.64511 189.47612 190.78012
 192.50113 194.59213 196.85114 199.20614 201.64715 204.12315 206.20716 208.04516
 209.66717 210.80817 211.03318 211.25719 211.19019 210.89120 210.52020 210.14621
 209.75921 209.46522 209.26922 209.12923 209.05323 209.38024 209.76224 210.14725
 210.93625 212.11026 213.35627 215.13527 217.05928 219.09828 221.18929 223.26829
 225.32430 227.40430 229.49731 231.59931 233.72432 235.89232 238.14433 240.51033
 243.12734 245.37434 247.37235 249.13336 250.54636 251.66537 252.48337 252.79538
 252.82838 252.59839 251.95439 250.89840 249.50040 247.65741 245.56241 243.39142
 241.17842 238.97843 236.79443 234.62944 232.48545 230.34845 228.37046 226.52346
 224.80247 223.27047 221.89648 220.66448 219.54249 218.49849 217.59850 216.73550
 215.97351 215.14951 214.24352 213.60352 213.04953 213.04131 213.02188 212.55229
 212.19434 213.38251 215.15073 216.78268 218.85944 222.43892 228.16444 232.76546
 236.43831 240.37630 244.63994 249.08273 253.45683 256.67044 259.07602 261.40390
 263.62305 265.99625 268.40958 270.42676 272.50894 274.66898 276.41254 277.97165
 279.64346 281.24203 282.78360 284.15009 285.33389 286.38470 287.34650 288.22269
 289.01523 289.72870 290.35776 291.20956
 366.78100 356.33050 345.75800 334.61950 323.01800 311.20750 299.07300 286.87150
 274.57899 262.47149 250.47599 239.77249 229.88999 220.98949 213.16699 206.16449
 199.99399 194.92749 191.50499 189.54249 188.57499 188.63449 189.46499 190.76848
 192.48898 194.57948 196.83798 199.19248 201.63298 204.10848 206.19198 208.02948
 209.65098 210.79148 211.01598 211.23948 211.17198 210.87247 210.50097 210.12647
 209.73897 209.44447 209.24797 209.10747 209.03097 209.35747 209.73897 210.12347
 210.91197 212.08547 213.33097 215.10947 217.03296 219.07146 221.16196 223.24046
 225.29596 227.37546 229.46796 231.56946 233.69396 235.86146 238.11296 240.47846
 243.09496 245.34146 247.33896 249.09945 250.51195 251.63045 252.44795 252.75945
 252.79195 252.56145 251.91695 250.86045 249.46195 247.61845 245.52295 243.35145
 241.13795 238.93744 236.75294 234.58744 232.44294 230.30544 228.32694 226.47944
 224.75794 223.22544 221.85094 220.61844 219.49594 218.45144 217.55094 216.68744
 215.92493 215.10043 214.19393 213.55343 212.99893 213.03339 213.11479 212.69511
 212.30400 213.42569 215.14813 216.78677 218.86501 222.39977 228.09856 232.67828
 236.35992 240.32516 244.61693 249.06035 253.39148 256.56604 258.95493 261.29718
 263.52151 265.89243 268.31912 270.37424 272.47574 274.63470 276.37323 277.92749
 279.59613 281.20505 282.74716 284.11346 285.29858 286.35043 287.31183 288.18765
 288.97910 289.69373 290.32407 291.17847
 366.78100 356.33009 345.75718 334.61826 323.01635 311.20544 299.07053 286.86862
 274.57571 262.46779 250.47188 239.76797 229.88506 220.98415 213.16124 206.15832
 199.98741 194.92050 191.49759 189.53468 188.56676 188.62585 189.45594 190.75903
 192.47912 194.56921 196.82729 199.18138 201.62147 204.09656 206.17965 208.01674
 209.63782 210.77791 211.00200 211.22509 211.15718 210.85727 210.48535 210.11044
 209.72253 209.42762 209.23071 209.08979 209.01288 209.33897 209.72006 210.10415
 210.89224 212.06532 213.31041 215.08850 217.01159 219.04968 221.13977 223.21785
 225.27294 227.35203 229.44412 231.54521 233.66929 235.83638 238.08747 240.45256
 243.06865 245.31474 247.31182 249.07191 250.48400 251.60209 252.41918 252.73027
 252.76235 252.53144 251.88653 250.82962 249.43071 247.58680 245.49088 243.31897
 241.10506 238.90415 236.71924 234.55332 232.40841 230.27050 228.29159 226.44368
 224.72177 223.18885 221.81394 220.58103 219.45812 218.41321 217.51230 216.64838
 215.88547 215.06056 214.15365 213.51274 212.95782 213.03058 213.20247 212.84871
 212.40088 213.45410 215.14890 216.79279 218.86906 222.37402 228.04541 232.60417
 236.29434 240.28673 244.60355 249.04192 253.31856 256.45239 258.82440 261.17151
 263.40652 265.78479 268.22815 270.32367 272.44727 274.60202 276.33228 277.88309
 279.55194 281.17087 282.71432 284.07968 285.26559 286.31696 287.27991 288.15466
 288.95010 289.66159 290.29169 291.14755
 366.78100 356.32940 345.75580 334.61620 323.01360 311.20200 299.06640 286.86380
 274.57020 262.46160 250.46500 239.76040 229.87680 220.97520 213.15161 206.14801
 199.97641 194.90881 191.48521 189.52161 188.55301 188.61141 189.44081 190.74321
 192.46261 194.55201 196.80941 199.16281 201.60221 204.07661 206.15901 207.99541
 209.61581 210.75521 210.97861 211.20101 211.13241 210.83181 210.45921 210.08361
 209.69502 209.39942 209.20182 209.06022 208.98262 209.30802 209.68842 210.07182
 210.85922 212.03162 213.27602 215.05342 216.97582 219.01322 221.10262 223.18002
 225.23442 227.31282 229.40422 231.50462 233.62802 235.79442 238.04482 240.40922
 243.02462 245.27002 247.26643 249.02583 250.43723 251.55463 252.37103 252.68143
 252.71283 252.48123 251.83563 250.77803 249.37843 247.53383 245.43723 243.26463
 241.05003 238.84843 236.66283 234.49623 232.35063 230.21203 228.23243 226.38383
 224.66123 223.12763 221.75203 220.51843 219.39484 218.34924 217.44764 216.58304
 215.81944 214.99384 214.08624 213.44464 212.88904 213.01491 213.31227 212.97398
 212.51006 213.49126 215.12941 216.79926 218.90013 222.35085 227.98430 232.53096
 236.23698 240.25929 244.59966 249.02768 253.24030 256.33368 258.68695 261.02911
 263.27893 265.67334 268.13763 270.27560 272.42273 274.57068 276.29016 277.83792
 279.51077 281.13895 282.68423 284.05045 285.23489 286.28656 287.24963 288.12598
 288.91821 289.63281 290.26257 291.12076
 366.78100 356.32905 345.75510 334.61515 323.01220 311.20025 299.06431 286.86136
 274.56741 262.45846 250.46151 239.75656 229.87261 220.97066 213.14671 206.14276
 199.97082 194.90287 191.47892 189.51497 188.54602 188.60407 189.43312 190.73517
 192.45422 194.54327 196.80032 199.15338 201.59243 204.06648 206.14853 207.98458
 209.60463 210.74368 210.96673 211.18878 211.11983 210.81889 210.44594 210.06999
 209.68104 209.38509 209.18714 209.04519 208.96724 209.29229 209.67234 210.05539
 210.84245 212.01450 213.25855 215.03560 216.95765 218.99470 221.08375 223.16080
 225.21485 227.29290 229.38396 231.48401 233.60706 235.77311 238.02316 240.38721
 243.00226 245.24731 247.24336 249.00241 250.41346 251.53052 252.34657 252.65662
 252.68767 252.45572 251.80977 250.75182 249.35187 247.50692 245.40997 243.23703
 241.02208 238.82013 236.63418 234.46723 232.32128 230.18233 228.20238 226.35343
 224.63048 223.09653 221.72059 220.48664 219.36269 218.31674 217.41479 216.54984
 215.78589 214.95994 214.05199 213.41004 212.85410 213.01703 213.40196 213.11009
 212.61995 213.52776 215.11227 216.79759 218.89876 222.33005 227.94435 232.47815
 236.19351 240.24393 244.60440 249.01711 253.15352 256.20157 258.53351 260.86563
 263.13727 265.55817 268.04877 270.23441 272.40631 274.54602 276.25427 277.79730
 279.47339 281.11096 282.65671 284.02359 285.20868 286.25992 287.22220 288.09857
 288.89392 289.60556 290.23416 291.09048
 366.78100 356.32942 345.75584 334.61626 323.01367 311.20209 299.06651 286.86393
 274.57035 262.46177 250.46519 239.76060 229.87702 220.97544 213.15186 206.14828
 199.97670 194.90912 191.48553 189.52195 188.55337 188.61179 189.44121 190.74363
 192.46304 194.55246 196.80988 199.16330 201.60272 204.07714 206.15956 207.99597
 209.61639 210.75581 210.97923 211.20165 211.13307 210.83249 210.45990 210.08432
 209.69574 209.40016 209.20258 209.06100 208.98342 209.30883 209.68925 210.07267
 210.86009 212.03251 213.27693 215.05435 216.97676 219.01418 221.10360 223.18102
 225.23544 227.31386 229.40528 231.50569 233.62911 235.79553 238.04595 240.41037
 243.02579 245.27121 247.26762 249.02704 250.43846 251.55588 252.37230 252.68272
 252.71413 252.48255 251.83697 250.77939 249.37981 247.53523 245.43865 243.26606
 241.05148 238.84990 236.66432 234.49774 232.35216 230.21358 228.23399 226.38541
 224.66283 223.12925 221.75367 220.52009 219.39651 218.35092 217.44934 216.58476
 215.82118 214.99560 214.08802 213.44644 212.89085 213.05600 213.44615 213.28557
 212.71666 213.51753 215.09518 216.83539 218.95409 222.33110 227.88910 232.41011
 236.14386 240.22707 244.60893 249.00122 253.05112 256.04944 258.36188 260.68524
 262.98828 265.44586 267.96875 270.20474 272.40192 274.53171 276.23163 277.76648
 279.44147 281.08588 282.63248 283.99817 285.18411 286.23672 287.19897 288.07373
 288.86835 289.58273 290.21448 291.06638
 366.78100 356.32961 345.75622 334.61683 323.01444 311.20305 299.06766 286.86527
 274.57189 262.46350 250.46711 239.76272 229.87933 220.97794 213.15455 206.15116
 199.97977 194.91238 191.48899 189.52560 188.55721 188.61582 189.44543 190.74804
 192.46766 194.55727 196.81488 199.16849 201.60810 204.08271 206.16532 208.00193
 209.62254 210.76215 210.98576 211.20837 211.13998 210.83959 210.46720 210.09182
 209.70343 209.40804 209.21065 209.06926 208.99187 209.31748 209.69809 210.08170
 210.86931 212.04192 213.28653 215.06414 216.98675 219.02436 221.11397 223.19159
 225.24620 227.32481 229.41642 231.51703 233.64064 235.80725 238.05786 240.42247
 243.03808 245.28369 247.28030 249.03991 250.45152 251.56913 252.38575 252.69636
 252.72797 252.49658 251.85119 250.79380 249.39441 247.55002 245.45363 243.28124
 241.06685 238.86546 236.68007 234.51368 232.36829 230.22990 228.25052 226.40213
 224.67974 223.14635 221.77096 220.53757 219.41418 218.36879 217.46740 216.60301
 215.83962 215.01423 214.10684 213.46545 212.91006 213.08806 213.50856 213.42416
 212.80980 213.55779 215.06036 216.85771 219.03345 222.30333 227.82854 232.34625
 236.10046 240.21822 244.61862 248.98518 252.94183 255.88951 258.18579 260.50061
 262.84039 265.34033 267.89783 270.18628 272.40561 274.52368 276.21323 277.74017
 279.41302 281.06265 282.61002 283.97684 285.16284 286.21255 287.17667 288.05267
 288.84778 289.56226 290.19058 291.04462
 366.78100 356.32944 345.75588 334.61633 323.01377 311.20221 299.06665 286.86410
 274.57054 262.46198 250.46542 239.76087 229.87731 220.97575 213.15219 206.14864
 199.97708 194.90952 191.48596 189.52241 188.55385 188.61229 189.44173 190.74418
 192.46362 194.55306 196.81050 199.16395 201.60339 204.07783 206.16027 207.99672
 209.61716 210.75660 210.98004 211.20249 211.13393 210.83337 210.46081 210.08526
 209.69670 209.40114 209.20358 209.06203 208.98447 209.30991 209.69035 210.07380
 210.86124 212.03368 213.27812 215.05557 216.97801 219.01545 221.10489 223.18234
 225.23678 227.31522 229.40666 231.50711 233.63055 235.79699 238.04743 240.41188
 243.02732 245.27276 247.26920 249.02865 250.44009 251.55753 252.37397 252.68442
 252.71586 252.48430 251.83874 250.78119 249.38163 247.53707 245.44051 243.26796
 241.05340 238.85184 236.66628 234.49973 232.35417 230.21561 228.23605 226.38750
 224.66494 223.13138 221.75582 220.52227 219.39871 218.35315 217.45159 216.58704
 215.82348 214.99792 214.09036 213.44881 212.89325 213.10420 213.60260 213.51366
 212.92128 213.61276 215.03226 216.88771 219.09340 222.25972 227.77217 232.28824
 236.06485 240.21695 244.63147 248.96695 252.82510 255.72263 258.00690 260.31378
 262.69418 265.23923 267.83154 270.17078 272.40903 274.51224 276.18961 277.70905
 279.38382 281.04233 282.58957 283.95605 285.14133 286.19235 287.15448 288.03101
 288.82669 289.54202 290.17035 291.01904
 366.78100 356.32933 345.75565 334.61598 323.01331 311.20163 299.06596 286.86328
 274.56961 262.46094 250.46426 239.75959 229.87592 220.97424 213.15057 206.14690
 199.97522 194.90755 191.48387 189.52020 188.55153 188.60985 189.43918 190.74151
 192.46083 194.55016 196.80749 199.16081 201.60014 204.07446 206.15679 207.99312
 209.61344 210.75277 210.97610 211.19842 211.12975 210.82908 210.45640 210.08073
 209.69206 209.39638 209.19871 209.05703 208.97936 209.30469 209.68501 210.06834
 210.85567 212.02799 213.27232 215.04965 216.97197 219.00930 221.09862 223.17595
 225.23028 227.30860 229.39993 231.50026 233.62358 235.78991 238.04024 240.40456
 243.01989 245.26521 247.26154 249.02087 250.43219 251.54952 252.36585 252.67617
 252.70750 252.47583 251.83015 250.77248 249.37280 247.52813 245.43146 243.25878
 241.04411 238.84244 236.65676 234.49009 232.34442 230.20574 228.22607 226.37739
 224.65472 223.12105 221.74537 220.51170 219.38803 218.34235 217.44068 216.57601
 215.81233 214.98666 214.07898 213.43731 212.88164 213.12476 213.69919 213.58556
 213.02916 213.69225 215.03593 216.90903 219.10840 222.21507 227.72276 232.23593
 236.03546 240.22137 244.64597 248.94328 252.70062 255.54999 257.82739 260.12668
 262.54892 265.14069 267.76697 270.15405 272.40814 274.49399 276.15753 277.67368
 279.35336 281.02249 282.57031 283.93610 285.12106 286.17249 287.13406 288.01257
 288.80679 289.52145 290.14944 291.00259
 366.78100 356.32972 345.75645 334.61717 323.01490 311.20362 299.06834 286.86607
 274.57279 262.46452 250.46824 239.76396 229.88069 220.97941 213.15614 206.15286
 199.98158 194.91431 191.49103 189.52776 188.55948 188.61820 189.44793 190.75065
 192.47038 194.56010 196.81782 199.17155 201.61127 204.08600 206.16872 208.00544
 209.62617 210.76589 210.98962 211.21234 211.14406 210.84379 210.47151 210.09624
 209.70796 209.41268 209.21541 209.07413 208.99686 209.32258 209.70330 210.08703
 210.87475 212.04748 213.29220 215.06993 216.99265 219.03037 221.12010 223.19782
 225.25255 227.33127 229.42299 231.52372 233.64744 235.81417 238.06489 240.42961
 243.04534 245.29106 247.28779 249.04751 250.45923 251.57696 252.39368 252.70441
 252.73613 252.50485 251.85958 250.80230 249.40303 247.55875 245.46247 243.29020
 241.07592 238.87465 236.68937 234.52309 232.37782 230.23954 228.26027 226.41199
 224.68971 223.15644 221.78116 220.54789 219.42461 218.37933 217.47806 216.61378
 215.85051 215.02523 214.11795 213.47668 212.92140 213.17255 213.76593 213.66379
 213.13504 213.77678 215.06638 216.92036 219.09358 222.18170 227.67862 232.18924
 236.01347 240.23100 244.65974 248.91331 252.56812 255.37097 257.64517 259.93799
 262.40439 265.04395 267.70273 270.13382 272.40131 274.47070 276.11887 277.63303
 279.31940 281.00320 282.55167 283.91702 285.10229 286.15347 287.11618 287.99191
 288.78851 289.50015 290.13028 290.98074
 366.78100 356.33049 345.75799 334.61948 323.01798 311.20747 299.07297 286.87146
 274.57895 262.47145 250.47594 239.77244 229.88993 220.98943 213.16692 206.16441
 199.99391 194.92740 191.50490 189.54239 188.57489 188.63438 189.46487 190.76837
 192.48886 194.57936 196.83785 199.19235 201.63284 204.10833 206.19183 208.02932
 209.65082 210.79131 211.01581 211.23930 211.17179 210.87229 210.50078 210.12628
 209.73877 209.44427 209.24776 209.10725 209.03075 209.35724 209.73874 210.12323
 210.91173 212.08522 213.33071 215.10921 217.03270 219.07120 221.16169 223.24019
 225.29568 227.37517 229.46767 231.56916 233.69366 235.86115 238.11265 240.47814
 243.09463 245.34113 247.33862 249.09912 250.51161 251.63011 252.44760 252.75909
 252.79159 252.56108 251.91658 250.86007 249.46157 247.61806 245.52255 243.35105
 241.13754 238.93704 236.75253 234.58703 232.44252 230.30501 228.32651 226.47900
 224.75750 223.22499 221.85049 220.61798 219.49547 218.45097 217.55046 216.68696
 215.92445 215.09995 214.19344 213.55293 212.99843 213.24030 213.81177 213.74274
 213.23949 213.86024 215.12029 216.93034 219.07605 222.15997 227.63316 232.14626
 235.99689 240.24448 244.67030 248.87332 252.42410 255.18225 257.45578 259.74487
 262.25897 264.94754 267.63776 270.10999 272.39008 274.44580 276.08313 277.59753
 279.28970 280.98126 282.52917 283.89557 285.07880 286.13040 287.09320 287.96985
 288.76416 289.47714 290.10413 290.95560
 366.78100 356.33142 345.75984 334.62227 323.02169 311.21211 299.07853 286.87795
 274.58637 262.47980 250.48522 239.78264 229.90106 221.00148 213.17990 206.17833
 200.00875 194.94317 191.52159 189.56001 188.59343 188.65386 189.48528 190.78970
 192.51112 194.60254 196.86196 199.21739 201.65881 204.13523 206.21965 208.05807
 209.68049 210.82192 211.04734 211.27176 211.20518 210.90660 210.53603 210.16245
 209.77587 209.48229 209.28671 209.14713 209.07156 209.39898 209.78140 210.16682
 210.95624 212.13066 213.37709 215.15651 217.08093 219.12035 221.21177 223.29119
 225.34762 227.42804 229.52146 231.62388 233.74930 235.91772 238.17015 240.53657
 243.15399 245.40141 247.39983 249.16125 250.57468 251.69410 252.51252 252.82494
 252.85836 252.62879 251.98521 250.92963 249.53205 247.68947 245.59489 243.42432
 241.21174 239.01216 236.82858 234.66400 232.52042 230.38385 228.40627 226.55969
 224.83911 223.30753 221.93395 220.70238 219.58080 218.53722 217.63764 216.77506
 216.01348 215.18991 214.28433 213.64475 213.09117 213.31709 213.85089 213.81339
 213.34335 213.94662 215.19159 216.94618 219.06482 222.14452 227.58315 232.10544
 235.98476 240.25954 244.67488 248.82074 252.26810 254.98276 257.25922 259.55084
 262.11581 264.85260 267.57263 270.08115 272.37292 274.41638 276.04471 277.56210
 279.25803 280.96054 282.50931 283.87573 285.06039 286.11194 287.07526 287.95453
 288.75165 289.46768 290.09647 290.94824
 366.78100 356.33243 345.76186 334.62529 323.02573 311.21716 299.08459 286.88502
 274.59445 262.48888 250.49531 239.79375 229.91318 221.01461 213.19404 206.19347
 200.02490 194.96033 191.53976 189.57920 188.61363 188.67506 189.50749 190.81292
 192.53535 194.62778 196.88822 199.24465 201.68708 204.16451 206.24994 208.08937
 209.71280 210.85524 211.08167 211.30710 211.24153 210.94396 210.57439 210.20182
 209.81626 209.52369 209.32912 209.19055 209.11598 209.44441 209.82784 210.21428
 211.00471 212.18014 213.42757 215.20800 217.13343 219.17386 221.26629 223.34673
 225.40416 227.48559 229.58002 231.68345 233.80988 235.97931 238.23275 240.60018
 243.21861 245.46704 247.46647 249.22890 250.64333 251.76377 252.58320 252.89663
 252.93106 252.70249 252.05992 251.00535 249.60879 247.76722 245.67365 243.50408
 241.29251 239.09394 236.91137 234.74781 232.60524 230.46967 228.49310 226.64753
 224.92796 223.39739 222.02482 220.79426 219.67369 218.63112 217.73255 216.87098
 216.11041 215.28784 214.38328 213.74471 213.19214 213.39886 213.88725 213.87041
 213.45052 214.03923 215.27341 216.96988 219.06271 222.13036 227.52930 232.06639
 235.97476 240.27307 244.67003 248.75218 252.10008 254.77507 257.05927 259.36240
 261.97861 264.76111 267.50726 270.04752 272.34717 274.38037 276.00232 277.52478
 279.22293 280.93954 282.48862 283.85580 285.03922 286.09113 287.05405 287.93253
 288.73123 289.44659 290.07758 290.92227
 366.78100 356.33356 345.76412 334.62867 323.03023 311.22279 299.09135 286.89291
 274.60347 262.49902 250.50658 239.80614 229.92670 221.02926 213.20982 206.21037
 200.04293 194.97949 191.56005 189.60061 188.63616 188.69872 189.53228 190.83884
 192.56240 194.65596 196.91751 199.27507 201.71863 204.19719 206.28375 208.12431
 209.74886 210.89242 211.11998 211.34654 211.28210 210.98566 210.61721 210.24577
 209.86133 209.56989 209.37645 209.23900 209.16556 209.49512 209.87968 210.26724
 211.05880 212.23535 213.48391 215.26547 217.19203 219.23359 221.32715 223.40870
 225.46726 227.54982 229.64538 231.74994 233.87749 236.04805 238.30261 240.67117
 243.29073 245.54029 247.54084 249.30440 250.71996 251.84152 252.66208 252.97664
 253.01219 252.78475 252.14331 251.08987 249.69443 247.85399 245.76154 243.59310
 241.38266 239.18522 237.00378 234.84133 232.69989 230.56545 228.59001 226.74557
 225.02713 223.49768 222.12624 220.89680 219.77736 218.73592 217.83848 216.97803
 216.21859 215.39715 214.49371 213.85627 213.30482 213.48724 213.91821 213.91447
 213.56635 214.13692 215.35944 217.00520 219.06590 222.11754 227.47543 232.03160
 235.96660 240.28319 244.65274 248.66467 251.91769 254.55858 256.85764 259.18286
 261.85138 264.67590 267.44519 270.00964 272.31601 274.34244 275.96030 277.48950
 279.18787 280.91138 282.46060 283.82681 285.01120 286.06168 287.02692 287.90427
 288.70166 289.41760 290.04492 290.89157
 366.78100 356.33481 345.76661 334.63242 323.03523 311.22904 299.09884 286.90165
 274.61346 262.51026 250.51907 239.81988 229.94169 221.04549 213.22730 206.22911
 200.06291 195.00072 191.58253 189.62434 188.66114 188.72495 189.55976 190.86757
 192.59237 194.68718 196.94999 199.30879 201.75360 204.23341 206.32122 208.16302
 209.78883 210.93364 211.16244 211.39025 211.32706 211.03187 210.66467 210.29448
 209.91129 209.62109 209.42890 209.29271 209.22052 209.55132 209.93713 210.32594
 211.11874 212.29655 213.54636 215.32917 217.25697 219.29978 221.39459 223.47739
 225.53720 227.62101 229.71782 231.82362 233.95243 236.12424 238.38005 240.74985
 243.37066 245.62147 247.62327 249.38808 250.80489 251.92770 252.74950 253.06531
 253.10212 252.87592 252.23573 251.18354 249.78935 247.95015 245.85896 243.69177
 241.48257 239.28638 237.10619 234.94500 232.80480 230.67161 228.69742 226.85422
 225.13703 223.60884 222.23865 221.01045 219.89226 218.85207 217.95587 217.09668
 216.33849 215.51830 214.61610 213.97991 213.42972 213.58228 213.94270 213.94676
 213.69354 214.23840 215.44450 217.05133 219.07703 222.10533 227.42421 231.99905
 235.95882 240.28870 244.62209 248.55637 251.71997 254.33252 256.65454 259.01465
 261.73569 264.59952 267.38846 269.97021 272.28244 274.30429 275.92200 277.45694
 279.15396 280.87283 282.42218 283.78839 284.97357 286.02304 286.98532 287.86548
 288.66190 289.37717 290.00452 290.84888
 366.78100 356.33638 345.76976 334.63715 323.04153 311.23691 299.10829 286.91268
 274.62606 262.52444 250.53482 239.83720 229.96059 221.06597 213.24935 206.25273
 200.08812 195.02750 191.61088 189.65426 188.69264 188.75803 189.59441 190.90379
 192.63017 194.72655 196.99094 199.35132 201.79770 204.27908 206.36847 208.21185
 209.83923 210.98561 211.21599 211.44538 211.38376 211.09014 210.72452 210.35591
 209.97429 209.68567 209.49505 209.36043 209.28982 209.62220 210.00958 210.39996
 211.19435 212.37373 213.62511 215.40949 217.33887 219.38326 221.47964 223.56402
 225.62540 227.71078 229.80917 231.91655 234.04693 236.22031 238.47770 240.84908
 243.47146 245.72384 247.72722 249.49361 250.91199 252.03637 252.85975 253.17714
 253.21552 252.99090 252.35228 251.30166 249.90905 248.07143 245.98181 243.81619
 241.60858 239.41396 237.23534 235.07572 232.93710 230.80549 228.83287 226.99125
 225.27563 223.74902 222.38040 221.15378 220.03716 218.99854 218.10393 217.24631
 216.48969 215.67107 214.77045 214.13584 213.58722 213.69420 213.94698 213.98575
 213.82370 214.33926 215.53600 217.10638 219.08809 222.09323 227.37405 231.97247
 235.95581 240.29175 244.57930 248.42711 251.50572 254.09517 256.44778 258.85498
 261.63174 264.53287 267.33731 269.93225 272.24982 274.27032 275.89050 277.42773
 279.11911 280.82599 282.37473 283.74115 284.92542 285.97693 286.93866 287.81760
 288.61395 289.33109 289.96094 290.80035
 366.78100 356.33803 345.77306 334.64209 323.04812 311.24515 299.11818 286.92421
 274.63924 262.53927 250.55130 239.85533 229.98036 221.08739 213.27242 206.27745
 200.11447 195.05550 191.64053 189.68556 188.72559 188.79262 189.63065 190.94168
 192.66971 194.76774 197.03377 199.39580 201.84383 204.32686 206.41789 208.26292
 209.89195 211.03998 211.27201 211.50304 211.44307 211.15110 210.78713 210.42016
 210.04019 209.75322 209.56425 209.43128 209.36231 209.69634 210.08537 210.47740
 211.27342 212.45445 213.70748 215.49351 217.42454 219.47057 221.56860 223.65463
 225.71766 227.80469 229.90472 232.01375 234.14578 236.32081 238.57984 240.95287
 243.57690 245.83093 247.83596 249.60399 251.02402 252.15005 252.97508 253.29411
 253.33414 253.11117 252.47420 251.42523 250.03426 248.19829 246.11032 243.94635
 241.74037 239.54740 237.37043 235.21246 233.07549 230.94552 228.97455 227.13458
 225.42061 223.89564 222.52867 221.30370 220.18873 219.15176 218.25879 217.40282
 216.64785 215.83088 214.93191 214.29894 213.75197 213.81013 213.94756 214.01056
 213.97513 214.43974 215.61629 217.15993 219.10446 222.08693 227.33531 231.95171
 235.95375 240.28986 244.52104 248.27478 251.27411 253.84731 256.23935 258.70618
 261.53970 264.47540 267.29205 269.89447 272.21680 274.23810 275.86316 277.40250
 279.08353 280.77170 282.31821 283.68448 284.86850 285.91821 286.88156 287.75876
 288.55313 289.26407 289.89258 290.73438
 366.78100 356.34018 345.77737 334.64855 323.05673 311.25591 299.13110 286.93928
 274.65646 262.55864 250.57283 239.87901 230.00619 221.11537 213.30256 206.30974
 200.14892 195.09210 191.67929 189.72647 188.76865 188.83783 189.67802 190.99120
 192.72138 194.82156 197.08975 199.45393 201.90411 204.38929 206.48248 208.32966
 209.96084 211.11102 211.34521 211.57839 211.52057 211.23075 210.86894 210.50412
 210.12630 209.84148 209.65467 209.52385 209.45703 209.79321 210.18440 210.57858
 211.37676 212.55994 213.81513 215.60331 217.53649 219.58467 221.68486 223.77304
 225.83822 227.92741 230.02959 232.14077 234.27495 236.45214 238.71332 241.08850
 243.71468 245.97087 247.97805 249.74823 251.17041 252.29860 253.12578 253.44696
 253.48914 253.26833 252.63351 251.58669 250.19787 248.36406 246.27824 244.11642
 241.91260 239.72179 237.54697 235.39115 233.25633 231.12852 229.15970 227.32188
 225.61006 224.08725 222.72243 221.49961 220.38679 219.35198 218.46116 217.60734
 216.85452 216.03971 215.14289 214.51207 213.96725 213.95131 213.91365 214.06476
 214.10858 214.53651 215.71475 217.22560 219.11449 222.06914 227.28847 231.92992
 235.95500 240.28683 244.45474 248.10965 251.03665 253.59909 256.03470 258.56949
 261.45926 264.42639 267.24969 269.85580 272.18161 274.20657 275.83939 277.37820
 279.04337 280.70871 282.25366 283.61987 284.80334 285.85321 286.81500 287.69098
 288.48404 289.19534 289.82065 290.66309
 366.78100 356.34230 345.78159 334.65489 323.06519 311.26649 299.14378 286.95408
 274.67338 262.57768 250.59397 239.90227 230.03157 221.14287 213.33216 206.34146
 200.18276 195.12806 191.71735 189.76665 188.81095 188.88225 189.72454 191.03984
 192.77214 194.87444 197.14473 199.51103 201.96333 204.45063 206.54592 208.39522
 210.02852 211.18081 211.41711 211.65241 211.59671 211.30900 210.94930 210.58660
 210.21090 209.92819 209.74349 209.61479 209.55009 209.88838 210.28168 210.67798
 211.47828 212.66357 213.92087 215.71117 217.64647 219.69676 221.79906 223.88936
 225.95666 228.04795 230.15225 232.26555 234.40184 236.58114 238.84444 241.22174
 243.85003 246.10833 248.11763 249.88993 251.31422 252.44452 253.27382 253.59712
 253.64141 253.42271 252.79001 251.74531 250.35860 248.52690 246.44320 244.28350
 242.08179 239.89309 237.72039 235.56669 233.43398 231.30828 229.34158 227.50588
 225.79617 224.27547 222.91277 221.69206 220.58136 219.54866 218.65996 217.80825
 217.05755 216.24485 215.35015 214.72144 214.17874 214.09082 213.88312 214.08792
 214.29964 214.63765 215.77737 217.24623 219.12700 222.06155 227.26505 231.92781
 235.96535 240.28555 244.38046 247.92970 250.78801 253.34204 255.82550 258.43658
 261.38443 264.38101 267.21033 269.81680 272.14902 274.18231 275.82538 277.36237
 279.00623 280.64050 282.18146 283.54660 284.73029 285.77878 286.74124 287.61639
 288.40985 289.12057 289.74744 290.58304
 366.78100 356.34346 345.78392 334.65838 323.06984 311.27230 299.15076 286.96222
 274.68268 262.58814 250.60560 239.91505 230.04551 221.15797 213.34843 206.35889
 200.20135 195.14781 191.73827 189.78873 188.83419 188.90665 189.75011 191.06657
 192.80003 194.90349 197.17495 199.54241 201.99587 204.48433 206.58079 208.43125
 210.06570 211.21916 211.45662 211.69308 211.63854 211.35200 210.99346 210.63192
 210.25738 209.97584 209.79230 209.66476 209.60122 209.94068 210.33514 210.73260
 211.53406 212.72052 213.97898 215.77044 217.70690 219.75835 221.86181 223.95327
 226.02173 228.11419 230.21965 232.33411 234.47157 236.65203 238.91649 241.29495
 243.92441 246.18387 248.19433 249.96779 251.39325 252.52471 253.35517 253.67963
 253.72509 253.50755 252.87600 251.83246 250.44692 248.61638 246.53384 244.37530
 242.17476 239.98722 237.81568 235.66314 233.53160 231.40706 229.44152 227.60698
 225.89844 224.37890 223.01736 221.79782 220.68828 219.65674 218.76920 217.91865
 217.16911 216.35757 215.46403 214.83649 214.29495 214.18280 213.91783 214.05898
 214.44695 214.74602 215.84154 217.36871 219.15465 222.07213 227.23099 231.91222
 235.96939 240.27190 244.28606 247.72606 250.52455 253.07912 255.61792 258.31412
 261.32092 264.34470 267.17676 269.78265 272.12216 274.16751 275.82367 277.35431
 278.96896 280.56873 282.10611 283.47205 284.65604 285.70352 286.66614 287.54010
 288.33450 289.04443 289.67126 290.50546
 366.78100 356.34475 345.78650 334.66225 323.07499 311.27874 299.15849 286.97124
 274.69299 262.59974 250.61849 239.92923 230.06098 221.17473 213.36648 206.37823
 200.22198 195.16973 191.76147 189.81322 188.85997 188.93372 189.77847 191.09622
 192.83097 194.93571 197.20846 199.57721 202.03196 204.52171 206.61946 208.47121
 210.10695 211.26170 211.50045 211.73820 211.68495 211.39970 211.04245 210.68219
 210.30894 210.02869 209.84644 209.72019 209.65794 209.99869 210.39443 210.79318
 211.59593 212.78368 214.04343 215.83618 217.77393 219.82668 221.93142 224.02417
 226.09392 228.18767 230.29442 232.41017 234.54892 236.73066 238.99641 241.37616
 244.00691 246.26766 248.27941 250.05416 251.48090 252.61365 253.44540 253.77115
 253.81790 253.60165 252.97140 251.92914 250.54489 248.71564 246.63439 244.47714
 242.27789 240.09164 237.92138 235.77013 233.63988 231.51663 229.55238 227.71913
 226.01188 224.49362 223.13337 221.91512 220.80687 219.77662 218.89037 218.04112
 217.29286 216.48261 215.59036 214.96411 214.42386 214.27969 213.93907 214.06789
 214.55783 214.83823 215.89604 217.48680 219.18419 222.07915 227.19455 231.89711
 235.97430 240.25650 244.18736 247.52071 250.26907 252.82971 255.42563 258.20706
 261.26971 264.31625 267.14828 269.74963 272.09689 274.15601 275.82690 277.35080
 278.93201 280.49527 282.02878 283.39438 284.57730 285.62637 286.58740 287.46280
 288.25516 288.96661 289.59433 290.42752
 366.78100 356.34613 345.78925 334.66638 323.08051 311.28563 299.16676 286.98089
 274.70401 262.61214 250.63227 239.94439 230.07752 221.19265 213.38577 206.39890
 200.24403 195.19315 191.78628 189.83941 188.88754 188.96266 189.80879 191.12792
 192.86404 194.97017 197.24430 199.61442 202.07055 204.56168 206.66080 208.51393
 210.15106 211.30718 211.54731 211.78644 211.73456 211.45069 211.09482 210.73594
 210.36407 210.08520 209.90432 209.77945 209.71858 210.06070 210.45783 210.85796
 211.66208 212.85121 214.11234 215.90646 217.84559 219.89972 222.00585 224.09997
 226.17110 228.26623 230.37435 232.49148 234.63161 236.81473 239.08186 241.46299
 244.09511 246.35724 248.37037 250.14649 251.57462 252.70875 253.54187 253.86900
 253.91713 253.70225 253.07338 252.03251 250.64963 248.82176 246.74189 244.58601
 242.38814 240.20327 238.03439 235.88452 233.75565 231.63377 229.67090 227.83903
 226.13315 224.61628 223.25741 222.04054 220.93366 219.90479 219.01992 218.17204
 217.42517 216.61630 215.72542 215.10055 214.56168 214.37939 213.94872 214.10101
 214.65359 214.92784 215.93546 217.56885 219.22794 222.09207 227.16721 231.89464
 235.98572 240.24434 244.08881 247.31598 250.01906 252.58701 255.23920 258.10687
 261.22299 264.28943 267.11816 269.71338 272.06625 274.14264 275.83063 277.35181
 278.89963 280.42468 281.95142 283.31631 284.49924 285.54825 286.50925 287.38452
 288.17712 288.88849 289.51465 290.34924
 366.78100 356.34723 345.79146 334.66969 323.08492 311.29114 299.17337 286.98860
 274.71283 262.62206 250.64329 239.95652 230.09075 221.20698 213.40120 206.41543
 200.26166 195.21189 191.80612 189.86035 188.90958 188.98581 189.83304 191.15326
 192.89049 194.99772 197.27295 199.64418 202.10141 204.59364 206.69387 208.54810
 210.18632 211.34355 211.58478 211.82501 211.77424 211.49147 211.13670 210.77893
 210.40816 210.13039 209.95061 209.82684 209.76707 210.11030 210.50853 210.90976
 211.71499 212.90522 214.16745 215.96267 217.90290 219.95813 222.06536 224.16059
 226.23282 228.32905 230.43828 232.55651 234.69773 236.88196 239.15019 241.53242
 244.16565 246.42888 248.44311 250.22034 251.64957 252.78479 253.61902 253.94725
 253.99648 253.78271 253.15494 252.11517 250.73340 248.90663 246.82785 244.67308
 242.47631 240.29254 238.12477 235.97600 233.84823 231.72746 229.76569 227.93491
 226.23014 224.71437 223.35660 222.14083 221.03506 220.00729 219.12352 218.27675
 217.53097 216.72320 215.83343 215.20966 214.67189 214.46376 213.97206 214.13100
 214.74385 215.01976 215.96774 217.62111 219.28020 222.11710 227.15172 231.90419
 236.00296 240.23059 243.98442 247.10393 249.76631 252.34402 255.05403 258.00980
 261.17786 264.26166 267.08679 269.67505 272.03424 274.12939 275.83759 277.36072
 278.87338 280.35806 281.87762 283.24225 284.42429 285.47458 286.43530 287.31049
 288.10135 288.81573 289.43985 290.27444
 366.78100 356.34804 345.79308 334.67212 323.08816 311.29520 299.17824 286.99428
 274.71932 262.62936 250.65140 239.96544 230.10048 221.21752 213.41256 206.42760
 200.27464 195.22568 191.82072 189.87576 188.92580 189.00284 189.85088 191.17192
 192.90996 195.01800 197.29404 199.66608 202.12412 204.61716 206.71820 208.57324
 210.21228 211.37032 211.61236 211.85340 211.80344 211.52148 211.16752 210.81056
 210.44060 210.16364 209.98468 209.86172 209.80276 210.14680 210.54584 210.94788
 211.75392 212.94496 214.20800 216.00404 217.94508 220.00112 222.10916 224.20520
 226.27824 228.37528 230.48532 232.60436 234.74640 236.93144 239.20048 241.58352
 244.21756 246.48160 248.49664 250.27468 251.70472 252.84076 253.67580 254.00484
 254.05488 253.84192 253.21496 252.17600 250.79504 248.96908 246.89112 244.73716
 242.54120 240.35824 238.19128 236.04332 233.91637 231.79641 229.83545 228.00549
 226.30153 224.78657 223.42961 222.21465 221.10969 220.08273 219.19977 218.35381
 217.60885 216.80189 215.91293 215.28997 214.75301 214.53186 214.00938 214.15642
 214.83334 215.10641 216.00310 217.66293 219.32532 222.14726 227.14594 231.91943
 236.01826 240.20941 243.86980 246.88554 249.51532 252.10715 254.87474 257.91815
 261.13571 264.23376 267.05359 269.63538 272.00195 274.11835 275.84915 277.37903
 278.86044 280.30237 281.80893 283.17294 284.35574 285.40558 286.36633 287.23969
 288.03366 288.74460 289.37094 290.20602
 366.78100 356.34866 345.79432 334.67398 323.09064 311.29830 299.18195 286.99861
 274.72427 262.63493 250.65759 239.97225 230.10791 221.22557 213.42123 206.43689
 200.28455 195.23620 191.83186 189.88752 188.93818 189.01584 189.86450 191.18616
 192.92482 195.03348 197.31014 199.68280 202.14146 204.63511 206.73677 208.59243
 210.23209 211.39075 211.63341 211.87507 211.82573 211.54439 211.19105 210.83471
 210.46536 210.18902 210.01068 209.88834 209.83000 210.17466 210.57432 210.97698
 211.78364 212.97530 214.23896 216.03561 217.97727 220.03393 222.14259 224.23925
 226.31291 228.41057 230.52123 232.64089 234.78355 236.96921 239.23886 241.62252
 244.25718 246.52184 248.53750 250.31616 251.74682 252.88348 253.71914 254.04880
 254.09946 253.88711 253.26077 252.22243 250.84209 249.01675 246.93941 244.78607
 242.59073 240.40839 238.24205 236.09471 233.96837 231.84902 229.88868 228.05934
 226.35600 224.84166 223.48532 222.27098 221.16664 220.14030 219.25796 218.41262
 217.66827 216.86193 215.97359 215.35125 214.81491 214.58832 214.05295 214.18465
 214.92050 215.18240 216.04361 217.70483 219.35399 222.17442 227.14471 231.93636
 236.02950 240.18051 243.75075 246.66959 249.27341 251.88138 254.70456 257.83163
 261.09406 264.20334 267.01755 269.59439 271.96872 274.10608 275.86063 277.40005
 278.85754 280.25867 281.74869 283.11176 284.29492 285.34409 286.30630 287.17990
 287.97394 288.68408 289.31204 290.14294
 366.78100 356.34915 345.79529 334.67544 323.09258 311.30073 299.18488 287.00202
 274.72817 262.63931 250.66246 239.97760 230.11375 221.23190 213.42804 206.44419
 200.29233 195.24448 191.84063 189.89677 188.94792 189.02606 189.87521 191.19735
 192.93650 195.04565 197.32279 199.69594 202.15508 204.64923 206.75138 208.60752
 210.24767 211.40681 211.64996 211.89211 211.84325 211.56240 211.20954 210.85369
 210.48483 210.20898 210.03113 209.90927 209.85142 210.19656 210.59671 210.99986
 211.80700 212.99915 214.26329 216.06044 218.00258 220.05973 222.16888 224.26602
 226.34017 228.43831 230.54946 232.66961 234.81275 236.99890 239.26904 241.65319
 244.28834 246.55348 248.56963 250.34877 251.77992 252.91706 253.75321 254.08336
 254.13450 253.92265 253.29679 252.25894 250.87909 249.05423 246.97738 244.82452
 242.62967 240.44782 238.28196 236.13511 234.00925 231.89040 229.93054 228.10169
 226.39884 224.88498 223.52913 222.31527 221.21142 220.18557 219.30371 218.45886
 217.71500 216.90915 216.02129 215.39944 214.86359 214.63588 214.09790 214.22490
 214.99998 215.25273 216.08316 217.74405 219.36572 222.20468 227.14825 231.95291
 236.03697 240.14632 243.62901 246.45802 249.04057 251.66493 254.54118 257.74762
 261.05133 264.16901 266.97739 269.55176 271.93674 274.09433 275.87231 277.42245
 278.85983 280.23001 281.69977 283.06180 284.24524 285.29483 286.25592 287.13107
 287.92380 288.63583 289.26288 290.09540
 366.78100 356.34952 345.79604 334.67657 323.09409 311.30261 299.18713 287.00466
 274.73118 262.64270 250.66622 239.98175 230.11827 221.23679 213.43331 206.44983
 200.29836 195.25088 191.84740 189.90392 188.95545 189.03397 189.88349 191.20601
 192.94554 195.05506 197.33258 199.70610 202.16562 204.66015 206.76267 208.61919
 210.25971 211.41924 211.66276 211.90528 211.85680 211.57633 211.22385 210.86837
 210.49989 210.22441 210.04694 209.92546 209.86798 210.21350 210.61403 211.01755
 211.82507 213.01759 214.28211 216.07964 218.02216 220.07968 222.18920 224.28673
 226.36125 228.45977 230.57129 232.69182 234.83534 237.02186 239.29238 241.67690
 244.31243 246.57795 248.59447 250.37399 251.80552 252.94304 253.77956 254.11008
 254.16161 253.95013 253.32465 252.28717 250.90769 249.08322 247.00674 244.85426
 242.65978 240.47831 238.31283 236.16635 234.04087 231.92240 229.96292 228.13444
 226.43196 224.91848 223.56301 222.34953 221.24605 220.22057 219.33910 218.49462
 217.75114 216.94566 216.05819 215.43671 214.90123 214.67563 214.14261 214.27542
 215.07126 215.33669 216.12399 217.74426 219.37276 222.21201 227.16415 231.98094
 236.04500 240.11024 243.50710 246.24916 248.81375 251.45651 254.38431 257.66473
 261.00610 264.12894 266.93216 269.50766 271.90543 274.08441 275.88641 277.44885
 278.87289 280.22256 281.66284 283.02280 284.20596 285.25607 286.21735 287.09247
 287.88477 288.59671 289.22418 290.05145
 366.78100 356.34975 345.79650 334.67724 323.09499 311.30374 299.18849 287.00623
 274.73298 262.64473 250.66848 239.98422 230.12097 221.23972 213.43647 206.45321
 200.30196 195.25471 191.85146 189.90820 188.95995 189.03870 189.88845 191.21119
 192.95094 195.06069 197.33844 199.71218 202.17193 204.66668 206.76943 208.62617
 210.26692 211.42667 211.67042 211.91316 211.86491 211.58466 211.23241 210.87715
 210.50890 210.23365 210.05640 209.93514 209.87789 210.22364 210.62439 211.02813
 211.83588 213.02863 214.29338 216.09112 218.03387 220.09162 222.20137 224.29911
 226.37386 228.47261 230.58436 232.70510 234.84885 237.03560 239.30635 241.69109
 244.32684 246.59259 248.60934 250.38908 251.82083 252.95858 253.79533 254.12607
 254.17782 253.96657 253.34132 252.30406 250.92481 249.10056 247.02431 244.87205
 242.67780 240.49655 238.33130 236.18504 234.05979 231.94154 229.98229 228.15403
 226.45178 224.93853 223.58328 222.37002 221.26677 220.24152 219.36027 218.51601
 217.77276 216.96751 216.08026 215.45900 214.92375 214.70592 214.19128 214.33156
 215.13173 215.43068 216.17589 217.75644 219.38960 222.23537 227.17926 232.00229
 236.04526 240.06007 243.36908 246.02988 248.58372 251.25119 254.23331 257.58304
 260.95721 264.08182 266.88052 269.46060 271.87436 274.07663 275.90387 277.48148
 278.89853 280.23746 281.63980 282.99625 284.18060 285.23044 286.19131 287.06805
 287.85956 288.57199 289.19888 290.02499
 366.78100 356.34982 345.79665 334.67747 323.09530 311.30412 299.18895 287.00677
 274.73359 262.64542 250.66924 239.98507 230.12189 221.24072 213.43754 206.45436
 200.30319 195.25601 191.85284 189.90966 188.96149 189.04031 189.89013 191.21296
 192.95278 195.06261 197.34043 199.71426 202.17408 204.66890 206.77173 208.62855
 210.26938 211.42920 211.67303 211.91585 211.86767 211.58750 211.23532 210.88015
 210.51197 210.23680 210.05962 209.93844 209.88127 210.22709 210.62792 211.03174
 211.83956 213.03239 214.29721 216.09504 218.03786 220.09569 222.20551 224.30333
 226.37816 228.47698 230.58881 232.70963 234.85346 237.04028 239.31110 241.69593
 244.33175 246.59758 248.61440 250.39423 251.82605 252.96387 253.80070 254.13152
 254.18335 253.97217 253.34700 252.30982 250.93064 249.10647 247.03029 244.87812
 242.68394 240.50277 238.33759 236.19141 234.06624 231.94806 229.98889 228.16071
 226.45854 224.94536 223.59018 222.37701 221.27383 220.24866 219.36748 218.52331
 217.78013 216.97495 216.08778 215.46660 214.93143 214.72650 214.24236 214.39412
 215.18272 215.52144 216.24196 217.77740 219.40723 222.26965 227.19484 232.01651
 236.03745 239.99333 243.21152 245.79836 248.35129 251.05107 254.09113 257.50488
 260.90540 264.02951 266.82526 269.41281 271.84647 274.07327 275.92673 277.52026
 278.93188 280.25961 281.63382 282.98877 284.17392 285.22406 286.18594 287.06012
 287.85297 288.56174 289.19174 290.01468
 366.78100 356.34963 345.79627 334.67690 323.09454 311.30317 299.18781 287.00544
 274.73208 262.64371 250.66735 239.98298 230.11962 221.23825 213.43489 206.45152
 200.30016 195.25279 191.84943 189.90606 188.95770 189.03633 189.88596 191.20860
 192.94823 195.05787 197.33550 199.70914 202.16877 204.66341 206.76604 208.62268
 210.26331 211.42295 211.66658 211.90922 211.86085 211.58049 211.22812 210.87276
 210.50439 210.22902 210.05166 209.93029 209.87293 210.21856 210.61920 211.02283
 211.83047 213.02310 214.28774 216.08537 218.02801 220.08564 222.19528 224.29291
 226.36755 228.46618 230.57782 232.69845 234.84209 237.02872 239.29935 241.68399
 244.31962 246.58526 248.60189 250.38153 251.81316 252.95080 253.78743 254.11807
 254.16970 253.95834 253.33297 252.29561 250.91624 249.09188 247.01551 244.86315
 242.66878 240.48742 238.32205 236.17568 234.05032 231.93195 229.97259 228.14422
 226.44186 224.92849 223.57313 222.35976 221.25640 220.23103 219.34967 218.50530
 217.76194 216.95657 216.06921 215.44784 214.91248 214.73167 214.30447 214.45001
 215.24153 215.61452 216.30318 217.79997 219.43594 222.30759 227.21507 232.02708
 236.02048 239.90665 243.03387 245.55708 248.12006 250.86078 253.96033 257.43240
 260.85297 263.97427 266.76855 269.36746 271.82187 274.07275 275.95020 277.55713
 278.96310 280.27682 281.64621 283.00092 284.18680 285.23807 286.20206 287.07712
 287.87015 288.58167 289.20831 290.03384
 366.78100 356.34948 345.79596 334.67645 323.09393 311.30241 299.18689 287.00438
 274.73086 262.64234 250.66582 239.98131 230.11779 221.23627 213.43275 206.44923
 200.29772 195.25020 191.84668 189.90316 188.95465 189.03313 189.88261 191.20509
 192.94458 195.05406 197.33154 199.70502 202.16450 204.65899 206.76147 208.61795
 210.25843 211.41792 211.66140 211.90388 211.85536 211.57485 211.22233 210.86681
 210.49829 210.22278 210.04526 209.92374 209.86622 210.21170 210.61219 211.01567
 211.82315 213.01563 214.28012 216.07760 218.02008 220.07756 222.18705 224.28453
 226.35901 228.45749 230.56897 232.68946 234.83294 237.01942 239.28990 241.67439
 244.30987 246.57535 248.59183 250.37132 251.80280 252.94028 253.77676 254.10724
 254.15873 253.94721 253.32169 252.28417 250.90466 249.08014 247.00362 244.85110
 242.65659 240.47507 238.30955 236.16303 234.03751 231.91900 229.95948 228.13096
 226.42844 224.91493 223.55941 222.34589 221.24237 220.21686 219.33534 218.49082
 217.74730 216.94179 216.05427 215.43275 214.89723 214.73628 214.35600 214.52177
 215.29291 215.70300 216.38844 217.82812 219.45601 222.33804 227.23578 232.03383
 235.99471 239.80293 242.84271 245.31433 247.89676 250.68422 253.84276 257.36588
 260.80026 263.91632 266.70981 269.32224 271.79800 274.07315 275.97632 277.59900
 279.00259 280.30515 281.66629 283.01999 284.20816 285.26016 286.22275 287.09766
 287.89102 288.60254 289.22870 290.05490
 366.78100 356.34916 345.79532 334.67549 323.09265 311.30081 299.18497 287.00213
 274.72830 262.63946 250.66262 239.97778 230.11394 221.23211 213.42827 206.44443
 200.29259 195.24475 191.84092 189.89708 188.94824 189.02640 189.87556 191.19773
 192.93689 195.04605 197.32321 199.69638 202.15554 204.64970 206.75186 208.60802
 210.24819 211.40735 211.65051 211.89267 211.84383 211.56300 211.21016 210.85432
 210.48548 210.20964 210.03181 209.90997 209.85213 210.19729 210.59745 211.00062
 211.80778 212.99994 214.26410 216.06126 218.00343 220.06059 222.16975 224.26691
 226.34107 228.43924 230.55040 232.67056 234.81372 236.99988 239.27005 241.65421
 244.28937 246.55453 248.57069 250.34986 251.78102 252.91818 253.75434 254.08450
 254.13567 253.92383 253.29799 252.26015 250.88031 249.05548 246.97864 244.82580
 242.63096 240.44913 238.28329 236.13645 234.01061 231.89177 229.93194 228.10310
 226.40026 224.88642 223.53058 222.31675 221.21291 220.18707 219.30523 218.46039
 217.71656 216.91072 216.02288 215.40104 214.86520 214.73047 214.41214 214.58032
 215.37042 215.79044 216.44698 217.86278 219.49866 222.37341 227.26117 232.03989
 235.96231 239.68590 242.63948 245.06749 247.67528 250.51405 253.73198 257.30038
 260.74277 263.85034 266.64401 269.27286 271.77136 274.07434 276.00552 277.64743
 279.05475 280.34845 281.69421 283.04788 284.23587 285.29050 286.25409 287.13434
 287.93112 288.64804 289.27603 290.10510
 366.78100 356.34847 345.79395 334.67342 323.08990 311.29737 299.18085 286.99732
 274.72279 262.63327 250.65574 239.97022 230.10569 221.22317 213.41864 206.43411
 200.28159 195.23306 191.82854 189.88401 188.93449 189.01196 189.86044 191.18191
 192.92038 195.02886 197.30533 199.67781 202.13628 204.62976 206.73123 208.58670
 210.22618 211.38465 211.62713 211.86860 211.81908 211.53755 211.18402 210.82750
 210.45797 210.18145 210.00292 209.88040 209.82187 210.16634 210.56582 210.96829
 211.77477 212.96624 214.22972 216.02619 217.96766 220.02414 222.13261 224.22909
 226.30256 228.40004 230.51051 232.62999 234.77246 236.95793 239.22741 241.61088
 244.24536 246.50983 248.52531 250.30378 251.73425 252.87073 253.70620 254.03568
 254.08615 253.87363 253.24710 252.20857 250.82805 249.00252 246.92500 244.77147
 242.57595 240.39342 238.22689 236.07937 233.95284 231.83332 229.87279 228.04327
 226.33974 224.82521 223.46869 222.25416 221.14964 220.12311 219.24059 218.39506
 217.65054 216.84401 215.95548 215.33296 214.79643 214.70480 214.48831 214.61826
 215.42062 215.91537 216.57730 217.91827 219.53181 222.38550 227.27187 232.03488
 235.91446 239.54698 242.41608 244.81107 247.45377 250.35141 253.62941 257.23779
 260.68381 263.78183 266.57703 269.22443 271.74884 274.07993 276.04233 277.70798
 279.12140 280.41052 281.72839 283.07925 284.26724 285.32373 286.28824 287.16748
 287.96451 288.68356 289.31317 290.13928
 366.78100 356.34796 345.79293 334.67189 323.08785 311.29482 299.17778 286.99374
 274.71871 262.62867 250.65063 239.96460 230.09956 221.21652 213.41149 206.42645
 200.27342 195.22438 191.81934 189.87431 188.92427 189.00123 189.84920 191.17016
 192.90812 195.01609 197.29205 199.66401 202.12198 204.61494 206.71590 208.57087
 210.20983 211.36779 211.60976 211.85072 211.80068 211.51865 211.16461 210.80757
 210.43754 210.16050 209.98147 209.85843 209.79939 210.14336 210.54232 210.94428
 211.75025 212.94121 214.20417 216.00014 217.94110 219.99706 222.10503 224.20099
 226.27395 228.37092 230.48088 232.59984 234.74181 236.92677 239.19573 241.57870
 244.21266 246.47662 248.49159 250.26955 251.69952 252.83548 253.67044 253.99941
 254.04937 253.83633 253.20930 252.17026 250.78922 248.96319 246.88515 244.73111
 242.53508 240.35204 238.18500 236.03697 233.90993 231.78989 229.82886 227.99882
 226.29478 224.77975 223.42271 222.20767 221.10264 220.07560 219.19257 218.34653
 217.60149 216.79446 215.90542 215.28238 214.74535 214.68599 214.54578 214.68872
 215.43347 216.00822 216.71133 217.98892 219.54767 222.42412 227.28635 232.02457
 235.86313 239.40488 242.19456 244.56558 247.24837 250.20703 253.54236 257.18372
 260.62918 263.71686 266.51382 269.17932 271.72845 274.08746 276.07898 277.76825
 279.18729 280.47372 281.76584 283.11523 284.30386 285.35876 286.32425 287.20273
 288.00107 288.71970 289.34906 290.17407
 366.78100 356.34768 345.79236 334.67103 323.08671 311.29339 299.17607 286.99174
 274.71642 262.62610 250.64778 239.96145 230.09613 221.21281 213.40749 206.42216
 200.26884 195.21952 191.81420 189.86888 188.91855 188.99523 189.84291 191.16359
 192.90126 195.00894 197.28462 199.65630 202.11397 204.60665 206.70733 208.56201
 210.20069 211.35836 211.60004 211.84072 211.79040 211.50807 211.15375 210.79643
 210.42611 210.14878 209.96946 209.84614 209.78682 210.13049 210.52917 210.93085
 211.73653 212.92721 214.18988 215.98556 217.92624 219.98192 222.08959 224.18527
 226.25795 228.35463 230.46430 232.58298 234.72466 236.90934 239.17802 241.56069
 244.19437 246.45805 248.47273 250.25040 251.68008 252.81576 253.65044 253.97911
 254.02879 253.81547 253.18815 252.14882 250.76750 248.94118 246.86286 244.70854
 242.51221 240.32889 238.16157 236.01325 233.88592 231.76560 229.80428 227.97396
 226.26963 224.75431 223.39699 222.18167 221.07635 220.04902 219.16570 218.31938
 217.57406 216.76673 215.87741 215.25409 214.71677 214.67641 214.58102 214.79564
 215.44142 216.07074 216.82559 218.07925 219.57303 222.44362 227.30881 232.02063
 235.81247 239.26515 241.97990 244.33430 247.05966 250.07932 253.46765 257.13458
 260.57498 263.65009 266.44910 269.13229 271.70627 274.09106 276.10925 277.81802
 279.24521 280.52667 281.80533 283.15381 284.34485 285.40057 286.36465 287.24411
 288.04288 288.76215 289.38956 290.21436
 366.78100 356.34743 345.79186 334.67028 323.08571 311.29214 299.17457 286.98999
 274.71442 262.62385 250.64528 239.95870 230.09313 221.20956 213.40399 206.41841
 200.26484 195.21527 191.80970 189.86412 188.91355 188.98998 189.83741 191.15783
 192.89526 195.00269 197.27812 199.64954 202.10697 204.59940 206.69983 208.55425
 210.19268 211.35011 211.59154 211.83197 211.78139 211.49882 211.14425 210.78668
 210.41610 210.13853 209.95896 209.83539 209.77581 210.11924 210.51767 210.91910
 211.72452 212.91495 214.17738 215.97281 217.91323 219.96866 222.07609 224.17152
 226.24394 228.34037 230.44980 232.56823 234.70965 236.89408 239.16251 241.54494
 244.17836 246.44179 248.45622 250.23365 251.66307 252.79850 253.63293 253.96136
 254.01079 253.79721 253.16964 252.13007 250.74850 248.92192 246.84335 244.68878
 242.49221 240.30863 238.14106 235.99249 233.86492 231.74434 229.78277 227.95220
 226.24763 224.73205 223.37448 222.15891 221.05334 220.02576 219.14219 218.29562
 217.55005 216.74247 215.85290 215.22933 214.69176 214.66629 214.60611 214.91455
 215.46307 216.12408 216.93256 218.16745 219.60446 222.44928 227.33215 232.01738
 235.75923 239.12234 241.76669 244.11067 246.88185 249.96304 253.40123 257.08835
 260.51999 263.58121 266.38312 269.08493 271.68344 274.09277 276.13559 277.86496
 279.29932 280.58072 281.84509 283.19254 284.38211 285.43954 286.40433 287.28168
 288.08029 288.79745 289.42389 290.25232
 366.78100 356.34709 345.79118 334.66927 323.08436 311.29045 299.17254 286.98763
 274.71172 262.62080 250.64189 239.95498 230.08907 221.20516 213.39925 206.41334
 200.25943 195.20952 191.80361 189.85770 188.90679 188.98288 189.82997 191.15006
 192.88715 194.99424 197.26933 199.64041 202.09750 204.58959 206.68968 208.54377
 210.18186 211.33895 211.58004 211.82013 211.76922 211.48631 211.13140 210.77349
 210.40258 210.12467 209.94476 209.82085 209.76094 210.10402 210.50211 210.90320
 211.70829 212.89838 214.16047 215.95556 217.89565 219.95074 222.05783 224.15292
 226.22501 228.32110 230.43019 232.54828 234.68937 236.87346 239.14155 241.52363
 244.15672 246.41981 248.43390 250.21099 251.64008 252.77517 253.60926 253.93735
 253.98644 253.77253 253.14462 252.10471 250.72280 248.89589 246.81698 244.66207
 242.46515 240.28124 238.11333 235.96442 233.83651 231.71560 229.75369 227.92278
 226.21787 224.70196 223.34405 222.12814 221.02223 219.99432 219.11041 218.26350
 217.51759 216.70968 215.81976 215.19585 214.65794 214.65009 214.63150 215.02058
 215.51505 216.19733 217.04301 218.23888 219.62595 222.44917 227.34898 232.00758
 235.69492 238.96675 241.54341 243.88687 246.70837 249.85379 253.34087 257.04514
 260.46765 263.51807 266.32462 269.04599 271.66739 274.09964 276.16727 277.91556
 279.35443 280.62881 281.88297 283.22891 284.42035 285.47769 286.44214 287.31949
 288.11731 288.83224 289.46323 290.28220
 366.78100 356.34668 345.79035 334.66803 323.08271 311.28838 299.17006 286.98474
 274.70841 262.61709 250.63777 239.95044 230.08412 221.19979 213.39347 206.40715
 200.25282 195.20250 191.79618 189.84985 188.89853 188.97421 189.82088 191.14056
 192.87724 194.98391 197.25859 199.62927 202.08594 204.57762 206.67730 208.53097
 210.16865 211.32533 211.56600 211.80568 211.75436 211.47103 211.11571 210.75738
 210.38606 210.10774 209.92741 209.80309 209.74277 210.08544 210.48312 210.88380
 211.68847 212.87815 214.13983 215.93450 217.87418 219.92886 222.03553 224.13021
 226.20189 228.29756 230.40624 232.52392 234.66459 236.84827 239.11595 241.49762
 244.13030 246.39297 248.40665 250.18333 251.61200 252.74668 253.58036 253.90803
 253.95671 253.74239 253.11406 252.07374 250.69142 248.86409 246.78477 244.62945
 242.43212 240.24780 238.07948 235.93015 233.80183 231.68051 229.71818 227.88686
 226.18154 224.66521 223.30689 222.09056 220.98424 219.95592 219.07159 218.22427
 217.47795 216.66962 215.77930 215.15498 214.61665 214.62892 214.65790 215.11203
 215.58623 216.28772 217.16013 218.30569 219.64435 222.45265 227.35983 231.98997
 235.62135 238.79939 241.31287 243.66356 246.53952 249.74957 253.28357 257.00040
 260.41177 263.45187 266.26566 269.00702 271.65048 274.10544 276.19757 277.96930
 279.41931 280.69189 281.91815 283.26111 284.45181 285.50885 286.47186 287.34970
 288.14700 288.86258 289.49362 290.31161
 366.78100 356.34660 345.79021 334.66781 323.08242 311.28802 299.16963 286.98423
 274.70784 262.61644 250.63705 239.94965 230.08326 221.19886 213.39247 206.40607
 200.25167 195.20128 191.79488 189.84849 188.89709 188.97270 189.81930 191.13891
 192.87551 194.98212 197.25672 199.62733 202.08393 204.57554 206.67514 208.52874
 210.16635 211.32295 211.56356 211.80316 211.75177 211.46837 211.11298 210.75458
 210.38319 210.10479 209.92440 209.80000 209.73961 210.08221 210.47981 210.88042
 211.68502 212.87463 214.13623 215.93084 217.87044 219.92505 222.03165 224.12626
 226.19786 228.29347 230.40207 232.51968 234.66028 236.84388 239.11149 241.49309
 244.12570 246.38830 248.40191 250.17851 251.60712 252.74172 253.57533 253.90293
 253.95154 253.73714 253.10875 252.06835 250.68595 248.85856 246.77916 244.62377
 242.42637 240.24198 238.07358 235.92419 233.79579 231.67440 229.71200 227.88061
 226.17521 224.65882 223.30042 222.08402 220.97763 219.94923 219.06484 218.21744
 217.47105 216.66265 215.77226 215.14786 214.60947 214.62434 214.65950 215.20944
 215.66911 216.37779 217.27852 218.37190 219.66783 222.46422 227.36916 231.96716
 235.53944 238.62645 241.08638 243.45221 246.38390 249.65558 253.23094 256.95340
 260.34875 263.37793 266.19788 268.95944 271.62512 274.09930 276.21530 278.00937
 279.47318 280.75504 281.95065 283.29205 284.48206 285.53998 286.50241 287.37897
 288.17636 288.89212 289.52081 290.33923
 366.78100 356.34683 345.79067 334.66850 323.08333 311.28917 299.17100 286.98583
 274.70967 262.61850 250.63933 239.95217 230.08600 221.20183 213.39567 206.40950
 200.25533 195.20517 191.79900 189.85283 188.90166 188.97750 189.82433 191.14416
 192.88100 194.98783 197.26266 199.63350 202.09033 204.58216 206.68200 208.53583
 210.17366 211.33050 211.57133 211.81116 211.76000 211.47683 211.12166 210.76350
 210.39233 210.11416 209.93400 209.80983 209.74966 210.09250 210.49033 210.89116
 211.69600 212.88583 214.14766 215.94250 217.88233 219.93716 222.04400 224.13883
 226.21066 228.30649 230.41533 232.53316 234.67399 236.85783 239.12566 241.50749
 244.14033 246.40316 248.41699 250.19383 251.62266 252.75749 253.59133 253.91916
 253.96799 253.75383 253.12566 252.08549 250.70333 248.87616 246.79699 244.64183
 242.44466 240.26049 238.09233 235.94316 233.81499 231.69383 229.73166 227.90049
 226.19533 224.67916 223.32099 222.10483 220.99866 219.97049 219.08632 218.23916
 217.49299 216.68482 215.79466 215.17049 214.63232 214.63509 214.64162 215.30946
 215.76506 216.47009 217.39667 218.43433 219.69501 222.47829 227.37515 231.93738
 235.44794 238.45105 240.86894 243.25804 246.24455 249.57368 253.18442 256.90704
 260.28641 263.30563 266.13309 268.91293 271.59772 274.08960 276.22729 278.03900
 279.51465 280.80542 281.98038 283.32004 284.51089 285.56778 286.53131 287.40756
 288.20416 288.92081 289.54822 290.36459
 366.78100 356.34698 345.79096 334.66895 323.08393 311.28991 299.17189 286.98687
 274.71086 262.61984 250.64082 239.95380 230.08778 221.20377 213.39775 206.41173
 200.25771 195.20769 191.80168 189.85566 188.90464 188.98062 189.82760 191.14759
 192.88457 194.99155 197.26653 199.63751 202.09450 204.58648 206.68646 208.54044
 210.17842 211.33541 211.57639 211.81637 211.76535 211.48233 211.12732 210.76930
 210.39828 210.12026 209.94024 209.81623 209.75621 210.09919 210.49717 210.89815
 211.70314 212.89312 214.15510 215.95008 217.89006 219.94505 222.05203 224.14701
 226.21899 228.31497 230.42396 232.54194 234.68292 236.86690 239.13488 241.51687
 244.14985 246.41283 248.42681 250.20380 251.63278 252.76776 253.60174 253.92972
 253.97871 253.76469 253.13667 252.09665 250.71463 248.88762 246.80860 244.65358
 242.45656 240.27254 238.10453 235.95551 233.82749 231.70647 229.74445 227.91344
 226.20842 224.69240 223.33438 222.11836 221.01235 219.98433 219.10031 218.25329
 217.50727 216.69926 215.80924 215.18522 214.64720 214.64154 214.62817 215.40530
 215.86658 216.55923 217.51524 218.49706 219.72519 222.49020 227.37589 231.89920
 235.34795 238.27469 240.66063 243.07642 246.11607 249.49800 253.13861 256.85712
 260.22025 263.23239 266.06921 268.86707 271.57071 274.07712 276.23367 278.06149
 279.54626 280.84253 282.00406 283.34406 284.53500 285.59207 286.55557 287.43024
 288.22684 288.94254 289.57092 290.38773
 366.78100 356.34713 345.79127 334.66940 323.08453 311.29067 299.17280 286.98793
 274.71207 262.62120 250.64233 239.95547 230.08960 221.20573 213.39987 206.41400
 200.26013 195.21026 191.80440 189.85853 188.90766 188.98380 189.83093 191.15106
 192.88820 194.99533 197.27046 199.64160 202.09873 204.59086 206.69100 208.54513
 210.18326 211.34040 211.58153 211.82166 211.77080 211.48793 211.13306 210.77520
 210.40433 210.12646 209.94660 209.82273 209.76286 210.10600 210.50413 210.90526
 211.71040 212.90053 214.16266 215.95779 217.89793 219.95306 222.06019 224.15533
 226.22746 228.32359 230.43273 232.55086 234.69199 236.87613 239.14426 241.52639
 244.15953 246.42266 248.43679 250.21393 251.64306 252.77819 253.61233 253.94046
 253.98959 253.77573 253.14786 252.10799 250.72613 248.89926 246.82039 244.66553
 242.46866 240.28479 238.11692 235.96806 233.84019 231.71932 229.75746 227.92659
 226.22172 224.70586 223.34799 222.13212 221.02626 219.99839 219.11452 218.26766
 217.52179 216.71392 215.82406 215.20019 214.66232 214.64804 214.61427 215.49377
 215.98811 216.65787 217.62914 218.55933 219.75676 222.49944 227.36852 231.84932
 235.23573 238.09399 240.45801 242.90761 245.99809 249.42825 253.09232 256.79959
 260.14319 263.14746 265.99622 268.81509 271.53564 274.05435 276.22656 278.06793
 279.55838 280.86069 282.01874 283.36041 284.55103 285.60864 286.57089 287.44623
 288.24338 288.95923 289.58780 290.40430
 366.78100 356.34746 345.79192 334.67039 323.08585 311.29231 299.17477 286.99023
 274.71470 262.62416 250.64562 239.95908 230.09354 221.21001 213.40447 206.41893
 200.26539 195.21585 191.81032 189.86478 188.91424 188.99070 189.83817 191.15863
 192.89609 195.00355 197.27901 199.65048 202.10794 204.60040 206.70086 208.55532
 210.19379 211.35125 211.59271 211.83317 211.78263 211.50010 211.14556 210.78802
 210.41748 210.13994 209.96041 209.83687 209.77733 210.12079 210.51925 210.92072
 211.72618 212.91664 214.17910 215.97456 217.91503 219.97049 222.07795 224.17341
 226.24588 228.34234 230.45180 232.57026 234.71172 236.89619 239.16465 241.54711
 244.18057 246.44403 248.45850 250.23596 251.66542 252.80088 253.63534 253.96381
 254.01327 253.79973 253.17219 252.13265 250.75112 248.92458 246.84604 244.69150
 242.49496 240.31143 238.14389 235.99535 233.86781 231.74727 229.78574 227.95520
 226.25066 224.73512 223.37759 222.16205 221.05651 220.02897 219.14543 218.29890
 217.55336 216.74582 215.85628 215.23274 214.69521 214.66373 214.58937 215.56334
 216.13347 216.78299 217.74026 218.62659 219.78160 222.50014 227.35461 231.78908
 235.11382 237.91019 240.26169 242.75362 245.89522 249.36914 253.05000 256.74057
 260.06314 263.06161 265.92429 268.76489 271.50095 274.02774 276.21155 278.06128
 279.55420 280.85568 282.02939 283.36981 284.56079 285.61810 286.58093 287.45932
 288.25473 288.97180 289.59943 290.41550
 366.78100 356.34773 345.79246 334.67119 323.08692 311.29365 299.17638 286.99210
 274.71683 262.62656 250.64829 239.96202 230.09675 221.21348 213.40821 206.42294
 200.26967 195.22040 191.81513 189.86986 188.91958 188.99631 189.84404 191.16477
 192.90250 195.01023 197.28596 199.65769 202.11542 204.60815 206.70888 208.56361
 210.20234 211.36006 211.60179 211.84252 211.79225 211.50998 211.15571 210.79844
 210.42817 210.15090 209.97163 209.84836 209.78909 210.13282 210.53154 210.93327
 211.73900 212.92973 214.19246 215.98819 217.92892 219.98465 222.09238 224.18811
 226.26084 228.35757 230.46730 232.58603 234.72775 236.91248 239.18121 241.56394
 244.19767 246.46140 248.47613 250.25386 251.68359 252.81932 253.65405 253.98278
 254.03251 253.81923 253.19196 252.15269 250.77142 248.94515 246.86688 244.71261
 242.51634 240.33307 238.16580 236.01753 233.89026 231.76999 229.80871 227.97844
 226.27417 224.75890 223.40163 222.18636 221.08109 220.05382 219.17055 218.32428
 217.57901 216.77174 215.88247 215.25919 214.72192 214.67621 214.56824 215.61331
 216.27992 216.92451 217.84741 218.69089 219.81520 222.50702 227.33626 231.72057
 234.98497 237.72238 240.06824 242.60991 245.80511 249.32101 253.01384 256.68582
 259.98990 262.98590 265.86212 268.72183 271.47073 274.00266 276.19336 278.04968
 279.54068 280.84006 282.03210 283.37399 284.56537 285.62149 286.58475 287.46011
 288.25806 288.97440 289.60162 290.41797
 366.78100 356.34805 345.79311 334.67216 323.08822 311.29527 299.17833 286.99438
 274.71944 262.62949 250.65155 239.96560 230.10066 221.21771 213.41277 206.42782
 200.27488 195.22593 191.82098 189.87604 188.92609 189.00315 189.85120 191.17226
 192.91031 195.01837 197.29442 199.66648 202.12453 204.61759 206.71864 208.57370
 210.21275 211.37081 211.61286 211.85391 211.80397 211.52202 211.16808 210.81113
 210.44119 210.16424 209.98530 209.86235 209.80341 210.14746 210.54652 210.94857
 211.75463 212.94568 214.20874 216.00479 217.94584 220.00190 222.10995 224.20601
 226.27906 228.37612 230.48617 232.60523 234.74728 236.93234 239.20139 241.58445
 244.21850 246.48256 248.49761 250.27567 251.70572 252.84177 253.67683 254.00588
 254.05594 253.84299 253.21605 252.17710 250.79616 248.97021 246.89227 244.73832
 242.54238 240.35943 238.19249 236.04454 233.91760 231.79765 229.83670 228.00676
 226.30281 224.78787 223.43092 222.21598 221.11103 220.08409 219.20114 218.35520
 217.61025 216.80331 215.91436 215.29142 214.75447 214.69075 214.54022 215.66544
 216.43127 217.06915 217.95290 218.76353 219.82370 222.49336 227.30980 231.64528
 234.85220 237.53624 239.88235 242.47885 245.72882 249.28320 252.98288 256.63373
 259.91916 262.91299 265.80292 268.67987 271.43918 273.97314 276.16901 278.03006
 279.51907 280.81747 282.02609 283.36926 284.55994 285.61734 286.57941 287.45578
 288.25241 288.96884 289.59473 290.41025
 366.78100 356.34863 345.79426 334.67389 323.09052 311.29815 299.18178 286.99841
 274.72404 262.63467 250.65730 239.97193 230.10756 221.22519 213.42082 206.43645
 200.28408 195.23571 191.83134 189.88697 188.93760 189.01523 189.86386 191.18549
 192.92412 195.03275 197.30938 199.68201 202.14064 204.63427 206.73590 208.59153
 210.23116 211.38979 211.63242 211.87405 211.82468 211.54331 211.18994 210.83357
 210.46420 210.18783 210.00946 209.88709 209.82872 210.17335 210.57298 210.97561
 211.78224 212.97387 214.23750 216.03413 217.97576 220.03239 222.14102 224.23765
 226.31128 228.40891 230.51954 232.63917 234.78180 236.96743 239.23706 241.62069
 244.25532 246.51995 248.53558 250.31421 251.74484 252.88147 253.71710 254.04673
 254.09736 253.88499 253.25862 252.22025 250.83988 249.01451 246.93714 244.78377
 242.58840 240.40603 238.23966 236.09229 233.96592 231.84655 229.88618 228.05681
 226.35344 224.83907 223.48270 222.26833 221.16396 220.13759 219.25522 218.40985
 217.66548 216.85911 215.97074 215.34837 214.81200 214.71811 214.49631 215.71748
 216.60431 217.23563 218.03278 218.79236 219.85373 222.49767 227.28563 231.56642
 234.71513 237.34579 239.69577 242.35181 245.65857 249.24956 252.95128 256.57614
 259.84131 262.83517 265.73938 268.63538 271.40350 273.93796 276.13867 278.00455
 279.49033 280.79178 282.01523 283.35965 284.54977 285.60413 286.56796 287.44211
 288.23831 288.95538 289.58139 290.39474
 366.78100 356.34915 345.79529 334.67544 323.09259 311.30073 299.18488 287.00203
 274.72817 262.63932 250.66247 239.97761 230.11376 221.23191 213.42805 206.44420
 200.29235 195.24450 191.84064 189.89679 188.94794 189.02608 189.87523 191.19738
 192.93652 195.04567 197.32282 199.69596 202.15511 204.64926 206.75140 208.60755
 210.24770 211.40684 211.64999 211.89214 211.84328 211.56243 211.20958 210.85372
 210.48487 210.20902 210.03116 209.90931 209.85146 210.19661 210.59675 210.99990
 211.80705 212.99919 214.26334 216.06049 218.00263 220.05978 222.16893 224.26607
 226.34022 228.43837 230.54951 232.66966 234.81281 236.99895 239.26910 241.65325
 244.28839 246.55354 248.56969 250.34883 251.77998 252.91713 253.75327 254.08342
 254.13457 253.92271 253.29686 252.25901 250.87916 249.05430 246.97745 244.82460
 242.62974 240.44789 238.28204 236.13518 234.00933 231.89048 229.93062 228.10177
 226.39892 224.88506 223.52921 222.31536 221.21150 220.18565 219.30380 218.45894
 217.71509 216.90924 216.02138 215.39953 214.86368 214.74391 214.46092 215.73930
 216.77823 217.44449 218.19891 218.81369 219.83527 222.50089 227.25162 231.46895
 234.55669 237.13492 239.49786 242.22464 245.59349 249.21991 252.92052 256.51663
 259.76199 262.75851 265.68063 268.59451 271.36948 273.90314 276.10812 277.97946
 279.46274 280.76950 281.99936 283.34415 284.53372 285.58759 286.54959 287.42505
 288.22028 288.93610 289.56155 290.37799
 366.78100 356.34947 345.79595 334.67642 323.09390 311.30237 299.18685 287.00432
 274.73080 262.64227 250.66574 239.98122 230.11769 221.23617 213.43264 206.44912
 200.29759 195.25006 191.84654 189.90301 188.95449 189.03296 189.88244 191.20491
 192.94439 195.05386 197.33133 199.70481 202.16428 204.65876 206.76123 208.61771
 210.25818 211.41765 211.66113 211.90360 211.85508 211.57455 211.22203 210.86650
 210.49798 210.22245 210.04492 209.92340 209.86587 210.21135 210.61182 211.01530
 211.82277 213.01524 214.27972 216.07719 218.01967 220.07714 222.18662 224.28409
 226.35857 228.45704 230.56851 232.68899 234.83246 237.01894 239.28941 241.67389
 244.30936 246.57484 248.59131 250.37078 251.80226 252.93973 253.77621 254.10668
 254.15816 253.94663 253.32110 252.28358 250.90405 249.07953 247.00300 244.85048
 242.65595 240.47443 238.30890 236.16237 234.03685 231.91832 229.95880 228.13027
 226.42775 224.91422 223.55869 222.34517 221.24164 220.21612 219.33459 218.49007
 217.74654 216.94102 216.05349 215.43196 214.89644 214.76093 214.44078 215.73941
 216.93446 217.64847 218.38489 218.86734 219.80794 222.49211 227.20944 231.36041
 234.38855 236.92039 239.30623 242.11168 245.54549 249.20439 252.89841 256.46362
 259.69019 262.69028 265.62756 268.55588 271.33508 273.86462 276.07352 277.94586
 279.42816 280.73761 281.97891 283.32449 284.51273 285.56665 286.52811 287.40332
 288.19727 288.91391 289.53882 290.35422
 366.78100 356.34979 345.79657 334.67736 323.09515 311.30393 299.18872 287.00650
 274.73329 262.64508 250.66886 239.98465 230.12144 221.24022 213.43701 206.45380
 200.30258 195.25537 191.85216 189.90894 188.96073 189.03951 189.88930 191.21209
 192.95187 195.06166 197.33945 199.71323 202.17302 204.66781 206.77059 208.62738
 210.26817 211.42795 211.67174 211.91452 211.86631 211.58610 211.23388 210.87867
 210.51046 210.23524 210.05803 209.93682 209.87960 210.22539 210.62618 211.02996
 211.83775 213.03053 214.29532 216.09311 218.03589 220.09368 222.20347 224.30125
 226.37604 228.47483 230.58661 232.70740 234.85119 237.03797 239.30876 241.69354
 244.32933 246.59512 248.61190 250.39169 251.82348 252.96126 253.79805 254.12884
 254.18062 253.96941 253.34420 252.30698 250.92777 249.10355 247.02734 244.87513
 242.68091 240.49970 238.33449 236.18827 234.06306 231.94485 229.98563 228.15742
 226.45521 224.94199 223.58678 222.37356 221.27035 220.24514 219.36392 218.51971
 217.77650 216.97128 216.08407 215.46286 214.92764 214.77609 214.41801 215.73746
 217.08659 217.84874 218.54567 218.93964 219.79294 222.47169 227.16167 231.24780
 234.21909 236.71239 239.13043 242.01843 245.51555 249.20193 252.88429 256.41513
 259.62198 262.62396 265.57504 268.51489 271.29434 273.81671 276.02634 277.89337
 279.37326 280.69061 281.95380 283.30154 284.48792 285.54160 286.50186 287.37662
 288.17072 288.88654 289.51080 290.32343
 366.78100 356.35011 345.79721 334.67832 323.09643 311.30553 299.19064 287.00874
 274.73585 262.64796 250.67206 239.98817 230.12528 221.24438 213.44149 206.45859
 200.30770 195.26081 191.85791 189.91502 188.96713 189.04623 189.89634 191.21944
 192.95955 195.06966 197.34776 199.72187 202.18198 204.67708 206.78019 208.63729
 210.27840 211.43851 211.68261 211.92572 211.87783 211.59793 211.24604 210.89114
 210.52325 210.24836 210.07146 209.95057 209.89368 210.23978 210.64089 211.04499
 211.85310 213.04621 214.31131 216.10942 218.05253 220.11063 222.22074 224.31884
 226.39395 228.49306 230.60516 232.72627 234.87038 237.05748 239.32859 241.71369
 244.34980 246.61591 248.63301 250.41312 251.84523 252.98333 253.82044 254.15154
 254.20365 253.99276 253.36786 252.33097 250.95208 249.12818 247.05229 244.90039
 242.70650 240.52561 238.36071 236.21482 234.08993 231.97203 230.01314 228.18524
 226.48335 224.97046 223.61556 222.40267 221.29978 220.27488 219.39399 218.55009
 217.80720 217.00231 216.11541 215.49452 214.95963 214.78984 214.38872 215.73604
 217.24171 218.05130 218.68385 219.01109 219.79054 222.44168 227.10887 231.13033
 234.04831 236.50989 238.96768 241.94089 245.49973 249.20882 252.87352 256.36755
 259.55350 262.55612 265.51996 268.46945 271.24719 273.76089 275.96701 277.82330
 279.30270 280.63193 281.92410 283.27194 284.45779 285.51071 286.47168 287.34515
 288.13828 288.85184 289.47772 290.29007
 366.78100 356.35042 345.79784 334.67926 323.09768 311.30710 299.19252 287.01094
 274.73836 262.65078 250.67520 239.99162 230.12904 221.24846 213.44588 206.46330
 200.31272 195.26614 191.86356 189.92098 188.97340 189.05282 189.90324 191.22666
 192.96708 195.07750 197.35592 199.73034 202.19076 204.68618 206.78960 208.64702
 210.28844 211.44886 211.69328 211.93670 211.88912 211.60954 211.25796 210.90338
 210.53580 210.26122 210.08464 209.96406 209.90748 210.25390 210.65532 211.05974
 211.86816 213.06158 214.32700 216.12542 218.06884 220.12726 222.23768 224.33610
 226.41152 228.51094 230.62336 232.74478 234.88920 237.07662 239.34804 241.73346
 244.36988 246.63630 248.65372 250.43414 251.86656 253.00498 253.84240 254.17382
 254.22624 254.01566 253.39108 252.35450 250.97592 249.15234 247.07676 244.92518
 242.73160 240.55102 238.38644 236.24086 234.11628 231.99870 230.04012 228.21254
 226.51096 224.99838 223.64380 222.43122 221.32864 220.30406 219.42348 218.57990
 217.83732 217.03274 216.14616 215.52558 214.99100 214.80171 214.35452 215.73779
 217.39891 218.24669 218.81366 219.07796 219.79837 222.40691 227.05087 231.00897
 233.87579 236.31311 238.81628 241.87648 245.49533 249.22169 252.86464 256.31915
 259.48282 262.48560 265.46231 268.42068 271.19431 273.69913 275.89877 277.74142
 279.22192 280.56934 281.88947 283.23950 284.42395 285.47491 286.43356 287.30713
 288.10159 288.81320 289.43927 290.25006
 366.78100 356.35073 345.79845 334.68018 323.09891 311.30863 299.19436 287.01309
 274.74082 262.65354 250.67827 239.99500 230.13272 221.25245 213.45018 206.46790
 200.31763 195.27136 191.86909 189.92681 188.97954 189.05927 189.90999 191.23372
 192.97445 195.08517 197.36390 199.73863 202.19936 204.69508 206.79881 208.65654
 210.29826 211.45899 211.70372 211.94744 211.90017 211.62090 211.26963 210.91535
 210.54808 210.27381 210.09753 209.97726 209.92099 210.26771 210.66944 211.07417
 211.88290 213.07662 214.34235 216.14108 218.08480 220.14353 222.25426 224.35298
 226.42871 228.52844 230.64116 232.76289 234.90762 237.09535 239.36707 241.75280
 244.38953 246.65625 248.67398 250.45471 251.88743 253.02616 253.86389 254.19562
 254.24834 254.03807 253.41380 252.37752 250.99925 249.17598 247.10070 244.94943
 242.75616 240.57589 238.41161 236.26634 234.14207 232.02479 230.06652 228.23925
 226.53797 225.02570 223.67143 222.45916 221.35688 220.33261 219.45234 218.60906
 217.86679 217.06252 216.17624 215.55597 215.02170 214.81262 214.31868 215.74655
 217.55093 218.43147 218.94449 219.14836 219.81535 222.37215 226.98904 230.88353
 233.70230 236.12169 238.67499 241.82312 245.49878 249.23779 252.85478 256.26807
 259.40961 262.41330 265.40387 268.36990 271.13803 273.63370 275.82373 277.65179
 279.13699 280.50531 281.84875 283.19931 284.38208 285.43286 286.39090 287.26361
 288.05560 288.76807 289.39157 290.20502
 366.78100 356.35108 345.79915 334.68123 323.10031 311.31039 299.19646 287.01554
 274.74362 262.65669 250.68177 239.99885 230.13692 221.25700 213.45508 206.47316
 200.32323 195.27731 191.87539 189.93346 188.98654 189.06662 189.91769 191.24177
 192.98285 195.09393 197.37300 199.74808 202.20916 204.70523 206.80931 208.66739
 210.30946 211.47054 211.71562 211.95970 211.91277 211.63385 211.28293 210.92900
 210.56208 210.28816 210.11223 209.99231 209.93639 210.28347 210.68554 211.09062
 211.89970 213.09377 214.35985 216.15893 218.10300 220.16208 222.27316 224.37224
 226.44831 228.54839 230.66147 232.78354 234.92862 237.11670 239.38878 241.77485
 244.41193 246.67901 248.69708 250.47816 251.91124 253.05031 253.88839 254.22047
 254.27355 254.06362 253.43970 252.40378 251.02585 249.20293 247.12801 244.97708
 242.78416 240.60424 238.44032 236.29539 234.17147 232.05455 230.09662 228.26970
 226.56878 225.05685 223.70293 222.49101 221.38909 220.36516 219.48524 218.64232
 217.90039 217.09647 216.21055 215.59062 215.05670 214.82623 214.28171 215.75862
 217.69083 218.60760 219.07393 219.22560 219.84583 222.34280 226.92287 230.75470
 233.52866 235.93568 238.54297 241.77841 245.50810 249.25410 252.84264 256.21448
 259.33475 262.34134 265.34653 268.31702 271.07870 273.56363 275.74033 277.55322
 279.04691 280.43692 281.80267 283.15225 284.33466 285.38242 286.34073 287.21234
 288.00400 288.71667 289.34265 290.15112
 366.78100 356.35136 345.79971 334.68207 323.10142 311.31178 299.19813 287.01749
 274.74585 262.65920 250.68456 240.00191 230.14027 221.26063 213.45898 206.47734
 200.32769 195.28205 191.88040 189.93876 188.99212 189.07247 189.92383 191.24818
 192.98954 195.10089 197.38025 199.75561 202.21696 204.71332 206.81767 208.67603
 210.31839 211.47974 211.72510 211.96945 211.92281 211.64416 211.29352 210.93988
 210.57323 210.29959 210.12394 210.00430 209.94865 210.29601 210.69837 211.10372
 211.91308 213.10743 214.37379 216.17315 218.11750 220.17686 222.28821 224.38757
 226.46392 228.56428 230.67764 232.79999 234.94535 237.13370 239.40606 241.79242
 244.42977 246.69713 248.71548 250.49684 251.93019 253.06955 253.90791 254.24026
 254.29362 254.08397 253.46033 252.42468 251.04704 249.22440 247.14975 244.99911
 242.80646 240.62682 238.46318 236.31853 234.19489 232.07824 230.12060 228.29395
 226.59331 225.08167 223.72802 222.51638 221.41473 220.39109 219.51144 218.66880
 217.92716 217.12351 216.23787 215.61822 215.08458 214.83562 214.24745 215.76292
 217.82004 218.78279 219.21291 219.31442 219.87802 222.31349 226.85381 230.62469
 233.35692 235.75684 238.42078 241.74269 245.52145 249.26964 252.82712 256.15860
 259.25992 262.27158 265.29065 268.26224 271.01468 273.48633 275.64514 277.44217
 278.94952 280.36426 281.74765 283.09656 284.27789 285.32535 286.28070 287.15302
 287.94382 288.65729 289.28091 290.09082
 366.78100 356.35129 345.79959 334.68188 323.10118 311.31147 299.19777 287.01706
 274.74536 262.65865 250.68395 240.00124 230.13954 221.25983 213.45812 206.47642
 200.32671 195.28101 191.87930 189.93760 188.99089 189.07119 189.92248 191.24678
 192.98807 195.09937 197.37866 199.75395 202.21525 204.71154 206.81584 208.67413
 210.31643 211.47772 211.72302 211.96731 211.92061 211.64190 211.29120 210.93749
 210.57078 210.29708 210.12137 210.00167 209.94596 210.29326 210.69555 211.10085
 211.91014 213.10444 214.37073 216.17002 218.11432 220.17361 222.28491 224.38420
 226.46050 228.56079 230.67409 232.79638 234.94168 237.12997 239.40227 241.78856
 244.42585 246.69315 248.71144 250.49274 251.92603 253.06533 253.90362 254.23592
 254.28921 254.07951 253.45580 252.42010 251.04239 249.21968 247.14498 244.99427
 242.80157 240.62186 238.45816 236.31345 234.18975 232.07304 230.11534 228.28863
 226.58793 225.07622 223.72251 222.51081 221.40910 220.38540 219.50569 218.66299
 217.92128 217.11758 216.23187 215.61217 215.07846 214.82552 214.22791 215.76244
 217.93904 218.94913 219.33194 219.39944 219.92322 222.29362 226.78406 230.49451
 233.18846 235.58727 238.31177 241.71786 245.54086 249.28519 252.81030 256.10394
 259.19000 262.20779 265.23740 268.20441 270.94382 273.39917 275.53534 277.31833
 278.84207 280.28348 281.68289 283.02716 284.20694 285.25415 286.20956 287.07953
 287.87088 288.58319 289.20953 290.01694
 366.78100 356.35093 345.79886 334.68079 323.09972 311.30965 299.19558 287.01451
 274.74245 262.65538 250.68031 239.99724 230.13517 221.25510 213.45303 206.47096
 200.32089 195.27482 191.87275 189.93068 188.98361 189.06354 189.91448 191.23841
 192.97934 195.09027 197.36920 199.74413 202.20506 204.70099 206.80492 208.66285
 210.30478 211.46571 211.71064 211.95457 211.90750 211.62844 211.27737 210.92330
 210.55623 210.28216 210.10609 209.98602 209.92995 210.27688 210.67881 211.08374
 211.89267 213.08660 214.35253 216.15146 218.09540 220.15433 222.26526 224.36419
 226.44012 228.54005 230.65298 232.77491 234.91984 237.10777 239.37970 241.76563
 244.40256 246.66949 248.68743 250.46836 251.90129 253.04022 253.87815 254.21008
 254.26301 254.05294 253.42887 252.39280 251.01473 249.19166 247.11659 244.96552
 242.77245 240.59239 238.42832 236.28325 234.15918 232.04211 230.08404 228.25697
 226.55590 225.04383 223.68976 222.47769 221.37562 220.35155 219.47148 218.62842
 217.88635 217.08228 216.19621 215.57614 215.04207 214.80045 214.22957 215.76276
 218.04025 219.09979 219.43440 219.46924 219.96454 222.27493 226.71344 230.36703
 233.02731 235.43112 238.21938 241.70830 245.56923 249.30663 252.79866 256.05652
 259.12891 262.15179 265.18820 268.14502 270.86798 273.30313 275.41196 277.18509
 278.72821 280.19650 281.60440 282.94272 284.12115 285.16644 286.12326 286.99365
 287.78516 288.49838 289.12573 289.93277
 366.78100 356.35058 345.79815 334.67973 323.09830 311.30788 299.19345 287.01203
 274.73960 262.65218 250.67676 239.99333 230.13091 221.25048 213.44806 206.46563
 200.31521 195.26879 191.86636 189.92394 188.97651 189.05609 189.90666 191.23024
 192.97081 195.08139 197.35997 199.73454 202.19512 204.69069 206.79427 208.65184
 210.29342 211.45400 211.69857 211.94215 211.89472 211.61530 211.26387 210.90945
 210.54202 210.26760 210.09118 209.97075 209.91433 210.26090 210.66248 211.06705
 211.87563 213.06921 214.33478 216.13336 218.07693 220.13551 222.24608 224.34466
 226.42023 228.51981 230.63239 232.75396 234.89854 237.08611 239.35769 241.74326
 244.37984 246.64641 248.66399 250.44457 251.87714 253.01572 253.85329 254.18487
 254.23744 254.02702 253.40260 252.36617 250.98775 249.16432 247.08890 244.93747
 242.74405 240.56362 238.39920 236.25378 234.12935 232.01193 230.05350 228.22608
 226.52465 225.01223 223.65781 222.44538 221.34296 220.31853 219.43811 218.59468
 217.85226 217.04783 216.16141 215.54099 215.00656 214.78192 214.25117 215.74652
 218.11623 219.22995 219.53607 219.53761 220.01276 222.25876 226.63782 230.23471
 232.86559 235.28526 238.14493 241.71623 245.61249 249.33650 252.79456 256.02121
 259.08148 262.10638 265.14285 268.08029 270.78336 273.19708 275.28250 277.04877
 278.61108 280.09476 281.50537 282.83865 284.01379 285.05923 286.01453 286.88736
 287.67899 288.39792 289.02487 289.83664
 366.78100 356.35002 345.79704 334.67806 323.09608 311.30510 299.19013 287.00815
 274.73517 262.64719 250.67121 239.98723 230.12425 221.24327 213.44029 206.45731
 200.30634 195.25936 191.85638 189.91340 188.96542 189.04444 189.89446 191.21748
 192.95750 195.06752 197.34554 199.71957 202.17959 204.67461 206.77763 208.63465
 210.27567 211.43569 211.67971 211.92273 211.87475 211.59478 211.24280 210.88782
 210.51984 210.24486 210.06788 209.94690 209.88992 210.23594 210.63696 211.04098
 211.84901 213.04203 214.30705 216.10507 218.04809 220.10611 222.21613 224.31415
 226.38917 228.48819 230.60022 232.72124 234.86526 237.05228 239.32330 241.70832
 244.34434 246.61036 248.62738 250.40740 251.83942 252.97745 253.81447 254.14549
 254.19751 253.98653 253.36155 252.32457 250.94559 249.12161 247.04563 244.89366
 242.69968 240.51870 238.35372 236.20774 234.08276 231.96478 230.00580 228.17782
 226.47584 224.96287 223.60789 222.39491 221.29193 220.26695 219.38597 218.54199
 217.79901 216.99403 216.10705 215.48607 214.95110 214.75487 214.29129 215.73105
 218.16260 219.33192 219.63441 219.59615 220.03539 222.23332 226.56651 230.11945
 232.73322 235.17453 238.10254 241.75046 245.67203 249.38091 252.80542 256.00031
 259.04645 262.07004 265.10065 268.01462 270.69284 273.07608 275.12393 276.88242
 278.47119 279.97766 281.38898 282.71225 283.88763 284.93094 285.88696 286.75974
 287.55664 288.27432 288.90366 289.72318
 366.78100 356.34823 345.79347 334.67270 323.08893 311.29616 299.17940 286.99563
 274.72086 262.63110 250.65333 239.96756 230.10279 221.22003 213.41526 206.43049
 200.27772 195.22896 191.82419 189.87942 188.92966 189.00689 189.85512 191.17635
 192.91459 195.02282 197.29905 199.67129 202.12952 204.62275 206.72398 208.57922
 210.21845 211.37668 211.61891 211.86015 211.81038 211.52861 211.17485 210.81808
 210.44831 210.17154 209.99278 209.87001 209.81124 210.15548 210.55471 210.95694
 211.76317 212.95441 214.21764 216.01387 217.95510 220.01134 222.11957 224.21580
 226.28904 228.38627 230.49650 232.61573 234.75797 236.94320 239.21243 241.59567
 244.22990 246.49413 248.50936 250.28760 251.71783 252.85406 253.68929 254.01853
 254.06876 253.85599 253.22923 252.19046 250.80969 248.98392 246.90616 244.75239
 242.55662 240.37386 238.20709 236.05932 233.93255 231.81279 229.85202 228.02225
 226.31848 224.80372 223.44695 222.23218 221.12742 220.10065 219.21788 218.37211
 217.62735 216.82058 215.93181 215.30905 214.77228 214.65228 214.36880 215.76085
 218.16579 219.38170 219.69275 219.62206 220.03650 222.19870 226.49725 230.01622
 232.62024 235.09830 238.10205 241.82149 245.76915 249.45717 252.84131 256.00247
 259.02707 262.03775 265.05200 267.93109 270.57602 272.92627 274.95251 276.71771
 278.32910 279.83823 281.24841 282.56561 283.73859 284.78387 285.73868 286.61111
 287.40961 288.13007 288.76202 289.58041
 366.78100 356.34646 345.78991 334.66737 323.08182 311.28728 299.16873 286.98319
 274.70664 262.61510 250.63555 239.94801 230.08147 221.19692 213.39038 206.40383
 200.24929 195.19874 191.79220 189.84565 188.89411 188.96956 189.81602 191.13547
 192.87193 194.97839 197.25284 199.62330 202.07975 204.57121 206.67066 208.52412
 210.16157 211.31803 211.55848 211.79794 211.74640 211.46285 211.10731 210.74876
 210.37722 210.09867 209.91813 209.79358 209.73304 210.07549 210.47295 210.87341
 211.67786 212.86732 214.12877 215.92323 217.86268 219.91714 222.02359 224.11805
 226.18950 228.28496 230.39342 232.51087 234.65133 236.83478 239.10224 241.48369
 244.11615 246.37860 248.39206 250.16851 251.59697 252.73142 253.56488 253.89234
 253.94079 253.72625 253.09770 252.05716 250.67461 248.84707 246.76752 244.61198
 242.41443 240.22989 238.06135 235.91180 233.78326 231.66171 229.69917 227.86762
 226.16208 224.64553 223.28699 222.07044 220.96390 219.93536 219.05081 218.20327
 217.45672 216.64818 215.75763 215.13309 214.59454 214.54765 214.43684 215.87912
 218.19618 219.37004 219.65657 219.57390 219.97028 222.12474 226.40439 229.88907
 232.50185 235.03577 238.13142 241.94067 245.92358 249.60283 252.95671 256.08154
 259.07590 262.05850 265.03622 267.86218 270.45355 272.73853 274.69882 276.45532
 278.08856 279.62323 281.03897 282.34161 283.50214 284.54333 285.49783 286.37082
 287.16885 287.88965 288.52240 289.34595
 366.78100 356.34721 345.79141 334.66962 323.08482 311.29103 299.17323 286.98844
 274.71264 262.62185 250.64305 239.95626 230.09046 221.20667 213.40087 206.41508
 200.26128 195.21149 191.80569 189.85990 188.90911 188.98531 189.83252 191.15272
 192.88993 194.99713 197.27234 199.64354 202.10075 204.59295 206.69316 208.54736
 210.18557 211.34277 211.58398 211.82418 211.77339 211.49059 211.13580 210.77800
 210.40721 210.12942 209.94962 209.82583 209.76603 210.10924 210.50744 210.90865
 211.71385 212.90406 214.16626 215.96147 217.90167 219.95688 222.06408 224.15929
 226.23149 228.32770 230.43690 232.55511 234.69632 236.88052 239.14873 241.53093
 244.16414 246.42734 248.44155 250.21875 251.64796 252.78316 253.61737 253.94557
 253.99478 253.78098 253.15319 252.11339 250.73160 248.90480 246.82601 244.67121
 242.47442 240.29063 238.12283 235.97404 233.84624 231.72545 229.76365 227.93286
 226.22806 224.71227 223.35447 222.13868 221.03288 220.00509 219.12129 218.27450
 217.52870 216.72091 215.83111 215.20732 214.66953 214.56906 214.33171 216.00128
 218.40970 219.48509 219.61229 219.37114 219.73378 221.94246 226.26169 229.72798
 232.34489 234.94824 238.15651 242.04489 246.07378 249.76666 253.11282 256.23773
 259.21918 262.18399 265.14188 267.92639 270.48337 272.73880 274.67374 276.35330
 277.97318 279.45102 280.73615 281.90253 282.97409 283.99512 284.94385 285.81381
 286.61383 287.33929 287.97662 288.81192
 366.78100 356.34933 345.79566 334.67599 323.09331 311.30164 299.18597 287.00330
 274.72963 262.64096 250.66429 239.97961 230.11594 221.23427 213.43060 206.44693
 200.29526 195.24758 191.84391 189.90024 188.95157 189.02990 189.87923 191.20156
 192.94088 195.05021 197.32754 199.70087 202.16020 204.65453 206.75686 208.61318
 210.25351 211.41284 211.65617 211.89850 211.84983 211.56915 211.21648 210.86081
 210.49214 210.21647 210.03880 209.91713 209.85945 210.20478 210.60511 211.00844
 211.81577 213.00810 214.27243 216.06975 218.01208 220.06941 222.17874 224.27607
 226.35040 228.44873 230.56005 232.68038 234.82371 237.01004 239.28037 241.66470
 244.30002 246.56535 248.58168 250.36101 251.79234 252.92967 253.76600 254.09632
 254.14765 253.93598 253.31031 252.27264 250.89297 249.06830 246.99162 244.83895
 242.64428 240.46261 238.29694 236.15027 234.02460 231.90592 229.94625 228.11758
 226.41491 224.90124 223.54557 222.33189 221.22822 220.20255 219.32088 218.47621
 217.73254 216.92687 216.03919 215.41752 214.88185 214.67648 214.19128 216.01062
 218.71370 219.80705 219.76511 219.24725 219.48405 221.70845 226.03423 229.42181
 232.00351 234.67278 238.03493 242.09216 246.22531 249.91058 253.23744 256.36584
 259.34875 262.31494 265.23715 267.97571 270.50809 272.77011 274.70670 276.37051
 278.00211 279.27002 280.44312 281.48401 282.43082 283.41278 284.35858 285.23007
 286.03583 286.77319 287.42563 288.26456
 366.78100 356.34979 345.79657 334.67736 323.09515 311.30393 299.18872 287.00651
 274.73329 262.64508 250.66887 239.98465 230.12144 221.24023 213.43701 206.45380
 200.30259 195.25537 191.85216 189.90895 188.96073 189.03952 189.88930 191.21209
 192.95188 195.06166 197.33945 199.71324 202.17302 204.66781 206.77060 208.62738
 210.26817 211.42796 211.67174 211.91453 211.86632 211.58610 211.23389 210.87868
 210.51046 210.23525 210.05804 209.93682 209.87961 210.22540 210.62618 211.02997
 211.83776 213.03054 214.29533 216.09312 218.03590 220.09369 222.20348 224.30126
 226.37605 228.47484 230.58662 232.70741 234.85119 237.03798 239.30877 241.69355
 244.32934 246.59513 248.61191 250.39170 251.82349 252.96127 253.79806 254.12885
 254.18063 253.96942 253.34421 252.30699 250.92778 249.10357 247.02735 244.87514
 242.68093 240.49971 238.33450 236.18829 234.06307 231.94486 229.98565 228.15743
 226.45522 224.94201 223.58679 222.37358 221.27037 220.24515 219.36394 218.51973
 217.77651 216.97130 216.08408 215.46287 214.92766 214.70332 214.17331 215.94426
 218.85428 220.10181 220.04184 219.32391 219.40327 221.57671 225.86745 229.18562
 231.73894 234.46928 237.94904 242.06776 246.20512 249.85573 253.15117 256.27054
 259.26480 262.25583 265.17484 267.89673 270.42422 272.69635 274.66116 276.36197
 277.92081 279.09680 280.22031 281.20523 282.13278 283.14185 284.09357 284.97067
 285.78238 286.52454 287.17731 288.02844
 366.78100 356.34835 345.79370 334.67304 323.08939 311.29674 299.18009 286.99643
 274.72178 262.63213 250.65448 239.96882 230.10417 221.22152 213.41687 206.43222
 200.27956 195.23091 191.82626 189.88161 188.93195 189.00930 189.85765 191.17900
 192.91734 195.02569 197.30204 199.67439 202.13273 204.62608 206.72743 208.58278
 210.22213 211.38047 211.62282 211.86417 211.81452 211.53286 211.17921 210.82256
 210.45291 210.17625 209.99760 209.87495 209.81630 210.16065 210.55999 210.96234
 211.76869 212.96004 214.22338 216.01973 217.96108 220.01743 222.12577 224.22212
 226.29547 228.39282 230.50317 232.62251 234.76486 236.95021 239.21956 241.60290
 244.23725 246.50160 248.51695 250.29529 251.72564 252.86199 253.69734 254.02669
 254.07703 253.86438 253.23773 252.19908 250.81842 248.99277 246.91512 244.76147
 242.56581 240.38316 238.21651 236.06886 233.94220 231.82255 229.86190 228.03225
 226.32860 224.81394 223.45729 222.24264 221.13799 220.11133 219.22868 218.38303
 217.63838 216.83172 215.94307 215.32042 214.78377 214.62979 214.26598 215.91951
 218.81699 220.22192 220.21075 219.37950 219.36424 221.50122 225.75119 229.01216
 231.53868 234.31218 237.89531 242.12753 246.35661 249.97113 253.22017 256.32043
 259.32236 262.32739 265.21439 267.89444 270.38931 272.64026 274.58533 276.32706
 277.78687 278.86914 279.95557 280.91376 281.82526 282.81732 283.76691 284.64172
 285.45294 286.19492 286.85391 287.70697
 366.78100 356.34645 345.78989 334.66734 323.08179 311.28724 299.16868 286.98313
 274.70658 262.61502 250.63547 239.94792 230.08137 221.19681 213.39026 206.40371
 200.24916 195.19860 191.79205 189.84550 188.89394 188.96939 189.81584 191.13529
 192.87173 194.97818 197.25263 199.62307 202.07952 204.57097 206.67042 208.52386
 210.16131 211.31776 211.55820 211.79765 211.74610 211.46255 211.10699 210.74844
 210.37689 210.09833 209.91778 209.79323 209.73268 210.07512 210.47257 210.87302
 211.67747 212.86691 214.12836 215.92281 217.86225 219.91670 222.02315 224.11760
 226.18904 228.28449 230.39294 232.51038 234.65083 236.83428 239.10173 241.48317
 244.11562 246.37807 248.39151 250.16796 251.59641 252.73086 253.56430 253.89175
 253.94020 253.72565 253.09709 252.05654 250.67399 248.84643 246.76688 244.61133
 242.41378 240.22922 238.06067 235.91112 233.78256 231.66101 229.69846 227.86691
 226.16135 224.64480 223.28625 222.06969 220.96314 219.93459 219.05004 218.20248
 217.45593 216.64738 215.75683 215.13227 214.59372 214.52724 214.37016 215.95325
 218.73944 220.25975 220.32071 219.39441 219.32343 221.43901 225.64360 228.84885
 231.34718 234.15681 237.82996 242.22198 246.51846 250.06996 253.26402 256.34653
 259.35413 262.36920 265.23486 267.87485 270.33292 272.55908 274.51855 276.27325
 277.67914 278.71429 279.79034 280.72955 281.61044 282.57672 283.52350 284.39490
 285.20642 285.94681 286.60919 287.46469
 366.78100 356.34479 345.78659 334.66238 323.07518 311.27897 299.15877 286.97156
 274.69335 262.60015 250.61894 239.92974 230.06153 221.17533 213.36712 206.37892
 200.22271 195.17050 191.76230 189.81409 188.86089 188.93468 189.77948 191.09727
 192.83206 194.93686 197.20965 199.57845 202.03324 204.52304 206.62083 208.47263
 210.10842 211.26321 211.50201 211.73980 211.68660 211.40139 211.04419 210.68398
 210.31077 210.03057 209.84836 209.72216 209.65995 210.00075 210.39654 210.79534
 211.59813 212.78592 214.04572 215.83851 217.77631 219.82910 221.93390 224.02669
 226.09648 228.19028 230.29707 232.41287 234.55166 236.73346 238.99925 241.37904
 244.00984 246.27063 248.28243 250.05722 251.48402 252.61681 253.44861 253.77440
 253.82119 253.60499 252.97478 251.93258 250.54837 248.71917 246.63796 244.48075
 242.28155 240.09534 237.92514 235.77393 233.64373 231.52052 229.55632 227.72311
 226.01590 224.49770 223.13749 221.91929 220.81108 219.78088 218.89467 218.04546
 217.29726 216.48705 215.59485 214.96864 214.42844 214.43753 214.45898 215.99863
 218.69041 220.26590 220.41632 219.40443 219.28293 221.38239 225.53459 228.69035
 231.17879 234.03618 237.79997 242.32729 246.62994 250.12732 253.28523 256.37506
 259.37845 262.39658 265.24319 267.84540 270.27258 272.49628 274.47342 276.21368
 277.56744 278.58606 279.65048 280.58881 281.45273 282.41214 283.35257 284.22369
 285.03189 285.77151 286.43030 287.29068
 366.78100 356.34335 345.78370 334.65804 323.06939 311.27174 299.15009 286.96143
 274.68178 262.58713 250.60448 239.91383 230.04417 221.15652 213.34687 206.35722
 200.19957 195.14591 191.73626 189.78661 188.83196 188.90430 189.74765 191.06400
 192.79735 194.90070 197.17204 199.53939 201.99274 204.48109 206.57743 208.42778
 210.06213 211.21548 211.45283 211.68917 211.63452 211.34787 210.98922 210.62757
 210.25291 209.97126 209.78761 209.65996 209.59630 209.93565 210.33000 210.72735
 211.52870 212.71504 213.97339 215.76474 217.70109 219.75243 221.85578 223.94713
 226.01548 228.10783 230.21317 232.32752 234.46487 236.64522 238.90957 241.28791
 243.91726 246.17661 248.18696 249.96030 251.38565 252.51700 253.34735 253.67170
 253.71704 253.49939 252.86774 251.82409 250.43844 248.60778 246.52513 244.36648
 242.16583 239.97817 237.80652 235.65387 233.52222 231.39757 229.43191 227.59726
 225.88861 224.36896 223.00730 221.78765 220.67800 219.64635 218.75870 217.90804
 217.15839 216.34674 215.45309 214.82544 214.28378 214.36429 214.55447 216.02451
 218.65814 220.29721 220.52094 219.41232 219.22496 221.30611 225.40498 228.51225
 231.00456 233.93391 237.79424 242.41631 246.71065 250.17116 253.31129 256.40558
 259.41803 262.44049 265.27731 267.85028 270.25970 272.48886 274.46643 276.17517
 277.48099 278.48917 279.53241 280.42584 281.28323 282.25018 283.18872 284.05576
 284.85550 285.58841 286.23962 287.09973
 366.78100 356.34270 345.78240 334.65611 323.06681 311.26851 299.14621 286.95691
 274.67662 262.58132 250.59802 239.90672 230.03642 221.14813 213.33783 206.34753
 200.18923 195.13494 191.72464 189.77434 188.81904 188.89074 189.73345 191.04915
 192.78185 194.88455 197.15525 199.52196 201.97466 204.46236 206.55806 208.40776
 210.04147 211.19417 211.43087 211.66657 211.61127 211.32398 210.96468 210.60238
 210.22708 209.94479 209.76049 209.63219 209.56789 209.90659 210.30030 210.69700
 211.49770 212.68340 213.94110 215.73181 217.66751 219.71821 221.82091 223.91161
 225.97932 228.07102 230.17572 232.28942 234.42612 236.60583 238.86953 241.24723
 243.87593 246.13464 248.14434 249.91704 251.34174 252.47244 253.30215 253.62585
 253.67055 253.45225 252.81995 251.77566 250.38936 248.55806 246.47476 244.31546
 242.11417 239.92587 237.75357 235.60027 233.46797 231.34268 229.37638 227.54108
 225.83178 224.31148 222.94919 221.72889 220.61859 219.58629 218.69800 217.84670
 217.09640 216.28410 215.38980 214.76151 214.21921 214.33879 214.62134 216.06689
 218.59966 220.30742 220.64325 219.46046 219.17628 221.23047 225.25946 228.30199
 230.80939 233.82286 237.80579 242.47386 246.74922 250.17628 253.31393 256.42389
 259.44656 262.48056 265.31107 267.86340 270.25757 272.48489 274.47305 276.16891
 277.46768 278.48529 279.52957 280.45209 281.27042 282.06509 282.96808 283.83392
 284.64117 285.38449 286.02228 286.85922
 366.78100 356.34165 345.78030 334.65295 323.06260 311.26325 299.13990 286.94955
 274.66820 262.57185 250.58750 239.89515 230.02380 221.13445 213.32310 206.33175
 200.17240 195.11705 191.70571 189.75436 188.79801 188.86866 189.71031 191.02496
 192.75661 194.85826 197.12791 199.49356 201.94521 204.43186 206.52651 208.37516
 210.00781 211.15946 211.39511 211.62976 211.57341 211.28506 210.92471 210.56136
 210.18501 209.90166 209.71631 209.58696 209.52161 209.85926 210.25191 210.64756
 211.44721 212.63186 213.88851 215.67816 217.61282 219.66247 221.76412 223.85377
 225.92042 228.01107 230.11472 232.22737 234.36302 236.54167 238.80432 241.18097
 243.80862 246.06627 248.07492 249.84657 251.27022 252.39987 253.22852 253.55117
 253.59482 253.37547 252.74212 251.69677 250.30942 248.47707 246.39272 244.23237
 242.03002 239.84067 237.66732 235.51297 233.37962 231.25327 229.28592 227.44958
 225.73923 224.21788 222.85453 221.63318 220.52183 219.48848 218.59913 217.74678
 216.99543 216.18208 215.28673 214.65738 214.11403 214.29509 214.72285 216.14313
 218.46198 220.24345 220.70090 219.50647 219.14935 221.17783 225.15370 228.16615
 230.67937 233.76740 237.83907 242.53149 246.78943 250.18704 253.32693 256.44864
 259.47781 262.51767 265.34595 267.88321 270.24890 272.46426 274.43350 276.11505
 277.42276 278.47018 279.50861 280.42508 281.21512 282.06226 282.93759 283.80704
 284.64789 285.37173 285.99567 286.83603
 366.78100 356.34127 345.77954 334.65182 323.06109 311.26136 299.13763 286.94691
 274.66518 262.56845 250.58372 239.89100 230.01927 221.12954 213.31781 206.32609
 200.16636 195.11063 191.69890 189.74718 188.79045 188.86072 189.70199 191.01627
 192.74754 194.84881 197.11808 199.48336 201.93463 204.42090 206.51517 208.36345
 209.99572 211.14699 211.38226 211.61654 211.55981 211.27108 210.91035 210.54663
 210.16990 209.88617 209.70044 209.57072 209.50499 209.84226 210.23453 210.62981
 211.42908 212.61335 213.86962 215.65890 217.59317 219.64244 221.74371 223.83299
 225.89926 227.98953 230.09280 232.20508 234.34035 236.51862 238.78089 241.15717
 243.78444 246.04171 248.04998 249.82126 251.24453 252.37380 253.20207 253.52435
 253.56762 253.34789 252.71416 251.66844 250.28071 248.44798 246.36325 244.20253
 241.99980 239.81007 237.63634 235.48162 233.34789 231.22116 229.25343 227.41671
 225.70598 224.18425 222.82052 221.59880 220.48707 219.45334 218.56361 217.71089
 216.95916 216.14543 215.24970 214.61998 214.07625 214.28200 214.76810 216.26166
 218.39983 220.18558 220.76134 219.53934 219.09978 221.12405 225.03343 227.98184
 230.52202 233.68079 237.88487 242.59303 246.81932 250.19809 253.36449 256.51035
 259.56564 262.61539 265.41226 267.89499 270.22610 272.38788 274.35645 276.04193
 277.34747 278.38312 279.39499 280.32123 281.06519 282.01956 282.97647 283.85300
 284.62048 285.31009 285.92389 286.75186
 366.78100 356.34430 345.78560 334.66090 323.07320 311.27650 299.15580 286.96810
 274.68940 262.59571 250.61401 239.92431 230.05561 221.16891 213.36021 206.37151
 200.21481 195.16211 191.75341 189.80471 188.85101 188.92431 189.76861 191.08591
 192.82021 194.92451 197.19682 199.56512 202.01942 204.50872 206.60602 208.45732
 210.09262 211.24692 211.48522 211.72252 211.66882 211.38312 211.02542 210.66472
 210.29102 210.01032 209.82762 209.70093 209.63823 209.97853 210.37383 210.77213
 211.57443 212.76173 214.02103 215.81333 217.75063 219.80293 221.90723 223.99953
 226.06883 228.16213 230.26843 232.38373 234.52204 236.70334 238.96864 241.34794
 243.97824 246.23854 248.24984 250.02414 251.45044 252.58274 253.41404 253.73934
 253.78564 253.56894 252.93824 251.89554 250.51084 248.68115 246.59945 244.44175
 242.24205 240.05535 237.88465 235.73295 233.60225 231.47855 229.51385 227.68015
 225.97245 224.45375 223.09305 221.87435 220.76565 219.73495 218.84826 217.99856
 217.24986 216.43916 215.54646 214.91976 214.37906 214.46788 214.67773 216.22520
 218.59273 220.29001 220.83452 219.44830 218.81895 220.90312 224.82693 227.76169
 230.25620 233.46454 237.86412 242.66960 246.87184 250.13664 253.31274 256.49982
 259.58337 262.65695 265.46112 267.94965 270.24997 272.38721 274.32733 276.04678
 277.40866 278.50656 279.51028 280.40802 281.23102 282.10175 283.02972 283.80414
 284.55411 285.33340 286.03784 286.93561
 366.78100 356.34642 345.78984 334.66726 323.08168 311.28709 299.16851 286.98293
 274.70635 262.61477 250.63519 239.94761 230.08103 221.19645 213.38987 206.40328
 200.24870 195.19812 191.79154 189.84496 188.89338 188.96880 189.81522 191.13464
 192.87106 194.97747 197.25189 199.62231 202.07873 204.57015 206.66957 208.52299
 210.16041 211.31683 211.55724 211.79666 211.74508 211.46150 211.10592 210.74734
 210.37576 210.09718 209.91660 209.79202 209.73143 210.07385 210.47127 210.87169
 211.67611 212.86553 214.12695 215.92137 217.86079 219.91521 222.02162 224.11604
 226.18746 228.28288 230.39130 232.50872 234.64914 236.83256 239.09998 241.48139
 244.11381 246.37623 248.38965 250.16607 251.59449 252.72891 253.56233 253.88975
 253.93817 253.72358 253.09500 252.05442 250.67184 248.84426 246.76468 244.60910
 242.41152 240.22694 238.05836 235.90877 233.78019 231.65861 229.69603 227.86445
 226.15887 224.64229 223.28371 222.06713 220.96054 219.93196 219.04738 218.19980
 217.45322 216.64464 215.75406 215.12948 214.59090 214.62784 214.77318 216.17587
 218.49315 220.05507 220.55539 219.26157 218.76657 220.82384 224.63226 227.80896
 230.26106 233.64995 238.02087 242.68791 246.74294 250.08627 253.29567 256.47061
 259.59991 262.63208 265.43185 267.95197 270.27927 272.42944 274.41415 276.16394
 277.57828 278.77457 279.79498 280.68729 281.64236 282.59329 283.44165 284.20294
 284.88763 285.49738 286.03000 286.70880
 366.78100 356.34233 345.78166 334.65499 323.06532 311.26665 299.14398 286.95431
 274.67364 262.57797 250.59430 239.90263 230.03196 221.14329 213.33263 206.34196
 200.18329 195.12862 191.71795 189.76728 188.81161 188.88294 189.72527 191.04060
 192.77293 194.87526 197.14559 199.51192 201.96425 204.45158 206.54691 208.39624
 210.02957 211.18190 211.41823 211.65356 211.59789 211.31022 210.95055 210.58788
 210.21221 209.92955 209.74488 209.61621 209.55154 209.88987 210.28320 210.67953
 211.47986 212.66519 213.92252 215.71285 217.64818 219.69851 221.80084 223.89117
 225.95850 228.04983 230.15416 232.26749 234.40382 236.58315 238.84648 241.22381
 243.85214 246.11047 248.11980 249.89214 251.31647 252.44680 253.27613 253.59946
 253.64379 253.42512 252.79245 251.74778 250.36111 248.52944 246.44577 244.28610
 242.08443 239.89576 237.72309 235.56942 233.43675 231.31108 229.34441 227.50874
 225.79907 224.27840 222.91573 221.69506 220.58439 219.55172 218.66306 217.81139
 217.06072 216.24805 215.35338 214.72471 214.18204 214.45810 215.13934 216.14384
 218.15781 219.86934 220.50310 219.41908 219.04097 220.97746 224.70515 227.92859
 230.44003 233.86133 238.17720 242.78880 246.76988 250.11726 253.39284 256.56400
 259.67609 262.66418 265.40976 267.88324 270.17325 272.37375 274.38004 276.15170
 277.56607 278.74234 279.77438 280.88037 281.90750 282.80124 283.61664 284.35532
 285.01968 285.61133 286.12814 286.78680
 366.78100 356.33698 345.77096 334.63894 323.04392 311.23990 299.11188 286.91686
 274.63084 262.52982 250.54080 239.84378 229.96776 221.07374 213.25772 206.26171
 200.09769 195.03767 191.62165 189.66563 188.70461 188.77059 189.60757 190.91755
 192.64453 194.74151 197.00649 199.36747 201.81445 204.29643 206.38641 208.23039
 209.85837 211.00535 211.23633 211.46631 211.40529 211.11227 210.74725 210.37923
 209.99821 209.71019 209.52017 209.38615 209.31613 209.64912 210.03710 210.42808
 211.22306 212.40304 213.65502 215.44000 217.36998 219.41496 221.51194 223.59692
 225.65890 227.74488 229.84386 231.95184 234.08282 236.25680 238.51478 240.88676
 243.50974 245.76272 247.76670 249.53368 250.95266 252.07764 252.90162 253.21960
 253.25858 253.03456 252.39654 251.34653 249.95451 248.11749 246.02847 243.86345
 241.65643 239.46241 237.28439 235.12537 232.98735 230.85633 228.88431 227.04329
 225.32827 223.80225 222.43423 221.20821 220.09219 219.05417 218.16015 217.30313
 216.54711 215.72909 214.82907 214.19505 213.64703 214.22029 215.51677 216.14905
 217.74969 219.70218 220.71582 219.84126 219.35272 221.02380 224.65186 227.79897
 230.34889 233.80418 238.19063 242.81419 246.71805 249.99991 253.35374 256.69745
 259.81696 262.80743 265.53287 267.92050 270.11685 272.16580 274.14249 275.76831
 277.22116 278.42633 279.60916 280.82355 281.91757 282.88553 283.76862 284.56863
 285.28818 285.92892 286.48868 287.20200
 366.78100 356.33935 345.77570 334.64606 323.05341 311.25176 299.12611 286.93346
 274.64982 262.55117 250.56452 239.86987 229.99622 221.10458 213.29093 206.29728
 200.13563 195.07798 191.66434 189.71069 188.75204 188.82039 189.65974 190.97210
 192.70145 194.80080 197.06815 199.43150 201.88086 204.36521 206.45756 208.30391
 209.93426 211.08362 211.31697 211.54932 211.49067 211.20002 210.83738 210.47173
 210.09308 209.80743 209.61978 209.48814 209.42049 209.75584 210.14619 210.53954
 211.33690 212.51925 213.77360 215.56095 217.49330 219.54066 221.64001 223.72736
 225.79171 227.88006 229.98142 232.09177 234.22512 236.40147 238.66182 241.03618
 243.66153 245.91688 247.92323 249.69258 251.11394 252.24129 253.06764 253.38799
 253.42934 253.20770 252.57205 251.52440 250.13475 248.30010 246.21346 244.05081
 241.84616 239.65451 237.47886 235.32222 233.18657 231.05792 229.08827 227.24962
 225.53698 224.01333 222.64768 221.42403 220.31038 219.27474 218.38309 217.52844
 216.77479 215.95915 215.06150 214.42985 213.88420 214.36586 215.48744 216.31227
 217.60455 219.57104 220.89270 220.19725 219.62230 221.06328 224.55724 227.48524
 230.05551 233.59328 238.15373 242.75916 246.57274 249.88467 253.25966 256.71512
 259.90933 262.92389 265.58820 267.90689 270.05981 272.28653 274.16547 275.67911
 276.99240 278.23364 279.61273 280.88681 281.98941 282.96494 283.85495 284.66125
 285.38644 286.03220 286.59634 287.31525
 366.78100 356.34274 345.78249 334.65623 323.06697 311.26872 299.14646 286.95720
 274.67694 262.58169 250.59843 239.90717 230.03692 221.14866 213.33840 206.34815
 200.18989 195.13563 191.72538 189.77512 188.81986 188.89161 189.73435 191.05009
 192.78283 194.88558 197.15632 199.52306 201.97581 204.46355 206.55929 208.40904
 210.04278 211.19552 211.43227 211.66801 211.61275 211.32550 210.96624 210.60398
 210.22872 209.94647 209.76221 209.63395 209.56970 209.90844 210.30218 210.69893
 211.49967 212.68541 213.94316 215.73390 217.66964 219.72039 221.82313 223.91387
 225.98161 228.07336 230.17810 232.29184 234.42859 236.60833 238.87207 241.24982
 243.87856 246.13730 248.14705 249.91979 251.34453 252.47528 253.30502 253.62876
 253.67350 253.45525 252.82299 251.77873 250.39248 248.56122 246.47796 244.31871
 242.11745 239.92919 237.75694 235.60368 233.47142 231.34617 229.37991 227.54465
 225.83539 224.31514 222.95288 221.73262 220.62237 219.59011 218.70185 217.85060
 217.10034 216.28808 215.39383 214.76557 214.22331 214.56116 215.42981 216.43791
 217.55783 219.36389 220.77870 220.26457 219.73160 221.12015 224.61897 227.43858
 229.99884 233.62186 238.21289 242.75603 246.56873 249.91803 253.35051 256.91269
 259.86295 262.73105 265.36270 267.74194 270.26291 272.41989 274.17065 275.63156
 277.04230 278.36609 279.90356 281.25357 282.42191 283.45557 284.39865 285.25299
 286.02139 286.70566 287.30341 288.06519
 366.78100 356.34045 345.77790 334.64935 323.05780 311.25725 299.13270 286.94115
 274.65860 262.56105 250.57550 239.88196 230.00941 221.11886 213.30631 206.31376
 200.15321 195.09666 191.68411 189.73156 188.77401 188.84346 189.68391 190.99736
 192.72781 194.82826 197.09671 199.46116 201.91161 204.39706 206.49051 208.33797
 209.96942 211.11987 211.35432 211.58777 211.53022 211.24067 210.87912 210.51457
 210.13702 209.85247 209.66592 209.53537 209.46882 209.80527 210.19672 210.59117
 211.38962 212.57307 213.82852 215.61698 217.55043 219.59888 221.69933 223.78778
 225.85323 227.94268 230.04513 232.15658 234.29103 236.46848 238.72993 241.10538
 243.73183 245.98828 247.99573 249.76618 251.18863 252.31708 253.14453 253.46598
 253.50844 253.28789 252.65334 251.60679 250.21824 248.38469 246.29914 244.13759
 241.93404 239.74349 237.56894 235.41339 233.27884 231.15129 229.18274 227.34519
 225.63364 224.11109 222.74654 221.52399 220.41145 219.37690 218.48635 217.63280
 216.88025 216.06570 215.16915 214.53860 213.99405 214.48341 215.62363 216.39459
 217.47195 219.31071 220.53168 220.05670 219.75212 221.24184 224.62787 227.41943
 229.93291 233.62457 238.27586 242.79358 246.61777 250.01859 253.51521 256.98517
 259.87210 262.64810 265.31973 267.95206 270.41711 272.45102 274.10519 275.54330
 276.89868 278.07175 279.63586 281.00931 282.19788 283.24948 284.20889 285.07803
 285.85977 286.55588 287.16400 287.93900
 366.78100 356.33755 345.77210 334.64065 323.04620 311.24275 299.11529 286.92084
 274.63539 262.53494 250.54649 239.85004 229.97459 221.08114 213.26569 206.27024
 200.10678 195.04733 191.63188 189.67643 188.71598 188.78253 189.62008 190.93063
 192.65818 194.75573 197.02127 199.38282 201.83037 204.31292 206.40347 208.24802
 209.87657 211.02412 211.25567 211.48622 211.42577 211.13331 210.76886 210.40141
 210.02096 209.73351 209.54406 209.41061 209.34116 209.67471 210.06326 210.45480
 211.25035 212.43090 213.68345 215.46900 217.39955 219.44510 221.54265 223.62820
 225.69075 227.77729 229.87684 231.98539 234.11694 236.29149 238.55004 240.92259
 243.54614 245.79969 247.80424 249.57179 250.99133 252.11688 252.94143 253.25998
 253.29953 253.07608 252.43863 251.38918 249.99773 248.16128 246.07282 243.90837
 241.70192 239.50847 237.33102 235.17257 233.03512 230.90467 228.93322 227.09277
 225.37831 223.85286 222.48541 221.25996 220.14451 219.10706 218.21361 217.35716
 216.60171 215.78426 214.88481 214.25135 213.70390 214.37842 215.86147 216.32793
 217.25322 219.41658 220.72629 220.00981 219.59821 221.15578 224.54106 227.23837
 229.74936 233.60332 238.30061 242.74590 246.55614 250.01021 253.57257 257.00360
 259.92303 262.75958 265.47324 268.14789 270.53757 272.42731 273.91763 275.28989
 276.73532 277.84293 278.85162 279.73734 280.50381 281.18198 281.80069 282.36121
 282.86536 283.31427 283.70642 284.20621
 366.78100 356.33850 345.77401 334.64351 323.05001 311.24751 299.12102 286.92752
 274.64302 262.54352 250.55603 239.86053 229.98603 221.09353 213.27904 206.28454
 200.12204 195.06354 191.64905 189.69455 188.73505 188.80255 189.64106 190.95256
 192.68106 194.77956 197.04607 199.40857 201.85707 204.34057 206.43208 208.27758
 209.90708 211.05558 211.28809 211.51959 211.46009 211.16859 210.80510 210.43860
 210.05910 209.77260 209.58411 209.45161 209.38311 209.71761 210.10712 210.49962
 211.29612 212.47763 213.73113 215.51763 217.44913 219.49564 221.59414 223.68064
 225.74414 227.83165 229.93215 232.04165 234.17415 236.34966 238.60916 240.98266
 243.60716 245.86167 247.86717 249.63567 251.05617 252.18268 253.00818 253.32768
 253.36818 253.14569 252.50919 251.46069 250.07019 248.23470 246.14720 243.98370
 241.77820 239.58571 237.40921 235.25171 233.11521 230.98572 229.01522 227.17572
 225.46222 223.93773 222.57123 221.34673 220.23223 219.19574 218.30324 217.44774
 216.69325 215.87675 214.97825 214.34575 213.79926 214.46196 215.93265 216.37627
 217.01456 219.30849 220.96599 220.18169 219.48477 221.02737 224.51257 227.08496
 229.69992 233.64420 238.31355 242.69447 246.50192 250.02361 253.67641 257.04544
 260.04752 262.95117 265.70041 268.29105 270.61194 272.39764 273.72952 275.21814
 276.50586 277.49399 278.34799 279.09787 279.74683 280.32098 280.84485 281.31940
 281.74622 282.12628 282.45831 282.88147
 366.78100 356.34010 345.77721 334.64831 323.05641 311.25551 299.13062 286.93872
 274.65582 262.55792 250.57203 239.87813 230.00523 221.11434 213.30144 206.30854
 200.14764 195.09075 191.67785 189.72495 188.76705 188.83616 189.67626 190.98936
 192.71947 194.81957 197.08767 199.45177 201.90188 204.38698 206.48008 208.32719
 209.95829 211.10839 211.34249 211.57560 211.51770 211.22780 210.86590 210.50101
 210.12311 209.83821 209.65132 209.52042 209.45352 209.78962 210.18073 210.57483
 211.37293 212.55603 213.81114 215.59924 217.53234 219.58045 221.68055 223.76865
 225.83375 227.92286 230.02496 232.13606 234.27016 236.44727 238.70837 241.08347
 243.70958 245.96568 247.97278 249.74288 251.16499 252.29309 253.12019 253.44129
 253.48340 253.26250 252.62760 251.58071 250.19181 248.35791 246.27201 244.11012
 241.90622 239.71532 237.54042 235.38453 233.24963 231.12173 229.15284 227.31494
 225.60304 224.08014 222.71525 221.49235 220.37945 219.34456 218.45366 217.59976
 216.84686 216.03197 215.13507 214.50417 213.95927 214.57634 215.98062 216.46086
 216.80864 218.99460 220.95622 220.30470 219.43709 220.92184 224.47200 227.05908
 229.74716 233.74115 238.38783 242.73071 246.53766 250.10693 253.74715 257.09732
 260.17325 263.11221 265.88947 268.47961 270.62122 272.35281 273.65747 275.11053
 276.39615 277.50699 278.46823 279.31229 280.04272 280.68896 281.27859 281.81274
 282.29315 282.72095 283.09467 283.57092
 366.78100 356.33983 345.77666 334.64749 323.05532 311.25415 299.12898 286.93681
 274.65364 262.55547 250.56930 239.87513 230.00196 221.11079 213.29762 206.30445
 200.14328 195.08611 191.67294 189.71977 188.76160 188.83043 189.67025 190.98308
 192.71291 194.81274 197.08057 199.44440 201.89423 204.37906 206.47189 208.31872
 209.94955 211.09938 211.33321 211.56604 211.50787 211.21770 210.85553 210.49036
 210.11219 209.82702 209.63985 209.50868 209.44151 209.77734 210.16817 210.56200
 211.35983 212.54266 213.79749 215.58532 217.51815 219.56598 221.66581 223.75364
 225.81847 227.90730 230.00913 232.11996 234.25379 236.43062 238.69145 241.06628
 243.69210 245.94793 247.95476 249.72459 251.14642 252.27425 253.10108 253.42191
 253.46374 253.24257 252.60740 251.56023 250.17106 248.33689 246.25072 244.08855
 241.88438 239.69321 237.51804 235.36187 233.22670 231.09853 229.12936 227.29119
 225.57902 224.05585 222.69068 221.46751 220.35434 219.31917 218.42800 217.57383
 216.82066 216.00549 215.10832 214.47715 213.93198 214.60364 216.08925 216.50795
 216.69304 218.69295 220.80336 220.31053 219.50574 220.90431 224.47522 227.07463
 229.77866 233.81078 238.45818 242.75949 246.55853 250.17032 253.78317 257.13693
 260.24643 263.20328 266.01575 268.58984 270.68930 272.35828 273.55914 274.95898
 275.82712 276.53601 277.14944 277.68808 278.15424 278.56665 278.94293 279.28381
 279.59039 279.86340 280.10190 280.40582
 366.78100 356.33922 345.77544 334.64566 323.05288 311.25111 299.12533 286.93255
 274.64877 262.54999 250.56321 239.86843 229.99465 221.10287 213.28910 206.29532
 200.13354 195.07576 191.66198 189.70820 188.74942 188.81764 189.65686 190.96909
 192.69831 194.79753 197.06475 199.42797 201.87719 204.36141 206.45363 208.29985
 209.93007 211.07930 211.31252 211.54474 211.48596 211.19518 210.83240 210.46662
 210.08784 209.80206 209.61429 209.48251 209.41473 209.74995 210.14017 210.53339
 211.33061 212.51283 213.76705 215.55428 217.48650 219.53372 221.63294 223.72016
 225.78438 227.87260 229.97382 232.08404 234.21727 236.39349 238.65371 241.02793
 243.65315 245.90837 247.91459 249.68381 251.10503 252.23226 253.05848 253.37870
 253.41992 253.19814 252.56236 251.51458 250.12480 248.29002 246.20325 244.04047
 241.83569 239.64391 237.46813 235.31135 233.17557 231.04679 229.07701 227.23823
 225.52546 224.00168 222.63590 221.41212 220.29834 219.26256 218.37078 217.51600
 216.76222 215.94645 215.04867 214.41689 213.87111 214.61389 216.20622 216.50887
 216.61171 218.50801 220.65834 220.27681 219.45547 220.91098 224.46042 227.07510
 229.80136 233.86241 238.49905 242.75328 246.55403 250.19696 253.80577 257.17587
 260.31317 263.28949 266.10107 268.63083 270.69568 272.35892 273.61307 274.91785
 276.75229 278.48868 279.99124 281.31058 282.45236 283.46255 284.38422 285.21915
 285.97009 286.63882 287.22299 287.96747
 366.78100 356.33967 345.77634 334.64700 323.05467 311.25334 299.12801 286.93568
 274.65234 262.55401 250.56768 239.87335 230.00001 221.10868 213.29535 206.30202
 200.14069 195.08335 191.67002 189.71669 188.75836 188.82703 189.66669 190.97936
 192.70903 194.80870 197.07636 199.44003 201.88970 204.37437 206.46704 208.31370
 209.94437 211.09404 211.32771 211.56038 211.50204 211.21171 210.84938 210.48405
 210.10571 209.82038 209.63305 209.50172 209.43439 209.77005 210.16072 210.55439
 211.35206 212.53473 213.78939 215.57706 217.50973 219.55740 221.65706 223.74473
 225.80940 227.89807 229.99974 232.11040 234.24407 236.42074 238.68141 241.05608
 243.68174 245.93741 247.94408 249.71375 251.13541 252.26308 253.08975 253.41042
 253.45209 253.23075 252.59542 251.54809 250.15876 248.32443 246.23809 244.07576
 241.87143 239.68010 237.50477 235.34843 233.21310 231.08477 229.11544 227.27710
 225.56477 224.04144 222.67611 221.45278 220.33944 219.30411 218.41278 217.55845
 216.80512 215.98978 215.09245 214.46112 213.91579 214.66733 216.28821 216.53511
 216.43228 218.32137 220.53690 220.19164 219.44350 220.88763 224.36646 227.02448
 229.82133 233.93596 238.57205 242.80673 246.61600 250.29385 253.89955 257.28848
 260.44211 263.40829 266.22009 268.69446 270.72632 272.34314 273.53363 274.77371
 276.17511 277.37631 278.41574 279.32846 280.11832 280.81717 281.45474 282.03235
 282.55182 283.01443 283.41855 283.93356
 366.78100 356.34187 345.78074 334.65362 323.06349 311.26436 299.14123 286.95110
 274.66997 262.57385 250.58972 239.89759 230.02646 221.13733 213.32620 206.33508
 200.17595 195.12082 191.70969 189.75856 188.80243 188.87331 189.71518 191.03005
 192.76192 194.86379 197.13366 199.49954 201.95141 204.43828 206.53315 208.38202
 210.01489 211.16677 211.40264 211.63751 211.58138 211.29325 210.93312 210.57000
 210.19387 209.91074 209.72561 209.59648 209.53135 209.86923 210.26210 210.65797
 211.45784 212.64271 213.89958 215.68946 217.62433 219.67420 221.77607 223.86594
 225.93281 228.02369 230.12756 232.24043 234.37630 236.55517 238.81805 241.19492
 243.82279 246.08066 248.08953 249.86140 251.28528 252.41515 253.24402 253.56689
 253.61076 253.39163 252.75851 251.71338 250.32625 248.49412 246.40999 244.24986
 242.04774 239.85861 237.68548 235.53135 233.39822 231.27209 229.30497 227.46884
 225.75871 224.23758 222.87445 221.65332 220.54220 219.50907 218.61994 217.76781
 217.01668 216.20355 215.30843 214.67930 214.13617 214.79369 216.28160 216.67168
 216.32767 217.91829 220.12665 219.97984 219.39041 220.93539 224.41449 227.10962
 229.92607 234.04010 238.67833 242.90741 246.73795 250.43376 254.04138 257.44229
 260.59970 263.57166 266.35010 268.83981 270.93155 272.64188 273.60492 274.89337
 277.25851 279.28580 281.04010 282.58047 283.91354 285.09299 286.16904 287.14386
 288.02063 288.80136 289.48340 290.35260
 366.78100 356.34325 345.78349 334.65774 323.06898 311.27123 299.14947 286.96072
 274.68096 262.58621 250.60346 239.91270 230.04295 221.15519 213.34544 206.35568
 200.19793 195.14418 191.73442 189.78467 188.82991 188.90216 189.74540 191.06165
 192.79489 194.89814 197.16939 199.53663 201.98988 204.47812 206.57437 208.42461
 210.05886 211.21210 211.44935 211.68560 211.63084 211.34409 210.98533 210.62358
 210.24882 209.96707 209.78332 209.65556 209.59181 209.93105 210.32530 210.72254
 211.52379 212.71003 213.96828 215.75953 217.69577 219.74702 221.85026 223.94151
 226.00975 228.10200 230.20724 232.32149 234.45874 236.63898 238.90323 241.28147
 243.91072 246.16996 248.18021 249.95345 251.37870 252.50995 253.34019 253.66444
 253.70968 253.49193 252.86017 251.81642 250.43067 248.59991 246.51716 244.35840
 242.15765 239.96989 237.79814 235.64538 233.51363 231.38888 229.42312 227.58837
 225.87961 224.35986 222.99810 221.77835 220.66859 219.63684 218.74909 217.89833
 217.14858 216.33682 215.44307 214.81531 214.27356 214.88081 216.26904 216.75786
 216.49368 217.63318 219.46494 219.52847 219.24986 221.15135 224.42422 227.25072
 230.06856 234.10277 238.70970 242.95444 246.80748 250.51353 254.11919 257.51434
 260.66187 263.60678 266.36374 268.86072 271.03790 272.83783 274.17834 275.25314
 277.21771 279.24731 281.00357 282.54572 283.88031 285.06107 286.13834 287.11426
 287.99200 288.77365 289.45648 290.32666
 366.78100 356.34287 345.78273 334.65660 323.06746 311.26933 299.14719 286.95806
 274.67793 262.58279 250.59966 239.90852 230.03839 221.15025 213.34012 206.34998
 200.19185 195.13772 191.72758 189.77745 188.82231 188.89418 189.73704 191.05291
 192.78578 194.88864 197.15951 199.52637 201.97924 204.46710 206.56297 208.41284
 210.04670 211.19957 211.43643 211.67230 211.61716 211.33003 210.97089 210.60876
 210.23363 209.95149 209.76736 209.63922 209.57509 209.91395 210.30782 210.70469
 211.50555 212.69142 213.94928 215.74015 217.67601 219.72688 221.82975 223.92061
 225.98848 228.08034 230.18521 232.29907 234.43594 236.61580 238.87967 241.25754
 243.88640 246.14527 248.15513 249.92800 251.35286 252.48373 253.31360 253.63746
 253.68233 253.46419 252.83206 251.78792 250.40179 248.57066 246.48752 244.32839
 242.12725 239.93912 237.76698 235.61385 233.48171 231.35658 229.39045 227.55531
 225.84618 224.32604 222.96391 221.74377 220.63364 219.60151 218.71337 217.86224
 217.11210 216.29997 215.40583 214.77770 214.23557 214.88190 216.33784 216.74716
 216.49458 217.56764 219.21823 219.23332 219.21245 221.15172 224.27136 227.21436
 230.03210 234.11185 238.74728 242.98267 246.83087 250.55785 254.17322 257.57019
 260.69278 263.58774 266.30475 268.79407 270.97250 272.79770 274.36865 275.70761
 277.06943 278.84851 280.54623 282.03699 283.32709 284.46851 285.50986 286.45328
 287.30176 288.05734 288.71741 289.55859
 366.78100 356.34164 345.78029 334.65293 323.06258 311.26322 299.13987 286.94951
 274.66816 262.57180 250.58745 239.89509 230.02374 221.13438 213.32303 206.33167
 200.17232 195.11696 191.70561 189.75425 188.79790 188.86854 189.71019 191.02483
 192.75648 194.85812 197.12776 199.49341 201.94505 204.43170 206.52634 208.37499
 210.00763 211.15928 211.39492 211.62957 211.57321 211.28486 210.92450 210.56115
 210.18479 209.90144 209.71608 209.58673 209.52137 209.85902 210.25166 210.64731
 211.44695 212.63160 213.88824 215.67788 217.61253 219.66217 221.76382 223.85346
 225.92011 228.01075 230.11440 232.22704 234.36269 236.54133 238.80398 241.18062
 243.80827 246.06591 248.07456 249.84620 251.26985 252.39949 253.22814 253.55078
 253.59443 253.37507 252.74171 251.69636 250.30900 248.47665 246.39229 244.23194
 242.02958 239.84023 237.66687 235.51252 233.37916 231.25281 229.28545 227.44910
 225.73874 224.21739 222.85403 221.63268 220.52132 219.48797 218.59861 217.74626
 216.99490 216.18155 215.28619 214.65683 214.11348 214.83630 216.44827 216.75192
 216.37639 217.39322 218.98283 219.11757 219.22093 221.14253 224.23534 227.17267
 230.01949 234.15681 238.84229 243.06285 246.90395 250.64255 254.26604 257.65320
 260.75378 263.62402 266.31512 268.77350 270.92804 272.72864 274.37479 276.02420
 277.17606 278.68494 280.30096 281.75882 283.02048 284.13672 285.15512 286.07770
 286.90747 287.64639 288.29190 289.11453
 366.78100 356.34065 345.77831 334.64996 323.05861 311.25827 299.13392 286.94257
 274.66023 262.56288 250.57753 239.88419 230.01184 221.12149 213.30915 206.31680
 200.15645 195.10011 191.68776 189.73542 188.77807 188.84772 189.68838 191.00203
 192.73268 194.83334 197.10199 199.46664 201.91730 204.40295 206.49660 208.34426
 209.97591 211.12656 211.36122 211.59487 211.53752 211.24818 210.88683 210.52248
 210.14514 209.86079 209.67444 209.54410 209.47775 209.81440 210.20606 210.60071
 211.39936 212.58302 213.83867 215.62733 217.56098 219.60963 221.71029 223.79894
 225.86459 227.95425 230.05690 232.16855 234.30321 236.48086 238.74251 241.11817
 243.74482 246.00147 248.00913 249.77978 251.20243 252.33109 253.15874 253.48039
 253.52305 253.30270 252.66835 251.62201 250.23366 248.40031 246.31497 244.15362
 241.95027 239.75993 237.58558 235.43023 233.29589 231.16854 229.20020 227.36285
 225.65150 224.12916 222.76481 221.54246 220.43012 219.39577 218.50542 217.65208
 216.89973 216.08538 215.18904 214.55869 214.01434 214.80019 216.54477 216.75072
 216.32254 217.24828 218.76450 218.94456 219.14662 221.07410 224.22742 227.20966
 230.11928 234.25438 238.90164 243.14357 246.99623 250.74147 254.37016 257.74442
 260.82858 263.68863 266.36517 268.80365 270.91803 272.69727 274.34308 276.07425
 277.25101 278.58847 280.12946 281.53418 282.75955 283.84369 284.83279 285.72885
 286.53479 287.25244 287.87939 288.67834
 366.78100 356.34176 345.78052 334.65328 323.06305 311.26381 299.14057 286.95033
 274.66909 262.57285 250.58862 239.89638 230.02514 221.13590 213.32466 206.33342
 200.17418 195.11895 191.70771 189.75647 188.80023 188.87099 189.71275 191.02752
 192.75928 194.86104 197.13080 199.49656 201.94832 204.43508 206.52985 208.37861
 210.01137 211.16313 211.39889 211.63365 211.57741 211.28918 210.92894 210.56570
 210.18946 209.90622 209.72098 209.59175 209.52651 209.86427 210.25703 210.65279
 211.45255 212.63731 213.89408 215.68384 217.61860 219.66836 221.77012 223.85988
 225.92665 228.01741 230.12117 232.23393 234.36969 236.54845 238.81121 241.18798
 243.81574 246.07350 248.08226 249.85402 251.27778 252.40755 253.23631 253.55907
 253.60283 253.38359 252.75035 251.70511 250.31788 248.48564 246.40140 244.24116
 242.03892 239.84968 237.67645 235.52221 233.38897 231.26273 229.29549 227.45925
 225.74901 224.22778 222.86454 221.64330 220.53206 219.49882 218.60958 217.75734
 217.00611 216.19287 215.29763 214.66839 214.12515 214.86510 216.52376 216.82036
 216.28311 217.14021 218.68425 218.83597 219.04614 220.98468 224.15260 227.15239
 230.08684 234.29341 238.97437 243.22299 247.08916 250.84462 254.47508 257.83328
 260.90317 263.76120 266.43484 268.85538 270.94952 272.73114 274.32785 276.13757
 277.34195 278.62515 280.15564 281.56934 282.79401 283.87753 284.86609 285.76163
 286.56708 287.28436 287.91095 288.70944
 366.78100 356.34410 345.78520 334.66029 323.07239 311.27549 299.15459 286.96669
 274.68778 262.59388 250.61198 239.92208 230.05318 221.16627 213.35737 206.36847
 200.21157 195.15867 191.74976 189.80086 188.84696 188.92006 189.76415 191.08125
 192.81535 194.91945 197.19155 199.55964 202.01374 204.50284 206.59994 208.45104
 210.08613 211.24023 211.47833 211.71543 211.66153 211.37562 211.01772 210.65682
 210.28292 210.00202 209.81911 209.69221 209.62931 209.96941 210.36451 210.76260
 211.56470 212.75180 214.01090 215.80300 217.74009 219.79219 221.89629 223.98839
 226.05749 228.15058 230.25668 232.37178 234.50988 236.69098 238.95607 241.33517
 243.96527 246.22537 248.23646 250.01056 251.43666 252.56876 253.39986 253.72495
 253.77105 253.55415 252.92325 251.88035 250.49544 248.66554 246.58364 244.42574
 242.22584 240.03893 237.86803 235.71613 233.58523 231.46133 229.49642 227.66252
 225.95462 224.43572 223.07482 221.85591 220.74701 219.71611 218.82921 217.97931
 217.23040 216.41950 215.52660 214.89970 214.35880 214.98486 216.43695 216.95085
 216.27359 217.00677 218.55177 218.66034 218.92773 220.91803 224.12878 227.10794
 230.04944 234.33304 239.05527 243.31181 247.21246 250.97844 254.60071 257.93930
 260.98962 263.83435 266.49530 268.90558 271.00821 272.77139 274.39612 276.26007
 277.46997 278.85883 280.47479 281.94757 283.22211 284.34976 285.37860 286.31061
 287.14890 287.89536 288.54749 289.37851
 366.78100 356.34451 345.78603 334.66154 323.07405 311.27756 299.15708 286.96959
 274.69110 262.59761 250.61613 239.92664 230.05815 221.17166 213.36318 206.37469
 200.21820 195.16571 191.75723 189.80874 188.85525 188.92876 189.77328 191.09079
 192.82530 194.92981 197.20233 199.57084 202.02535 204.51486 206.61238 208.46389
 210.09940 211.25391 211.49243 211.72994 211.67645 211.39096 211.03348 210.67299
 210.29950 210.01901 209.83653 209.71004 209.64755 209.98806 210.38358 210.78209
 211.58460 212.77211 214.03163 215.82414 217.76165 219.81416 221.91868 224.01119
 226.08070 228.17421 230.28073 232.39624 234.53475 236.71626 238.98178 241.36129
 243.99180 246.25231 248.26383 250.03834 251.46485 252.59736 253.42888 253.75439
 253.80090 253.58441 252.95393 251.91144 250.52695 248.69747 246.61598 244.45849
 242.25900 240.07252 237.90203 235.75054 233.62005 231.49657 229.53208 227.69859
 225.99110 224.47262 223.11213 221.89364 220.78515 219.75467 218.86818 218.01869
 217.27020 216.45972 215.56723 214.94074 214.40025 215.01070 216.43106 216.98720
 216.37326 216.89903 218.24889 218.36723 218.79749 220.88979 224.17502 227.17581
 230.11064 234.42198 239.16174 243.43323 247.34151 251.10254 254.70847 258.01797
 261.04636 263.88657 266.54892 268.95221 271.04944 272.82053 274.51425 276.40955
 277.64185 279.13113 280.75848 282.23865 283.51962 284.65292 285.68692 286.62363
 287.46609 288.21634 288.87170 289.70691
 366.78100 356.34360 345.78420 334.65880 323.07040 311.27299 299.15159 286.96319
 274.68379 262.58939 250.60699 239.91659 230.04719 221.15979 213.35039 206.36098
 200.20358 195.15018 191.74078 189.79138 188.83698 188.90958 189.75318 191.06978
 192.80338 194.90697 197.17857 199.54617 201.99977 204.48837 206.58497 208.43557
 210.07017 211.22377 211.46137 211.69796 211.64356 211.35716 210.99876 210.63736
 210.26296 209.98156 209.79816 209.67076 209.60736 209.94695 210.34155 210.73915
 211.54075 212.72735 213.98595 215.77755 217.71415 219.76575 221.86935 223.96094
 226.02954 228.12214 230.22774 232.34234 234.47994 236.66054 238.92514 241.30374
 243.93334 246.19293 248.20353 249.97713 251.40273 252.53433 253.36493 253.68953
 253.73513 253.51773 252.88633 251.84292 250.45752 248.62712 246.54472 244.38632
 242.18592 239.99852 237.82712 235.67472 233.54332 231.41891 229.45351 227.61911
 225.91071 224.39131 223.02991 221.81051 220.70111 219.66971 218.78230 217.93190
 217.18250 216.37110 215.47770 214.85030 214.30890 214.97455 216.48152 216.93138
 216.51372 216.89510 218.02464 218.06001 218.61259 220.81418 224.17429 227.20859
 230.15417 234.49870 239.25356 243.53799 247.45166 251.21094 254.80325 258.08679
 261.08902 263.90567 266.55252 268.95502 271.07285 272.85202 274.68985 276.51892
 277.79886 279.37048 281.00998 282.49307 283.77658 284.91214 285.94815 286.88672
 287.73087 288.48257 289.13925 289.97610
 366.78100 356.34410 345.78519 334.66029 323.07238 311.27548 299.15457 286.96667
 274.68776 262.59386 250.61195 239.92205 230.05314 221.16624 213.35733 206.36843
 200.21152 195.15862 191.74971 189.80081 188.84690 188.92000 189.76409 191.08119
 192.81528 194.91938 197.19147 199.55957 202.01366 204.50276 206.59985 208.45095
 210.08604 211.24014 211.47823 211.71533 211.66142 211.37552 211.01761 210.65671
 210.28280 210.00190 209.81899 209.69209 209.62918 209.96928 210.36437 210.76247
 211.56456 212.75166 214.01075 215.80285 217.73994 219.79204 221.89613 223.98823
 226.05732 228.15042 230.25651 232.37161 234.50970 236.69080 238.95589 241.33499
 243.96508 246.22518 248.23627 250.01037 251.43646 252.56856 253.39965 253.72475
 253.77084 253.55394 252.92303 251.88013 250.49522 248.66532 246.58341 244.42551
 242.22560 240.03870 237.86779 235.71589 233.58498 231.46108 229.49617 227.66227
 225.95436 224.43546 223.07455 221.85565 220.74674 219.71584 218.82893 217.97903
 217.23013 216.41922 215.52632 214.89941 214.35851 215.00574 216.46140 216.92058
 216.62904 216.92918 217.88448 217.76620 218.38837 220.68108 224.16408 227.24561
 230.28578 234.59186 239.31804 243.64001 247.57642 251.34560 254.93413 258.19485
 261.17130 263.97232 266.61258 268.99557 271.08469 272.97934 274.86673 276.60858
 277.97522 279.73978 281.50500 283.05502 284.39642 285.58319 286.66599 287.64688
 288.52911 289.31473 290.00104 290.87567
 366.78100 356.34616 345.78932 334.66648 323.08064 311.28580 299.16696 286.98112
 274.70428 262.61243 250.63259 239.94475 230.07791 221.19307 213.38623 206.39939
 200.24455 195.19371 191.78687 189.84003 188.88819 188.96335 189.80951 191.12867
 192.86483 194.97099 197.24514 199.61530 202.07146 204.56262 206.66178 208.51494
 210.15210 211.30826 211.54842 211.78758 211.73574 211.45190 211.09606 210.73722
 210.36538 210.08654 209.90570 209.78085 209.72001 210.06217 210.45933 210.85949
 211.66365 212.85281 214.11397 215.90813 217.84729 219.90145 222.00761 224.10177
 226.17293 228.26809 230.37625 232.49341 234.63356 236.81672 239.08388 241.46504
 244.09720 246.35936 248.37252 250.14868 251.57684 252.71100 253.54416 253.87132
 253.91948 253.70464 253.07580 252.03496 250.65212 248.82427 246.74443 244.58859
 242.39075 240.20591 238.03707 235.88723 233.75839 231.63655 229.67371 227.84187
 226.13603 224.61919 223.26035 222.04351 220.93667 219.90783 219.02298 218.17514
 217.42830 216.61946 215.72862 215.10378 214.56494 215.10919 216.36662 216.94444
 216.74808 217.00148 217.76907 217.44058 218.10530 220.49850 224.11371 227.25526
 230.40706 234.69913 239.39690 243.75635 247.73915 251.53993 255.14137 258.37778
 261.30289 264.04834 266.64810 269.05997 271.18738 273.09726 275.09048 276.68188
 278.34561 280.35950 282.15198 283.72589 285.08801 286.29309 287.39258 288.38864
 289.28448 290.08221 290.77911 291.66724
 366.78100 356.34718 345.79136 334.66954 323.08473 311.29091 299.17309 286.98827
 274.71245 262.62163 250.64282 239.95600 230.09018 221.20636 213.40054 206.41472
 200.26091 195.21109 191.80527 189.85945 188.90863 188.98481 189.83200 191.15218
 192.88936 194.99654 197.27172 199.64290 202.10008 204.59227 206.69245 208.54663
 210.18481 211.34199 211.58317 211.82336 211.77254 211.48972 211.13490 210.77708
 210.40626 210.12845 209.94863 209.82481 209.76499 210.10817 210.50635 210.90754
 211.71272 212.90290 214.16508 215.96026 217.90044 219.95562 222.06281 224.15799
 226.23017 228.32635 230.43553 232.55371 234.69490 236.87908 239.14726 241.52944
 244.16262 246.42580 248.43999 250.21717 251.64635 252.78153 253.61571 253.94389
 253.99308 253.77926 253.15144 252.11162 250.72980 248.90298 246.82416 244.66935
 242.47253 240.28871 238.12089 235.97207 233.84425 231.72344 229.76162 227.93080
 226.22598 224.71016 223.35234 222.13653 221.03071 220.00289 219.11907 218.27225
 217.52643 216.71862 215.82880 215.20498 214.66716 215.16428 216.31305 216.89232
 216.85162 217.13731 217.81375 217.26044 217.82974 220.28552 223.90929 227.11868
 230.37825 234.74535 239.45807 243.82327 247.82384 251.65584 255.29292 258.52567
 261.45773 264.20963 266.80667 269.17899 271.33078 273.23941 275.43616 276.96625
 278.84756 280.98541 282.83539 284.45981 285.86560 287.10934 288.24408 289.27209
 290.19666 291.01999 291.73926 292.65585
 366.78100 356.34653 345.79006 334.66759 323.08212 311.28765 299.16918 286.98371
 274.70724 262.61577 250.63630 239.94883 230.08236 221.19789 213.39142 206.40495
 200.25048 195.20001 191.79354 189.84707 188.89560 188.97113 189.81766 191.13719
 192.87372 194.98026 197.25479 199.62532 202.08185 204.57338 206.67291 208.52644
 210.16397 211.32050 211.56103 211.80056 211.74909 211.46562 211.11015 210.75168
 210.38021 210.10174 209.92127 209.79680 209.73633 210.07886 210.47639 210.87692
 211.68145 212.87098 214.13251 215.92704 217.86657 219.92110 222.02763 224.12216
 226.19369 228.28922 230.39775 232.51528 234.65581 236.83934 239.10687 241.48840
 244.12093 246.38346 248.39699 250.17352 251.60205 252.73658 253.57011 253.89764
 253.94617 253.73170 253.10323 252.06277 250.68030 248.85283 246.77336 244.61789
 242.42042 240.23595 238.06748 235.91801 233.78954 231.66807 229.70560 227.87413
 226.16866 224.65219 223.29372 222.07725 220.97078 219.94231 219.05784 218.21037
 217.46390 216.65543 215.76496 215.14049 214.60202 215.12837 216.31813 216.80664
 216.92958 217.25171 217.68216 217.25320 217.84482 220.29556 223.67563 227.00203
 230.30798 234.76695 239.51060 243.84528 247.83444 251.62857 255.19867 258.43735
 261.42490 264.23804 266.86774 269.27808 271.56305 273.77838 275.90158 277.70441
 279.19284 281.00323 282.72095 284.22925 285.53452 286.68936 287.74298 288.69748
 289.55597 290.32043 290.98825 291.83932
 366.78100 356.34598 345.78895 334.66593 323.07991 311.28489 299.16586 286.97984
 274.70282 262.61080 250.63077 239.94275 230.07573 221.19071 213.38368 206.39666
 200.24164 195.19062 191.78359 189.83657 188.88455 188.95952 189.80550 191.12448
 192.86046 194.96643 197.24041 199.61039 202.06637 204.55734 206.65632 208.50930
 210.14628 211.30225 211.54223 211.78121 211.72919 211.44516 211.08914 210.73012
 210.35810 210.07907 209.89805 209.77303 209.71200 210.05398 210.45096 210.85094
 211.65491 212.84389 214.10487 215.89885 217.83782 219.89180 221.99778 224.09176
 226.16273 228.25771 230.36569 232.48267 234.62264 236.80562 239.07260 241.45357
 244.08555 246.34753 248.36051 250.13648 251.56446 252.69844 253.53142 253.85839
 253.90637 253.69135 253.06233 252.02130 250.63828 248.81026 246.73024 244.57421
 242.37619 240.19117 238.02214 235.87212 233.74310 231.62108 229.65805 227.82603
 226.12001 224.60299 223.24396 222.02694 220.91992 219.89090 219.00587 218.15785
 217.41083 216.60181 215.71078 215.08576 214.54674 215.08728 216.32018 216.78271
 216.99673 217.25421 217.43176 217.15019 217.75845 220.17455 223.58783 226.95026
 230.39278 234.82158 239.54753 243.89522 247.88463 251.65437 255.16684 258.34357
 261.30048 264.12619 266.80615 269.30716 271.70929 274.05826 276.19159 278.05298
 279.56384 280.80231 282.00055 283.16266 284.33130 285.36523 286.30856 287.16312
 287.93173 288.61615 289.21408 289.97604
 366.78100 356.34507 345.78714 334.66320 323.07627 311.28034 299.16041 286.97348
 274.69554 262.60261 250.62168 239.93275 230.06482 221.17888 213.37095 206.38302
 200.22709 195.17516 191.76722 189.81929 188.86636 188.94043 189.78549 191.10356
 192.83863 194.94370 197.21677 199.58583 202.04090 204.53097 206.62904 208.48111
 210.11717 211.27224 211.51131 211.74938 211.69645 211.41151 211.05458 210.69465
 210.32172 210.04179 209.85985 209.73392 209.67199 210.01306 210.40913 210.80819
 211.61126 212.79933 214.05940 215.85247 217.79053 219.84360 221.94867 224.04174
 226.11181 228.20587 230.31294 232.42901 234.56808 236.75015 239.01621 241.39628
 244.02735 246.28842 248.30048 250.07555 251.50262 252.63569 253.46776 253.79382
 253.84089 253.62496 252.99503 251.95310 250.56916 248.74023 246.65930 244.50237
 242.30344 240.11750 237.94757 235.79664 233.66671 231.54378 229.57984 227.74691
 226.03998 224.52205 223.16212 221.94418 220.83625 219.80632 218.92039 218.07146
 217.32352 216.51359 215.62166 214.99573 214.45580 215.03645 216.35591 216.70258
 217.03395 217.36813 217.41722 216.97868 217.51562 219.96376 223.44447 226.78459
 230.38400 234.85835 239.58321 243.95987 247.97795 251.77203 255.29692 258.45145
 261.35522 264.11438 266.73691 269.23975 271.74707 274.24353 276.42999 278.25156
 279.83426 281.08572 282.00629 282.45563 283.29825 284.29294 285.20044 286.02258
 286.76199 287.42044 287.99567 288.72870
 366.78100 356.34541 345.78782 334.66423 323.07764 311.28205 299.16246 286.97587
 274.69828 262.60569 250.62510 239.93651 230.06892 221.18333 213.37574 206.38815
 200.23256 195.18097 191.77338 189.82579 188.87319 188.94760 189.79301 191.11142
 192.84683 194.95224 197.22565 199.59506 202.05047 204.54088 206.63929 208.49170
 210.12811 211.28352 211.52293 211.76134 211.70875 211.42416 211.06757 210.70798
 210.33539 210.05580 209.87421 209.74862 209.68703 210.02844 210.42485 210.82426
 211.62767 212.81608 214.07649 215.86990 217.80831 219.86172 221.96713 224.06054
 226.13095 228.22536 230.33277 232.44918 234.58858 236.77099 239.03740 241.41781
 244.04922 246.31063 248.32304 250.09845 251.52586 252.65927 253.49168 253.81809
 253.86550 253.64991 253.02032 251.97873 250.59514 248.76655 246.68596 244.52937
 242.33078 240.14519 237.97560 235.82501 233.69542 231.57283 229.60924 227.77665
 226.07006 224.55247 223.19288 221.97529 220.86770 219.83811 218.95252 218.10393
 217.35634 216.54675 215.65516 215.02957 214.48997 215.04401 216.32169 216.72755
 216.96225 217.34479 217.37390 216.85779 217.35016 219.82837 223.41116 226.68832
 230.40344 234.91095 239.65160 244.04497 248.07643 251.86804 255.37930 258.53638
 261.43973 264.16809 266.74228 269.22964 271.78525 274.37167 276.60843 278.41901
 279.99963 281.30066 282.22369 282.62469 282.74942 283.67847 284.59586 285.42697
 286.17444 286.84009 287.42157 288.16263
 366.78100 356.34724 345.79148 334.66972 323.08496 311.29120 299.17344 286.98868
 274.71292 262.62216 250.64340 239.95664 230.09088 221.20712 213.40136 206.41560
 200.26184 195.21208 191.80632 189.86056 188.90980 188.98604 189.83328 191.15352
 192.89076 194.99800 197.27325 199.64449 202.10173 204.59397 206.69421 208.54845
 210.18669 211.34393 211.58517 211.82541 211.77465 211.49189 211.13713 210.77937
 210.40861 210.13085 209.95109 209.82733 209.76757 210.11081 210.50905 210.91029
 211.71553 212.90577 214.16801 215.96325 217.90349 219.95873 222.06597 224.16121
 226.23345 228.32969 230.43893 232.55717 234.69841 236.88265 239.15089 241.53313
 244.16637 246.42961 248.44385 250.22109 251.65033 252.78557 253.61981 253.94805
 253.99729 253.78353 253.15577 252.11601 250.73425 248.90749 246.82874 244.67398
 242.47722 240.29346 238.12570 235.97694 233.84918 231.72842 229.76666 227.93590
 226.23114 224.71538 223.35762 222.14186 221.03610 220.00834 219.12458 218.27782
 217.53206 216.72430 215.83454 215.21078 214.67302 215.12509 216.19037 216.86977
 217.02150 217.25522 217.24756 216.69542 217.19290 219.72379 223.35191 226.56996
 230.39200 234.94800 239.70653 244.10518 248.13945 251.92621 255.43079 258.59271
 261.50665 264.22565 266.76566 269.18469 271.78061 274.49646 276.74197 278.47311
 280.03516 281.29721 282.15674 282.47653 282.56482 283.19763 284.15707 285.03003
 285.81519 286.51437 287.12518 287.90356
 366.78100 356.34642 345.78984 334.66726 323.08167 311.28709 299.16851 286.98293
 274.70635 262.61477 250.63519 239.94760 230.08102 221.19644 213.38986 206.40328
 200.24870 195.19811 191.79153 189.84495 188.89337 188.96879 189.81521 191.13463
 192.87104 194.97746 197.25188 199.62230 202.07872 204.57014 206.66956 208.52297
 210.16039 211.31681 211.55723 211.79665 211.74507 211.46148 211.10590 210.74732
 210.37574 210.09716 209.91658 209.79200 209.73141 210.07383 210.47125 210.87167
 211.67609 212.86551 214.12693 215.92134 217.86076 219.91518 222.02160 224.11602
 226.18744 228.28285 230.39127 232.50869 234.64911 236.83253 239.09995 241.48137
 244.11378 246.37620 248.38962 250.16604 251.59446 252.72888 253.56230 253.88971
 253.93813 253.72355 253.09497 252.05439 250.67181 248.84423 246.76464 244.60906
 242.41148 240.22690 238.05832 235.90874 233.78015 231.65857 229.69599 227.86441
 226.15883 224.64225 223.28367 222.06708 220.96050 219.93192 219.04734 218.19976
 217.45318 216.64460 215.75401 215.12943 214.59085 215.08710 216.24026 216.76337
 217.11224 217.44267 217.35315 216.65923 217.07631 219.54503 223.10947 226.52267
 230.38275 234.99112 239.74799 244.15033 248.19604 251.99745 255.51196 258.68503
 261.61353 264.32217 266.83630 269.24744 271.82205 274.54785 276.87451 278.65680
 280.17236 281.36554 282.08664 282.29321 282.40912 283.17926 284.05173 284.84207
 285.55292 286.18594 286.73892 287.44366
 366.78100 356.34513 345.78726 334.66339 323.07652 311.28065 299.16078 286.97391
 274.69604 262.60317 250.62230 239.93343 230.06556 221.17969 213.37182 206.38395
 200.22808 195.17621 191.76834 189.82047 188.86760 188.94172 189.78685 191.10498
 192.84011 194.94524 197.21837 199.58750 202.04263 204.53276 206.63089 208.48302
 210.11915 211.27428 211.51341 211.75154 211.69867 211.41380 211.05693 210.69706
 210.32419 210.04432 209.86245 209.73658 209.67471 210.01584 210.41197 210.81110
 211.61423 212.80236 214.06249 215.85562 217.79375 219.84688 221.95201 224.04514
 226.11527 228.20940 230.31653 232.43266 234.57179 236.75391 239.02004 241.40017
 244.03130 246.29243 248.30456 250.07969 251.50682 252.63995 253.47208 253.79821
 253.84534 253.62947 252.99960 251.95773 250.57386 248.74499 246.66412 244.50725
 242.30838 240.12251 237.95264 235.80177 233.67190 231.54903 229.58516 227.75229
 226.04542 224.52755 223.16768 221.94981 220.84194 219.81207 218.92620 218.07733
 217.32946 216.51959 215.62772 215.00185 214.46198 215.01889 216.30800 216.70062
 217.04582 217.44444 217.37587 216.60440 216.94672 219.38530 223.01981 226.46144
 230.40251 235.03793 239.81551 244.21513 248.26254 252.05405 255.56195 258.73993
 261.67288 264.38605 266.89160 269.24664 271.78586 274.62177 277.08228 278.90643
 280.47095 281.71875 282.49896 282.65094 282.53021 282.90570 283.73532 284.49734
 285.18271 285.79303 286.32617 287.00562
 366.78100 356.34660 345.79019 334.66779 323.08238 311.28798 299.16957 286.98417
 274.70776 262.61636 250.63695 239.94955 230.08314 221.19874 213.39233 206.40593
 200.25152 195.20112 191.79471 189.84831 188.89690 188.97250 189.81909 191.13869
 192.87528 194.98188 197.25647 199.62707 202.08366 204.57526 206.67485 208.52845
 210.16604 211.32264 211.56323 211.80283 211.75142 211.46802 211.11261 210.75421
 210.38280 210.10440 209.92399 209.79959 209.73918 210.08178 210.47937 210.87997
 211.68456 212.87416 214.13575 215.93035 217.86994 219.92454 222.03113 224.12573
 226.19732 228.29292 230.40151 232.51911 234.65970 236.84330 239.11089 241.49249
 244.12508 246.38768 248.40127 250.17787 251.60646 252.74106 253.57465 253.90225
 253.95084 253.73644 253.10803 252.06763 250.68522 248.85782 246.77841 244.62301
 242.42560 240.24120 238.07279 235.92339 233.79498 231.67358 229.71117 227.87977
 226.17436 224.65796 223.29955 222.08315 220.97674 219.94834 219.06393 218.21653
 217.47013 216.66172 215.77132 215.14691 214.60851 215.07935 216.18935 216.85066
 217.18985 217.43637 217.31113 216.46004 216.74365 219.18948 222.96376 226.34845
 230.41461 235.07014 239.88412 244.27551 248.32216 252.09895 255.60510 258.78366
 261.70694 264.40829 266.89661 269.27631 271.83255 274.66180 277.16971 279.03986
 280.58112 281.77963 282.51166 282.78070 282.75223 282.78275 283.21121 283.97165
 284.69601 285.34106 285.90457 286.62271
 366.78100 356.34761 345.79222 334.67082 323.08643 311.29304 299.17565 286.99125
 274.71586 262.62547 250.64708 239.96069 230.09529 221.21190 213.40651 206.42112
 200.26772 195.21833 191.81294 189.86755 188.91716 188.99376 189.84137 191.16198
 192.89959 195.00719 197.28280 199.65441 202.11202 204.60463 206.70523 208.55984
 210.19845 211.35606 211.59766 211.83827 211.78788 211.50549 211.15110 210.79370
 210.42331 210.14592 209.96653 209.84313 209.78374 210.12735 210.52596 210.92757
 211.73317 212.92378 214.18639 215.98200 217.92260 219.97821 222.08582 224.18143
 226.25404 228.35064 230.46025 232.57886 234.72047 236.90507 239.17368 241.55629
 244.18990 246.45351 248.46811 250.24572 251.67533 252.81094 253.64554 253.97415
 254.02376 253.81037 253.18298 252.14358 250.76219 248.93580 246.85741 244.70301
 242.50662 240.32323 238.15584 236.00745 233.88005 231.75966 229.79827 227.96788
 226.26348 224.74809 223.39070 222.17531 221.06992 220.04252 219.15913 218.31274
 217.56735 216.75995 215.87056 215.24717 214.70978 215.12291 216.09897 216.92262
 217.36597 217.52444 217.24663 216.36067 216.62560 218.99777 222.82048 226.20717
 230.40721 235.10768 239.94978 244.33684 248.39209 252.17653 255.69542 258.87692
 261.80157 264.49139 266.94702 269.28424 271.79163 274.61725 277.20047 279.12213
 280.65421 281.81287 282.48798 282.66501 282.64670 282.65665 282.94003 283.43466
 284.04767 284.72003 285.30737 286.05588
 366.78100 356.34719 345.79139 334.66958 323.08478 311.29097 299.17317 286.98836
 274.71256 262.62175 250.64295 239.95614 230.09034 221.20653 213.40073 206.41492
 200.26112 195.21131 191.80551 189.85970 188.90889 188.98509 189.83228 191.15248
 192.88967 194.99687 197.27206 199.64326 202.10045 204.59265 206.69284 208.54704
 210.18523 211.34243 211.58362 211.82382 211.77301 211.49020 211.13540 210.77759
 210.40679 210.12898 209.94918 209.82537 209.76557 210.10876 210.50696 210.90815
 211.71335 212.90354 214.16574 215.96093 217.90113 219.95632 222.06352 224.15871
 226.23090 228.32710 230.43629 232.55449 234.69568 236.87988 239.14807 241.53027
 244.16346 246.42666 248.44085 250.21805 251.64724 252.78244 253.61663 253.94483
 253.99402 253.78021 253.15241 252.11260 250.73080 248.90399 246.82519 244.67038
 242.47358 240.28977 238.12197 235.97316 233.84536 231.72455 229.76275 227.93194
 226.22714 224.71133 223.35353 222.13772 221.03191 220.00411 219.12030 218.27350
 217.52769 216.71989 215.83008 215.20628 214.66847 215.09998 216.11942 216.90665
 217.43211 217.58807 217.22194 216.33081 216.56279 218.83751 222.63445 226.19952
 230.41835 235.15384 240.00365 244.40157 248.46475 252.25510 255.78310 258.97314
 261.90759 264.58691 267.01324 269.29602 271.73834 274.61057 277.29904 279.21115
 280.74252 281.87100 282.44391 282.54623 282.50089 282.50284 282.82080 283.31836
 283.83112 284.42432 284.99002 285.71097
 366.78100 356.34663 345.79025 334.66788 323.08250 311.28813 299.16975 286.98438
 274.70801 262.61663 250.63726 239.94988 230.08351 221.19913 213.39276 206.40639
 200.25201 195.20164 191.79526 189.84889 188.89751 188.97314 189.81977 191.13939
 192.87602 194.98264 197.25727 199.62789 202.08452 204.57615 206.67577 208.52940
 210.16702 211.32365 211.56427 211.80390 211.75253 211.46915 211.11378 210.75540
 210.38403 210.10565 209.92528 209.80091 209.74053 210.08316 210.48078 210.88141
 211.68603 212.87566 214.13729 215.93191 217.87154 219.92616 222.03279 224.12741
 226.19904 228.29467 230.40329 232.52092 234.66154 236.84517 239.11279 241.49442
 244.12705 246.38967 248.40330 250.17992 251.60855 252.74317 253.57680 253.90443
 253.95305 253.73868 253.11030 252.06993 250.68755 248.86018 246.78081 244.62543
 242.42806 240.24368 238.07531 235.92593 233.79756 231.67619 229.71381 227.88244
 226.17706 224.66069 223.30232 222.08594 220.97957 219.95119 219.06682 218.21944
 217.47307 216.66470 215.77432 215.14995 214.61157 215.07147 216.15800 216.90746
 217.47488 217.61186 217.13303 216.21657 216.45197 218.70355 222.51047 226.18318
 230.42393 235.18988 240.04272 244.47035 248.54153 252.34323 255.88228 259.07626
 262.01004 264.68176 267.09485 269.33658 271.68420 274.54623 277.26263 279.29312
 280.83975 281.95261 282.48819 282.51288 282.40790 282.37817 282.66428 283.13531
 283.68820 284.29147 284.86710 285.60068
 354.97500 345.04800 334.58700 324.11500 313.32600 302.53700 291.65000 280.76700
 269.93100 259.19300 248.62200 238.61700 229.08700 220.35500 212.54000 205.53500
 199.46400 194.49300 191.14300 189.19000 188.08900 188.01400 188.72400 189.90600
 191.46900 193.38200 195.40300 197.55600 199.80700 202.06000 204.28800 206.47900
 208.55200 210.37800 212.02500 213.65900 214.99800 216.11800 217.17200 218.25900
 219.49400 220.64500 221.67900 222.61400 223.54500 224.98200 226.57100 228.19000
 229.79700 231.81100 233.86500 235.97200 238.24200 240.55300 242.89900 245.25300
 247.48800 249.53500 251.36600 252.84800 254.09800 255.16700 256.02700 256.25300
 256.09500 255.54300 253.93500 252.56600 251.38400 250.24500 249.05200 247.70100
 246.01600 243.99600 241.78400 239.39300 236.81300 234.22300 231.65800 229.14400
 226.74000 224.47300 222.33500 220.32500 218.44000 216.67700 214.96200 213.47200
 212.20000 211.10800 210.26000 209.63900 209.24400 209.03100 209.05800 209.33300
 209.78400 210.62600 211.33100 212.39100 213.62500 214.84668 217.72949 219.47640
 220.32566 220.86828 220.88710 220.27371 219.43733 218.84250 219.04934 220.86203
 222.60583 225.72206 229.03064 232.61777 236.12270 239.51333 242.70767 245.68587
 248.41061 250.90679 253.19353 254.91714 256.48655 257.94920 259.39966 260.69384
 261.81714 262.77997 263.71679 264.54570 265.26305 265.89772 266.47676 267.00133
 267.47312 267.89325 268.26027 268.72800
