|-------------------------------------------------------------------------|
|   File Name : in_temp.dat
|   Subject   : temperature profiles used for initial guess atmosphere
|   File Type : input of gmtr
|   Data Type : atmospherical data
|   Author/s  : WRF-Chem
|   Date      : Fri Jul 26 15:39:24 2024
|-------------------------------------------------------------------------|

 WRF-Chem temperature
#
 values of T (K)    (8f10.5)
#
 354.97500 345.04800 334.58700 324.11500 313.32600 302.53700 291.65000 280.76700
 269.93100 259.19300 248.62200 238.61700 229.08700 220.35500 212.54000 205.53500
 199.46400 194.49300 191.14300 189.19000 188.08900 188.01400 188.72400 189.90600
 191.46900 193.38200 195.40300 197.55600 199.80700 202.06000 204.28800 206.47900
 208.55200 210.37800 212.02500 213.65900 214.99800 216.11800 217.17200 218.25900
 219.49400 220.64500 221.67900 222.61400 223.54500 224.98200 226.57100 228.19000
 229.79700 231.81100 233.86500 235.97200 238.24200 240.55300 242.89900 245.25300
 247.48800 249.53500 251.36600 252.84800 254.09800 255.16700 256.02700 256.25300
 256.09500 255.54300 253.93500 252.56600 251.38400 250.24500 249.05200 247.70100
 246.01600 243.99600 241.78400 239.39300 236.81300 234.22300 231.65800 229.14400
 226.74000 224.47300 222.33500 220.32500 218.44000 216.67700 214.96200 213.47200
 212.20000 211.10800 210.26000 209.63900 209.24400 209.03100 209.05800 209.33300
 209.78400 210.62600 211.33100 212.39100 213.62500 214.84668 217.72949 219.47640
 220.32566 220.86828 220.88710 220.27371 219.43733 218.84250 219.04934 220.86203
 222.60583 225.72206 229.03064 232.61777 236.12270 239.51333 242.70767 245.68587
 248.41061 250.90679 253.19353 254.91714 256.48655 257.94920 259.39966 260.69384
 261.81714 262.77997 263.71679 264.54570 265.26305 265.89772 266.47676 267.00133
 267.47312 267.89325 268.26027 268.72800
 366.78100 356.33500 345.76700 334.63300 323.03600 311.23000 299.10000 286.90300
 274.61500 262.51200 250.52100 239.82200 229.94400 221.04800 213.23000 206.23200
 200.06600 195.00400 191.58600 189.62800 188.66500 188.72900 189.56400 190.87200
 192.59700 194.69200 196.95500 199.31400 201.75900 204.23900 206.32700 208.16900
 209.79500 210.94000 211.16900 211.39700 211.33400 211.03900 210.67200 210.30200
 209.91900 209.62900 209.43700 209.30100 209.22900 209.56000 209.94600 210.33500
 211.12800 212.30600 213.55600 215.33900 217.26700 219.31000 221.40500 223.48800
 225.54800 227.63200 229.72900 231.83500 233.96400 236.13600 238.39200 240.76200
 243.38300 245.63400 247.63600 249.40100 250.81800 251.94100 252.76300 253.07900
 253.11600 252.89000 252.25000 251.19800 249.80400 247.96500 245.87400 243.70700
 241.49800 239.30200 237.12200 234.96100 232.82100 230.68800 228.71400 226.87100
 225.15400 223.62600 222.25600 221.02800 219.91000 218.87000 217.97400 217.11500
 216.35700 215.53700 214.63500 213.99900 213.44900 212.85855 212.01316 212.61654
 214.26826 216.08686 218.14273 220.53346 223.40855 226.78828 231.49734 235.90155
 239.42278 243.28576 247.23140 251.11907 254.80144 258.23331 261.38913 264.27520
 266.89312 269.26852 271.44504 273.08845 274.58484 275.98591 277.39845 278.65879
 279.75272 280.69038 281.56708 282.34086 283.01050 283.60295 284.14348 284.63317
 285.07358 285.46577 285.80838 286.24500
 381.81900 372.39900 361.20600 349.77600 337.62200 324.85300 311.81000 298.35300
 284.86000 271.32400 258.56100 246.30400 236.08700 226.79600 218.44800 211.29000
 205.52200 200.89400 197.38100 194.84800 193.01500 192.31500 192.25000 192.43100
 192.91200 193.53700 194.13600 194.71200 195.26200 195.83100 196.39300 196.97600
 197.60400 198.14900 198.58400 199.05700 199.69500 200.37800 201.05400 201.70800
 202.31300 202.85700 203.35500 203.86200 204.56900 205.29700 206.02600 206.98700
 208.19300 209.44100 210.96900 212.57600 214.46200 216.51300 218.63000 220.85300
 223.34100 225.96200 228.73900 231.69700 234.70600 237.70600 240.69200 243.65700
 246.73700 249.69900 252.52100 255.06300 257.29000 259.23300 260.63300 261.68000
 262.46100 262.79800 262.69100 262.22400 261.06900 259.52500 257.70700 255.50700
 253.00100 250.30200 247.39800 244.45200 241.65400 239.05400 236.73300 234.59000
 232.59500 230.72500 228.83400 226.82600 224.66600 222.38700 220.10400 217.71500
 215.45900 213.06600 210.54600 208.09300 205.35400 202.08130 196.05959 200.71215
 209.01611 216.90438 223.84126 229.78593 235.00632 240.20838 245.98943 250.68668
 254.32982 257.93487 261.55666 264.96801 268.15192 271.06452 273.76717 276.25691
 278.57680 280.74479 282.77456 284.60533 286.27232 287.81705 289.31715 290.65561
 291.81734 292.81312 293.70701 294.49387 295.17482 295.77730 296.32696 296.82492
 297.27278 297.67160 298.02000 298.46400
 399.33000 389.90700 379.81300 368.66800 357.52200 345.30100 333.07400 320.22700
 307.21600 293.84800 280.37600 267.29600 254.61000 242.98700 232.15100 221.97700
 212.67200 204.28600 197.66900 192.82100 189.48600 187.45200 186.81400 187.08900
 187.78100 189.05400 190.64800 192.54200 194.63000 196.75200 198.67100 200.15800
 201.53500 202.48700 202.97500 203.34000 203.53900 203.49700 203.38500 203.24700
 203.00500 202.78600 202.60300 202.43700 202.42600 202.88800 203.42000 203.95100
 204.89500 205.99200 207.30100 208.95800 210.73800 213.10000 215.56400 218.18000
 220.96600 223.91800 226.96100 230.09200 233.29300 236.55700 239.95500 243.53700
 246.84500 249.39000 251.54200 253.47400 255.19500 256.48400 257.43100 258.05900
 258.21200 258.04000 257.58200 256.64300 255.23900 253.50700 251.40800 249.05600
 246.57600 243.99400 241.38900 238.83000 236.34400 233.98600 231.96900 230.11800
 228.42300 226.89900 225.54800 224.29700 223.10500 221.96500 220.95800 220.11300
 219.49000 218.92000 218.32500 217.88100 217.42300 216.96366 216.35568 216.80261
 217.73415 218.28582 218.64258 219.10077 220.44626 222.53987 226.38451 230.35736
 233.59734 237.39164 241.29814 245.22796 248.98002 252.51130 255.78595 258.80109
 261.54781 264.05210 266.34239 268.04198 269.58951 271.01303 272.35754 273.55718
 274.59842 275.49092 276.28989 276.99307 277.60161 278.14001 278.63122 279.07623
 279.47646 279.83287 280.14422 280.54100
 399.73800 389.78500 379.66200 368.15100 356.64100 344.35000 331.79200 318.88800
 305.72600 292.49300 279.20900 266.73800 254.69600 244.21100 234.45700 225.43300
 217.56900 210.45100 204.30000 199.30600 195.45800 192.57600 191.02700 190.38600
 190.23900 190.53400 191.16600 191.92500 192.79500 193.76600 194.73200 195.31200
 195.80000 196.05200 196.11500 196.11500 196.03900 195.72300 195.34000 194.98900
 194.75100 194.79200 195.13300 195.59800 196.50600 198.13600 199.85800 201.56600
 204.17900 206.82300 209.89300 213.28400 216.82800 220.60500 224.38700 228.20900
 232.03200 235.82500 239.56000 243.25800 246.84500 250.20100 253.70900 257.46800
 261.53000 264.22100 266.60100 268.68100 270.32900 271.74100 272.83600 273.47400
 273.89800 274.00200 273.75700 273.28800 272.37100 271.10000 269.58900 267.77900
 265.81600 263.72100 261.39300 258.91600 256.29800 253.42300 250.33100 247.11400
 243.83700 240.52900 237.24900 233.99900 230.72800 227.51500 224.25400 220.95200
 217.62700 213.65600 210.12100 206.78900 204.01000 201.99491 199.07309 198.76551
 199.40006 200.48994 201.46112 202.31912 203.45100 204.96110 207.47502 210.85391
 213.70530 217.29629 220.99574 224.72316 228.28753 231.64854 234.68024 237.40893
 239.70644 241.60899 243.46854 245.67368 247.68154 249.52395 251.24767 252.78566
 254.12057 255.26479 256.23740 257.09036 257.82852 258.48160 259.07744 259.61723
 260.10271 260.53504 260.91270 261.39400
 399.73800 389.78500 379.66200 368.15100 356.64100 344.35000 331.79200 318.88800
 305.72600 292.49300 279.20900 266.73800 254.69600 244.21100 234.45700 225.43300
 217.56900 210.45100 204.30000 199.30600 195.45800 192.57600 191.02700 190.38600
 190.23900 190.53400 191.16600 191.92500 192.79500 193.76600 194.73200 195.31200
 195.80000 196.05200 196.11500 196.11500 196.03900 195.72300 195.34000 194.98900
 194.75100 194.79200 195.13300 195.59800 196.50600 198.13600 199.85800 201.56600
 204.17900 206.82300 209.89300 213.28400 216.82800 220.60500 224.38700 228.20900
 232.03200 235.82500 239.56000 243.25800 246.84500 250.20100 253.70900 257.46800
 261.53000 264.22100 266.60100 268.68100 270.32900 271.74100 272.83600 273.47400
 273.89800 274.00200 273.75700 273.28800 272.37100 271.10000 269.58900 267.77900
 265.81600 263.72100 261.39300 258.91600 256.29800 253.42300 250.33100 247.11400
 243.83700 240.52900 237.24900 233.99900 230.72800 227.51500 224.25400 220.95200
 217.62700 213.65600 210.12100 206.78900 204.01000 201.99491 199.07309 198.76551
 199.40006 200.48994 201.46112 202.31912 203.45100 204.96110 207.47502 210.85391
 213.70530 217.29629 220.99574 224.72316 228.28753 231.64854 234.68024 237.40893
 239.70644 241.60899 243.46854 245.67368 247.68154 249.52395 251.24767 252.78566
 254.12057 255.26479 256.23740 257.09036 257.82852 258.48160 259.07744 259.61723
 260.10271 260.53504 260.91270 261.39400
 399.33000 389.90700 379.81300 368.66800 357.52200 345.30100 333.07400 320.22700
 307.21600 293.84800 280.37600 267.29600 254.61000 242.98700 232.15100 221.97700
 212.67200 204.28600 197.66900 192.82100 189.48600 187.45200 186.81400 187.08900
 187.78100 189.05400 190.64800 192.54200 194.63000 196.75200 198.67100 200.15800
 201.53500 202.48700 202.97500 203.34000 203.53900 203.49700 203.38500 203.24700
 203.00500 202.78600 202.60300 202.43700 202.42600 202.88800 203.42000 203.95100
 204.89500 205.99200 207.30100 208.95800 210.73800 213.10000 215.56400 218.18000
 220.96600 223.91800 226.96100 230.09200 233.29300 236.55700 239.95500 243.53700
 246.84500 249.39000 251.54200 253.47400 255.19500 256.48400 257.43100 258.05900
 258.21200 258.04000 257.58200 256.64300 255.23900 253.50700 251.40800 249.05600
 246.57600 243.99400 241.38900 238.83000 236.34400 233.98600 231.96900 230.11800
 228.42300 226.89900 225.54800 224.29700 223.10500 221.96500 220.95800 220.11300
 219.49000 218.92000 218.32500 217.88100 217.42300 216.96366 216.35568 216.80261
 217.73415 218.28582 218.64258 219.10077 220.44626 222.53987 226.38451 230.35736
 233.59734 237.39164 241.29814 245.22796 248.98002 252.51130 255.78595 258.80109
 261.54781 264.05210 266.34239 268.04198 269.58951 271.01303 272.35754 273.55718
 274.59842 275.49092 276.28989 276.99307 277.60161 278.14001 278.63122 279.07623
 279.47646 279.83287 280.14422 280.54100
 381.81900 372.39900 361.20600 349.77600 337.62200 324.85300 311.81000 298.35300
 284.86000 271.32400 258.56100 246.30400 236.08700 226.79600 218.44800 211.29000
 205.52200 200.89400 197.38100 194.84800 193.01500 192.31500 192.25000 192.43100
 192.91200 193.53700 194.13600 194.71200 195.26200 195.83100 196.39300 196.97600
 197.60400 198.14900 198.58400 199.05700 199.69500 200.37800 201.05400 201.70800
 202.31300 202.85700 203.35500 203.86200 204.56900 205.29700 206.02600 206.98700
 208.19300 209.44100 210.96900 212.57600 214.46200 216.51300 218.63000 220.85300
 223.34100 225.96200 228.73900 231.69700 234.70600 237.70600 240.69200 243.65700
 246.73700 249.69900 252.52100 255.06300 257.29000 259.23300 260.63300 261.68000
 262.46100 262.79800 262.69100 262.22400 261.06900 259.52500 257.70700 255.50700
 253.00100 250.30200 247.39800 244.45200 241.65400 239.05400 236.73300 234.59000
 232.59500 230.72500 228.83400 226.82600 224.66600 222.38700 220.10400 217.71500
 215.45900 213.06600 210.54600 208.09300 205.35400 202.08130 196.05959 200.71215
 209.01611 216.90438 223.84126 229.78593 235.00632 240.20838 245.98943 250.68668
 254.32982 257.93487 261.55666 264.96801 268.15192 271.06452 273.76717 276.25691
 278.57680 280.74479 282.77456 284.60533 286.27232 287.81705 289.31715 290.65561
 291.81734 292.81312 293.70701 294.49387 295.17482 295.77730 296.32696 296.82492
 297.27278 297.67160 298.02000 298.46400
 366.78100 356.33436 345.76572 334.63108 323.03345 311.22681 299.09617 286.89853
 274.60989 262.50625 250.51462 239.81498 229.93634 221.03970 213.22106 206.22242
 200.05579 194.99315 191.57451 189.61587 188.65223 188.71559 189.54996 190.85732
 192.58168 194.67604 196.93840 199.29676 201.74113 204.22049 206.30785 208.14921
 209.77457 210.91893 211.14730 211.37466 211.31102 211.01538 210.64774 210.27710
 209.89346 209.60283 209.41019 209.27355 209.20091 209.53127 209.91663 210.30500
 211.09736 212.27472 213.52408 215.30644 217.23380 219.27617 221.37053 223.45289
 225.51225 227.59561 229.69197 231.79734 233.92570 236.09706 238.35242 240.72178
 243.34214 245.59251 247.59387 249.35823 250.77459 251.89695 252.71831 253.03368
 253.07004 252.84340 252.20276 251.15012 249.75548 247.91585 245.82421 243.65657
 241.44693 239.25029 237.06965 234.90801 232.76738 230.63374 228.65910 226.81546
 225.09782 223.56918 222.19855 220.96991 219.85127 218.81063 217.91399 217.05435
 216.29572 215.47508 214.57244 213.93580 213.38516 212.92276 211.83504 212.07924
 213.26009 215.18642 216.72231 217.26410 218.62810 222.62953 228.66328 233.56427
 237.35449 241.10559 244.87134 248.62303 252.27005 255.40352 258.00894 260.45651
 263.12024 265.73071 268.13324 270.25882 272.26917 274.19299 275.84760 277.45334
 279.11551 280.75314 282.26062 283.61694 284.79922 285.84860 286.80807 287.68198
 288.47305 289.18094 289.80972 290.64240
 366.78100 356.33301 345.76302 334.62704 323.02805 311.22006 299.08807 286.88908
 274.59910 262.49411 250.50112 239.80013 229.92014 221.02216 213.20217 206.20218
 200.03419 194.97020 191.55022 189.59023 188.62524 188.68725 189.52026 190.82628
 192.54929 194.64230 196.90331 199.26032 201.70334 204.18135 206.26736 208.10737
 209.73138 210.87440 211.10141 211.32742 211.26243 210.96544 210.59646 210.22447
 209.83948 209.54749 209.35350 209.21552 209.14153 209.47054 209.85455 210.24156
 211.03258 212.20859 213.45660 215.23761 217.16362 219.20464 221.29765 223.37866
 225.43667 227.51868 229.61370 231.71771 233.84472 236.01473 238.26874 240.63675
 243.25577 245.50478 247.50479 249.26780 250.68281 251.80383 252.62384 252.93785
 252.97286 252.74487 252.10289 251.04890 249.65291 247.81192 245.71893 243.54995
 241.33896 239.14097 236.95898 234.79599 232.65401 230.51902 228.54303 226.69804
 224.97905 223.44907 222.07708 220.84709 219.72710 218.68511 217.78713 216.92614
 216.16615 215.34416 214.44017 213.80219 213.25020 212.85770 211.93407 212.20674
 213.36186 215.27779 216.75056 217.37073 218.58307 222.60956 228.60611 233.48232
 237.26680 241.03011 244.81667 248.55711 252.13226 255.24214 257.87488 260.34866
 262.95554 265.55545 268.00601 270.15140 272.15582 274.06845 275.71558 277.31979
 278.98297 280.63028 282.14429 283.50201 284.68423 285.73239 286.69443 287.56888
 288.36133 289.07037 289.69647 290.53226
 366.78100 356.33179 345.76058 334.62337 323.02317 311.21396 299.08075 286.88054
 274.58933 262.48312 250.48892 239.78671 229.90550 221.00629 213.18508 206.18387
 200.01467 194.94946 191.52825 189.56704 188.60083 188.66162 189.49341 190.79821
 192.52000 194.61179 196.87158 199.22737 201.66916 204.14596 206.23075 208.06954
 209.69233 210.83412 211.05991 211.28471 211.21850 210.92029 210.55008 210.17687
 209.79066 209.49746 209.30225 209.16304 209.08783 209.41562 209.79841 210.18420
 210.97400 212.14879 213.39558 215.17537 217.10016 219.13995 221.23175 223.31154
 225.36833 227.44912 229.54291 231.64570 233.77150 235.94029 238.19308 240.55987
 243.17766 245.42545 247.42424 249.18604 250.59983 251.71962 252.53841 252.85120
 252.88499 252.65579 252.01258 250.95737 249.56016 247.71795 245.62374 243.45354
 241.24133 239.04212 236.85891 234.69470 232.55149 230.41528 228.43808 226.59187
 224.87166 223.34045 221.96724 220.73603 219.61483 218.57162 217.67241 216.81020
 216.04899 215.22578 214.32058 213.68137 213.12816 212.79881 212.02353 212.33452
 213.46826 215.36729 216.78232 217.45438 218.58006 222.62593 228.54605 233.39868
 237.17683 240.94987 244.75349 248.48235 251.98483 255.07487 257.74475 260.25134
 262.80008 265.37958 267.87128 270.03680 272.03799 273.94125 275.58414 277.18872
 278.86154 280.51468 282.03445 283.39377 284.57587 285.62524 286.58771 287.46085
 288.25412 288.96454 289.58942 290.43158
 366.78100 356.33072 345.75844 334.62015 323.01887 311.20859 299.07431 286.87302
 274.58074 262.47346 250.47818 239.77489 229.89261 220.99233 213.17005 206.16777
 199.99748 194.93120 191.50892 189.54664 188.57935 188.63907 189.46979 190.77351
 192.49422 194.58494 196.84366 199.19838 201.63909 204.11481 206.19853 208.03625
 209.65797 210.79868 211.02340 211.24712 211.17984 210.88055 210.50927 210.13499
 209.74771 209.45342 209.25714 209.11686 209.04058 209.36730 209.74901 210.13373
 210.92245 212.09617 213.34188 215.12060 217.04432 219.08304 221.17375 223.25247
 225.30819 227.38791 229.48062 231.58234 233.70706 235.87478 238.12650 240.49221
 243.10893 245.35565 247.35337 249.11408 250.52680 251.64552 252.46324 252.77495
 252.80767 252.57739 251.93311 250.87683 249.47854 247.63526 245.53998 243.36870
 241.15541 238.95513 236.77085 234.60557 232.46128 230.32400 228.34572 226.49844
 224.77716 223.24487 221.87059 220.63831 219.51603 218.47174 217.57146 216.70818
 215.94590 215.12161 214.21533 213.57505 213.02077 212.74768 212.10460 212.45993
 213.58202 215.44969 216.82724 217.50703 218.60973 222.65289 228.48875 233.31384
 237.08443 240.86507 244.68445 248.40283 251.83299 254.90396 257.61621 260.15945
 262.64880 265.20090 267.72623 269.91245 271.91763 273.81631 275.45703 277.06314
 278.75174 280.40479 281.93140 283.29214 284.47495 285.52493 286.48810 287.36276
 288.15399 288.86679 289.49225 290.33115
 366.78100 356.32973 345.75647 334.61720 323.01493 311.20366 299.06840 286.86613
 274.57286 262.46459 250.46833 239.76406 229.88079 220.97953 213.15626 206.15299
 199.98172 194.91446 191.49119 189.52792 188.55965 188.61839 189.44812 190.75085
 192.47059 194.56032 196.81805 199.17178 201.61152 204.08625 206.16898 208.00571
 209.62645 210.76618 210.98991 211.21265 211.14438 210.84411 210.47184 210.09658
 209.70831 209.41304 209.21577 209.07451 208.99724 209.32297 209.70370 210.08744
 210.87517 212.04790 213.29264 215.07037 216.99310 219.03083 221.12057 223.19830
 225.25303 227.33176 229.42350 231.52423 233.64796 235.81470 238.06543 240.43016
 243.04589 245.29163 247.28836 249.04809 250.45982 251.57756 252.39429 252.70502
 252.73676 252.50549 251.86022 250.80295 249.40369 247.55942 245.46315 243.29088
 241.07662 238.87535 236.69008 234.52382 232.37855 230.24028 228.26101 226.41275
 224.69048 223.15721 221.78194 220.54868 219.42541 218.38014 217.47888 216.61461
 215.85134 215.02607 214.11881 213.47754 212.92227 212.70128 212.18063 212.58542
 213.69321 215.52689 216.88574 217.54472 218.67130 222.67751 228.44005 233.23271
 236.99257 240.77740 244.60896 248.31664 251.67531 254.72719 257.48456 260.06796
 262.50027 265.02133 267.57468 269.78387 271.79907 273.69971 275.33945 276.94583
 278.63882 280.30496 281.83798 283.19962 284.38232 285.43283 286.39462 287.27133
 288.06387 288.77567 289.40256 290.23923
 366.78100 356.32886 345.75472 334.61458 323.01144 311.19930 299.06316 286.86002
 274.56588 262.45674 250.45961 239.75447 229.87033 220.96819 213.14405 206.13991
 199.96777 194.89963 191.47549 189.51135 188.54221 188.60007 189.42893 190.73079
 192.44965 194.53851 196.79537 199.14823 201.58709 204.06096 206.14282 207.97868
 209.59854 210.73740 210.96026 211.18212 211.11298 210.81184 210.43870 210.06256
 209.67342 209.37728 209.17914 209.03700 208.95886 209.28372 209.66358 210.04644
 210.83331 212.00517 213.24903 215.02589 216.94775 218.98461 221.07347 223.15033
 225.20419 227.28205 229.37291 231.47277 233.59563 235.76149 238.01135 240.37521
 242.99007 245.23493 247.23079 248.98966 250.40052 251.51738 252.33324 252.64310
 252.67396 252.44182 251.79568 250.73754 249.33740 247.49226 245.39512 243.22198
 241.00684 238.80470 236.61856 234.45142 232.30528 230.16614 228.18601 226.33687
 224.61373 223.07959 221.70345 220.46931 219.34517 218.29903 217.39689 216.53175
 215.76761 214.94147 214.03333 213.39119 212.83505 212.66106 212.25092 212.71147
 213.80368 215.59814 216.94319 217.58556 218.75717 222.69516 228.40300 233.16118
 236.90393 240.69200 244.52991 248.22433 251.51160 254.54269 257.34589 259.97049
 262.35422 264.83881 267.41214 269.64078 271.67212 273.58557 275.24213 276.86325
 278.56018 280.21472 281.74646 283.10855 284.29102 285.34253 286.30414 287.18066
 287.97318 288.68405 289.31076 290.15094
 366.78100 356.32812 345.75324 334.61236 323.00848 311.19561 299.05873 286.85485
 274.55997 262.45009 250.45221 239.74633 229.86145 220.95858 213.13370 206.12882
 199.95594 194.88706 191.46218 189.49730 188.52742 188.58455 189.41267 190.71379
 192.43191 194.52003 196.77615 199.12827 201.56639 204.03952 206.12064 207.95576
 209.57488 210.71300 210.93512 211.15624 211.08636 210.78449 210.41061 210.03373
 209.64385 209.34697 209.14809 209.00521 208.92633 209.25046 209.62958 210.01170
 210.79782 211.96894 213.21206 214.98818 216.90930 218.94543 221.03355 223.10967
 225.16279 227.23991 229.33003 231.42915 233.55127 235.71640 237.96552 240.32864
 242.94276 245.18688 247.18200 248.94012 250.35024 251.46637 252.28149 252.59061
 252.62073 252.38785 251.74097 250.68209 249.28121 247.43534 245.33746 243.16358
 240.94770 238.74482 236.55794 234.39006 232.24318 230.10331 228.12243 226.27255
 224.54867 223.01379 221.63691 220.40203 219.27715 218.23028 217.32740 216.46152
 215.69664 214.86976 213.96088 213.31800 212.76112 212.62846 212.31548 212.83597
 213.91867 215.67035 216.99094 217.63327 218.85260 222.71262 228.37274 233.09773
 236.82091 240.61119 244.45233 248.13046 251.34735 254.35280 257.19925 259.86557
 262.21490 264.65939 267.23831 269.48029 271.52734 273.45084 275.12457 276.77332
 278.47891 280.15891 281.69861 283.06244 284.24789 285.29907 286.26300 287.14087
 287.93542 288.64792 289.27682 290.12131
 366.78100 356.32744 345.75188 334.61031 323.00575 311.19219 299.05463 286.85007
 274.55450 262.44394 250.44538 239.73882 229.85326 220.94969 213.12413 206.11857
 199.94501 194.87545 191.44988 189.48432 188.51376 188.57020 189.39763 190.69807
 192.41551 194.50295 196.75839 199.10982 201.54726 204.01970 206.10014 207.93458
 209.55301 210.69045 210.91189 211.13233 211.06177 210.75920 210.38464 210.00708
 209.61652 209.31896 209.11939 208.97583 208.89627 209.21971 209.59815 209.97958
 210.76502 211.93546 213.17790 214.95334 216.87377 218.90921 220.99665 223.07209
 225.12453 227.20096 229.29040 231.38884 233.51028 235.67471 237.92315 240.28559
 242.89903 245.14247 247.13690 248.89434 250.30378 251.41922 252.23366 252.54209
 252.57153 252.33797 251.69041 250.63085 249.22928 247.38272 245.28416 243.10960
 240.89304 238.68947 236.50191 234.33335 232.18579 230.04523 228.06366 226.21310
 224.48854 222.95298 221.57542 220.33985 219.21429 218.16673 217.26317 216.39661
 215.63104 214.80348 213.89392 213.25036 212.69279 212.59984 212.38022 212.95958
 214.03345 215.74467 217.04060 217.67708 218.94991 222.73544 228.34564 233.03510
 236.74023 240.53210 244.37709 248.03458 251.18205 254.15706 257.04016 259.75037
 262.07758 264.48843 267.06467 269.31818 271.38516 273.32025 275.00583 276.67368
 278.39560 280.12308 281.66940 283.03464 284.22189 285.27493 286.24106 287.12500
 287.92700 288.64746 289.27988 290.12463
 366.78100 356.32677 345.75053 334.60830 323.00307 311.18883 299.05060 286.84537
 274.54913 262.43790 250.43867 239.73143 229.84520 220.94097 213.11473 206.10850
 199.93427 194.86403 191.43780 189.47157 188.50033 188.55610 189.38287 190.68263
 192.39940 194.48617 196.74093 199.09170 201.52847 204.00023 206.08000 207.91377
 209.53153 210.66830 210.88907 211.10883 211.03760 210.73437 210.35914 209.98090
 209.58967 209.29144 209.09120 208.94697 208.86674 209.18950 209.56727 209.94804
 210.73280 211.90257 213.14434 214.91910 216.83887 218.87364 220.96040 223.03517
 225.08694 227.16270 229.25147 231.34924 233.47000 235.63377 237.88154 240.24330
 242.85607 245.09884 247.09260 248.84937 250.25814 251.37290 252.18667 252.49444
 252.52320 252.28897 251.64074 250.58050 249.17827 247.33104 245.23180 243.05657
 240.83934 238.63510 236.44687 234.27764 232.12940 229.98817 228.00594 226.15470
 224.42947 222.89324 221.51500 220.27877 219.15254 218.10430 217.20007 216.33284
 215.56660 214.73837 213.82814 213.18390 212.62567 212.57236 212.44640 213.08813
 214.14093 215.81950 217.09435 217.71748 219.04274 222.76607 228.32257 232.97160
 236.66072 240.45525 244.30310 247.93533 251.01367 253.95554 256.87097 259.62512
 261.93973 264.32416 266.89175 269.15833 271.25281 273.20850 274.90994 276.59262
 278.33813 280.08188 281.63171 282.99832 284.18472 285.23944 286.20657 287.08908
 287.89542 288.61609 289.25198 290.09784
 366.78100 356.32608 345.74916 334.60624 323.00031 311.18539 299.04647 286.84055
 274.54363 262.43171 250.43178 239.72386 229.83694 220.93202 213.10510 206.09818
 199.92325 194.85233 191.42541 189.45849 188.48657 188.54165 189.36772 190.66680
 192.38288 194.46896 196.72304 199.07312 201.50919 203.98027 206.05935 207.89243
 209.50951 210.64559 210.86567 211.08474 211.01282 210.70890 210.33298 209.95406
 209.56214 209.26321 209.06229 208.91737 208.83645 209.15853 209.53561 209.91568
 210.69976 211.86884 213.10992 214.88400 216.80308 218.83715 220.92323 222.99731
 225.04839 227.12347 229.21155 231.30863 233.42870 235.59178 237.83886 240.19994
 242.81202 245.05410 247.04717 248.80325 250.21133 251.32541 252.13849 252.44557
 252.47364 252.23872 251.58980 250.52888 249.12596 247.27804 245.17811 243.00219
 240.78427 238.57935 236.39043 234.22051 232.07158 229.92966 227.94674 226.09482
 224.36890 222.83198 221.45306 220.21613 219.08921 218.04029 217.13537 216.26745
 215.50053 214.67160 213.76068 213.11576 212.55684 212.54489 212.51665 213.21768
 214.25388 215.89124 217.14975 217.75182 219.14076 222.79733 228.29347 232.90477
 236.58147 240.38295 244.23129 247.83411 250.84418 253.74992 256.69296 259.48950
 261.80350 264.16748 266.72281 269.00421 271.13043 273.10837 274.82233 276.51340
 278.29395 280.04913 281.60004 282.96765 284.15393 285.21048 286.17859 287.06262
 287.86832 288.59293 289.22699 290.07541
 366.78100 356.32543 345.74786 334.60428 322.99771 311.18214 299.04257 286.83600
 274.53842 262.42585 250.42528 239.71671 229.82914 220.92356 213.09599 206.08842
 199.91285 194.84128 191.41371 189.44613 188.47356 188.52799 189.35342 190.65185
 192.36727 194.45270 196.70613 199.05556 201.49099 203.96141 206.03984 207.87227
 209.48870 210.62413 210.84355 211.06198 210.98941 210.68484 210.30827 209.92869
 209.53612 209.23655 209.03498 208.88941 208.80783 209.12926 209.50569 209.88512
 210.66855 211.83697 213.07740 214.85083 216.76926 218.80269 220.88812 222.96154
 225.01197 227.08640 229.17383 231.27026 233.38968 235.55211 237.79854 240.15897
 242.77040 245.01182 247.00425 248.75968 250.16711 251.28054 252.09296 252.39939
 252.42682 252.19125 251.54168 250.48010 249.07653 247.22796 245.12739 242.95082
 240.73224 238.52667 236.33710 234.16653 232.01696 229.87439 227.89081 226.03824
 224.31167 222.77410 221.39453 220.15695 219.02938 217.97981 217.07424 216.20567
 215.43809 214.60852 213.69695 213.05138 212.49181 212.52042 212.58801 213.35316
 214.36275 215.96667 217.20618 217.78862 219.24353 222.82539 228.27321 232.84074
 236.50096 240.31039 244.15639 247.72478 250.66510 253.53253 256.49866 259.33545
 261.66315 264.01895 266.56329 268.86600 271.02979 273.03775 274.76608 276.46362
 278.24973 280.00952 281.56161 282.92920 284.11755 285.17352 286.14188 287.02930
 287.83551 288.56213 289.19678 290.04501
 366.78100 356.32453 345.74605 334.60158 322.99411 311.17763 299.03716 286.82969
 274.53121 262.41774 250.41627 239.70679 229.81832 220.91185 213.08337 206.07490
 199.89843 194.82595 191.39748 189.42901 188.45553 188.50906 189.33359 190.63111
 192.34564 194.43017 196.68269 199.03122 201.46575 203.93527 206.01280 207.84433
 209.45986 210.59438 210.81291 211.03044 210.95696 210.65149 210.27402 209.89354
 209.50007 209.19960 208.99712 208.85065 208.76818 209.08870 209.46423 209.84276
 210.62528 211.79281 213.03234 214.80486 216.72239 218.75492 220.83944 222.91197
 224.96150 227.03502 229.12155 231.21708 233.33560 235.49713 237.74266 240.10218
 242.71271 244.95324 246.94476 248.69929 250.10582 251.21834 252.02987 252.33540
 252.36192 252.12545 251.47498 250.41250 249.00803 247.15856 245.05708 242.87961
 240.66014 238.45366 236.26319 234.09172 231.94124 229.79777 227.81330 225.95982
 224.23235 222.69388 221.31341 220.07493 218.94646 217.89599 216.98951 216.12004
 215.35157 214.52109 213.60862 212.96215 212.40167 212.48364 212.67729 213.49608
 214.43990 216.03128 217.30475 217.84360 219.36761 222.85995 228.24570 232.76422
 236.40936 240.22841 244.07042 247.60176 250.47308 253.30382 256.29395 259.17136
 261.52911 263.88571 266.41739 268.74289 270.94504 272.99020 274.73956 276.44482
 278.20908 279.96289 281.51410 282.88275 284.07013 285.12622 286.09537 286.98196
 287.79123 288.51755 289.15356 290.00696
 366.78100 356.32419 345.74539 334.60058 322.99277 311.17596 299.03516 286.82735
 274.52854 262.41473 250.41293 239.70312 229.81431 220.90750 213.07870 206.06989
 199.89308 194.82027 191.39147 189.42266 188.44885 188.50204 189.32624 190.62343
 192.33762 194.42181 196.67401 199.02220 201.45639 203.92558 206.00278 207.83397
 209.44916 210.58335 210.80155 211.01874 210.94493 210.63912 210.26132 209.88051
 209.48670 209.18589 208.98309 208.83628 208.75347 209.07367 209.44886 209.82705
 210.60924 211.77644 213.01563 214.78782 216.70501 218.73721 220.82140 222.89359
 224.94278 227.01598 229.10217 231.19736 233.31555 235.47675 237.72194 240.08113
 242.69132 244.93152 246.92271 248.67690 250.08309 251.19529 252.00648 252.31167
 252.33786 252.10106 251.45025 250.38744 248.98263 247.13283 245.03102 242.85321
 240.63340 238.42660 236.23579 234.06398 231.91317 229.76937 227.78456 225.93075
 224.20294 222.66414 221.28333 220.04452 218.91572 217.86491 216.95810 216.08829
 215.31949 214.48868 213.57587 212.92906 212.36826 212.47690 212.73358 213.66194
 214.54738 215.99043 217.45532 218.05301 219.48846 222.84946 228.17676 232.66104
 236.30444 240.13744 243.97543 247.46805 250.27545 253.07358 256.08719 259.00491
 261.40836 263.77002 266.28311 268.62848 270.86780 272.95078 274.72446 276.43567
 278.18161 279.91931 281.46854 282.83542 284.02316 285.07770 286.04483 286.93283
 287.74219 288.46899 289.10355 289.95355
 366.78100 356.32455 345.74610 334.60165 322.99421 311.17776 299.03731 286.82986
 274.53141 262.41796 250.41651 239.70707 229.81862 220.91217 213.08372 206.07527
 199.89882 194.82637 191.39793 189.42948 188.45603 188.50958 189.33413 190.63168
 192.34623 194.43079 196.68334 199.03189 201.46644 203.93599 206.01354 207.84509
 209.46065 210.59520 210.81375 211.03130 210.95785 210.65240 210.27495 209.89451
 209.50106 209.20061 208.99816 208.85171 208.76926 209.08981 209.46537 209.84392
 210.62647 211.79402 213.03357 214.80612 216.72368 218.75623 220.84078 222.91333
 224.96288 227.03643 229.12298 231.21854 233.33709 235.49864 237.74419 240.10374
 242.71429 244.95484 246.94640 248.70095 250.10750 251.22005 252.03160 252.33715
 252.36370 252.12726 251.47681 250.41436 249.00991 247.16046 245.05901 242.88156
 240.66212 238.45567 236.26522 234.09377 231.94332 229.79987 227.81542 225.96198
 224.23453 222.69608 221.31563 220.07718 218.94873 217.89828 216.99184 216.12239
 215.35394 214.52349 213.61104 212.96459 212.40414 212.50908 212.75697 213.80005
 214.73677 216.04347 217.50107 218.18512 219.59863 222.81914 228.12773 232.57962
 236.20784 240.04996 243.87634 247.32578 250.07388 252.84415 255.87910 258.83392
 261.28943 263.66330 266.15741 268.52298 270.79745 272.91611 274.71329 276.43335
 278.18011 279.88135 281.42612 282.79236 283.97839 285.03174 285.99841 286.88162
 287.68979 288.41003 289.03223 289.87531
 366.78100 356.32437 345.74573 334.60110 322.99346 311.17683 299.03620 286.82856
 274.52993 262.41629 250.41466 239.70503 229.81639 220.90976 213.08112 206.07249
 199.89586 194.82322 191.39459 189.42595 188.45232 188.50569 189.33005 190.62742
 192.34179 194.42615 196.67852 199.02688 201.46125 203.93062 206.00798 207.83935
 209.45471 210.58908 210.80745 211.02481 210.95118 210.64554 210.26791 209.88728
 209.49364 209.19301 208.99037 208.84374 208.76111 209.08147 209.45684 209.83520
 210.61757 211.78494 213.02430 214.79667 216.71403 218.74640 220.83077 222.90313
 224.95250 227.02586 229.11223 231.20760 233.32596 235.48733 237.73270 240.09206
 242.70243 244.94279 246.93416 248.68853 250.09489 251.20726 252.01862 252.32399
 252.35036 252.11372 251.46309 250.40045 248.99582 247.14619 245.04455 242.86692
 240.64728 238.44065 236.25002 234.07838 231.92775 229.78411 227.79948 225.94585
 224.21821 222.67958 221.29894 220.06031 218.93168 217.88104 216.97441 216.10477
 215.33614 214.50551 213.59287 212.94624 212.38560 212.51578 212.82335 213.90643
 214.91383 216.15498 217.48830 218.28746 219.75336 222.80806 228.10498 232.51100
 236.11296 239.95912 243.76889 247.17012 249.86276 252.60814 255.65768 258.64438
 261.15887 263.55341 266.03665 268.42676 270.74139 272.90030 274.72086 276.43228
 278.16116 279.85233 281.39807 282.76569 283.95081 285.00482 285.97226 286.85690
 287.66428 288.38672 289.00894 289.84885
 366.78100 356.32337 345.74374 334.59811 322.98947 311.17184 299.03021 286.82158
 274.52195 262.40732 250.40469 239.69405 229.80442 220.89679 213.06716 206.05753
 199.87990 194.80627 191.37663 189.40700 188.43237 188.48474 189.30811 190.60448
 192.31785 194.40121 196.65258 198.99995 201.43332 203.90169 205.97806 207.80843
 209.42279 210.55616 210.77353 210.98990 210.91527 210.60864 210.23001 209.84837
 209.45374 209.15211 208.94848 208.80085 208.71722 209.03659 209.41095 209.78832
 210.56969 211.73606 212.97443 214.74580 216.66217 218.69353 220.77690 222.84827
 224.89664 226.96901 229.05438 231.14875 233.26611 235.42648 237.67085 240.02922
 242.63859 244.87796 246.86833 248.62169 250.02706 251.13843 251.94880 252.25317
 252.27854 252.04091 251.38928 250.32564 248.92001 247.06938 244.96675 242.78812
 240.56749 238.35986 236.16822 233.99559 231.84396 229.69933 227.71370 225.85907
 224.13044 222.59080 221.20917 219.96954 218.83991 217.78828 216.88065 216.01002
 215.24038 214.40875 213.49512 212.84749 212.28586 212.47763 212.93073 214.03781
 215.06053 216.25063 217.45695 218.38599 219.92494 222.83649 228.07707 232.43022
 236.01141 239.86269 243.65451 247.00685 249.64778 252.37190 255.43173 258.44543
 261.01825 263.44263 265.91565 268.33231 270.68509 272.89038 274.75967 276.49680
 278.24176 279.84943 281.34604 282.70554 283.88986 284.94226 285.90802 286.79285
 287.60220 288.32642 288.94553 289.78909
 366.78100 356.32279 345.74259 334.59638 322.98717 311.16896 299.02676 286.81755
 274.51734 262.40213 250.39893 239.68772 229.79751 220.88930 213.05910 206.04889
 199.87068 194.79647 191.36627 189.39606 188.42085 188.47264 189.29544 190.59123
 192.30402 194.38681 196.63761 198.98440 201.41719 203.88498 205.96078 207.79057
 209.40436 210.53715 210.75395 210.96974 210.89453 210.58732 210.20812 209.82591
 209.43070 209.12850 208.92429 208.77608 208.69187 209.01067 209.38446 209.76125
 210.54204 211.70784 212.94563 214.71642 216.63221 218.66301 220.74580 222.81659
 224.86438 226.93618 229.02097 231.11476 233.23155 235.39135 237.63514 239.99293
 242.60172 244.84052 246.83031 248.58310 249.98789 251.09869 251.90848 252.21227
 252.23706 251.99886 251.34665 250.28244 248.87623 247.02503 244.92182 242.74261
 240.52140 238.31320 236.12099 233.94778 231.79558 229.65037 227.66416 225.80895
 224.07975 222.53954 221.15733 219.91712 218.78692 217.73471 216.82650 215.95529
 215.18509 214.35288 213.43867 212.79046 212.22826 212.46112 213.01132 214.16605
 215.23146 216.36102 217.47174 218.50293 220.07803 222.90674 228.02798 232.33842
 235.89943 239.75464 243.51820 246.80855 249.40289 252.11595 255.19000 258.22806
 260.86639 263.32822 265.80103 268.24399 270.62918 272.86841 274.77771 276.54031
 278.29669 279.87973 281.32233 282.67746 283.86157 284.91388 285.87744 286.76306
 287.57108 288.29028 288.91101 289.75476
 366.78100 356.32414 345.74529 334.60043 322.99257 311.17571 299.03486 286.82700
 274.52814 262.41429 250.41243 239.70257 229.81372 220.90686 213.07800 206.06914
 199.89229 194.81943 191.39057 189.42172 188.44786 188.50100 189.32515 190.62229
 192.33643 194.42057 196.67272 199.02086 201.45500 203.92415 206.00129 207.83243
 209.44757 210.58172 210.79986 211.01700 210.94315 210.63729 210.25943 209.87858
 209.48472 209.18386 208.98100 208.83415 208.75129 209.07143 209.44658 209.82472
 210.60686 211.77401 213.01315 214.78529 216.70243 218.73458 220.81872 222.89086
 224.94001 227.01315 229.09929 231.19443 233.31258 235.47372 237.71886 240.07801
 242.68815 244.92829 246.91944 248.67358 250.07972 251.19186 252.00301 252.30815
 252.33429 252.09744 251.44658 250.38372 248.97887 247.12901 245.02715 242.84929
 240.62944 238.42258 236.23172 234.05987 231.90901 229.76515 227.78029 225.92644
 224.19858 222.65972 221.27887 220.04001 218.91115 217.86030 216.95344 216.08358
 215.31472 214.48387 213.57101 212.92415 212.36330 212.55304 213.00134 214.22623
 215.42012 216.53499 217.62543 218.68314 220.23094 223.00670 227.96913 232.24713
 235.78619 239.63744 243.35703 246.56880 249.12843 251.83360 254.92410 257.98587
 260.69385 263.20325 265.69165 268.16898 270.58585 272.84708 274.79123 276.56607
 278.31018 279.87363 281.33340 282.68939 283.87244 284.92426 285.88736 286.77032
 287.57858 288.29379 288.91226 289.75140
 366.78100 356.32763 345.75227 334.61090 323.00653 311.19316 299.05580 286.85143
 274.55606 262.44569 250.44733 239.74096 229.85559 220.95222 213.12686 206.12149
 199.94812 194.87876 191.45339 189.48802 188.51765 188.57429 189.40192 190.70255
 192.42018 194.50782 196.76345 199.11508 201.55271 204.02535 206.10598 207.94061
 209.55924 210.69688 210.91851 211.13914 211.06878 210.76641 210.39204 210.01467
 209.62431 209.32694 209.12757 208.98420 208.90484 209.22847 209.60710 209.98873
 210.77437 211.94500 213.18763 214.96327 216.88390 218.91953 221.00716 223.08280
 225.13543 227.21206 229.30169 231.40033 233.52196 235.68659 237.93522 240.29786
 242.91149 245.15512 247.14975 248.90739 250.31702 251.43265 252.24729 252.55592
 252.58555 252.35218 251.70482 250.64545 249.24408 247.39771 245.29935 243.12498
 240.90861 238.70524 236.51788 234.34951 232.20214 230.06178 228.08041 226.23004
 224.50567 222.97031 221.59294 220.35757 219.23220 218.18484 217.28147 216.41510
 215.64973 214.82237 213.91300 213.26963 212.71227 212.76801 212.89967 214.25899
 215.56180 216.71570 217.88895 218.91563 220.40114 223.12195 227.91425 232.14690
 235.67526 239.51157 243.17598 246.30745 248.86073 251.56172 254.66331 257.74661
 260.52405 263.08795 265.60016 268.11005 270.54697 272.81631 274.80008 276.61166
 278.36588 279.94339 281.33984 282.68851 283.87030 284.91846 285.87643 286.75980
 287.56897 288.27933 288.89804 289.73380
 366.78100 356.32929 345.75559 334.61588 323.01318 311.20147 299.06577 286.86306
 274.56935 262.46065 250.46394 239.75924 229.87553 220.97382 213.15012 206.14641
 199.97471 194.90700 191.48330 189.51959 188.55088 188.60918 189.43847 190.74077
 192.46006 194.54935 196.80665 199.15994 201.59924 204.07353 206.15583 207.99212
 209.61241 210.75171 210.97500 211.19730 211.12859 210.82788 210.45518 210.07947
 209.69077 209.39506 209.19736 209.05565 208.97794 209.30324 209.68353 210.06683
 210.85412 212.02641 213.27071 215.04800 216.97030 219.00759 221.09689 223.17418
 225.22847 227.30677 229.39806 231.49836 233.62165 235.78794 238.03824 240.40253
 243.01783 245.26312 247.25942 249.01871 250.43000 251.54730 252.36359 252.67389
 252.70518 252.47348 251.82777 250.77006 249.37036 247.52565 245.42895 243.25624
 241.04153 238.83983 236.65412 234.48742 232.34171 230.20301 228.22330 226.37459
 224.65189 223.11818 221.74248 220.50877 219.38506 218.33936 217.43765 216.57295
 215.80924 214.98354 214.07583 213.43412 212.87842 212.89023 212.91812 214.32352
 215.56631 216.83522 218.11690 219.12923 220.58966 223.25175 227.88751 232.06287
 235.58594 239.39262 242.99866 246.06984 248.63268 251.33153 254.42842 257.52628
 260.36185 262.97650 265.50836 268.03394 270.48508 272.76788 274.79630 276.65500
 278.42361 279.99606 281.36420 282.70596 283.88257 284.92828 285.88400 286.76523
 287.57843 288.28226 288.90088 289.73141
 366.78100 356.32782 345.75265 334.61147 323.00730 311.19412 299.05695 286.85277
 274.55760 262.44742 250.44925 239.74307 229.85790 220.95472 213.12954 206.12437
 199.95119 194.88202 191.45684 189.49167 188.52149 188.57832 189.40614 190.70697
 192.42479 194.51262 196.76844 199.12026 201.55809 204.03091 206.11174 207.94656
 209.56539 210.70321 210.92504 211.14586 211.07569 210.77351 210.39934 210.02216
 209.63198 209.33481 209.13563 208.99246 208.91328 209.23711 209.61593 209.99776
 210.78358 211.95441 213.19723 214.97305 216.89388 218.92970 221.01753 223.09335
 225.14618 227.22300 229.31283 231.41165 233.53348 235.69830 237.94713 240.30995
 242.92377 245.16760 247.16242 248.92025 250.33007 251.44590 252.26072 252.56955
 252.59937 252.36620 251.71902 250.65985 249.25867 247.41249 245.31432 243.14014
 240.92397 238.72079 236.53362 234.36544 232.21827 230.07809 228.09692 226.24674
 224.52257 222.98739 221.61021 220.37504 219.24986 218.20269 217.29951 216.43334
 215.66816 214.84099 213.93181 213.28864 212.73146 212.83904 213.09319 214.45030
 215.53468 216.89647 218.19159 219.25273 220.77904 223.40364 227.89627 232.00735
 235.51692 239.27483 242.80930 245.81921 248.37897 251.08302 254.18298 257.30554
 260.19513 262.86203 265.42667 267.96994 270.44452 272.75247 274.81061 276.67975
 278.43600 279.99405 281.37274 282.71646 283.89398 284.93616 285.89154 286.77029
 287.57843 288.27747 288.89023 289.72348
 366.78100 356.32712 345.75124 334.60936 323.00448 311.19060 299.05271 286.84783
 274.55195 262.44107 250.44219 239.73531 229.84943 220.94555 213.11967 206.11379
 199.93990 194.87002 191.44414 189.47826 188.50738 188.56350 189.39062 190.69074
 192.40786 194.49498 196.75010 199.10121 201.53833 204.01045 206.09057 207.92469
 209.54281 210.67993 210.90105 211.12117 211.05029 210.74740 210.37252 209.99464
 209.60376 209.30588 209.10600 208.96212 208.88224 209.20536 209.58348 209.96459
 210.74971 211.91983 213.16195 214.93707 216.85719 218.89231 220.97943 223.05455
 225.10667 227.18279 229.27190 231.37002 233.49114 235.65526 237.90338 240.26550
 242.87862 245.12174 247.11586 248.87298 250.28209 251.39721 252.21133 252.51945
 252.54857 252.31469 251.66681 250.60693 249.20505 247.35817 245.25929 243.08440
 240.86752 238.66364 236.47576 234.30688 232.15900 230.01812 228.03624 226.18536
 224.46048 222.92459 221.54671 220.31083 219.18495 218.13707 217.23319 216.36631
 215.60043 214.77255 213.86267 213.21878 212.66090 212.82417 213.20993 214.58992
 215.59309 216.97728 218.26320 219.34912 220.94415 223.53464 227.91055 231.95416
 235.44067 239.13637 242.58337 245.51987 248.07449 250.80788 253.93719 257.10361
 260.05963 262.79141 265.40125 267.97049 270.45819 272.77808 274.84442 276.70605
 278.45084 280.00406 281.34402 282.67874 283.85733 284.90933 285.88095 286.75848
 287.53769 288.23340 288.84317 289.66998
 366.78100 356.32781 345.75263 334.61144 323.00726 311.19407 299.05689 286.85270
 274.55752 262.44733 250.44915 239.74296 229.85778 220.95459 213.12941 206.12422
 199.95103 194.88185 191.45666 189.49148 188.52129 188.57811 189.40592 190.70674
 192.42455 194.51237 196.76818 199.12000 201.55781 204.03063 206.11144 207.94626
 209.56507 210.70288 210.92470 211.14551 211.07533 210.77314 210.39896 210.02177
 209.63159 209.33440 209.13522 208.99203 208.91285 209.23666 209.61548 209.99729
 210.78310 211.95392 213.19673 214.97255 216.89336 218.92918 221.01699 223.09281
 225.14562 227.22244 229.31225 231.41107 233.53288 235.69770 237.94651 240.30933
 242.92314 245.16695 247.16177 248.91958 250.32940 251.44521 252.26003 252.56884
 252.59866 252.36547 251.71829 250.65910 249.25792 247.41173 245.31355 243.13936
 240.92317 238.71999 236.53280 234.36462 232.21743 230.07725 228.09606 226.24588
 224.52169 222.98651 221.60932 220.37414 219.24895 218.20177 217.29858 216.43240
 215.66721 214.84002 213.93084 213.28765 212.73047 212.88643 213.25491 214.68964
 215.73131 217.10634 218.37912 219.45045 221.07974 223.62790 227.91133 231.89671
 235.35085 238.97609 242.32390 245.18707 247.75322 250.53937 253.70912 256.92480
 259.95154 262.75278 265.41357 268.01175 270.49789 272.81128 274.88046 276.74646
 278.48831 280.05350 281.42175 282.58157 283.71942 284.76157 285.72324 286.59476
 287.37115 288.06543 288.67743 289.51288
 366.78100 356.32822 345.75344 334.61266 323.00887 311.19609 299.05931 286.85553
 274.56075 262.45097 250.45319 239.74740 229.86262 220.95984 213.13506 206.13028
 199.95750 194.88872 191.46393 189.49915 188.52937 188.58659 189.41481 190.71603
 192.43425 194.52246 196.77868 199.13090 201.56912 204.04234 206.12356 207.95878
 209.57799 210.71621 210.93843 211.15965 211.08987 210.78809 210.41431 210.03752
 209.64774 209.35096 209.15218 209.00940 208.93062 209.25484 209.63406 210.01627
 210.80249 211.97371 213.21693 214.99315 216.91437 218.95059 221.03880 223.11502
 225.16824 227.24546 229.33568 231.43490 233.55712 235.72233 237.97155 240.33477
 242.94899 245.19321 247.18843 248.94665 250.35686 251.47308 252.28830 252.59752
 252.62774 252.39496 251.74818 250.68939 249.28861 247.44283 245.34505 243.17127
 240.95549 238.75271 236.56592 234.39814 232.25136 230.11158 228.13080 226.28102
 224.55724 223.02245 221.64567 220.41089 219.28611 218.23933 217.33655 216.47077
 215.70598 214.87920 213.97042 213.32764 212.77086 212.93178 213.31197 214.78456
 215.88777 217.24692 218.47285 219.51997 221.20465 223.70264 227.91388 231.86426
 235.26744 238.81680 242.05605 244.84621 247.42810 250.27090 253.48674 256.75357
 259.85052 262.72430 265.43677 268.05606 270.52649 272.81729 274.87555 276.74265
 278.49286 280.06354 281.43866 282.62973 283.61078 284.62894 285.58194 286.44333
 287.21207 287.90283 288.52200 289.37622
 366.78100 356.32777 345.75253 334.61130 323.00706 311.19383 299.05659 286.85236
 274.55712 262.44689 250.44866 239.74242 229.85719 220.95395 213.12872 206.12348
 199.95025 194.88101 191.45578 189.49055 188.52031 188.57708 189.40484 190.70561
 192.42337 194.51114 196.76690 199.11867 201.55644 204.02920 206.10997 207.94473
 209.56350 210.70126 210.92303 211.14379 211.07356 210.77133 210.39709 210.01986
 209.62962 209.33239 209.13315 208.98992 208.91068 209.23445 209.61322 209.99498
 210.78075 211.95151 213.19428 214.97004 216.89081 218.92657 221.01434 223.09011
 225.14287 227.21964 229.30940 231.40817 233.52993 235.69470 237.94346 240.30623
 242.92000 245.16376 247.15853 248.91629 250.32606 251.44182 252.25659 252.56535
 252.59512 252.36189 251.71465 250.65542 249.25418 247.40795 245.30971 243.13548
 240.91924 238.71601 236.52878 234.36054 232.21331 230.07307 228.09184 226.24160
 224.51737 222.98213 221.60490 220.36967 219.24443 218.19720 217.29396 216.42773
 215.66249 214.83526 213.92602 213.28279 212.72556 212.92874 213.40878 214.84509
 216.04884 217.44730 218.54462 219.58081 221.33147 223.78018 227.91847 231.85263
 235.19914 238.66380 241.78343 244.49329 247.08955 249.99388 253.26421 256.58322
 259.74390 262.68829 265.45044 268.08102 270.52972 272.79608 274.85117 276.73340
 278.49658 280.07138 281.43900 282.62396 283.59943 284.61429 285.57489 286.23468
 286.98834 287.68564 288.31717 289.19324
 366.78100 356.32952 345.75604 334.61656 323.01408 311.20260 299.06712 286.86463
 274.57115 262.46267 250.46619 239.76171 229.87823 220.97675 213.15327 206.14979
 199.97831 194.91083 191.48735 189.52387 188.55538 188.61390 189.44342 190.74594
 192.46546 194.55498 196.81250 199.16602 201.60554 204.08006 206.16258 207.99910
 209.61962 210.75914 210.98265 211.20517 211.13669 210.83621 210.46373 210.08825
 209.69977 209.40429 209.20681 209.06533 208.98785 209.31337 209.69389 210.07740
 210.86492 212.03744 213.28196 215.05948 216.98200 219.01952 221.10904 223.18656
 225.24108 227.31960 229.41112 231.51164 233.63515 235.80167 238.05219 240.41671
 243.03223 245.27775 247.27427 249.03379 250.44531 251.56283 252.37935 252.68987
 252.72139 252.48991 251.84442 250.78694 249.38746 247.54298 245.44650 243.27402
 241.05954 238.85806 236.67258 234.50610 232.36062 230.22214 228.24266 226.39417
 224.67169 223.13821 221.76273 220.52925 219.40577 218.36029 217.45881 216.59433
 215.83085 215.00537 214.09789 213.45641 212.90092 213.04198 213.37523 214.90497
 216.19209 217.73366 218.76936 219.67720 221.48277 223.85008 227.93752 231.87099
 235.15028 238.50522 241.46523 244.06255 246.67467 249.65945 253.00099 256.37863
 259.60825 262.62469 265.43823 268.08466 270.52805 272.78735 274.85818 276.76270
 278.53421 280.10754 281.47058 282.64459 283.62552 284.56458 285.51450 286.13745
 286.88699 287.58362 288.21796 289.09937
 366.78100 356.33316 345.76331 334.62747 323.02862 311.22078 299.08894 286.89009
 274.60025 262.49541 250.50256 239.80172 229.92187 221.02403 213.20419 206.20434
 200.03650 194.97266 191.55281 189.59297 188.62812 188.69028 189.52344 190.82959
 192.55275 194.64590 196.90706 199.26422 201.70737 204.18553 206.27169 208.11184
 209.73600 210.87915 211.10631 211.33247 211.26762 210.97078 210.60193 210.23009
 209.84525 209.55340 209.35956 209.22172 209.14787 209.47703 209.86118 210.24834
 211.03950 212.21565 213.46381 215.24497 217.17112 219.21228 221.30543 223.38659
 225.44475 227.52690 229.62206 231.72621 233.85337 236.02353 238.27768 240.64584
 243.26500 245.51415 247.51431 249.27746 250.69262 251.81378 252.63393 252.94809
 252.98324 252.75540 252.11356 251.05971 249.66387 247.82303 245.73018 243.56134
 241.35049 239.15265 236.97081 234.80796 232.66612 230.53128 228.55543 226.71059
 224.99174 223.46190 222.09006 220.86021 219.74037 218.69852 217.80068 216.93984
 216.17999 215.35815 214.45431 213.81646 213.26462 213.26613 213.26970 214.83302
 216.45258 218.01711 218.96161 219.91734 221.67143 224.01869 227.99051 231.87024
 235.08752 238.31209 241.10393 243.59227 246.24042 249.31776 252.74063 256.18448
 259.47656 262.54736 265.40057 268.05759 270.49670 272.75723 274.85944 276.80515
 278.59790 280.17841 281.54416 282.72025 283.71555 284.60251 285.49869 286.09125
 286.82462 287.51987 288.15298 289.03412
 366.78100 356.33702 345.77103 334.63905 323.04407 311.24008 299.11210 286.91712
 274.63113 262.53015 250.54117 239.84418 229.96820 221.07421 213.25823 206.26225
 200.09826 195.03828 191.62230 189.66631 188.70533 188.77135 189.60836 190.91838
 192.64540 194.74241 197.00743 199.36845 201.81546 204.29748 206.38750 208.23151
 209.85953 211.00654 211.23756 211.46758 211.40659 211.11361 210.74863 210.38064
 209.99966 209.71168 209.52169 209.38771 209.31773 209.65074 210.03876 210.42978
 211.22479 212.40481 213.65683 215.44184 217.37186 219.41687 221.51389 223.59891
 225.66092 227.74694 229.84596 231.95397 234.08499 236.25901 238.51702 240.88904
 243.51206 245.76507 247.76909 249.53611 250.95512 252.08014 252.90416 253.22217
 253.26119 253.03720 252.39922 251.34924 249.95725 248.12027 246.03129 243.86630
 241.65932 239.46534 237.28735 235.12837 232.99039 230.85940 228.88742 227.04644
 225.33145 223.80547 222.43749 221.21150 220.09552 219.05753 218.16355 217.30657
 216.55058 215.73260 214.83262 214.19863 213.65065 213.50751 213.16931 214.79189
 216.60800 218.09282 219.19601 220.26880 221.90265 224.20932 228.05188 231.86153
 234.99858 238.10797 240.76935 243.19662 245.91385 249.08588 252.55994 256.03818
 259.35953 262.46164 265.34241 268.00894 270.45749 272.73407 274.87521 276.86075
 278.67487 280.25870 281.61557 282.77609 283.72488 284.60278 285.47086 286.08279
 286.83511 287.53214 288.16394 289.04471
 366.78100 356.33909 345.77517 334.64526 323.05235 311.25043 299.12452 286.93161
 274.64769 262.54878 250.56187 239.86695 229.99304 221.10113 213.28721 206.29330
 200.13139 195.07347 191.65956 189.70565 188.74673 188.81482 189.65391 190.96599
 192.69508 194.79417 197.06125 199.42434 201.87343 204.35751 206.44960 208.29569
 209.92577 211.07486 211.30795 211.54003 211.48112 211.19021 210.82729 210.46138
 210.08247 209.79655 209.60864 209.47673 209.40881 209.74390 210.13399 210.52707
 211.32416 212.50625 213.76033 215.54742 217.47951 219.52659 221.62568 223.71277
 225.77685 227.86494 229.96603 232.07611 234.20920 236.38529 238.64537 241.01946
 243.64455 245.89963 247.90572 249.67481 251.09589 252.22298 253.04907 253.36915
 253.41024 253.18833 252.55241 251.50450 250.11459 248.27967 246.19276 244.02985
 241.82493 239.63302 237.45711 235.30019 233.16428 231.03537 229.06545 227.22654
 225.51363 223.98971 222.62380 221.39989 220.28597 219.25006 218.35815 217.50323
 216.74932 215.93341 215.03549 214.40358 213.85767 213.64697 213.14919 214.85153
 216.67589 218.13849 219.36861 220.50217 222.06731 224.38423 228.16589 231.84703
 234.89346 237.89830 240.46593 242.86040 245.62717 248.87050 252.37958 255.89107
 259.25314 262.39642 265.30319 267.97076 270.41016 272.68356 274.83594 276.83969
 278.66360 280.24557 281.59442 282.73340 283.66476 284.56665 285.40598 285.99637
 286.74512 287.44119 288.07303 288.94955
 366.78100 356.34033 345.77765 334.64898 323.05730 311.25663 299.13196 286.94028
 274.65761 262.55994 250.57426 239.88059 230.00791 221.11724 213.30457 206.31189
 200.15122 195.09454 191.68187 189.72920 188.77152 188.84085 189.68117 190.99450
 192.72483 194.82515 197.09348 199.45781 201.90813 204.39346 206.48678 208.33411
 209.96544 211.11576 211.35009 211.58341 211.52574 211.23607 210.87439 210.50972
 210.13205 209.84737 209.66070 209.53002 209.46335 209.79968 210.19100 210.58533
 211.38365 212.56698 213.82231 215.61063 217.54396 219.59228 221.69261 223.78094
 225.84626 227.93559 230.03792 232.14924 234.28357 236.46089 238.72222 241.09755
 243.72387 245.98020 247.98752 249.75785 251.18018 252.30850 253.13583 253.45716
 253.49948 253.27881 252.64413 251.59746 250.20879 248.37511 246.28944 244.12776
 241.92409 239.73342 237.55874 235.40307 233.26840 231.14072 229.17205 227.33437
 225.62270 224.10003 222.73535 221.51268 220.40000 219.36533 218.47466 217.62098
 216.86831 216.05363 215.15696 214.52629 213.98161 213.74327 213.18018 214.85255
 216.84996 218.36916 219.47563 220.54982 222.08636 224.49782 228.27415 231.77571
 234.78772 237.69698 240.18048 242.53806 245.32060 248.60323 252.16304 255.72784
 259.13907 262.33197 265.26849 267.93243 270.34122 272.58231 274.72614 276.74060
 278.58157 280.17322 281.52734 282.70615 283.75110 284.64148 285.35712 285.92706
 286.54932 287.23337 287.85791 288.73630
 366.78100 356.34045 345.77789 334.64934 323.05779 311.25723 299.13268 286.94113
 274.65858 262.56102 250.57547 239.88192 230.00936 221.11881 213.30626 206.31370
 200.15315 195.09660 191.68405 189.73149 188.77394 188.84339 189.68383 190.99728
 192.72773 194.82817 197.09662 199.46107 201.91152 204.39696 206.49041 208.33786
 209.96930 211.11975 211.35420 211.58764 211.53009 211.24054 210.87899 210.51443
 210.13688 209.85233 209.66577 209.53522 209.46867 209.80511 210.19656 210.59101
 211.38946 212.57290 213.82835 215.61680 217.55024 219.59869 221.69914 223.78758
 225.85303 227.94248 230.04492 232.15637 234.29082 236.46827 238.72971 241.10516
 243.73161 245.98805 247.99550 249.76595 251.18839 252.31684 253.14429 253.46574
 253.50818 253.28763 252.65308 251.60652 250.21797 248.38442 246.29886 244.13731
 241.93376 239.74321 237.56865 235.41310 233.27855 231.15099 229.18244 227.34489
 225.63333 224.11078 222.74623 221.52368 220.41112 219.37657 218.48602 217.63246
 216.87991 216.06536 215.16880 214.53825 213.99370 213.77553 213.26012 214.95227
 216.99391 218.45537 219.49733 220.60374 222.15158 224.61038 228.38052 231.66731
 234.73508 237.51608 239.88496 242.16658 244.95412 248.32431 251.97209 255.60391
 259.07529 262.30161 265.23831 267.86676 270.23230 272.45755 274.62857 276.67673
 278.53366 280.14124 281.51028 282.69257 283.76663 284.69305 285.41992 285.98169
 286.39807 287.05692 287.67139 288.52634
 366.78100 356.33842 345.77383 334.64325 323.04967 311.24708 299.12050 286.92692
 274.64234 262.54275 250.55517 239.85959 229.98500 221.09242 213.27784 206.28325
 200.12067 195.06209 191.64751 189.69292 188.73334 188.80076 189.63917 190.95059
 192.67901 194.77742 197.04384 199.40626 201.85467 204.33809 206.42951 208.27493
 209.90434 211.05276 211.28518 211.51659 211.45701 211.16543 210.80184 210.43526
 210.05568 209.76910 209.58051 209.44793 209.37935 209.71376 210.10318 210.49560
 211.29201 212.47343 213.72685 215.51326 217.44468 219.49110 221.58952 223.67593
 225.73935 227.82677 229.92718 232.03660 234.16902 236.34443 238.60385 240.97727
 243.60168 245.85610 247.86152 249.62994 251.05035 252.17677 253.00219 253.32160
 253.36202 253.13944 252.50285 251.45427 250.06369 248.22811 246.14052 243.97694
 241.77136 239.57877 237.40219 235.24461 233.10802 230.97844 229.00786 227.16827
 225.45469 223.93011 222.56353 221.33894 220.22436 219.18778 218.29519 217.43961
 216.68503 215.86844 214.96986 214.33728 213.79070 213.68517 213.43582 215.16747
 216.94916 218.28679 219.50368 220.72020 222.33873 224.81656 228.54886 231.75430
 234.76118 237.39772 239.60802 241.75211 244.54300 248.01581 251.79008 255.47960
 258.95612 262.19724 265.17465 267.85059 270.24985 272.46002 274.56522 276.54825
 278.38730 280.00317 281.38440 282.60446 283.75018 284.71573 285.43445 285.99518
 286.46332 287.04245 287.66669 288.52805
 366.78100 356.33760 345.77220 334.64081 323.04641 311.24301 299.11561 286.92121
 274.63582 262.53542 250.54702 239.85062 229.97523 221.08183 213.26643 206.27103
 200.10763 195.04824 191.63284 189.67744 188.71704 188.78364 189.62125 190.93185
 192.65945 194.75705 197.02266 199.38426 201.83186 204.31446 206.40506 208.24967
 209.87827 211.02587 211.25747 211.48807 211.42768 211.13528 210.77088 210.40348
 210.02309 209.73569 209.54629 209.41289 209.34349 209.67710 210.06570 210.45730
 211.25290 212.43350 213.68611 215.47171 217.40231 219.44791 221.54552 223.63112
 225.69372 227.78032 229.87992 231.98853 234.12013 236.29473 238.55333 240.92593
 243.54954 245.80314 247.80774 249.57534 250.99495 252.12055 252.94515 253.26375
 253.30335 253.07996 252.44256 251.39316 250.00176 248.16536 246.07697 243.91257
 241.70617 239.51277 237.33537 235.17698 233.03958 230.90918 228.93778 227.09739
 225.38299 223.85759 222.49019 221.26479 220.14940 219.11200 218.21860 217.36220
 216.60680 215.78941 214.89001 214.25661 213.70921 213.67322 213.63753 215.20898
 216.69679 218.24551 219.59645 220.82372 222.55978 225.00719 228.59515 231.78151
 234.84666 237.37521 239.40923 241.36502 244.13423 247.76466 251.60391 255.28279
 258.78247 262.08258 265.11627 267.83063 270.22021 272.37930 274.43240 276.40814
 278.23486 279.86530 281.31610 282.65665 283.80908 284.53604 285.35220 286.22751
 287.07919 287.83807 288.50104 289.34589
 366.78100 356.34038 345.77776 334.64914 323.05752 311.25690 299.13228 286.94066
 274.65804 262.56042 250.57480 239.88118 230.00857 221.11795 213.30533 206.31271
 200.15209 195.09547 191.68285 189.73023 188.77261 188.84199 189.68237 190.99575
 192.72613 194.82651 197.09489 199.45927 201.90965 204.39503 206.48841 208.33579
 209.96717 211.11755 211.35194 211.58532 211.52770 211.23808 210.87646 210.51184
 210.13422 209.84960 209.66298 209.53236 209.46574 209.80212 210.19350 210.58788
 211.38626 212.56964 213.82502 215.61340 217.54678 219.59516 221.69554 223.78392
 225.84931 227.93869 230.04107 232.15245 234.28683 236.46421 238.72559 241.10097
 243.72735 245.98373 247.99111 249.76149 251.18387 252.31225 253.13963 253.46101
 253.50339 253.28277 252.64815 251.60153 250.21291 248.37929 246.29368 244.13206
 241.92844 239.73782 237.56320 235.40758 233.27296 231.14534 229.17672 227.33910
 225.62748 224.10486 222.74024 221.51762 220.40500 219.37038 218.47976 217.62614
 216.87352 216.05890 215.16228 214.53166 213.98705 213.85855 213.68469 215.16701
 216.62627 218.43340 219.93886 221.19273 222.80962 225.09340 228.47453 231.83717
 234.71130 237.16174 239.05309 241.00165 243.91988 247.66376 251.49997 255.22775
 258.78897 262.09628 265.09024 267.70117 269.99664 272.14722 274.23309 276.20068
 278.07211 279.75928 281.30963 282.69086 283.91574 285.02341 286.04385 286.96829
 287.79971 288.54010 289.18689 290.01117
 366.78100 356.34066 345.77831 334.64997 323.05862 311.25828 299.13394 286.94259
 274.66025 262.56290 250.57756 239.88422 230.01187 221.12153 213.30918 206.31684
 200.15650 195.10015 191.68781 189.73546 188.77812 188.84778 189.68843 191.00209
 192.73274 194.83340 197.10206 199.46671 201.91737 204.40302 206.49668 208.34434
 209.97599 211.12665 211.36130 211.59496 211.53762 211.24827 210.88693 210.52259
 210.14524 209.86090 209.67455 209.54421 209.47787 209.81452 210.20618 210.60083
 211.39949 212.58315 213.83880 215.62746 217.56111 219.60977 221.71043 223.79908
 225.86474 227.95439 230.05705 232.16871 234.30336 236.48102 238.74267 241.11833
 243.74499 246.00164 248.00930 249.77995 251.20261 252.33127 253.15892 253.48058
 253.52323 253.30289 252.66855 251.62220 250.23386 248.40051 246.31517 244.15383
 241.95048 239.76014 237.58579 235.43045 233.29611 231.16876 229.20042 227.36307
 225.65173 224.12939 222.76504 221.54270 220.43035 219.39601 218.50567 217.65232
 216.89998 216.08563 215.18929 214.55895 214.01460 213.89311 213.71942 215.23221
 216.79228 218.36896 220.18457 221.49423 222.92940 225.05385 228.41878 231.67654
 234.45232 236.80923 238.72304 240.76003 243.70892 247.49965 251.39584 255.15578
 258.70959 261.99524 264.95447 267.55884 269.87726 272.08362 274.24207 276.27344
 278.08676 279.60233 280.98669 282.34961 283.56619 284.67499 285.76291 286.74847
 287.63492 288.42429 289.11383 289.99261
 366.78100 356.34081 345.77862 334.65043 323.05924 311.25905 299.13486 286.94367
 274.66148 262.56428 250.57909 239.88590 230.01371 221.12352 213.31133 206.31914
 200.15895 195.10276 191.69057 189.73838 188.78119 188.85100 189.69181 191.00562
 192.73643 194.83723 197.10604 199.47085 201.92166 204.40747 206.50128 208.34909
 209.98090 211.13171 211.36652 211.60033 211.54314 211.25395 210.89276 210.52857
 210.15138 209.86718 209.68099 209.55080 209.48461 209.82142 210.21323 210.60804
 211.40685 212.59066 213.84647 215.63528 217.56909 219.61790 221.71871 223.80752
 225.87333 227.96313 230.06594 232.17775 234.31256 236.49037 238.75218 241.12799
 243.75480 246.01161 248.01942 249.79023 251.21304 252.34185 253.16966 253.49147
 253.53428 253.31408 252.67989 251.63370 250.24551 248.41232 246.32713 244.16594
 241.96275 239.77256 237.59837 235.44318 233.30899 231.18180 229.21361 227.37642
 225.66523 224.14303 222.77884 221.55665 220.44446 219.41027 218.52008 217.66689
 216.91470 216.10051 215.20432 214.57413 214.02994 213.90935 213.65683 215.23697
 217.38916 218.54733 220.28163 221.57587 222.95860 224.99377 228.44553 231.51762
 234.28166 236.45610 238.29469 240.40718 243.47485 247.34587 251.31194 255.09955
 258.65274 261.92334 264.88107 267.50320 269.84399 272.03293 274.14923 276.14627
 277.94089 279.49161 280.83746 282.05014 282.97437 283.85727 284.80518 285.67551
 286.50073 287.27438 287.95020 288.81146
 366.78100 356.34195 345.78090 334.65385 323.06379 311.26474 299.14169 286.95164
 274.67059 262.57454 250.59048 239.89843 230.02738 221.13833 213.32728 206.33623
 200.17718 195.12212 191.71107 189.76002 188.80397 188.87492 189.71687 191.03181
 192.76376 194.86571 197.13566 199.50161 201.95356 204.44050 206.53545 208.38440
 210.01735 211.16930 211.40525 211.64020 211.58414 211.29609 210.93604 210.57299
 210.19694 209.91389 209.72883 209.59978 209.53473 209.87268 210.26563 210.66158
 211.46153 212.64647 213.90342 215.69337 217.62832 219.67827 221.78022 223.87016
 225.93711 228.02806 230.13201 232.24496 234.38091 236.55986 238.82280 241.19975
 243.82770 246.08565 248.09460 249.86655 251.29049 252.42044 253.24939 253.57234
 253.61629 253.39724 252.76419 251.71913 250.33208 248.50003 246.41598 244.25593
 242.05388 239.86482 237.69177 235.53772 233.40467 231.27862 229.31157 227.47551
 225.76546 224.24441 222.88136 221.66031 220.54926 219.51621 218.62715 217.77510
 217.02405 216.21100 215.31595 214.68690 214.14384 213.98492 213.60945 215.25371
 217.76193 218.89081 220.36620 221.69551 223.10086 225.11241 228.46692 231.55743
 234.10353 236.20088 237.92790 240.07471 243.29869 247.22736 251.23836 255.06456
 258.62732 261.89786 264.84647 267.44659 269.74014 271.88797 273.99225 275.97467
 277.79510 279.37137 280.73975 281.91299 282.84604 283.88531 284.82352 285.39981
 286.08328 286.78177 287.41571 288.25714
 366.78100 356.34306 345.78311 334.65717 323.06822 311.27028 299.14833 286.95939
 274.67944 262.58450 250.60156 239.91061 230.04067 221.15272 213.34278 206.35283
 200.19489 195.14095 191.73100 189.78106 188.82611 188.89817 189.74122 191.05728
 192.79033 194.89339 197.16445 199.53150 201.98456 204.47261 206.56867 208.41872
 210.05278 211.20584 211.44289 211.67895 211.62400 211.33706 210.97811 210.61617
 210.24122 209.95928 209.77534 209.64739 209.58345 209.92250 210.31656 210.71361
 211.51467 212.70073 213.95878 215.74984 217.68589 219.73695 221.84000 223.93106
 225.99911 228.09117 230.19623 232.31028 234.44734 236.62739 238.89145 241.26950
 243.89856 246.15762 248.16767 249.94073 251.36578 252.49684 253.32689 253.65095
 253.69600 253.47806 252.84612 251.80217 250.41623 248.58528 246.50234 244.34339
 242.14245 239.95451 237.78256 235.62962 233.49767 231.37273 229.40678 227.57184
 225.86289 224.34295 222.98101 221.76106 220.65112 219.61917 218.73123 217.88028
 217.13034 216.31840 215.42445 214.79651 214.25456 214.06139 213.60497 215.36444
 217.88889 219.00221 220.48547 221.91452 223.27551 225.23058 228.46321 231.53131
 233.94456 235.89729 237.54782 239.72339 243.07448 247.09062 251.14343 255.00948
 258.58957 261.86096 264.79666 267.37701 269.64575 271.77280 273.85248 275.82776
 277.65390 279.24335 280.61591 281.78854 282.81277 283.85129 284.82349 285.44473
 286.14700 286.83688 287.45667 288.29413
 366.78100 356.34286 345.78271 334.65657 323.06743 311.26929 299.14714 286.95800
 274.67786 262.58271 250.59957 239.90843 230.03829 221.15014 213.34000 206.34986
 200.19171 195.13757 191.72743 189.77729 188.82214 188.89400 189.73686 191.05271
 192.78557 194.88843 197.15928 199.52614 201.97900 204.46686 206.56271 208.41257
 210.04643 211.19928 211.43614 211.67200 211.61686 211.32971 210.97057 210.60843
 210.23328 209.95114 209.76700 209.63886 209.57471 209.91357 210.30743 210.70428
 211.50514 212.69100 213.94886 215.73971 217.67557 219.72643 221.82928 223.92014
 225.98800 228.07986 230.18471 232.29857 234.43543 236.61528 238.87914 241.25700
 243.88585 246.14471 248.15457 249.92743 251.35228 252.48314 253.31300 253.63685
 253.68171 253.46357 252.83143 251.78728 250.40114 248.57000 246.48685 244.32771
 242.12657 239.93843 237.76628 235.61314 233.48100 231.35585 229.38971 227.55457
 225.84543 224.32528 222.96314 221.74300 220.63285 219.60071 218.71257 217.86143
 217.11128 216.29914 215.40500 214.77685 214.23471 214.06918 213.67809 215.44128
 217.98163 219.06268 220.58191 222.16072 223.53120 225.39622 228.47997 231.46365
 233.73425 235.53632 237.16711 239.43980 242.88922 246.94658 251.03375 254.94034
 258.54214 261.81265 264.73969 267.31241 269.56979 271.67242 273.71936 275.68338
 277.51401 279.11685 280.50488 281.70526 282.77707 283.81729 284.78973 285.65146
 286.27698 286.95416 287.56140 288.38513
 366.78100 356.34165 345.78029 334.65294 323.06259 311.26323 299.13988 286.94953
 274.66818 262.57182 250.58747 239.89512 230.02376 221.13441 213.32306 206.33170
 200.17235 195.11700 191.70564 189.75429 188.79794 188.86859 189.71023 191.02488
 192.75653 194.85817 197.12782 199.49347 201.94511 204.43176 206.52641 208.37505
 210.00770 211.15935 211.39500 211.62964 211.57329 211.28494 210.92458 210.56123
 210.18488 209.90152 209.71617 209.58682 209.52147 209.85911 210.25176 210.64741
 211.44705 212.63170 213.88835 215.67799 217.61264 219.66229 221.76393 223.85358
 225.92023 228.01088 230.11452 232.22717 234.36282 236.54146 238.80411 241.18076
 243.80840 246.06605 248.07470 249.84634 251.26999 252.39964 253.22829 253.55093
 253.59458 253.37523 252.74187 251.69652 250.30917 248.47681 246.39246 244.23211
 242.02975 239.84040 237.66705 235.51270 233.37934 231.25299 229.28564 227.44928
 225.73893 224.21758 222.85422 221.63287 220.52152 219.48816 218.59881 217.74646
 216.99511 216.18175 215.28640 214.65705 214.11369 214.02728 213.82314 215.46437
 217.95662 219.27107 220.81964 222.35608 223.68416 225.51324 228.50397 231.38814
 233.51009 235.16928 236.79427 239.18393 242.72115 246.81035 250.93019 254.86772
 258.48477 261.75388 264.67648 267.24847 269.49368 271.57019 273.58810 275.54233
 277.38406 279.00027 280.39835 281.62372 282.78305 283.82938 284.80374 285.67926
 286.44995 287.13211 287.73520 288.53403
 366.78100 356.34076 345.77852 334.65028 323.05904 311.25880 299.13456 286.94332
 274.66108 262.56384 250.57859 239.88535 230.01311 221.12287 213.31063 206.31839
 200.15815 195.10191 191.68967 189.73743 188.78019 188.84995 189.69071 191.00447
 192.73523 194.83599 197.10475 199.46951 201.92027 204.40602 206.49978 208.34754
 209.97930 211.13006 211.36482 211.59858 211.54134 211.25210 210.89086 210.52662
 210.14938 209.86514 209.67890 209.54866 209.48242 209.81918 210.21094 210.60570
 211.40446 212.58821 213.84397 215.63273 217.56649 219.61525 221.71601 223.80477
 225.87053 227.96029 230.06305 232.17481 234.30957 236.48733 238.74909 241.12485
 243.75161 246.00837 248.01613 249.78689 251.20964 252.33840 253.16616 253.48792
 253.53068 253.31044 252.67620 251.62996 250.24172 248.40848 246.32324 244.16200
 241.95876 239.76852 237.59428 235.43904 233.30480 231.17756 229.20932 227.37207
 225.66083 224.13859 222.77435 221.55211 220.43987 219.40563 218.51539 217.66215
 216.90991 216.09567 215.19943 214.56919 214.02495 214.00275 213.95029 215.50734
 217.91785 219.46906 221.05263 222.50279 223.79547 225.62903 228.56314 231.34198
 233.30879 234.81755 236.42688 238.93416 242.56496 246.69461 250.84151 254.79944
 258.42444 261.68826 264.60141 267.16995 269.40823 271.46387 273.45081 275.38828
 277.21762 278.82666 280.30289 281.65732 282.83667 283.88913 284.86963 285.75278
 286.53622 287.22403 287.82965 288.62802
 366.78100 356.34034 345.77768 334.64903 323.05737 311.25671 299.13205 286.94039
 274.65773 262.56008 250.57442 239.88076 230.00810 221.11744 213.30479 206.31213
 200.15147 195.09481 191.68215 189.72950 188.77184 188.84118 189.68152 190.99486
 192.72520 194.82555 197.09389 199.45823 201.90857 204.39391 206.48726 208.33460
 209.96594 211.11628 211.35062 211.58396 211.52631 211.23665 210.87499 210.51033
 210.13267 209.84802 209.66136 209.53070 209.46404 209.80038 210.19173 210.58607
 211.38441 212.56775 213.82309 215.61143 217.54478 219.59312 221.69346 223.78180
 225.84714 227.93649 230.03883 232.15017 234.28451 236.46185 238.72319 241.09854
 243.72488 245.98122 247.98856 249.75890 251.18125 252.30959 253.13693 253.45827
 253.50061 253.27995 252.64530 251.59864 250.20998 248.37632 246.29066 244.12901
 241.92535 239.73469 237.56003 235.40437 233.26972 231.14206 229.17340 227.33574
 225.62408 224.10142 222.73677 221.51411 220.40145 219.36679 218.47613 217.62248
 216.86982 216.05516 215.15850 214.52784 213.98318 214.00340 214.05115 215.54915
 217.90894 219.63443 221.24442 222.64621 223.91634 225.76433 228.64949 231.29414
 233.09152 234.44786 236.05583 238.69385 242.42424 246.59654 250.76407 254.73599
 258.36432 261.62225 264.53394 267.10699 269.33270 271.34268 273.27887 275.19980
 277.05243 278.73541 280.26160 281.61655 282.79114 283.83353 284.78561 285.66989
 286.49277 287.20026 287.81253 288.61923
 366.78100 356.34003 345.77705 334.64808 323.05610 311.25513 299.13016 286.93818
 274.65521 262.55724 250.57126 239.87729 230.00431 221.11334 213.30037 206.30739
 200.14642 195.08944 191.67647 189.72350 188.76552 188.83455 189.67458 190.98760
 192.71763 194.81765 197.08568 199.44971 201.89973 204.38476 206.47778 208.32481
 209.95584 211.10586 211.33989 211.57292 211.51494 211.22497 210.86299 210.49802
 210.12005 209.83507 209.64810 209.51712 209.45015 209.78618 210.17720 210.57123
 211.36925 212.55228 213.80731 215.59533 217.52836 219.57639 221.67641 223.76444
 225.82946 227.91849 230.02052 232.13154 234.26557 236.44259 238.70362 241.07865
 243.70467 245.96070 247.96773 249.73775 251.15978 252.28780 253.11483 253.43586
 253.47788 253.25691 252.62193 251.57496 250.18599 248.35201 246.26604 244.10407
 241.90009 239.70912 237.53414 235.37817 233.24320 231.11522 229.14625 227.30827
 225.59630 224.07333 222.70835 221.48538 220.37241 219.33743 218.44646 217.59248
 216.83951 216.02454 215.12756 214.49659 213.95161 214.00967 214.14682 215.58401
 217.90887 219.78186 221.40686 222.80032 224.06221 225.90425 228.73836 231.23967
 232.85426 234.06738 235.70288 238.48247 242.30360 246.50598 250.68607 254.66428
 258.28983 261.54019 264.44937 267.02673 269.24371 271.23303 273.15851 275.08554
 276.95105 278.66171 280.20459 281.56796 282.74924 283.79681 284.75363 285.63687
 286.45190 287.17908 287.79135 288.60352
 366.78100 356.33988 345.77676 334.64764 323.05553 311.25441 299.12929 286.93717
 274.65405 262.55593 250.56982 239.87570 230.00258 221.11146 213.29834 206.30522
 200.14411 195.08699 191.67387 189.72075 188.76263 188.83151 189.67140 190.98428
 192.71416 194.81404 197.08192 199.44580 201.89569 204.38057 206.47345 208.32033
 209.95121 211.10109 211.33498 211.56786 211.50974 211.21962 210.85750 210.49238
 210.11427 209.82915 209.64203 209.51091 209.44379 209.77967 210.17056 210.56444
 211.36232 212.54520 213.80008 215.58796 217.52085 219.56873 221.66861 223.75649
 225.82137 227.91025 230.01214 232.12302 234.25690 236.43378 238.69466 241.06954
 243.69543 245.95131 247.95819 249.72807 251.14995 252.27783 253.10472 253.42560
 253.46748 253.24636 252.61124 251.56412 250.17500 248.34089 246.25477 244.09265
 241.88853 239.69741 237.52229 235.36618 233.23106 231.10294 229.13382 227.29570
 225.58358 224.06047 222.69535 221.47223 220.35911 219.32399 218.43287 217.57876
 216.82564 216.01052 215.11340 214.48228 213.93716 214.02582 214.23526 215.62160
 217.90668 219.91235 221.55559 222.96051 224.22910 226.02773 228.80487 231.19304
 232.62900 233.70642 235.38344 238.30360 242.19649 246.41841 250.60655 254.58565
 258.20496 261.44366 264.34802 266.92978 269.15546 271.15479 273.08203 275.00421
 276.86243 278.59396 280.14102 281.50809 282.69131 283.74133 284.70331 285.58524
 286.39548 287.12402 287.74152 288.55902
 366.78100 356.33999 345.77698 334.64797 323.05595 311.25494 299.12993 286.93792
 274.65491 262.55690 250.57088 239.87687 230.00386 221.11285 213.29984 206.30683
 200.14582 195.08880 191.67579 189.72278 188.76477 188.83376 189.67375 190.98673
 192.71672 194.81671 197.08470 199.44869 201.89868 204.38367 206.47665 208.32364
 209.95463 211.10462 211.33861 211.57160 211.51358 211.22357 210.86156 210.49655
 210.11854 209.83353 209.64652 209.51550 209.44849 209.78448 210.17547 210.56946
 211.36745 212.55043 213.80542 215.59341 217.52640 219.57439 221.67438 223.76237
 225.82735 227.91634 230.01833 232.12932 234.26331 236.44030 238.70128 241.07627
 243.70226 245.95825 247.96524 249.73523 251.15721 252.28520 253.11219 253.43318
 253.47517 253.25416 252.61915 251.57213 250.18312 248.34911 246.26310 244.10109
 241.89708 239.70606 237.53105 235.37504 233.24003 231.11202 229.14301 227.30500
 225.59298 224.06997 222.70496 221.48195 220.36894 219.33393 218.44291 217.58890
 216.83589 216.02088 215.12387 214.49286 213.94785 214.05742 214.31631 215.65399
 217.91469 220.02550 221.70276 223.13002 224.40672 226.12402 228.83653 231.14589
 232.41963 233.36757 235.09126 238.14745 242.10095 246.34120 250.53714 254.51686
 258.12595 261.34778 264.24173 266.83023 269.06931 271.05713 272.92426 274.82596
 276.82419 278.57291 280.11951 281.48563 282.67062 283.72269 284.68713 285.57007
 286.37506 287.10046 287.73215 288.55179
 366.78100 356.34008 345.77716 334.64824 323.05632 311.25540 299.13048 286.93856
 274.65564 262.55772 250.57180 239.87788 230.00496 221.11404 213.30112 206.30820
 200.14728 195.09036 191.67744 189.72452 188.76660 188.83568 189.67576 190.98884
 192.71892 194.81900 197.08708 199.45116 201.90124 204.38632 206.47940 208.32648
 209.95756 211.10764 211.34172 211.57480 211.51688 211.22696 210.86504 210.50012
 210.12220 209.83728 209.65036 209.51944 209.45252 209.78860 210.17968 210.57376
 211.37184 212.55492 213.81000 215.59808 217.53116 219.57924 221.67932 223.76740
 225.83248 227.92156 230.02364 232.13472 234.26880 236.44588 238.70696 241.08204
 243.70812 245.96420 247.97128 249.74136 251.16344 252.29152 253.11860 253.43968
 253.48176 253.26084 252.62592 251.57900 250.19008 248.35616 246.27024 244.10832
 241.90440 239.71348 237.53856 235.38264 233.24772 231.11980 229.15088 227.31296
 225.60104 224.07812 222.71320 221.49028 220.37736 219.34244 218.45152 217.59760
 216.84468 216.02976 215.13284 214.50192 213.95700 214.08913 214.40131 215.68291
 217.92836 220.11325 221.84912 223.31036 224.59200 226.20950 228.84923 231.09026
 232.22058 233.04881 234.81648 237.99704 242.00955 246.26585 250.46483 254.44070
 258.04001 261.25320 264.15222 266.74377 268.94080 270.84668 272.93207 274.82990
 276.79590 278.52097 280.06750 281.43576 282.62054 283.67401 284.63824 285.51968
 286.32083 287.04175 287.67197 288.51669
 366.78100 356.33989 345.77678 334.64767 323.05556 311.25445 299.12934 286.93723
 274.65412 262.55601 250.56990 239.87579 230.00268 221.11157 213.29846 206.30535
 200.14424 195.08713 191.67402 189.72091 188.76280 188.83169 189.67158 190.98447
 192.71436 194.81425 197.08214 199.44604 201.89593 204.38082 206.47371 208.32060
 209.95149 211.10138 211.33527 211.56816 211.51005 211.21994 210.85783 210.49272
 210.11461 209.82950 209.64239 209.51128 209.44417 209.78006 210.17095 210.56484
 211.36273 212.54562 213.80051 215.58840 217.52129 219.56918 221.66907 223.75696
 225.82185 227.91074 230.01263 232.12352 234.25741 236.43430 238.69519 241.07008
 243.69597 245.95186 247.95875 249.72864 251.15053 252.27842 253.10531 253.42620
 253.46809 253.24698 252.61187 251.56476 250.17565 248.34154 246.25543 244.09332
 241.88922 239.69811 237.52300 235.36689 233.23178 231.10367 229.13456 227.29645
 225.58434 224.06123 222.69612 221.47301 220.35990 219.32479 218.43368 217.57957
 216.82646 216.01135 215.11424 214.48313 213.93802 214.10527 214.50043 215.72253
 217.92986 220.16728 221.98227 223.48383 224.77184 226.29755 228.86082 231.03006
 232.04146 232.77728 234.58405 237.86856 241.93413 246.19974 250.39247 254.35542
 257.93945 261.14420 264.04758 266.64551 268.83112 270.71939 272.82428 274.76718
 276.72049 278.45074 279.99911 281.36829 282.55481 283.60791 284.57391 285.45526
 286.25760 286.97943 287.61130 288.45813
 366.78100 356.33950 345.77600 334.64650 323.05400 311.25249 299.12699 286.93449
 274.65099 262.55249 250.56599 239.87149 229.99799 221.10649 213.29299 206.29948
 200.13798 195.08048 191.66698 189.71348 188.75498 188.82348 189.66298 190.97548
 192.70497 194.80447 197.07197 199.43547 201.88497 204.36947 206.46197 208.30847
 209.93897 211.08847 211.32196 211.55446 211.49596 211.20546 210.84296 210.47746
 210.09896 209.81346 209.62596 209.49445 209.42695 209.76245 210.15295 210.54645
 211.34395 212.52645 213.78095 215.56845 217.50095 219.54844 221.64794 223.73544
 225.79994 227.88844 229.98994 232.10044 234.23394 236.41044 238.67094 241.04543
 243.67093 245.92643 247.93293 249.70243 251.12393 252.25143 253.07793 253.39843
 253.43992 253.21842 252.58292 251.53542 250.14592 248.31142 246.22492 244.06242
 241.85792 239.66642 237.49091 235.33441 233.19891 231.07041 229.10091 227.26241
 225.54991 224.02641 222.66091 221.43740 220.32390 219.28840 218.39690 217.54240
 216.78890 215.97340 215.07590 214.44440 213.89890 214.11037 214.61000 215.77875
 217.92432 220.20529 222.10143 223.63254 224.92906 226.38354 228.86458 230.94914
 231.85857 232.52670 234.37602 237.75568 241.87308 246.14755 250.33191 254.28258
 257.85532 261.05673 263.96790 266.57254 268.72449 270.55579 272.83685 274.67099
 276.67474 278.42001 279.96606 281.33307 282.51700 283.56995 284.53409 285.41800
 286.22363 286.94913 287.58527 288.43320
 366.78100 356.33880 345.77461 334.64441 323.05122 311.24902 299.12283 286.92963
 274.64544 262.54624 250.55905 239.86385 229.98966 221.09746 213.28327 206.28907
 200.12688 195.06868 191.65449 189.70029 188.74110 188.80890 189.64771 190.95951
 192.68832 194.78712 197.05393 199.41673 201.86554 204.34934 206.44115 208.28695
 209.91676 211.06556 211.29837 211.53017 211.47098 211.17978 210.81659 210.45039
 210.07120 209.78500 209.59681 209.46461 209.39642 209.73122 210.12103 210.51383
 211.31064 212.49244 213.74625 215.53305 217.46486 219.51166 221.61047 223.69727
 225.76108 227.84888 229.94969 232.05949 234.19230 236.36810 238.62791 241.00171
 243.62652 245.88132 247.88713 249.65593 251.07674 252.20354 253.02935 253.34915
 253.38996 253.16776 252.53157 251.48337 250.09318 248.25798 246.17079 244.00759
 241.80240 239.61020 237.43401 235.27681 233.14062 231.01142 229.04123 227.20203
 225.48884 223.96464 222.59845 221.37425 220.26006 219.22386 218.33167 217.47647
 216.72228 215.90608 215.00789 214.37569 213.82950 214.09959 214.73772 215.83929
 217.89215 220.23769 222.22752 223.77293 225.06870 226.46777 228.86102 230.84689
 231.67021 232.30116 234.20177 237.66663 241.82805 246.10602 250.27652 254.20891
 257.76401 260.95468 263.86328 266.46109 268.60172 270.42447 272.82730 274.58792
 276.58408 278.35559 279.90143 281.26657 282.44849 283.49796 284.45984 285.34268
 286.14792 286.87283 287.50024 288.31824
 366.78100 356.33775 345.77249 334.64124 323.04699 311.24374 299.11648 286.92223
 274.63698 262.53672 250.54847 239.85222 229.97697 221.08371 213.26846 206.27321
 200.10995 195.05070 191.63545 189.68019 188.71994 188.78669 189.62444 190.93518
 192.66293 194.76068 197.02642 199.38817 201.83592 204.31867 206.40941 208.25416
 209.88291 211.03065 211.26240 211.49315 211.43290 211.14064 210.77639 210.40914
 210.02888 209.74163 209.55238 209.41912 209.34987 209.68362 210.07237 210.46411
 211.25986 212.44061 213.69335 215.47910 217.40985 219.45560 221.55334 223.63909
 225.70184 227.78858 229.88833 231.99708 234.12883 236.30357 238.56232 240.93507
 243.55881 245.81256 247.81731 249.58506 251.00480 252.13055 252.95530 253.27404
 253.31379 253.09054 252.45328 251.40403 250.01278 248.17653 246.08827 243.92402
 241.71777 239.52451 237.34726 235.18901 233.05176 230.92150 228.95025 227.11000
 225.39574 223.87049 222.50324 221.27799 220.16273 219.12548 218.23223 217.37597
 216.62072 215.80347 214.90421 214.27096 213.72371 214.06453 214.86977 215.93817
 217.89365 220.22194 222.23468 223.83475 225.19864 226.57921 228.87395 230.75276
 231.50114 232.11142 234.06274 237.60332 241.79961 246.07660 250.23093 254.14212
 257.67725 260.85553 263.76483 266.37805 268.55362 270.46262 272.76154 274.55600
 276.54745 278.26996 279.81052 281.17557 282.35846 283.40799 284.36911 285.25186
 286.06305 286.79135 287.41241 288.23590
 366.78100 356.33643 345.76986 334.63730 323.04173 311.23716 299.10859 286.91303
 274.62646 262.52489 250.53532 239.83775 229.96119 221.06662 213.25005 206.25348
 200.08892 195.02835 191.61178 189.65521 188.69364 188.75908 189.59551 190.90494
 192.63137 194.72781 196.99224 199.35267 201.79910 204.28053 206.36997 208.21340
 209.84083 210.98726 211.21770 211.44713 211.38556 211.09199 210.72643 210.35786
 209.97629 209.68772 209.49715 209.36259 209.29202 209.62445 210.01188 210.40232
 211.19675 212.37618 213.62761 215.41204 217.34148 219.38591 221.48234 223.56677
 225.62821 227.71364 229.81207 231.91950 234.04993 236.22337 238.48080 240.85223
 243.47466 245.72710 247.73053 249.49696 250.91539 252.03982 252.86326 253.18069
 253.21912 252.99455 252.35599 251.30542 249.91285 248.07528 245.98571 243.82015
 241.61258 239.41801 237.23944 235.07988 232.94131 230.80974 228.83717 226.99560
 225.28004 223.75347 222.38490 221.15833 220.04177 219.00320 218.10863 217.25106
 216.49450 215.67593 214.77536 214.14079 213.59222 214.01135 215.00162 216.06964
 217.88789 220.18576 222.24858 223.88608 225.28267 226.65573 228.88293 230.65222
 231.32597 231.93712 233.95299 237.56439 241.78993 246.06238 250.19821 254.08658
 257.60223 260.77145 263.68692 266.31052 268.47784 270.40067 272.72549 274.50467
 276.49979 278.20688 279.74478 281.11005 282.29089 283.33960 284.29865 285.18161
 285.99374 286.72455 287.34109 288.16382
 366.78100 356.33506 345.76711 334.63317 323.03622 311.23028 299.10033 286.90339
 274.61544 262.51250 250.52156 239.82261 229.94467 221.04872 213.23078 206.23283
 200.06689 195.00495 191.58700 189.62906 188.66611 188.73017 189.56522 190.87328
 192.59833 194.69339 196.95645 199.31550 201.76056 204.24061 206.32867 208.17072
 209.79678 210.94183 211.17089 211.39895 211.33600 211.04106 210.67411 210.30417
 209.92122 209.63128 209.43933 209.30339 209.23145 209.56250 209.94856 210.33761
 211.13067 212.30872 213.55878 215.34184 217.26989 219.31295 221.40800 223.49106
 225.55111 227.63517 229.73222 231.83828 233.96734 236.13939 238.39545 240.76550
 243.38656 245.63761 247.63967 249.40472 250.82178 251.94484 252.76689 253.08295
 253.12000 252.89406 252.25411 251.20217 249.80823 247.96928 245.87834 243.71139
 241.50245 239.30650 237.12656 234.96561 232.82567 230.69273 228.71878 226.87584
 225.15889 223.63095 222.26100 221.03306 219.91511 218.87517 217.97923 217.12028
 216.36234 215.54239 214.64045 214.00450 213.45456 213.95375 215.13315 216.21176
 217.88519 220.15938 222.27875 223.93236 225.32924 226.69728 228.85840 230.51288
 231.13094 231.78444 233.88063 237.55466 241.80519 246.07155 250.18652 254.04958
 257.54047 260.69122 263.60349 266.24588 268.44336 270.37439 272.57654 274.48682
 276.44946 278.13208 279.66345 281.02301 282.19986 283.24472 284.19666 285.07953
 285.90024 286.62549 287.24103 288.06204
 366.78100 356.33372 345.76445 334.62917 323.03090 311.22362 299.09235 286.89407
 274.60480 262.50052 250.50825 239.80797 229.92870 221.03142 213.21215 206.21287
 200.04560 194.98232 191.56304 189.60377 188.63949 188.70222 189.53594 190.84267
 192.56639 194.66012 196.92184 199.27957 201.72329 204.20202 206.28874 208.12947
 209.75419 210.89792 211.12564 211.35237 211.28809 210.99181 210.62354 210.25226
 209.86799 209.57671 209.38344 209.24616 209.17289 209.50261 209.88734 210.27506
 211.06679 212.24351 213.49224 215.27396 217.20069 219.24241 221.33613 223.41786
 225.47658 227.55931 229.65503 231.75976 233.88748 236.05821 238.31293 240.68166
 243.30138 245.55111 247.55183 249.31556 250.73128 251.85301 252.67373 252.98846
 253.02418 252.79690 252.15563 251.10235 249.70708 247.86680 245.77453 243.60625
 241.39598 239.19870 237.01743 234.85515 232.71388 230.57960 228.60433 226.76005
 225.04178 223.51250 222.14122 220.91195 219.79267 218.75140 217.85412 216.99385
 216.23457 215.41330 214.51002 213.87275 213.32147 213.89732 215.25783 216.35390
 217.90529 220.15514 222.30290 223.96945 225.35579 226.70120 228.82732 230.37126
 230.91954 231.62314 233.81726 237.55870 241.83414 246.09506 250.19012 254.02954
 257.49991 260.63535 263.54639 266.20013 268.37921 270.23105 272.47672 274.43039
 276.37149 278.07031 279.59732 280.94498 282.10641 283.14474 284.09198 284.97479
 285.80850 286.51993 287.13571 287.95340
 366.78100 356.33280 345.76260 334.62641 323.02721 311.21901 299.08681 286.88761
 274.59741 262.49222 250.49902 239.79782 229.91762 221.01942 213.19923 206.19903
 200.03083 194.96663 191.54643 189.58624 188.62104 188.68284 189.51564 190.82144
 192.54424 194.63705 196.89785 199.25465 201.69745 204.17525 206.26106 208.10086
 209.72466 210.86746 211.09426 211.32007 211.25487 210.95767 210.58847 210.21627
 209.83107 209.53888 209.34468 209.20648 209.13228 209.46108 209.84489 210.23169
 211.02249 212.19829 213.44609 215.22690 217.15270 219.19350 221.28630 223.36710
 225.42490 227.50671 229.60151 231.70531 233.83211 236.00191 238.25572 240.62352
 243.24232 245.49112 247.49092 249.25373 250.66853 251.78933 252.60913 252.92293
 252.95773 252.72954 252.08734 251.03314 249.63694 247.79574 245.70255 243.53335
 241.32215 239.12395 236.94175 234.77856 232.63636 230.50116 228.52496 226.67976
 224.96056 223.43037 222.05817 220.82797 219.70777 218.66557 217.76738 216.90618
 216.14598 215.32378 214.41958 213.78139 213.22919 213.86168 215.35600 216.48763
 217.94804 220.16611 222.37076 224.00981 225.35893 226.75053 228.77841 230.17125
 230.66920 231.44308 233.74605 237.56409 241.86537 246.11909 250.19278 254.00775
 257.45917 260.58182 263.49121 266.14163 268.29874 270.31415 272.43768 274.35822
 276.31378 277.99692 279.51526 280.86728 282.04135 283.08914 284.05817 284.94565
 285.73932 286.43546 287.04642 287.85852
 366.78100 356.33190 345.76081 334.62371 323.02361 311.21452 299.08142 286.88133
 274.59023 262.48413 250.49004 239.78794 229.90684 221.00775 213.18665 206.18555
 200.01646 194.95136 191.53026 189.56917 188.60307 188.66398 189.49588 190.80078
 192.52269 194.61459 196.87449 199.23040 201.67230 204.14920 206.23411 208.07301
 209.69591 210.83782 211.06372 211.28863 211.22253 210.92443 210.55434 210.18124
 209.79514 209.50205 209.30695 209.16785 209.09276 209.42066 209.80356 210.18947
 210.97937 212.15428 213.40118 215.18108 217.10599 219.14589 221.23779 223.31770
 225.37460 227.45550 229.54941 231.65231 233.77822 235.94712 238.20002 240.56693
 243.18483 245.43273 247.43164 249.19354 250.60744 251.72735 252.54625 252.85915
 252.89306 252.66396 252.02087 250.96577 249.56867 247.72658 245.63248 243.46238
 241.25029 239.05119 236.86809 234.70400 232.56090 230.42480 228.44771 226.60161
 224.88152 223.35042 221.97732 220.74623 219.62513 218.58203 217.68294 216.82084
 216.05974 215.23665 214.33155 213.69245 213.13936 213.82532 215.44597 216.61981
 218.01767 220.19272 222.41338 224.03777 225.36618 226.79659 228.71429 229.93259
 230.38641 231.27068 233.70140 237.58612 241.90730 246.15327 250.20451 253.99286
 257.42221 260.53326 263.44446 266.11917 268.31198 270.21555 272.35535 274.33762
 276.22803 277.91309 279.43665 280.79141 281.96780 283.01382 283.98810 284.87436
 285.65723 286.34833 286.95712 287.77328
 366.78100 356.33094 345.75888 334.62083 323.01977 311.20971 299.07565 286.87460
 274.58254 262.47548 250.48042 239.77737 229.89531 220.99525 213.17319 206.17114
 200.00108 194.93502 191.51296 189.55091 188.58385 188.64379 189.47473 190.77868
 192.49962 194.59056 196.84950 199.20445 201.64539 204.12133 206.20527 208.04322
 209.66516 210.80610 211.03104 211.25499 211.18793 210.88887 210.51781 210.14375
 209.75670 209.46264 209.26658 209.12652 209.05047 209.37741 209.75935 210.14429
 210.93324 212.10718 213.35312 215.13206 217.05601 219.09495 221.18589 223.26483
 225.32078 227.40072 229.49366 231.59560 233.72055 235.88849 238.14043 240.50637
 243.12332 245.37026 247.36820 249.12914 250.54209 251.66103 252.47897 252.79091
 252.82386 252.59380 251.94974 250.89368 249.49562 247.65257 245.55751 243.38645
 241.17339 238.97334 236.78928 234.62422 232.48016 230.34311 228.36505 226.51799
 224.79693 223.26488 221.89082 220.65876 219.53670 218.49265 217.59259 216.72953
 215.96747 215.14342 214.23736 213.59730 213.04324 213.78336 215.53197 216.76125
 218.10397 220.22691 222.43042 224.04269 225.36456 226.82030 228.63889 229.68686
 230.10278 231.11255 233.67494 237.61824 241.95430 246.19252 250.22243 253.98264
 257.38748 260.48483 263.39560 266.09808 268.34256 270.29242 272.27808 274.31229
 276.15433 277.82825 279.33728 280.68393 281.85428 282.89993 283.87189 284.75540
 285.53488 286.22571 286.83499 287.64209
 366.78100 356.32998 345.75696 334.61793 323.01591 311.20489 299.06987 286.86785
 274.57482 262.46680 250.47078 239.76676 229.88374 220.98271 213.15969 206.15667
 199.98565 194.91862 191.49560 189.53258 188.56456 188.62354 189.45351 190.75649
 192.47647 194.56645 196.82443 199.17840 201.61838 204.09336 206.17634 208.01332
 209.63429 210.77427 210.99825 211.22123 211.15321 210.85318 210.48116 210.10614
 209.71812 209.42309 209.22607 209.08505 209.00803 209.33401 209.71498 210.09896
 210.88694 212.05992 213.30490 215.08287 217.00585 219.04383 221.13381 223.21179
 225.26676 227.34574 229.43772 231.53870 233.66268 235.82965 238.08063 240.44561
 243.06159 245.30757 247.30454 249.06452 250.47650 251.59448 252.41145 252.72243
 252.75441 252.52339 251.87837 250.82134 249.42232 247.57830 245.48228 243.31026
 241.09623 238.89521 236.71019 234.54417 232.39915 230.26112 228.28210 226.43408
 224.71206 223.17904 221.80401 220.57099 219.44797 218.40295 217.50193 216.63790
 215.87488 215.04986 214.14284 213.50181 212.94679 213.73561 215.59927 216.92642
 218.21338 220.26891 222.44049 224.02560 225.32433 226.79927 228.54831 229.45584
 229.84302 230.97493 233.66158 237.65706 242.00967 246.24300 250.25238 253.98425
 257.36548 260.44345 263.34409 266.06708 268.35416 270.34543 272.28943 274.27393
 276.10147 277.76086 279.24591 280.56143 281.71072 282.75125 283.72098 284.58487
 285.32666 286.01746 286.63065 287.45053
 366.78100 356.32937 345.75575 334.61612 323.01349 311.20187 299.06624 286.86362
 274.56999 262.46136 250.46474 239.76011 229.87648 220.97486 213.15123 206.14761
 199.97598 194.90835 191.48473 189.52110 188.55247 188.61085 189.44022 190.74259
 192.46197 194.55134 196.80872 199.16209 201.60146 204.07584 206.15821 207.99458
 209.61496 210.75433 210.97771 211.20008 211.13145 210.83083 210.45820 210.08257
 209.69395 209.39832 209.20069 209.05907 208.98144 209.30682 209.68719 210.07056
 210.85794 212.03031 213.27468 215.05206 216.97443 219.01180 221.10118 223.17855
 225.23293 227.31130 229.40267 231.50305 233.62642 235.79279 238.04317 240.40754
 243.02292 245.26829 247.26466 249.02404 250.43541 251.55278 252.36916 252.67953
 252.71090 252.47928 251.83365 250.77603 249.37640 247.53177 245.43515 243.26252
 241.04789 238.84627 236.66064 234.49402 232.34839 230.20976 228.23014 226.38151
 224.65888 223.12526 221.74963 220.51600 219.39238 218.34675 217.44513 216.58050
 215.81687 214.99125 214.08362 213.44199 212.88637 213.70384 215.63521 217.11186
 218.34856 220.32062 222.45567 224.00575 225.25383 226.73294 228.44525 229.23112
 229.58360 230.83031 233.64771 237.70169 242.07285 246.30479 250.30118 254.01146
 257.36938 260.42270 263.30273 266.03467 268.34247 270.35593 272.29565 274.22366
 276.04987 277.69400 279.16904 280.48062 281.61313 282.65039 283.61661 284.46814
 285.17868 285.86755 286.48459 287.31107
 366.78100 356.32934 345.75568 334.61602 323.01336 311.20170 299.06604 286.86338
 274.56972 262.46106 250.46439 239.75973 229.87607 220.97441 213.15075 206.14709
 199.97543 194.90777 191.48411 189.52045 188.55179 188.61013 189.43947 190.74181
 192.46115 194.55049 196.80783 199.16117 201.60051 204.07485 206.15718 207.99352
 209.61386 210.75320 210.97654 211.19888 211.13022 210.82956 210.45690 210.08124
 209.69258 209.39692 209.19926 209.05760 208.97994 209.30528 209.68562 210.06896
 210.85630 212.02864 213.27297 215.05031 216.97265 219.00999 221.09933 223.17667
 225.23101 227.30935 229.40069 231.50103 233.62437 235.79071 238.04105 240.40539
 243.02073 245.26607 247.26241 249.02175 250.43309 251.55043 252.36676 252.67710
 252.70844 252.47678 251.83112 250.77346 249.37380 247.52914 245.43248 243.25982
 241.04516 238.84350 236.65784 234.49118 232.34552 230.20686 228.22720 226.37854
 224.65588 223.12222 221.74655 220.51289 219.38923 218.34357 217.44191 216.57725
 215.81359 214.98793 214.08027 213.43861 212.88295 213.70132 215.63484 217.27220
 218.53488 220.42645 222.47435 223.96628 225.14540 226.62894 228.31863 228.96841
 229.28360 230.66859 233.63255 237.75125 242.14287 246.38112 250.37482 254.07430
 257.41614 260.44815 263.29929 266.03751 268.36679 270.37204 272.28641 274.15155
 275.96826 277.62393 279.08865 280.39072 281.50351 282.54028 283.51218 284.32578
 285.02414 285.71362 286.33057 287.15308
 366.78100 356.32996 345.75692 334.61788 323.01585 311.20481 299.06977 286.86773
 274.57469 262.46665 250.47061 239.76658 229.88354 220.98250 213.15946 206.15642
 199.98538 194.91834 191.49531 189.53227 188.56423 188.62319 189.45315 190.75611
 192.47607 194.56604 196.82400 199.17796 201.61792 204.09288 206.17584 208.01280
 209.63377 210.77373 210.99769 211.22065 211.15261 210.85257 210.48053 210.10550
 209.71746 209.42242 209.22538 209.08434 209.00730 209.33327 209.71423 210.09819
 210.88615 212.05911 213.30407 215.08203 217.00500 219.04296 221.13292 223.21088
 225.26584 227.34480 229.43676 231.53773 233.66169 235.82865 238.07961 240.44457
 243.06053 245.30649 247.30346 249.06342 250.47538 251.59334 252.41030 252.72126
 252.75322 252.52219 251.87715 250.82011 249.42107 247.57703 245.48099 243.30895
 241.09492 238.89388 236.70884 234.54280 232.39776 230.25972 228.28068 226.43265
 224.71061 223.17757 221.80253 220.56949 219.44645 218.40141 217.50038 216.63634
 215.87330 215.04826 214.14122 213.50018 212.94514 213.73550 215.60283 217.37619
 218.73959 220.56544 222.50377 223.90942 225.01364 226.49586 228.15373 228.75391
 229.00298 230.50812 233.60759 237.78964 242.22900 246.49109 250.48375 254.15643
 257.47653 260.47495 263.28809 266.02829 268.36993 270.37857 272.24567 274.14972
 275.91446 277.52435 278.97623 280.22992 281.34277 282.39038 283.35559 284.16113
 284.91116 285.61703 286.27997 287.12482
 366.78100 356.33116 345.75933 334.62149 323.02066 311.21082 299.07699 286.87615
 274.58432 262.47748 250.48265 239.77981 229.89798 220.99814 213.17631 206.17447
 200.00464 194.93880 191.51697 189.55513 188.58830 188.64846 189.47963 190.78379
 192.50496 194.59612 196.85529 199.21045 201.65162 204.12778 206.21195 208.05011
 209.67228 210.81344 211.03861 211.26277 211.19594 210.89710 210.52627 210.15243
 209.76560 209.47176 209.27593 209.13609 209.06026 209.38742 209.76959 210.15475
 210.94392 212.11808 213.36425 215.14341 217.06758 219.10674 221.19790 223.27707
 225.33323 227.41340 229.50656 231.60873 233.73389 235.90206 238.15422 240.52039
 243.13755 245.38472 247.38288 249.14405 250.55721 251.67638 252.49454 252.80671
 252.83987 252.61004 251.96620 250.91037 249.51253 247.66970 245.57486 243.40403
 241.19119 238.99136 236.80752 234.64269 232.49885 230.36202 228.38418 226.53735
 224.81651 223.28468 221.91084 220.67901 219.55717 218.51334 217.61350 216.75067
 215.98883 215.16500 214.25916 213.61933 213.06549 213.80746 215.56685 217.42101
 218.92287 220.70578 222.59581 223.96297 224.99353 226.44052 227.96172 228.40131
 228.54951 230.26596 233.50911 237.79945 242.25896 246.66170 250.65822 254.29866
 257.58145 260.55087 263.33844 265.97406 268.28754 270.30118 272.18365 274.02054
 275.80826 277.41595 278.81754 280.03381 281.12628 282.15573 283.11334 283.96393
 284.75494 285.48032 286.11398 286.92154
 366.78100 356.33129 345.75957 334.62186 323.02114 311.21143 299.07772 286.87700
 274.58529 262.47857 250.48386 239.78115 229.89943 220.99972 213.17800 206.17629
 200.00658 194.94086 191.51915 189.55744 188.59072 188.65101 189.48229 190.78658
 192.50787 194.59915 196.85844 199.21372 201.65501 204.13130 206.21558 208.05387
 209.67615 210.81744 211.04273 211.26701 211.20030 210.90158 210.53087 210.15716
 209.77044 209.47673 209.28101 209.14130 209.06559 209.39287 209.77516 210.16044
 210.94973 212.12402 213.37030 215.14959 217.07388 219.11316 221.20445 223.28373
 225.34002 227.42031 229.51359 231.61588 233.74116 235.90945 238.16174 240.52802
 243.14531 245.39259 247.39088 249.15217 250.56545 251.68474 252.50302 252.81531
 252.84860 252.61888 251.97517 250.91945 249.52174 247.67903 245.58431 243.41360
 241.20088 239.00117 236.81746 234.65274 232.50903 230.37232 228.39460 226.54789
 224.82717 223.29546 221.92175 220.69003 219.56832 218.52460 217.62489 216.76218
 216.00046 215.17675 214.27103 213.63132 213.07761 213.82677 215.62576 217.47365
 218.94057 220.63585 222.61963 224.06853 225.13350 226.51183 227.84868 228.46449
 228.17026 229.93004 233.34261 237.70370 242.26762 246.72391 250.77548 254.44382
 257.71243 260.64346 263.37134 265.94897 268.20316 270.15378 272.10712 273.89450
 275.51874 277.03107 278.39877 279.71768 280.89270 281.93936 282.90567 283.78418
 284.57431 285.27792 285.89258 286.67587
 366.78100 356.33151 345.76002 334.62253 323.02204 311.21255 299.07906 286.87857
 274.58708 262.48059 250.48610 239.78361 229.90212 221.00263 213.18114 206.17965
 200.01016 194.94467 191.52318 189.56169 188.59520 188.65571 189.48722 190.79173
 192.51324 194.60475 196.86426 199.21977 201.66128 204.13779 206.22230 208.06081
 209.68332 210.82483 211.05034 211.27485 211.20836 210.90987 210.53938 210.16589
 209.77940 209.48591 209.29042 209.15093 209.07544 209.40295 209.78546 210.17097
 210.96048 212.13499 213.38150 215.16101 217.08552 219.12503 221.21654 223.29604
 225.35255 227.43306 229.52657 231.62908 233.75459 235.92310 238.17561 240.54212
 243.15963 245.40714 247.40565 249.16716 250.58067 251.70018 252.51869 252.83120
 252.86471 252.63522 251.99173 250.93624 249.53875 247.69626 245.60177 243.43128
 241.21879 239.01930 236.83581 234.67132 232.52783 230.39134 228.41385 226.56736
 224.84687 223.31538 221.94189 220.71040 219.58891 218.54542 217.64593 216.78344
 216.02195 215.19846 214.29297 213.65348 213.09999 213.85684 215.71526 217.52748
 219.17099 221.00688 222.87398 224.23840 225.38547 226.48483 227.85246 228.06252
 228.23854 230.00798 233.37914 237.66939 242.24551 246.66614 250.73831 254.41455
 257.69803 260.65820 263.40555 265.92340 268.16556 269.98230 272.06635 273.84467
 275.33157 276.90918 278.53067 280.08170 281.42398 282.61154 283.69504 284.67661
 285.55939 286.34555 287.03229 287.90750
 366.78100 356.33302 345.76305 334.62707 323.02809 311.22011 299.08814 286.88916
 274.59918 262.49420 250.50123 239.80025 229.92027 221.02229 213.20232 206.20234
 200.03436 194.97038 191.55041 189.59043 188.62545 188.68747 189.52050 190.82652
 192.54954 194.64256 196.90359 199.26061 201.70363 204.18165 206.26768 208.10770
 209.73172 210.87474 211.10177 211.32779 211.26281 210.96583 210.59686 210.22488
 209.83990 209.54792 209.35395 209.21597 209.14199 209.47101 209.85504 210.24206
 211.03308 212.20910 213.45713 215.23815 217.16417 219.20519 221.29822 223.37924
 225.43726 227.51928 229.61431 231.71833 233.84535 236.01537 238.26940 240.63742
 243.25644 245.50546 247.50549 249.26851 250.68353 251.80455 252.62458 252.93860
 252.97362 252.74564 252.10367 251.04969 249.65371 247.81273 245.71976 243.55078
 241.33980 239.14182 236.95985 234.79687 232.65489 230.51991 228.54394 226.69896
 224.97998 223.45000 222.07803 220.84805 219.72807 218.68609 217.78812 216.92714
 216.16716 215.34518 214.44121 213.80323 213.25125 213.94844 215.70441 217.56871
 219.42801 221.27702 222.94168 224.25424 225.38860 226.31812 228.06926 227.80389
 227.93924 229.83762 233.38843 237.75729 242.33231 246.74699 250.84511 254.58519
 257.85776 260.83853 263.54559 266.05890 268.19598 269.94464 272.08273 273.96002
 275.70276 277.77942 279.62192 281.23978 282.63989 283.87863 285.00882 286.03265
 286.95349 287.77353 288.48987 289.40277
 366.78100 356.33593 345.76885 334.63578 323.03970 311.23463 299.10556 286.90948
 274.62241 262.52033 250.53026 239.83219 229.95511 221.06004 213.24296 206.24589
 200.08082 195.01974 191.60267 189.64559 188.68352 188.74845 189.58437 190.89330
 192.61922 194.71515 196.97907 199.33900 201.78493 204.26585 206.35478 208.19770
 209.82463 210.97056 211.20048 211.42941 211.36733 211.07326 210.70719 210.33811
 209.95604 209.66696 209.47589 209.34082 209.26974 209.60167 209.98859 210.37852
 211.17245 212.35137 213.60230 215.38622 217.31515 219.35908 221.45500 223.53893
 225.59985 227.68478 229.78271 231.88963 234.01956 236.19248 238.44941 240.82034
 243.44226 245.69419 247.69711 249.46304 250.88096 252.00489 252.82782 253.14474
 253.18267 252.95759 252.31852 251.26745 249.87437 248.03630 245.94622 243.78015
 241.57208 239.37700 237.19793 235.03785 232.89878 230.76671 228.79363 226.95156
 225.23548 223.70841 222.33934 221.11226 219.99519 218.95611 218.06104 217.20297
 216.44589 215.62682 214.72574 214.09067 213.54160 214.09737 215.56421 217.62715
 219.73869 221.50552 223.03078 224.23137 225.22977 226.24878 227.45898 227.41933
 227.64993 229.68199 233.34561 237.78574 242.36537 246.76695 250.88428 254.64430
 258.00122 261.02347 263.73813 266.26126 268.51910 270.35388 272.13263 274.04868
 275.89212 277.74069 279.77502 281.62955 283.23444 284.65439 285.94986 287.12344
 288.17899 289.11896 289.94006 290.98651
 366.78100 356.33695 345.77090 334.63885 323.04381 311.23976 299.11171 286.91666
 274.63061 262.52956 250.54052 239.84347 229.96742 221.07337 213.25732 206.26127
 200.09723 195.03718 191.62113 189.66508 188.70403 188.76998 189.60694 190.91689
 192.64384 194.74079 197.00574 199.36669 201.81365 204.29560 206.38555 208.22950
 209.85745 211.00440 211.23536 211.46531 211.40426 211.11121 210.74616 210.37811
 209.99707 209.70902 209.51897 209.38492 209.31487 209.64782 210.03578 210.42673
 211.22168 212.40163 213.65358 215.43853 217.36849 219.41344 221.51039 223.59534
 225.65729 227.74324 229.84220 231.95015 234.08110 236.25505 238.51300 240.88495
 243.50791 245.76086 247.76481 249.53176 250.95071 252.07566 252.89962 253.21757
 253.25652 253.03247 252.39442 251.34437 249.95233 248.11528 246.02623 243.86118
 241.65413 239.46008 237.28204 235.12299 232.98494 230.85389 228.88184 227.04079
 225.32575 223.79970 222.43165 221.20560 220.08955 219.05150 218.15746 217.30041
 216.54436 215.72631 214.82626 214.19221 213.64417 214.15742 215.50455 217.61549
 219.87999 221.64276 223.18829 224.41893 225.38855 226.29259 227.06949 226.96852
 227.30032 229.51903 233.31827 237.78323 242.37010 246.77994 250.90289 254.64464
 258.01324 261.05746 263.78043 266.29236 268.56512 270.47543 272.33023 274.11398
 275.77954 277.49362 279.09692 280.68921 282.13010 283.40488 284.56793 285.62161
 286.56924 287.41312 288.15033 289.08978
 366.78100 356.33407 345.76515 334.63022 323.03229 311.22536 299.09444 286.89651
 274.60758 262.50365 250.51173 239.81180 229.93287 221.03594 213.21702 206.21809
 200.05116 194.98823 191.56931 189.61038 188.64645 188.70953 189.54360 190.85067
 192.57474 194.66882 196.93089 199.28896 201.73303 204.21211 206.29918 208.14025
 209.76532 210.90940 211.13747 211.36454 211.30061 211.00469 210.63676 210.26583
 209.88190 209.59098 209.39805 209.26112 209.18820 209.51827 209.90334 210.29141
 211.08349 212.26056 213.50963 215.29170 217.21878 219.26085 221.35492 223.43699
 225.49607 227.57914 229.67521 231.78028 233.90836 236.07943 238.33450 240.70358
 243.32365 245.57372 247.57479 249.33887 250.75494 251.87701 252.69808 253.01316
 253.04923 252.82230 252.18137 251.12845 249.73352 247.89359 245.80166 243.63374
 241.42381 239.22688 237.04596 234.88403 232.74310 230.60917 228.63425 226.79032
 225.07239 223.54346 222.17254 220.94361 219.82468 218.78375 217.88683 217.02690
 216.26797 215.44704 214.54412 213.90719 213.35626 214.01649 215.65572 217.63107
 219.78293 221.74286 223.30098 224.44064 225.39342 226.34695 227.11566 226.93423
 227.10019 229.31636 233.22020 237.74025 242.31802 246.72032 250.86600 254.60463
 257.95663 260.98474 263.70697 266.25980 268.55655 270.44196 272.26721 274.14105
 275.79236 277.40143 278.97592 280.43185 281.85751 283.11884 284.26962 285.31216
 286.24979 287.08478 287.81418 288.74374
 366.78100 356.33270 345.76240 334.62610 323.02681 311.21851 299.08621 286.88691
 274.59661 262.49131 250.49802 239.79672 229.91642 221.01812 213.19782 206.19752
 200.02923 194.96493 191.54463 189.58433 188.61903 188.68073 189.51344 190.81914
 192.54184 194.63454 196.89524 199.25194 201.69465 204.17235 206.25805 208.09775
 209.72145 210.86415 211.09086 211.31656 211.25126 210.95396 210.58466 210.21236
 209.82706 209.53477 209.34047 209.20217 209.12787 209.45657 209.84027 210.22698
 211.01768 212.19338 213.44108 215.22178 217.14748 219.18819 221.28089 223.36159
 225.41929 227.50099 229.59569 231.69940 233.82610 235.99580 238.24950 240.61720
 243.23590 245.48461 247.48431 249.24701 250.66171 251.78241 252.60211 252.91582
 252.95052 252.72222 252.07992 251.02562 249.62932 247.78802 245.69473 243.52543
 241.31413 239.11583 236.93353 234.77023 232.62794 230.49264 228.51634 226.67104
 224.95174 223.42144 222.04915 220.81885 219.69855 218.65625 217.75795 216.89665
 216.13636 215.31406 214.40976 213.77146 213.21916 213.93649 215.70540 217.79935
 219.81259 221.61018 223.16510 224.30666 225.33252 226.37766 227.24594 227.13760
 227.20473 229.27859 233.18106 237.70047 242.27919 246.66061 250.77330 254.52885
 257.89825 260.90421 263.61691 266.13254 268.34982 270.29068 272.16190 274.01889
 275.67352 277.20590 278.74554 280.13712 281.43640 282.64218 283.74228 284.73889
 285.63522 286.43344 287.13071 288.01935
 366.78100 356.33396 345.76491 334.62987 323.03182 311.22478 299.09373 286.89569
 274.60664 262.50260 250.51055 239.81051 229.93147 221.03442 213.21538 206.21633
 200.04929 194.98624 191.56720 189.60815 188.64411 188.70706 189.54102 190.84797
 192.57193 194.66589 196.92784 199.28580 201.72975 204.20871 206.29566 208.13662
 209.76157 210.90553 211.13348 211.36044 211.29640 211.00035 210.63231 210.26126
 209.87722 209.58617 209.39313 209.25608 209.18304 209.51299 209.89795 210.28591
 211.07786 212.25482 213.50377 215.28573 217.21268 219.25464 221.34859 223.43055
 225.48950 227.57246 229.66842 231.77337 233.90133 236.07228 238.32724 240.69619
 243.31615 245.56610 247.56706 249.33101 250.74697 251.86892 252.68988 253.00484
 253.04079 252.81375 252.17270 251.11966 249.72461 247.88457 245.79252 243.62448
 241.41443 239.21739 237.03635 234.87430 232.73326 230.59921 228.62417 226.78012
 225.06208 223.53303 222.16199 220.93294 219.81390 218.77286 217.87581 217.01577
 216.25672 215.43568 214.53263 213.89559 213.34454 214.00145 215.65593 217.89636
 220.03961 221.64294 223.09048 224.30579 225.36293 226.34767 227.11568 227.05721
 227.18192 229.30721 233.19785 237.73621 242.32623 246.73358 250.87468 254.62761
 258.04059 261.03146 263.68274 266.15387 268.33432 270.13815 271.89627 273.80148
 275.47394 276.95020 278.48981 279.89902 281.26144 282.51120 283.65140 284.68433
 285.61334 286.44064 287.16336 288.08435
 366.78100 356.33395 345.76490 334.62985 323.03181 311.22476 299.09371 286.89566
 274.60661 262.50256 250.51051 239.81046 229.93142 221.03437 213.21532 206.21627
 200.04922 194.98617 191.56712 189.60807 188.64403 188.70698 189.54093 190.84788
 192.57183 194.66578 196.92773 199.28569 201.72964 204.20859 206.29554 208.13649
 209.76144 210.90539 211.13334 211.36030 211.29625 211.00020 210.63215 210.26110
 209.87705 209.58600 209.39296 209.25591 209.18286 209.51281 209.89776 210.28571
 211.07766 212.25461 213.50357 215.28552 217.21247 219.25442 221.34837 223.43032
 225.48927 227.57222 229.66818 231.77313 233.90108 236.07203 238.32698 240.69593
 243.31588 245.56584 247.56679 249.33074 250.74669 251.86864 252.68959 253.00454
 253.04049 252.81345 252.17240 251.11935 249.72430 247.88425 245.79220 243.62415
 241.41411 239.21706 237.03601 234.87396 232.73291 230.59886 228.62381 226.77976
 225.06172 223.53267 222.16162 220.93257 219.81352 218.77247 217.87542 217.01537
 216.25633 215.43528 214.53223 213.89518 213.34413 214.02589 215.73596 217.83022
 220.19962 221.98726 223.38408 224.48297 225.43835 226.20021 226.79800 226.55081
 226.84148 229.21431 233.20525 237.77901 242.40286 246.85727 251.00836 254.78281
 258.16351 261.19647 263.92828 266.39975 268.52417 270.23062 271.92221 273.73325
 275.35486 277.00845 278.64172 280.37640 281.87762 283.20584 284.41760 285.51538
 286.50272 287.38196 288.15002 289.12885
 366.78100 356.33480 345.76660 334.63240 323.03520 311.22900 299.09880 286.90160
 274.61340 262.51020 250.51900 239.81980 229.94160 221.04540 213.22720 206.22900
 200.06280 195.00060 191.58240 189.62420 188.66100 188.72480 189.55960 190.86740
 192.59220 194.68700 196.94980 199.30860 201.75340 204.23320 206.32100 208.16280
 209.78860 210.93340 211.16220 211.39000 211.32680 211.03160 210.66440 210.29420
 209.91100 209.62080 209.42860 209.29240 209.22020 209.55100 209.93680 210.32560
 211.11840 212.29620 213.54600 215.32880 217.25660 219.29940 221.39420 223.47700
 225.53680 227.62060 229.71740 231.82320 233.95200 236.12380 238.37960 240.74940
 243.37020 245.62100 247.62280 249.38760 250.80440 251.92720 252.74900 253.06480
 253.10160 252.87540 252.23520 251.18300 249.78880 247.94960 245.85840 243.69120
 241.48200 239.28580 237.10560 234.94440 232.80420 230.67100 228.69680 226.85360
 225.13640 223.60820 222.23800 221.00980 219.89160 218.85140 217.95520 217.09600
 216.33780 215.51760 214.61540 213.97920 213.42900 214.08716 215.74451 217.80028
 220.27122 222.29851 223.58540 224.53105 225.45764 226.17827 226.67073 226.22269
 226.49937 229.00327 233.12537 237.74846 242.38931 246.83035 250.97400 254.76077
 258.18686 261.30170 264.08783 266.61218 268.77188 270.46783 272.11151 273.92227
 275.54688 277.30692 279.05862 280.80594 282.31808 283.65598 284.87656 285.98236
 286.97687 287.86252 288.63617 289.62213
 366.78100 356.33736 345.77173 334.64009 323.04546 311.24182 299.11419 286.91955
 274.63392 262.53328 250.54465 239.84801 229.97238 221.07874 213.26311 206.26747
 200.10384 195.04420 191.62856 189.67293 188.71229 188.77866 189.61602 190.92639
 192.65375 194.75112 197.01648 199.37785 201.82521 204.30758 206.39794 208.24231
 209.87067 211.01804 211.24940 211.47976 211.41913 211.12649 210.76186 210.39422
 210.01359 209.72595 209.53632 209.40268 209.33305 209.66641 210.05478 210.44614
 211.24151 212.42187 213.67424 215.45960 217.38996 219.43533 221.53269 223.61806
 225.68042 227.76679 229.86615 231.97452 234.10588 236.28025 238.53861 240.91098
 243.53434 245.78771 247.79207 249.55944 250.97880 252.10416 252.92853 253.24689
 253.28626 253.06262 252.42499 251.37535 249.98372 248.14708 246.05845 243.89381
 241.68718 239.49354 237.31591 235.15727 233.01964 230.88900 228.91736 227.07673
 225.36209 223.83646 222.46882 221.24319 220.12755 219.08992 218.19628 217.33965
 216.58401 215.76638 214.86674 214.23311 213.68547 214.22015 215.60777 217.86006
 220.36534 222.34190 223.54739 224.41531 225.36049 226.22974 226.61365 226.21765
 226.53720 228.94078 233.07043 237.69904 242.31158 246.73466 250.86388 254.66121
 258.08344 261.21350 264.02060 266.57504 268.81509 270.63718 272.31946 274.14279
 275.83630 277.38199 278.93359 280.36591 281.79343 283.07361 284.24158 285.29968
 286.25131 287.09875 287.83905 288.78250
 366.78100 356.33980 345.77660 334.64739 323.05519 311.25399 299.12879 286.93658
 274.65338 262.55518 250.56898 239.87477 230.00157 221.11037 213.29717 206.30397
 200.14276 195.08556 191.67236 189.71916 188.76095 188.82975 189.66955 190.98235
 192.71215 194.81194 197.07974 199.44354 201.89334 204.37813 206.47093 208.31773
 209.94853 211.09832 211.33212 211.56492 211.50672 211.21652 210.85431 210.48911
 210.11091 209.82571 209.63850 209.50730 209.44010 209.77590 210.16670 210.56049
 211.35829 212.54109 213.79589 215.58368 217.51648 219.56428 221.66408 223.75187
 225.81667 227.90547 230.00727 232.11807 234.25186 236.42866 238.68946 241.06426
 243.69005 245.94585 247.95265 249.72245 251.14424 252.27204 253.09884 253.41964
 253.46144 253.24023 252.60503 251.55783 250.16863 248.33442 246.24822 244.08602
 241.88182 239.69062 237.51541 235.35921 233.22401 231.09581 229.12660 227.28840
 225.57620 224.05300 222.68779 221.46459 220.35139 219.31619 218.42499 217.57078
 216.81758 216.00238 215.10518 214.47397 213.92877 214.36070 215.51598 217.87555
 220.50238 222.43533 223.56920 224.33641 225.24362 226.20369 226.59143 226.08278
 226.40201 228.83849 233.03421 237.69128 242.29913 246.72914 250.87482 254.66930
 258.12436 261.21545 263.97882 266.52798 268.79694 270.65860 272.30920 274.07190
 275.82910 277.37045 278.90286 280.30258 281.63437 282.91028 284.07437 285.12897
 286.07745 286.92206 287.65991 288.60022
 366.78100 356.33996 345.77691 334.64787 323.05583 311.25479 299.12974 286.93770
 274.65466 262.55661 250.57057 239.87653 230.00349 221.11244 213.29940 206.30636
 200.14531 195.08827 191.67523 189.72219 188.76414 188.83310 189.67306 190.98602
 192.71597 194.81593 197.08389 199.44784 201.89780 204.38276 206.47572 208.32267
 209.95363 211.10359 211.33754 211.57050 211.51246 211.22242 210.86037 210.49533
 210.11729 209.83224 209.64520 209.51416 209.44712 209.78307 210.17403 210.56799
 211.36594 212.54890 213.80386 215.59182 217.52477 219.57273 221.67269 223.76064
 225.82560 227.91456 230.01652 232.12747 234.26143 236.43839 238.69934 241.07430
 243.70026 245.95622 247.96317 249.73313 251.15509 252.28305 253.11000 253.43096
 253.47292 253.25187 252.61683 251.56979 250.18075 248.34670 246.26066 244.09862
 241.89457 239.70353 237.52849 235.37245 233.23740 231.10936 229.14032 227.30227
 225.59023 224.06719 222.70215 221.47910 220.36606 219.33102 218.43997 217.58593
 216.83289 216.01785 215.12080 214.48976 213.94472 214.39453 215.57077 217.81979
 220.46555 222.59966 223.72710 224.33244 225.16837 226.16258 226.59099 225.92448
 226.23154 228.71571 232.98854 237.66470 242.26527 246.70767 250.87370 254.68527
 258.16046 261.28668 264.04947 266.60678 268.92041 270.85669 272.50140 274.15686
 275.86652 277.41904 278.94806 280.34082 281.62344 282.89487 284.05484 285.10571
 286.05084 286.89249 287.62775 288.56473
 366.78100 356.33785 345.77269 334.64154 323.04739 311.24424 299.11708 286.92293
 274.63778 262.53763 250.54947 239.85332 229.97817 221.08502 213.26986 206.27471
 200.11156 195.05241 191.63725 189.68210 188.72195 188.78880 189.62664 190.93749
 192.66534 194.76319 197.02903 199.39088 201.83873 204.32158 206.41242 208.25727
 209.88612 211.03397 211.26581 211.49666 211.43651 211.14436 210.78020 210.41305
 210.03290 209.74575 209.55659 209.42344 209.35429 209.68814 210.07698 210.46883
 211.26468 212.44553 213.69837 215.48422 217.41507 219.46092 221.55876 223.64461
 225.70746 227.79431 229.89415 232.00300 234.13485 236.30970 238.56854 240.94139
 243.56524 245.81909 247.82393 249.59178 251.01163 252.13748 252.96232 253.28117
 253.32102 253.09787 252.46071 251.41156 250.02041 248.18426 246.09610 243.93195
 241.72580 239.53265 237.35549 235.19734 233.06019 230.93004 228.95888 227.11873
 225.40458 223.87943 222.51227 221.28712 220.17197 219.13482 218.24166 217.38551
 216.63036 215.81321 214.91405 214.28090 213.73375 214.30057 215.70059 217.84663
 220.25931 222.48976 223.80009 224.40692 225.21931 226.22960 226.76979 225.61674
 225.98248 228.50577 232.88651 237.55740 242.15637 246.59602 250.78151 254.61075
 258.09738 261.24146 264.04205 266.61084 268.96078 270.98456 272.72186 274.34457
 275.98264 277.52798 278.99579 280.36716 281.57098 282.66998 283.75842 284.75439
 285.65015 286.44781 287.14465 288.03268
 366.78100 356.33565 345.76830 334.63494 323.03859 311.23324 299.10389 286.90753
 274.62018 262.51783 250.52748 239.82912 229.95177 221.05642 213.23907 206.24171
 200.07636 195.01501 191.59766 189.64031 188.67795 188.74260 189.57825 190.88690
 192.61254 194.70819 196.97184 199.33149 201.77713 204.25778 206.34643 208.18908
 209.81572 210.96137 211.19102 211.41967 211.35731 211.06296 210.69661 210.32726
 209.94491 209.65555 209.46420 209.32885 209.25750 209.58914 209.97579 210.36544
 211.15909 212.33773 213.58838 215.37203 217.30068 219.34432 221.43997 223.52362
 225.58427 227.66892 229.76656 231.87321 234.00286 236.17551 238.43215 240.80280
 243.42445 245.67610 247.67874 249.44439 250.86204 251.98569 252.80833 253.12498
 253.16263 252.93728 252.29792 251.24657 249.85322 248.01487 245.92452 243.75816
 241.54981 239.35446 237.17511 235.01475 232.87540 230.74305 228.76970 226.92734
 225.21099 223.68364 222.31429 221.08693 219.96958 218.93023 218.03488 217.17653
 216.41917 215.59982 214.69847 214.06312 213.51376 214.19406 215.83315 217.95520
 220.15591 222.38321 223.84793 224.54340 225.38135 226.37086 226.88631 225.41614
 225.73924 228.30984 232.77293 237.43440 242.03076 246.47803 250.68036 254.53439
 258.03903 261.19629 264.02151 266.59097 268.93079 270.98502 272.76654 274.41901
 276.03629 277.56891 279.03223 280.39716 281.59280 282.66495 283.65982 284.63901
 285.53204 286.32730 287.02203 287.90738
 366.78100 356.33496 345.76693 334.63289 323.03586 311.22982 299.09979 286.90275
 274.61471 262.51168 250.52064 239.82161 229.94357 221.04753 213.22950 206.23146
 200.06543 195.00339 191.58536 189.62732 188.66428 188.72825 189.56321 190.87118
 192.59614 194.69110 196.95407 199.31303 201.75800 204.23796 206.32593 208.16789
 209.79385 210.93882 211.16778 211.39575 211.33271 211.03768 210.67064 210.30060
 209.91757 209.62753 209.43550 209.29946 209.22742 209.55839 209.94435 210.33332
 211.12628 212.30425 213.55421 215.33717 217.26514 219.30810 221.40307 223.48603
 225.54599 227.62996 229.72692 231.83289 233.96185 236.13382 238.38978 240.75974
 243.38071 245.63167 247.63364 249.39860 250.81557 251.93853 252.76049 253.07646
 253.11342 252.88739 252.24735 251.19531 249.80128 247.96224 245.87121 243.70417
 241.49514 239.29910 237.11906 234.95803 232.81799 230.68496 228.71092 226.86788
 225.15085 223.62281 222.25278 221.02474 219.90671 218.86667 217.97063 217.11160
 216.35356 215.53353 214.63149 213.99546 213.44542 214.16626 215.88654 218.05522
 220.14511 222.32037 223.85759 224.65796 225.48318 226.44818 226.93585 225.41698
 225.70915 228.30597 232.70164 237.32648 241.91556 246.36418 250.57581 254.45929
 257.99808 261.18765 264.04321 266.62759 268.97250 271.05197 272.87134 274.52408
 276.09662 277.61227 279.05298 280.40161 281.58188 282.64120 283.62534 284.52203
 285.40045 286.18311 286.86685 287.73819
 366.78100 356.33640 345.76979 334.63719 323.04159 311.23699 299.10838 286.91278
 274.62618 262.52457 250.53497 239.83737 229.96077 221.06616 213.24956 206.25296
 200.08835 195.02775 191.61115 189.65455 188.69294 188.75834 189.59474 190.90413
 192.63053 194.72693 196.99133 199.35172 201.79812 204.27952 206.36891 208.21231
 209.83971 210.98611 211.21650 211.44590 211.38430 211.09069 210.72509 210.35649
 209.97489 209.68628 209.49568 209.36108 209.29047 209.62287 210.01027 210.40067
 211.19506 212.37446 213.62586 215.41025 217.33965 219.38405 221.48045 223.56484
 225.62624 227.71164 229.81003 231.91743 234.04783 236.22123 238.47862 240.85002
 243.47242 245.72481 247.72821 249.49461 250.91301 252.03740 252.86080 253.17820
 253.21659 252.99199 252.35339 251.30279 249.91018 248.07258 245.98298 243.81737
 241.60977 239.41517 237.23657 235.07696 232.93836 230.80676 228.83415 226.99255
 225.27695 223.75035 222.38174 221.15514 220.03854 218.99993 218.10533 217.24773
 216.49113 215.67252 214.77192 214.13732 213.58871 214.25482 215.83540 218.10435
 220.26273 222.30107 223.81758 224.73416 225.64566 226.53787 226.90294 225.39886
 225.64215 228.31021 232.65540 237.23907 241.81297 246.25177 250.46587 254.37383
 257.95032 261.18054 264.06738 266.67346 269.03604 271.14264 272.99319 274.65042
 276.20160 277.66888 279.06696 280.40076 281.57599 282.62692 283.60495 284.48584
 285.30328 286.07425 286.74774 287.60602
 366.78100 356.33823 345.77346 334.64270 323.04893 311.24616 299.11939 286.92563
 274.64086 262.54109 250.55332 239.85756 229.98279 221.09002 213.27525 206.28049
 200.11772 195.05895 191.64418 189.68942 188.72965 188.79688 189.63511 190.94635
 192.67458 194.77281 197.03904 199.40128 201.84951 204.33274 206.42397 208.26921
 209.89844 211.04667 211.27890 211.51014 211.45037 211.15860 210.79483 210.42807
 210.04830 209.76153 209.57276 209.44000 209.37123 209.70546 210.09469 210.48693
 211.28316 212.46439 213.71762 215.50386 217.43509 219.48132 221.57955 223.66579
 225.72902 227.81625 229.91648 232.02572 234.15795 236.33318 238.59241 240.96565
 243.58988 245.84411 247.84934 249.61758 251.03781 252.16404 252.98927 253.30851
 253.34874 253.12597 252.48920 251.44044 250.04967 248.21390 246.12613 243.96237
 241.75660 239.56383 237.38706 235.22930 233.09253 230.96276 228.99199 227.15223
 225.43846 223.91369 222.54692 221.32216 220.20739 219.17062 218.27785 217.42208
 216.66732 215.85055 214.95178 214.31901 213.77225 214.36766 215.77440 218.14632
 220.39528 222.30484 223.80994 224.76414 225.61075 226.53069 226.94875 225.49873
 225.63402 228.30289 232.59576 237.15274 241.70848 246.13297 250.34949 254.27884
 257.88931 261.15869 264.07550 266.70419 269.09521 271.23596 273.11346 274.76608
 276.29279 277.73386 279.10040 280.40155 281.56866 282.61438 283.58685 284.46606
 285.24957 285.99002 286.65649 287.50583
 366.78100 356.33916 345.77531 334.64547 323.05262 311.25078 299.12493 286.93209
 274.64825 262.54940 250.56256 239.86771 229.99387 221.10203 213.28818 206.29434
 200.13249 195.07465 191.66080 189.70696 188.74812 188.81627 189.65543 190.96758
 192.69674 194.79589 197.06305 199.42621 201.87536 204.35952 206.45167 208.29783
 209.92799 211.07714 211.31030 211.54245 211.48361 211.19276 210.82992 210.46408
 210.08523 209.79939 209.61154 209.47970 209.41185 209.74701 210.13717 210.53032
 211.32748 212.50963 213.76379 215.55094 217.48310 219.53026 221.62941 223.71657
 225.78072 227.86888 229.97004 232.08019 234.21335 236.38950 238.64966 241.02381
 243.64897 245.90413 247.91028 249.67944 251.10059 252.22775 253.05390 253.37406
 253.41522 253.19337 252.55753 251.50968 250.11984 248.28500 246.19815 244.03531
 241.83046 239.63862 237.46277 235.30593 233.17009 231.04124 229.07140 227.23255
 225.51971 223.99586 222.63002 221.40618 220.29233 219.25649 218.36464 217.50980
 216.75596 215.94011 215.04227 214.41042 213.86458 214.43112 215.76965 218.19374
 220.48097 222.29491 223.68967 224.70346 225.65999 226.61844 227.04802 225.66632
 225.63571 228.27142 232.53528 237.07120 241.60225 246.01146 250.22443 254.16602
 257.80252 261.10443 264.04913 266.69363 269.10635 271.28241 273.18326 274.83871
 276.35880 277.78699 279.12723 280.40015 281.56213 282.60739 283.57809 284.45389
 285.22427 285.92581 286.58670 287.42932
 366.78100 356.33907 345.77514 334.64521 323.05229 311.25036 299.12443 286.93150
 274.64757 262.54864 250.56171 239.86679 229.99286 221.10093 213.28700 206.29307
 200.13114 195.07321 191.65929 189.70536 188.74643 188.81450 189.65357 190.96564
 192.69471 194.79379 197.06086 199.42393 201.87300 204.35707 206.44914 208.29521
 209.92528 211.07436 211.30743 211.53950 211.48057 211.18964 210.82671 210.46078
 210.08186 209.79593 209.60800 209.47607 209.40814 209.74321 210.13328 210.52636
 211.32343 212.50550 213.75957 215.54664 217.47871 219.52578 221.62486 223.71193
 225.77600 227.86407 229.96514 232.07521 234.20828 236.38436 238.64443 241.01850
 243.64357 245.89864 247.90471 249.67378 251.09486 252.22193 253.04800 253.36807
 253.40914 253.18721 252.55128 251.50336 250.11343 248.27850 246.19157 244.02864
 241.82371 239.63178 237.45585 235.29893 233.16300 231.03407 229.06414 227.22521
 225.51228 223.98835 222.62243 221.39850 220.28457 219.24864 218.35671 217.50178
 216.74785 215.93193 215.03400 214.40207 213.85614 214.43839 215.81400 218.25755
 220.50523 222.25529 223.56464 224.63719 225.76314 226.74696 227.12595 225.80240
 225.70143 228.29292 232.47687 236.97794 241.47931 245.87274 250.08701 254.04311
 257.70099 261.02515 263.99374 266.65244 269.07602 271.27463 273.18924 274.85281
 276.38058 277.81180 279.14392 280.40405 281.56927 282.62097 283.59210 284.46024
 285.20813 285.89087 286.52264 287.35913
 366.78100 356.33943 345.77586 334.64629 323.05372 311.25215 299.12658 286.93400
 274.65043 262.55186 250.56529 239.87072 229.99715 221.10558 213.29201 206.29844
 200.13687 195.07930 191.66573 189.71216 188.75358 188.82201 189.66144 190.97387
 192.70330 194.80273 197.07016 199.43359 201.88302 204.36745 206.45988 208.30631
 209.93674 211.08616 211.31959 211.55202 211.49345 211.20288 210.84031 210.47474
 210.09617 209.81060 209.62303 209.49146 209.42389 209.75931 210.14974 210.54317
 211.34060 212.52303 213.77746 215.56489 217.49732 219.54475 221.64418 223.73161
 225.79604 227.88447 229.98589 232.09632 234.22975 236.40618 238.66661 241.04104
 243.66647 245.92190 247.92833 249.69776 251.11919 252.24662 253.07305 253.39347
 253.43490 253.21333 252.57776 251.53019 250.14062 248.30605 246.21948 244.05691
 241.85234 239.66077 237.48520 235.32863 233.19305 231.06448 229.09491 227.25634
 225.54377 224.02020 222.65463 221.43106 220.31749 219.28192 218.39035 217.53578
 216.78221 215.96663 215.06906 214.43749 213.89192 214.47054 215.83754 218.30357
 220.53951 222.23096 223.47331 224.50853 225.67618 226.72733 227.19722 226.05830
 225.87848 228.29433 232.44650 236.91156 241.39441 245.77708 250.00105 253.97629
 257.65756 260.99432 263.95862 266.60025 269.02554 271.23065 273.11874 274.77554
 276.33313 277.78799 279.13187 280.41339 281.58582 282.63666 283.61072 284.49866
 285.28427 285.98111 286.61417 287.42557
 366.78100 356.34080 345.77860 334.65040 323.05920 311.25900 299.13480 286.94361
 274.66141 262.56421 250.57901 239.88581 230.01361 221.12341 213.31121 206.31901
 200.15881 195.10261 191.69041 189.73822 188.78102 188.85082 189.69162 191.00542
 192.73622 194.83702 197.10582 199.47062 201.92142 204.40722 206.50102 208.34883
 209.98063 211.13143 211.36623 211.60003 211.54283 211.25363 210.89243 210.52823
 210.15103 209.86683 209.68063 209.55044 209.48424 209.82104 210.21284 210.60764
 211.40644 212.59024 213.84604 215.63484 217.56864 219.61744 221.71824 223.80705
 225.87285 227.96265 230.06545 232.17725 234.31205 236.48985 238.75165 241.12745
 243.75425 246.01105 248.01885 249.78966 251.21246 252.34126 253.16906 253.49086
 253.53366 253.31346 252.67926 251.63306 250.24486 248.41166 246.32646 244.16527
 241.96207 239.77187 237.59767 235.44247 233.30827 231.18107 229.21287 227.37567
 225.66447 224.14227 222.77807 221.55588 220.44368 219.40948 218.51928 217.66608
 216.91388 216.09968 215.20348 214.57328 214.02908 214.56425 215.84352 218.25323
 220.59668 222.20787 223.35223 224.31274 225.43712 226.57103 227.16786 226.37448
 226.07205 228.32812 232.43549 236.90210 241.37830 245.75656 249.99680 254.00206
 257.71597 261.08301 264.05713 266.67621 269.05820 271.22614 273.09888 274.73242
 276.26215 277.69955 279.08862 280.42670 281.61313 282.67548 283.66367 284.56912
 285.42221 286.20203 286.88327 287.75140
 366.78100 356.34261 345.78222 334.65582 323.06643 311.26804 299.14565 286.95626
 274.67587 262.58047 250.59708 239.90569 230.03530 221.14691 213.33652 206.34612
 200.18773 195.13334 191.72295 189.77256 188.81716 188.88877 189.73138 191.04699
 192.77960 194.88221 197.15281 199.51942 201.97203 204.45964 206.55525 208.40486
 210.03846 211.19107 211.42768 211.66329 211.60790 211.32050 210.96111 210.59872
 210.22333 209.94094 209.75655 209.62815 209.56376 209.90237 210.29598 210.69259
 211.49320 212.67880 213.93641 215.72702 217.66263 219.71324 221.81584 223.90645
 225.97406 228.06567 230.17028 232.28389 234.42049 236.60010 238.86371 241.24132
 243.86993 246.12854 248.13814 249.91075 251.33536 252.46597 253.29558 253.61918
 253.66379 253.44540 252.81301 251.76862 250.38223 248.55083 246.46744 244.30805
 242.10666 239.91827 237.74588 235.59248 233.46009 231.33470 229.36831 227.53292
 225.82352 224.30313 222.94074 221.72035 220.60996 219.57757 218.68917 217.83778
 217.08739 216.27500 215.38061 214.75222 214.20982 214.68283 215.83475 218.19472
 220.64067 222.20268 223.33011 224.27116 225.27188 226.41536 227.12564 226.44949
 226.04703 228.30402 232.40712 236.93532 241.41132 245.79829 250.05600 254.09700
 257.86212 261.29767 264.33551 266.97220 269.33298 271.48764 273.35648 274.94336
 276.40222 277.78458 279.13297 280.45554 281.64505 282.71106 283.69864 284.64175
 285.53061 286.32217 287.01364 287.89487
 366.78100 356.34262 345.78224 334.65586 323.06648 311.26811 299.14573 286.95635
 274.67597 262.58059 250.59721 239.90583 230.03545 221.14707 213.33669 206.34632
 200.18794 195.13356 191.72318 189.77280 188.81742 188.88904 189.73166 191.04728
 192.77991 194.88253 197.15315 199.51977 201.97239 204.46001 206.55563 208.40525
 210.03887 211.19149 211.42812 211.66374 211.60836 211.32098 210.96160 210.59922
 210.22384 209.94146 209.75708 209.62871 209.56433 209.90295 210.29657 210.69319
 211.49381 212.67943 213.93705 215.72767 217.66329 219.71392 221.81654 223.90716
 225.97478 228.06640 230.17102 232.28464 234.42126 236.60088 238.86451 241.24213
 243.87075 246.12937 248.13899 249.91161 251.33623 252.46685 253.29647 253.62009
 253.66472 253.44634 252.81396 251.76958 250.38320 248.55182 246.46844 244.30906
 242.10768 239.91931 237.74693 235.59355 233.46117 231.33579 229.36941 227.53403
 225.82465 224.30427 222.94189 221.72152 220.61114 219.57876 218.69038 217.83900
 217.08862 216.27624 215.38186 214.75348 214.21111 214.70100 215.85843 218.18114
 220.63828 222.31679 223.50014 224.42332 225.29265 226.30116 227.02461 226.24529
 226.14960 228.36421 232.36351 236.89177 241.35953 245.74338 250.02066 254.09373
 257.90970 261.41614 264.53659 267.23489 269.62036 271.81866 273.73477 275.33893
 276.74197 278.03940 279.26401 280.47366 281.63297 282.68161 283.64642 284.53348
 285.34937 286.14124 286.84402 287.73965
 366.78100 356.34129 345.77958 334.65187 323.06116 311.26145 299.13774 286.94702
 274.66531 262.56860 250.58389 239.89118 230.01947 221.12976 213.31805 206.32634
 200.16663 195.11092 191.69921 189.74750 188.79079 188.86107 189.70236 191.01665
 192.74794 194.84923 197.11852 199.48381 201.93510 204.42139 206.51568 208.36397
 209.99626 211.14755 211.38284 211.61712 211.56041 211.27170 210.91099 210.54728
 210.17057 209.88686 209.70115 209.57144 209.50573 209.84302 210.23531 210.63060
 211.42988 212.61417 213.87046 215.65975 217.59404 219.64333 221.74462 223.83391
 225.90020 227.99049 230.09378 232.20607 234.34136 236.51965 238.78193 241.15822
 243.78551 246.04280 248.05109 249.82238 251.24567 252.37496 253.20325 253.52554
 253.56883 253.34912 252.71541 251.66969 250.28198 248.44927 246.36456 244.20385
 242.00114 239.81143 237.63772 235.48301 233.34930 231.22259 229.25488 227.41817
 225.70746 224.18574 222.82203 221.60032 220.48861 219.45490 218.56519 217.71248
 216.96077 216.14706 215.25135 214.62164 214.07793 214.63937 215.96584 218.27515
 220.53233 222.28624 223.58542 224.54324 225.39417 226.36217 227.05991 226.27711
 226.12489 228.31924 232.27922 236.78198 241.23462 245.61565 249.89857 253.98062
 257.80786 261.32559 264.46344 267.17990 269.61835 271.89084 273.82608 275.42734
 276.84216 278.15488 279.37457 280.52054 281.64761 282.68994 283.64630 284.52316
 285.33014 286.07251 286.72672 287.61017
 366.78100 356.34089 345.77878 334.65067 323.05956 311.25945 299.13534 286.94423
 274.66212 262.56501 250.57989 239.88678 230.01467 221.12456 213.31245 206.32034
 200.16023 195.10412 191.69201 189.73990 188.78279 188.85268 189.69357 191.00746
 192.73835 194.83924 197.10813 199.47302 201.92391 204.40980 206.50368 208.35157
 209.98346 211.13435 211.36924 211.60313 211.54602 211.25691 210.89580 210.53169
 210.15458 209.87047 209.68436 209.55425 209.48814 209.82503 210.21692 210.61181
 211.41070 212.59458 213.85047 215.63936 217.57325 219.62214 221.72303 223.81192
 225.87781 227.96770 230.07059 232.18248 234.31737 236.49526 238.75715 241.13304
 243.75993 246.01682 248.02471 249.79560 251.21849 252.34737 253.17526 253.49715
 253.54004 253.31993 252.68582 251.63971 250.25160 248.41849 246.33338 244.17227
 241.96916 239.77905 237.60494 235.44983 233.31572 231.18861 229.22050 227.38339
 225.67227 224.15016 222.78605 221.56394 220.45183 219.41772 218.52761 217.67450
 216.92239 216.10828 215.21217 214.58206 214.03795 214.62575 216.01448 218.35161
 220.49208 222.18521 223.50630 224.45573 225.33612 226.39372 227.18993 226.50764
 226.25774 228.29996 232.23338 236.74292 241.16878 245.52655 249.81648 253.90833
 257.74396 261.25977 264.38751 267.08020 269.53174 271.82941 273.74347 275.32388
 276.75793 278.10379 279.35339 280.53152 281.68295 282.73026 283.69119 284.57306
 285.38654 286.13464 286.77948 287.61697
 366.78100 356.34182 345.78064 334.65347 323.06329 311.26411 299.14093 286.95075
 274.66957 262.57340 250.58922 239.89704 230.02586 221.13668 213.32551 206.33433
 200.17515 195.11997 191.70879 189.75761 188.80144 188.87226 189.71408 191.02890
 192.76072 194.86254 197.13237 199.49819 201.95001 204.43683 206.53165 208.38048
 210.01330 211.16512 211.40094 211.63576 211.57958 211.29141 210.93123 210.56805
 210.19187 209.90869 209.72352 209.59434 209.52916 209.86698 210.25980 210.65562
 211.45545 212.64027 213.89709 215.68691 217.62173 219.67156 221.77338 223.86320
 225.93002 228.02084 230.12466 232.23749 234.37331 236.55213 238.81495 241.19177
 243.81960 246.07742 248.08624 249.85806 251.28188 252.41170 253.24053 253.56335
 253.60717 253.38799 252.75481 251.70963 250.32246 248.49028 246.40610 244.24592
 242.04374 239.85457 237.68139 235.52721 233.39403 231.26785 229.30067 227.46450
 225.75432 224.23314 222.86996 221.64878 220.53761 219.50443 218.61525 217.76307
 217.01189 216.19871 215.30354 214.67436 214.13118 214.68683 215.99962 218.35521
 220.56987 222.20056 223.43570 224.28217 225.12825 226.26299 227.21774 226.72874
 226.46599 228.34778 232.23538 236.76141 241.15802 245.50507 249.79726 253.89458
 257.73672 261.25513 264.38190 267.06067 269.51334 271.81549 273.70886 275.27750
 276.72562 278.08813 279.34793 280.56293 281.72742 282.77908 283.74283 284.62863
 285.44464 286.19113 286.83542 287.67096
 366.78100 356.34275 345.78249 334.65624 323.06698 311.26873 299.14647 286.95722
 274.67696 262.58171 250.59845 239.90720 230.03694 221.14869 213.33843 206.34818
 200.18992 195.13567 191.72541 189.77516 188.81991 188.89165 189.73440 191.05014
 192.78289 194.88563 197.15638 199.52312 201.97587 204.46361 206.55936 208.40910
 210.04285 211.19559 211.43234 211.66808 211.61283 211.32557 210.96632 210.60407
 210.22881 209.94656 209.76230 209.63405 209.56979 209.90854 210.30228 210.69903
 211.49977 212.68552 213.94326 215.73401 217.66975 219.72050 221.82324 223.91399
 225.98173 228.07348 230.17823 232.29197 234.42872 236.60846 238.87221 241.24995
 243.87870 246.13744 248.14719 249.91993 251.34468 252.47542 253.30517 253.62891
 253.67366 253.45540 252.82315 251.77889 250.39264 248.56139 246.47813 244.31888
 242.11762 239.92937 237.75711 235.60386 233.47160 231.34635 229.38009 227.54484
 225.83558 224.31533 222.95307 221.73282 220.62256 219.59031 218.70205 217.85080
 217.10054 216.28829 215.39404 214.76578 214.22353 214.75084 215.99670 218.31302
 220.63361 222.28271 223.45105 224.17865 224.92722 226.05780 227.13806 226.83893
 226.61995 228.40097 232.24759 236.79944 241.18291 245.51494 249.80775 253.90320
 257.73914 261.24823 264.36600 267.03793 269.49927 271.80740 273.67944 275.23654
 276.70200 278.08093 279.34656 280.60443 281.77643 282.82962 283.79538 284.68402
 285.50024 286.24454 286.89224 287.72836
 366.78100 356.34289 345.78278 334.65668 323.06757 311.26946 299.14735 286.95825
 274.67814 262.58303 250.59992 239.90882 230.03871 221.15060 213.34049 206.35039
 200.19228 195.13817 191.72806 189.77795 188.82285 188.89474 189.73763 191.05352
 192.78642 194.88931 197.16020 199.52709 201.97999 204.46788 206.56377 208.41366
 210.04756 211.20045 211.43734 211.67323 211.61812 211.33102 210.97191 210.60980
 210.23469 209.95259 209.76848 209.64037 209.57626 209.91516 210.30905 210.70594
 211.50683 212.69273 213.95062 215.74151 217.67740 219.72829 221.83119 223.92208
 225.98997 228.08186 230.18676 232.30065 234.43754 236.61743 238.88133 241.25922
 243.88811 246.14700 248.15690 249.92979 251.35468 252.48557 253.31546 253.63936
 253.68425 253.46614 252.83403 251.78993 250.40382 248.57271 246.48960 244.33050
 242.12939 239.94128 237.76917 235.61607 233.48396 231.35885 229.39274 227.55763
 225.84853 224.32842 222.96631 221.74620 220.63610 219.60399 218.71588 217.86477
 217.11467 216.30256 215.40845 214.78034 214.23824 214.77180 216.03239 218.29022
 220.61552 222.32619 223.49391 224.14465 224.79465 225.87460 227.01987 226.89656
 226.75331 228.45605 232.25748 236.83972 241.22733 245.55127 249.84062 253.92688
 257.74423 261.23065 264.32864 266.99622 269.47464 271.79227 273.64740 275.19183
 276.67044 278.06592 279.34210 280.64438 281.82507 282.87759 283.84573 284.73511
 285.55078 286.29529 286.94122 287.78494
 366.78100 356.34267 345.78235 334.65602 323.06669 311.26837 299.14604 286.95671
 274.67639 262.58106 250.59773 239.90641 230.03608 221.14775 213.33743 206.34710
 200.18877 195.13445 191.72412 189.77379 188.81847 188.89014 189.73281 191.04849
 192.78116 194.88383 197.15451 199.52118 201.97385 204.46153 206.55720 208.40688
 210.04055 211.19322 211.42990 211.66557 211.61024 211.32292 210.96359 210.60126
 210.22594 209.94361 209.75928 209.63096 209.56663 209.90530 210.29898 210.69565
 211.49632 212.68200 213.93967 215.73034 217.66602 219.71669 221.81936 223.91004
 225.97771 228.06938 230.17406 232.28773 234.42440 236.60408 238.86775 241.24542
 243.87410 246.13277 248.14244 249.91512 251.33979 252.47046 253.30014 253.62381
 253.66848 253.45016 252.81783 251.77350 250.38718 248.55585 246.47252 244.31320
 242.11187 239.92354 237.75122 235.59789 233.46556 231.34024 229.37391 227.53859
 225.82926 224.30893 222.94661 221.72628 220.61595 219.58363 218.69530 217.84397
 217.09365 216.28132 215.38699 214.75867 214.21634 214.77094 216.08124 218.29393
 220.56767 222.33325 223.53256 224.12729 224.67471 225.70149 226.90189 226.93140
 226.86018 228.50496 232.27455 236.88557 241.28995 245.60594 249.89197 253.96461
 257.75604 261.21442 264.28860 266.95212 269.44684 271.77338 273.61911 275.15555
 276.64066 278.04636 279.34683 280.67697 281.86255 282.91760 283.88745 284.77762
 285.59161 286.33704 286.98456 287.82916
 366.78100 356.34269 345.78237 334.65606 323.06675 311.26843 299.14612 286.95681
 274.67650 262.58118 250.59787 239.90656 230.03624 221.14793 213.33762 206.34730
 200.18899 195.13468 191.72437 189.77405 188.81874 188.89043 189.73311 191.04880
 192.78149 194.88417 197.15486 199.52155 201.97424 204.46192 206.55761 208.40730
 210.04098 211.19367 211.43036 211.66604 211.61073 211.32342 210.96410 210.60179
 210.22648 209.94417 209.75985 209.63154 209.56723 209.90591 210.29960 210.69629
 211.49697 212.68266 213.94035 215.73104 217.66672 219.71741 221.82010 223.91078
 225.97847 228.07016 230.17484 232.28853 234.42522 236.60491 238.86859 241.24628
 243.87497 246.13365 248.14334 249.91603 251.34071 252.47140 253.30109 253.62477
 253.66946 253.45115 252.81884 251.77452 250.38821 248.55690 246.47358 244.31427
 242.11296 239.92464 237.75233 235.59902 233.46671 231.34139 229.37508 227.53977
 225.83045 224.31014 222.94783 221.72751 220.61720 219.58489 218.69658 217.84526
 217.09495 216.28264 215.38832 214.76001 214.21770 214.78195 216.11505 218.30067
 220.53946 222.33618 223.55598 224.10432 224.57072 225.51720 226.74011 226.95821
 226.99434 228.57578 232.29654 236.93292 241.35184 245.66904 249.95444 254.01263
 257.77625 261.20465 264.25522 266.91608 269.42328 271.75381 273.59628 275.12955
 276.61658 278.02832 279.36011 280.70090 281.88913 282.94724 283.91797 284.80920
 285.62430 286.36725 287.01373 287.86365
 366.78100 356.34287 345.78274 334.65661 323.06748 311.26935 299.14722 286.95809
 274.67796 262.58283 250.59969 239.90856 230.03843 221.15030 213.34017 206.35004
 200.19191 195.13778 191.72765 189.77752 188.82239 188.89426 189.73713 191.05300
 192.78587 194.88874 197.15961 199.52648 201.97935 204.46721 206.56308 208.41295
 210.04682 211.19969 211.43656 211.67243 211.61730 211.33017 210.97104 210.60891
 210.23378 209.95165 209.76752 209.63939 209.57526 209.91413 210.30800 210.70486
 211.50573 212.69160 213.94947 215.74034 217.67621 219.72708 221.82995 223.92082
 225.98869 228.08056 230.18543 232.29930 234.43617 236.61604 238.87991 241.25778
 243.88665 246.14552 248.15538 249.92825 251.35312 252.48399 253.31386 253.63773
 253.68260 253.46447 252.83234 251.78821 250.40208 248.57095 246.48782 244.32869
 242.12756 239.93943 237.76730 235.61417 233.48204 231.35690 229.39077 227.55564
 225.84651 224.32638 222.96425 221.74412 220.63399 219.60186 218.71373 217.86260
 217.11247 216.30034 215.40621 214.77808 214.23595 214.80276 216.14194 218.29051
 220.53188 222.36012 223.57558 224.04955 224.42186 225.35434 226.61487 226.95543
 227.06845 228.61653 232.32497 236.98997 241.42548 245.75302 250.03517 254.07314
 257.80551 261.20175 264.22772 266.88611 269.40118 271.73120 273.57089 275.10788
 276.59470 278.01010 279.37244 280.71780 281.90726 282.96634 283.93936 284.82944
 285.64597 286.38675 287.03378 287.88818
 366.78100 356.34293 345.78286 334.65678 323.06771 311.26964 299.14757 286.95850
 274.67842 262.58335 250.60028 239.90921 230.03913 221.15106 213.34099 206.35092
 200.19285 195.13877 191.72870 189.77863 188.82356 188.89549 189.73841 191.05434
 192.78727 194.89020 197.16113 199.52805 201.98098 204.46891 206.56484 208.41477
 210.04869 211.20162 211.43855 211.67448 211.61940 211.33233 210.97326 210.61119
 210.23612 209.95404 209.76997 209.64190 209.57783 209.91676 210.31068 210.70761
 211.50854 212.69447 213.95240 215.74332 217.67925 219.73018 221.83311 223.92403
 225.99196 228.08389 230.18882 232.30275 234.43967 236.61960 238.88353 241.26146
 243.89039 246.14931 248.15924 249.93217 251.35710 252.48803 253.31795 253.64188
 253.68681 253.46874 252.83667 251.79259 250.40652 248.57545 246.49238 244.33330
 242.13223 239.94416 237.77209 235.61902 233.48694 231.36187 229.39580 227.56073
 225.85166 224.33158 222.96951 221.74944 220.63937 219.60730 218.71922 217.86815
 217.11808 216.30601 215.41193 214.78386 214.24179 214.81750 216.17767 218.26991
 220.51357 222.39664 223.61449 224.02826 224.29582 225.08310 226.40938 226.96478
 227.18629 228.71980 232.38474 237.05667 241.51141 245.85210 250.12753 254.14262
 257.83899 261.19778 264.19733 266.85434 269.37631 271.70203 273.53775 275.07990
 276.57217 277.99368 279.37943 280.72980 281.91953 282.97934 283.95328 284.84424
 285.65741 286.39822 287.04578 287.90451
 366.78100 356.34289 345.78278 334.65667 323.06756 311.26945 299.14734 286.95823
 274.67812 262.58301 250.59990 239.90879 230.03868 221.15057 213.34046 206.35035
 200.19224 195.13813 191.72802 189.77791 188.82280 188.89469 189.73758 191.05348
 192.78637 194.88926 197.16015 199.52704 201.97993 204.46782 206.56371 208.41360
 210.04749 211.20038 211.43727 211.67316 211.61805 211.33094 210.97183 210.60972
 210.23461 209.95250 209.76839 209.64028 209.57617 209.91506 210.30895 210.70584
 211.50673 212.69262 213.95051 215.74140 217.67729 219.72818 221.83107 223.92196
 225.98985 228.08174 230.18663 232.30052 234.43741 236.61730 238.88119 241.25908
 243.88797 246.14686 248.15675 249.92964 251.35453 252.48543 253.31532 253.63921
 253.68410 253.46599 252.83388 251.78977 250.40366 248.57255 246.48944 244.33033
 242.12922 239.94111 237.76900 235.61589 233.48378 231.35867 229.39256 227.55745
 225.84834 224.32823 222.96612 221.74601 220.63590 219.60379 218.71568 217.86457
 217.11446 216.30235 215.40824 214.78013 214.23802 214.82713 216.21895 218.25421
 220.47690 222.42033 223.66954 224.02287 224.17537 224.82195 226.20738 226.93770
 227.26529 228.82510 232.45340 237.12529 241.60486 245.96106 250.22734 254.21701
 257.87497 261.19446 264.16696 266.82324 269.35220 271.67056 273.50024 275.04956
 276.54834 277.98227 279.38257 280.73584 281.92749 282.98840 283.96344 284.85486
 285.66815 286.40903 287.05823 287.92725
 366.78100 356.34294 345.78287 334.65681 323.06774 311.26968 299.14762 286.95855
 274.67849 262.58343 250.60036 239.90930 230.03923 221.15117 213.34111 206.35104
 200.19298 195.13891 191.72885 189.77879 188.82372 188.89566 189.73860 191.05453
 192.78747 194.89040 197.16134 199.52828 201.98121 204.46915 206.56508 208.41502
 210.04896 211.20189 211.43883 211.67477 211.61970 211.33264 210.97357 210.61151
 210.23645 209.95438 209.77032 209.64225 209.57819 209.91713 210.31106 210.70800
 211.50894 212.69487 213.95281 215.74374 217.67968 219.73062 221.83355 223.92449
 225.99242 228.08436 230.18930 232.30323 234.44017 236.62010 238.88404 241.26198
 243.89091 246.14985 248.15979 249.93272 251.35766 252.48859 253.31853 253.64247
 253.68740 253.46934 252.83727 251.79321 250.40715 248.57608 246.49302 244.33396
 242.13289 239.94483 237.77276 235.61970 233.48764 231.36257 229.39651 227.56144
 225.85238 224.33232 222.97025 221.75019 220.64013 219.60806 218.72000 217.86893
 217.11887 216.30681 215.41274 214.78468 214.24261 214.84123 216.25555 218.24570
 220.43661 222.42488 223.72200 224.02403 224.05858 224.59143 226.01901 226.86414
 227.29439 228.92534 232.53311 237.19281 241.70879 246.07971 250.33282 254.29634
 257.91681 261.19656 264.14310 266.79901 269.33188 271.64319 273.46753 275.02078
 276.52859 277.97302 279.38251 280.73947 281.93027 282.99210 283.96753 284.85892
 285.67233 286.41064 287.05731 287.93167
 366.78100 356.34307 345.78313 334.65720 323.06826 311.27033 299.14840 286.95946
 274.67953 262.58459 250.60166 239.91073 230.04079 221.15286 213.34292 206.35299
 200.19506 195.14112 191.73119 189.78125 188.82632 188.89839 189.74145 191.05752
 192.79058 194.89365 197.16472 199.53178 201.98485 204.47291 206.56898 208.41905
 210.05311 211.20618 211.44324 211.67931 211.62438 211.33744 210.97851 210.61657
 210.24164 209.95971 209.77577 209.64784 209.58390 209.92297 210.31704 210.71410
 211.51517 212.70123 213.95930 215.75037 217.68643 219.73750 221.84056 223.93163
 225.99970 228.09176 230.19683 232.31089 234.44796 236.62803 238.89209 241.27016
 243.89922 246.15829 248.16836 249.94142 251.36649 252.49755 253.32762 253.65169
 253.69675 253.47882 252.84688 251.80295 250.41702 248.58608 246.50315 244.34421
 242.14328 239.95535 237.78341 235.63048 233.49854 231.37361 229.40768 227.57274
 225.86381 224.34387 222.98194 221.76201 220.65207 219.62014 218.73220 217.88127
 217.13134 216.31940 215.42547 214.79753 214.25560 214.86058 216.28990 218.23808
 220.39934 222.41800 223.75925 224.02690 223.95486 224.38635 225.82468 226.74509
 227.29350 229.03441 232.62524 237.26578 241.82686 246.20959 250.44521 254.38028
 257.96185 261.20328 264.12537 266.78119 269.31631 271.61966 273.43954 274.99527
 276.51340 277.96268 279.38077 280.73941 281.93140 282.99295 283.96729 284.85873
 285.67020 286.40622 287.05240 287.92209
 366.78100 356.34320 345.78340 334.65759 323.06879 311.27099 299.14919 286.96038
 274.68058 262.58578 250.60298 239.91217 230.04237 221.15457 213.34477 206.35497
 200.19716 195.14336 191.73356 189.78376 188.82895 188.90115 189.74435 191.06055
 192.79374 194.89694 197.16814 199.53534 201.98854 204.47673 206.57293 208.42313
 210.05733 211.21052 211.44772 211.68392 211.62912 211.34231 210.98351 210.62171
 210.24691 209.96511 209.78130 209.65350 209.58970 209.92890 210.32309 210.72029
 211.52149 212.70769 213.96588 215.75708 217.69328 219.74448 221.84767 223.93887
 226.00707 228.09927 230.20447 232.31866 234.45586 236.63606 238.90026 241.27845
 243.90765 246.16685 248.17705 249.95024 251.37544 252.50664 253.33684 253.66104
 253.70623 253.48843 252.85663 251.81283 250.42702 248.59622 246.51342 244.35462
 242.15381 239.96601 237.79421 235.64141 233.50961 231.38480 229.41900 227.58420
 225.87540 224.35559 222.99379 221.77399 220.66419 219.63238 218.74458 217.89378
 217.14398 216.33218 215.43837 214.81057 214.26877 214.88077 216.32672 218.22926
 220.36145 222.40363 223.77818 224.02620 223.86842 224.20526 225.61638 226.59128
 227.27849 229.15466 232.73221 237.34737 241.94777 246.34267 250.56013 254.46678
 258.01169 261.21704 264.11670 266.77313 269.30756 271.60287 273.41803 274.97531
 276.50046 277.95139 279.37772 280.73691 281.92859 282.98892 283.96371 284.85355
 285.66180 286.39636 287.04028 287.90808
 366.78100 356.34332 345.78364 334.65796 323.06928 311.27159 299.14991 286.96123
 274.68155 262.58687 250.60419 239.91351 230.04383 221.15614 213.34646 206.35678
 200.19910 195.14542 191.73574 189.78606 188.83138 188.90370 189.74701 191.06333
 192.79665 194.89997 197.17129 199.53861 201.99193 204.48025 206.57657 208.42688
 210.06120 211.21452 211.45184 211.68816 211.63348 211.34680 210.98812 210.62643
 210.25175 209.97007 209.78639 209.65871 209.59503 209.93435 210.32867 210.72599
 211.52730 212.71362 213.97194 215.76326 217.69958 219.75090 221.85422 223.94554
 226.01385 228.10617 230.21149 232.32581 234.46313 236.64345 238.90777 241.28609
 243.91541 246.17472 248.18504 249.95836 251.38368 252.51500 253.34532 253.66964
 253.71496 253.49728 252.86559 251.82191 250.43623 248.60555 246.52287 244.36419
 242.16351 239.97583 237.80414 235.65146 233.51978 231.39510 229.42942 227.59474
 225.88606 224.36638 223.00470 221.78501 220.67533 219.64365 218.75597 217.90529
 217.15561 216.34393 215.45025 214.82256 214.28088 214.90080 216.36543 218.22264
 220.32213 222.37991 223.77950 224.01804 223.79788 224.04803 225.39775 226.42056
 227.26076 229.27477 232.84354 237.44093 242.07127 246.47629 250.67589 254.55467
 258.06497 261.23743 264.11719 266.77338 269.30518 271.59113 273.40091 274.95892
 276.48849 277.93405 279.38071 280.73929 281.92978 282.98892 283.96048 284.85016
 285.65808 286.38904 287.03317 287.89529
 366.78100 356.34347 345.78395 334.65842 323.06990 311.27237 299.15085 286.96232
 274.68280 262.58827 250.60575 239.91522 230.04570 221.15817 213.34864 206.35912
 200.20159 195.14807 191.73854 189.78902 188.83449 188.90697 189.75044 191.06692
 192.80039 194.90387 197.17534 199.54282 201.99629 204.48476 206.58124 208.43171
 210.06619 211.21966 211.45714 211.69361 211.63909 211.35256 210.99404 210.63251
 210.25799 209.97646 209.79293 209.66541 209.60188 209.94136 210.33583 210.73331
 211.53478 212.72126 213.97973 215.77121 217.70768 219.75916 221.86263 223.95410
 226.02258 228.11505 230.22053 232.33500 234.47248 236.65295 238.91743 241.29590
 243.92538 246.18485 248.19533 249.96880 251.39427 252.52575 253.35622 253.68070
 253.72617 253.50865 252.87712 251.83360 250.44807 248.61755 246.53502 244.37650
 242.17597 239.98845 237.81692 235.66439 233.53287 231.40834 229.44282 227.60829
 225.89977 224.38024 223.01872 221.79919 220.68967 219.65814 218.77062 217.92009
 217.17056 216.35904 215.46551 214.83799 214.29646 214.92244 216.40141 218.21895
 220.28342 222.34564 223.76379 224.00037 223.73990 223.91444 225.17668 226.24561
 227.24557 229.38695 232.95197 237.54025 242.19455 246.60864 250.79225 254.64384
 258.12253 261.26535 264.12778 266.78149 269.30688 271.58139 273.38486 274.94470
 276.47559 277.89752 279.38898 280.75110 281.93744 282.99408 283.96320 284.84891
 285.65460 286.37997 287.02106 287.88306
 366.78100 356.34371 345.78442 334.65913 323.07084 311.27356 299.15227 286.96398
 274.68469 262.59040 250.60811 239.91782 230.04853 221.16124 213.35196 206.36267
 200.20538 195.15209 191.74280 189.79351 188.83922 188.91193 189.75565 191.07236
 192.80607 194.90978 197.18149 199.54920 202.00291 204.49162 206.58833 208.43905
 210.07376 211.22747 211.46518 211.70189 211.64760 211.36131 211.00302 210.64173
 210.26745 209.98616 209.80287 209.67558 209.61229 209.95200 210.34671 210.74442
 211.54613 212.73285 213.99156 215.78327 217.71998 219.77169 221.87540 223.96711
 226.03582 228.12854 230.23425 232.34896 234.48667 236.66738 238.93209 241.31080
 243.94051 246.20022 248.21094 249.98465 251.41036 252.54207 253.37278 253.69749
 253.74320 253.52591 252.89462 251.85134 250.46605 248.63576 246.55347 244.39518
 242.19489 240.00760 237.83631 235.68402 233.55274 231.42845 229.46316 227.62887
 225.92058 224.40129 223.04000 221.82071 220.71143 219.68014 218.79285 217.94256
 217.19327 216.38198 215.48869 214.86140 214.32011 214.94821 216.43219 218.21751
 220.24626 222.30231 223.73488 223.97093 223.69183 223.80524 224.96417 226.06883
 227.22725 229.48657 233.05405 237.64133 242.31578 246.73744 250.90617 254.73303
 258.18280 261.30063 264.14792 266.79855 269.31525 271.57538 273.37259 274.93240
 276.46359 277.88553 279.38968 280.75659 281.94550 283.00034 283.96933 284.85352
 285.65613 286.38449 287.02356 287.88382
 366.78100 356.34401 345.78502 334.66003 323.07204 311.27505 299.15406 286.96607
 274.68708 262.59309 250.61110 239.92111 230.05212 221.16513 213.35614 206.36715
 200.21016 195.15717 191.74818 189.79919 188.84520 188.91821 189.76222 191.07923
 192.81324 194.91725 197.18926 199.55727 202.01128 204.50029 206.59730 208.44831
 210.08332 211.23733 211.47534 211.71235 211.65836 211.37237 211.01438 210.65339
 210.27940 209.99841 209.81542 209.68843 209.62544 209.96545 210.36046 210.75847
 211.56048 212.74749 214.00650 215.79851 217.73552 219.78753 221.89154 223.98354
 226.05255 228.14556 230.25157 232.36658 234.50459 236.68560 238.95061 241.32962
 243.95963 246.21964 248.23065 250.00466 251.43067 252.56268 253.39369 253.71870
 253.76471 253.54772 252.91673 251.87374 250.48875 248.65876 246.57677 244.41878
 242.21879 240.03180 237.86081 235.70882 233.57783 231.45384 229.48885 227.65486
 225.94687 224.42788 223.06689 221.84790 220.73891 219.70792 218.82093 217.97094
 217.22195 216.41096 215.51797 214.89098 214.34999 214.97765 216.46056 218.21745
 220.20879 222.25143 223.69142 223.93068 223.64772 223.71642 224.77060 225.88841
 227.19548 229.57547 233.15585 237.74597 242.43492 246.85960 251.01505 254.81985
 258.24442 261.34058 264.17636 266.82321 269.32779 271.57330 273.36285 274.92307
 276.45633 277.88760 279.39828 280.76758 281.95761 283.01505 283.98395 284.86829
 285.67221 286.40027 287.04156 287.90253
 366.78100 356.34433 345.78567 334.66100 323.07334 311.27667 299.15601 286.96834
 274.68968 262.59601 250.61435 239.92468 230.05602 221.16935 213.36069 206.37202
 200.21536 195.16269 191.75403 189.80536 188.85170 188.92503 189.76936 191.08670
 192.82103 194.92537 197.19770 199.56604 202.02037 204.50971 206.60704 208.45838
 210.09371 211.24805 211.48638 211.72372 211.67005 211.38439 211.02672 210.66606
 210.29239 210.01173 209.82906 209.70240 209.63973 209.98006 210.37540 210.77373
 211.57607 212.76340 214.02274 215.81507 217.75241 219.80474 221.90908 224.00141
 226.07075 228.16408 230.27042 232.38575 234.52409 236.70542 238.97076 241.35009
 243.98043 246.24076 248.25209 250.02643 251.45276 252.58510 253.41643 253.74177
 253.78810 253.57144 252.94077 251.89811 250.51344 248.68378 246.60211 244.44445
 242.24478 240.05812 237.88745 235.73579 233.60512 231.48146 229.51679 227.68312
 225.97546 224.45679 223.09613 221.87746 220.76880 219.73813 218.85147 218.00180
 217.25314 216.44247 215.54981 214.92314 214.38248 215.00917 216.48978 218.21950
 220.16722 222.19643 223.63768 223.86958 223.60083 223.64162 224.60008 225.71153
 227.14865 229.65149 233.25934 237.85493 242.55101 246.97557 251.11871 254.90497
 258.30750 261.38562 264.21228 266.85519 269.34393 271.57138 273.35263 274.91412
 276.45117 277.90344 279.41846 280.79086 281.98297 283.04282 284.01184 284.89682
 285.70181 286.43073 287.07410 287.93542
 366.78100 356.34474 345.78648 334.66222 323.07496 311.27869 299.15843 286.97117
 274.69291 262.59965 250.61839 239.92913 230.06087 221.17461 213.36635 206.37808
 200.22182 195.16956 191.76130 189.81304 188.85978 188.93352 189.77826 191.09600
 192.83074 194.93547 197.20821 199.57695 202.03169 204.52143 206.61917 208.47091
 210.10665 211.26139 211.50013 211.73786 211.68460 211.39934 211.04208 210.68182
 210.30856 210.02830 209.84604 209.71978 209.65751 209.99825 210.39399 210.79273
 211.59547 212.78321 214.04295 215.83569 217.77343 219.82617 221.93090 224.02364
 226.09338 228.18712 230.29386 232.40960 234.54834 236.73008 238.99582 241.37556
 244.00629 246.26703 248.27877 250.05351 251.48025 252.61299 253.44473 253.77047
 253.81721 253.60095 252.97068 251.92842 250.54416 248.71490 246.63364 244.47638
 242.27712 240.09086 237.92060 235.76933 233.63907 231.51581 229.55155 227.71829
 226.01103 224.49277 223.13251 221.91425 220.80599 219.77572 218.88946 218.04020
 217.29194 216.48168 215.58942 214.96316 214.42290 215.04539 216.51610 218.22252
 220.12669 222.13304 223.57167 223.80322 223.54042 223.56966 224.45241 225.54150
 227.08484 229.71579 233.36864 237.96979 242.66606 247.08835 251.22108 254.99146
 258.37408 261.43542 264.25443 266.89191 269.36090 271.56497 273.33643 274.90207
 276.44995 277.93069 279.45300 280.82593 282.02002 283.07965 284.04993 284.93448
 285.73935 286.46918 287.11011 287.96317
 366.78100 356.34513 345.78726 334.66339 323.07652 311.28065 299.16078 286.97391
 274.69604 262.60317 250.62230 239.93343 230.06556 221.17969 213.37182 206.38395
 200.22808 195.17621 191.76834 189.82047 188.86760 188.94173 189.78686 191.10499
 192.84013 194.94526 197.21839 199.58752 202.04265 204.53278 206.63091 208.48304
 210.11917 211.27430 211.51343 211.75156 211.69869 211.41382 211.05695 210.69708
 210.32421 210.04434 209.86247 209.73660 209.67473 210.01586 210.41199 210.81112
 211.61425 212.80238 214.06251 215.85564 217.79377 219.84690 221.95203 224.04516
 226.11529 228.20942 230.31655 232.43268 234.57181 236.75394 239.02007 241.40020
 244.03133 246.29246 248.30459 250.07972 251.50685 252.63998 253.47211 253.79824
 253.84538 253.62951 252.99964 251.95777 250.57390 248.74503 246.66416 244.50729
 242.30842 240.12255 237.95268 235.80181 233.67194 231.54907 229.58520 227.75233
 226.04546 224.52759 223.16772 221.94985 220.84198 219.81211 218.92624 218.07737
 217.32950 216.51963 215.62776 215.00189 214.46202 215.08090 216.54309 218.22020
 220.08775 222.08218 223.49480 223.70944 223.48318 223.49855 224.30986 225.37947
 227.01671 229.77159 233.48029 238.08946 242.77925 247.19720 251.32117 255.07721
 258.44333 261.49136 264.30264 266.93387 269.37994 271.55533 273.31589 274.88828
 276.45032 277.96817 279.49545 280.87177 282.06631 283.12662 284.09570 284.98022
 285.78485 286.51520 287.15591 288.00070
 366.78100 356.34543 345.78786 334.66429 323.07771 311.28214 299.16257 286.97600
 274.69843 262.60586 250.62529 239.93672 230.06914 221.18357 213.37600 206.38843
 200.23286 195.18129 191.77372 189.82614 188.87357 188.94800 189.79343 191.11186
 192.84729 194.95272 197.22615 199.59557 202.05100 204.54143 206.63986 208.49229
 210.12872 211.28415 211.52357 211.76200 211.70943 211.42486 211.06829 210.70872
 210.33615 210.05658 209.87500 209.74943 209.68786 210.02929 210.42572 210.82515
 211.62858 212.81700 214.07743 215.87086 217.80929 219.86272 221.96815 224.06158
 226.13201 228.22643 230.33386 232.45029 234.58972 236.77215 239.03858 241.41901
 244.05043 246.31186 248.32429 250.09972 251.52715 252.66058 253.49301 253.81944
 253.86686 253.65129 253.02172 251.98015 250.59658 248.76801 246.68744 244.53086
 242.33229 240.14672 237.97715 235.82658 233.69701 231.57444 229.61087 227.77829
 226.07172 224.55415 223.19458 221.97701 220.86944 219.83987 218.95430 218.10572
 217.35815 216.54858 215.65701 215.03144 214.49187 215.10951 216.56876 218.21844
 220.04140 222.03197 223.44893 223.62378 223.37112 223.42052 224.18520 225.20609
 226.92899 229.81897 233.59508 238.21320 242.89149 247.30231 251.41933 255.16345
 258.51669 261.55487 264.35965 266.98273 269.40134 271.54276 273.29181 274.87537
 276.45584 278.01263 279.54776 280.92401 282.11905 283.18167 284.14902 285.03265
 285.83765 286.56848 287.20605 288.04898
 366.78100 356.34584 345.78867 334.66551 323.07934 311.28418 299.16501 286.97885
 274.70168 262.60952 250.62935 239.94119 230.07402 221.18886 213.38169 206.39453
 200.23937 195.18820 191.78104 189.83387 188.88171 188.95654 189.80238 191.12121
 192.85705 194.96288 197.23672 199.60655 202.06239 204.55322 206.65206 208.50489
 210.14173 211.29757 211.53740 211.77624 211.72407 211.43991 211.08374 210.72458
 210.35241 210.07325 209.89208 209.76692 209.70575 210.04759 210.44442 210.84426
 211.64810 212.83693 214.09777 215.89160 217.83044 219.88427 221.99011 224.08394
 226.15478 228.24961 230.35745 232.47428 234.61412 236.79695 239.06379 241.44462
 244.07646 246.33830 248.35113 250.12697 251.55480 252.68864 253.52147 253.84831
 253.89614 253.68098 253.05181 252.01065 250.62748 248.79932 246.71915 244.56299
 242.36483 240.17966 238.01050 235.86033 233.73117 231.60900 229.64584 227.81367
 226.10751 224.59034 223.23118 222.01401 220.90685 219.87768 218.99252 218.14436
 217.39719 216.58803 215.69686 215.07170 214.53253 215.14130 216.57956 218.22618
 220.01102 221.96515 223.36761 223.57362 223.34840 223.27937 224.00122 225.06761
 226.86513 229.86469 233.71677 238.34537 243.00789 247.40952 251.51993 255.25291
 258.59332 261.62241 264.42010 267.03220 269.41983 271.52158 273.25485 274.85092
 276.46170 278.06146 279.60251 280.98135 282.17819 283.24051 284.20728 285.09033
 285.89359 286.62509 287.25751 288.09702
 366.78100 356.34635 345.78971 334.66706 323.08142 311.28677 299.16813 286.98248
 274.70584 262.61419 250.63454 239.94690 230.08025 221.19561 213.38896 206.40232
 200.24767 195.19703 191.79038 189.84373 188.89209 188.96744 189.81380 191.13315
 192.86951 194.97586 197.25021 199.62057 202.07692 204.56828 206.66763 208.52099
 210.15834 211.31470 211.55505 211.79440 211.74276 211.45911 211.10347 210.74482
 210.37318 210.09453 209.91389 209.78924 209.72859 210.07095 210.46830 210.86866
 211.67301 212.86237 214.12372 215.91808 217.85743 219.91178 222.01814 224.11249
 226.18385 228.27920 230.38756 232.50491 234.64527 236.82862 239.09597 241.47733
 244.10968 246.37204 248.38539 250.16175 251.59010 252.72446 253.55781 253.88516
 253.93352 253.71887 253.09023 252.04958 250.66694 248.83929 246.75964 244.60400
 242.40635 240.22171 238.05306 235.90342 233.77477 231.65313 229.69048 227.85883
 226.15319 224.63654 223.27790 222.06125 220.95461 219.92596 219.04132 218.19367
 217.44702 216.63838 215.74773 215.12309 214.58444 215.17842 216.58176 218.22903
 219.99603 221.91527 223.26807 223.46927 223.27774 223.13446 223.85727 224.97507
 226.81349 229.89902 233.83575 238.47821 243.12192 247.51277 251.61969 255.34511
 258.67639 261.69467 264.48163 267.07864 269.43015 271.48853 273.21204 274.83340
 276.40942 278.12784 279.67899 281.04935 282.24081 283.29846 284.26251 285.14133
 285.94528 286.67529 287.30371 288.13580
 366.78100 356.34675 345.79051 334.66826 323.08301 311.28877 299.17052 286.98527
 274.70903 262.61778 250.63853 239.95129 230.08504 221.20079 213.39455 206.40830
 200.25405 195.20381 191.79756 189.85131 188.90007 188.97582 189.82257 191.14233
 192.87908 194.98583 197.26059 199.63134 202.08809 204.57985 206.67960 208.53335
 210.17111 211.32786 211.56861 211.80837 211.75712 211.47387 211.11862 210.76038
 210.38913 210.11088 209.93064 209.80639 209.74614 210.08890 210.48665 210.88740
 211.69216 212.88191 214.14366 215.93842 217.87817 219.93292 222.03968 224.13443
 226.20618 228.30194 230.41069 232.52844 234.66920 236.85295 239.12070 241.50246
 244.13521 246.39796 248.41172 250.18847 251.61722 252.75198 253.58573 253.91348
 253.96224 253.74799 253.11974 252.07950 250.69725 248.87000 246.79076 244.63551
 242.43826 240.25402 238.08577 235.93652 233.80828 231.68703 229.72478 227.89354
 226.18829 224.67204 223.31380 222.09755 220.99130 219.96306 219.07881 218.23156
 217.48532 216.67707 215.78682 215.16258 214.62433 215.20894 216.59012 218.21767
 219.96474 221.88370 223.20929 223.36067 223.14656 222.97289 223.73845 224.90569
 226.76506 229.91937 233.94353 238.60551 243.22551 247.60670 251.71638 255.43765
 258.76096 261.77100 264.54764 267.12750 269.43991 271.44714 273.15414 274.78665
 276.42032 278.16974 279.73083 281.10590 282.29953 283.35709 284.31863 285.19604
 285.99896 286.72717 287.35083 288.18607
 366.78100 356.34709 345.79117 334.66926 323.08435 311.29043 299.17252 286.98761
 274.71170 262.62078 250.64187 239.95496 230.08904 221.20513 213.39922 206.41330
 200.25939 195.20948 191.80357 189.85765 188.90674 188.98283 189.82991 191.15000
 192.88709 194.99417 197.26926 199.64035 202.09744 204.58952 206.68961 208.54370
 210.18178 211.33887 211.57996 211.82004 211.76913 211.48622 211.13131 210.77339
 210.40248 210.12457 209.94465 209.82074 209.76083 210.10391 210.50200 210.90309
 211.70818 212.89826 214.16035 215.95544 217.89552 219.95061 222.05770 224.15278
 226.22487 228.32096 230.43005 232.54813 234.68922 236.87331 239.14139 241.52348
 244.15657 246.41965 248.43374 250.21083 251.63992 252.77500 253.60909 253.93718
 253.98626 253.77235 253.14444 252.10452 250.72261 248.89570 246.81679 244.66187
 242.46496 240.28105 238.11313 235.96422 233.83631 231.71539 229.75348 227.92257
 226.21766 224.70174 223.34383 222.12792 221.02200 219.99409 219.11018 218.26326
 217.51735 216.70944 215.81953 215.19561 214.65770 215.23624 216.60306 218.20721
 219.92334 221.84227 223.17259 223.27325 222.99031 222.80043 223.61790 224.83409
 226.71382 229.93896 234.05214 238.73077 243.32982 247.70422 251.81425 255.53065
 258.84210 261.84763 264.61325 267.17450 269.45035 271.41315 273.11551 274.78445
 276.43115 278.18109 279.74625 281.12653 282.31989 283.37796 284.33710 285.21289
 286.01447 286.74677 287.36707 288.19177
 366.78100 356.34752 345.79203 334.67055 323.08606 311.29258 299.17509 286.99061
 274.71512 262.62464 250.64615 239.95967 230.09418 221.21070 213.40521 206.41973
 200.26624 195.21676 191.81128 189.86579 188.91531 188.99182 189.83934 191.15985
 192.89737 195.00488 197.28040 199.65191 202.10943 204.60194 206.70246 208.55697
 210.19549 211.35301 211.59452 211.83504 211.78455 211.50207 211.14758 210.79010
 210.41961 210.14213 209.96264 209.83916 209.77967 210.12319 210.52170 210.92322
 211.72873 212.91925 214.18177 215.97728 217.91780 219.97331 222.08083 224.17634
 226.24886 228.34537 230.45489 232.57340 234.71492 236.89943 239.16795 241.55046
 244.18398 246.44750 248.46201 250.23953 251.66904 252.80456 253.63907 253.96759
 254.01710 253.80362 253.17613 252.13665 250.75516 248.92868 246.85019 244.69571
 242.49922 240.31574 238.14826 235.99977 233.87229 231.75180 229.79032 227.95983
 226.25535 224.73986 223.38238 222.16689 221.06141 220.03392 219.15044 218.30395
 217.55847 216.75099 215.86150 215.23802 214.70053 215.26558 216.60059 218.19102
 219.90021 221.79384 223.11551 223.18562 222.84198 222.64006 223.49269 224.74344
 226.65396 229.95604 234.15706 238.85468 243.43349 247.80432 251.92537 255.64275
 258.96082 261.93704 264.67731 267.21231 269.43893 271.34521 273.04150 274.72473
 276.45236 278.21698 279.78247 281.16299 282.35800 283.41431 284.37387 285.24658
 286.04745 286.77573 287.39389 288.21671
 366.78100 356.34798 345.79295 334.67193 323.08791 311.29488 299.17786 286.99384
 274.71881 262.62879 250.65077 239.96474 230.09972 221.21670 213.41167 206.42665
 200.27363 195.22460 191.81958 189.87456 188.92453 189.00151 189.84949 191.17046
 192.90844 195.01642 197.29240 199.66437 202.12235 204.61533 206.71630 208.57128
 210.21026 211.36823 211.61021 211.85119 211.80116 211.51914 211.16512 210.80809
 210.43807 210.16105 209.98202 209.85900 209.79998 210.14395 210.54293 210.94491
 211.75088 212.94186 214.20484 216.00081 217.94179 219.99777 222.10574 224.20172
 226.27470 228.37167 230.48165 232.60063 234.74260 236.92758 239.19656 241.57953
 244.21351 246.47749 248.49246 250.27044 251.70042 252.83639 253.67137 254.00035
 254.05032 253.83730 253.21028 252.17126 250.79023 248.96421 246.88619 244.73216
 242.53614 240.35312 238.18609 236.03807 233.91105 231.79102 229.83000 227.99998
 226.29595 224.78093 223.42391 222.20888 221.10386 220.07684 219.19381 218.34779
 217.60277 216.79574 215.90672 215.28370 214.74667 215.29800 216.60057 218.16093
 219.87732 221.73634 223.03062 223.08438 222.69981 222.47615 223.35971 224.63353
 226.60324 229.98354 234.26993 238.97092 243.52690 247.90829 252.05681 255.78772
 259.06970 262.06378 264.78427 267.27982 269.44803 271.27444 272.90756 274.49197
 276.50064 278.26758 279.81198 281.17499 282.35977 283.40317 284.35541 285.22354
 286.02078 286.73285 287.35568 288.16507
 366.78100 356.34811 345.79323 334.67234 323.08846 311.29557 299.17868 286.99480
 274.71991 262.63003 250.65214 239.96625 230.10137 221.21848 213.41359 206.42871
 200.27582 195.22694 191.82205 189.87716 188.92728 189.00439 189.85251 191.17362
 192.91173 195.01985 197.29596 199.66808 202.12619 204.61930 206.72042 208.57553
 210.21465 211.37276 211.61487 211.85599 211.80610 211.52421 211.17033 210.81344
 210.44356 210.16667 209.98778 209.86490 209.80601 210.15013 210.54924 210.95135
 211.75747 212.94858 214.21170 216.00781 217.94892 220.00504 222.11315 224.20927
 226.28238 228.37949 230.48961 232.60872 234.75083 236.93595 239.20506 241.58818
 244.22229 246.48640 248.50152 250.27963 251.70975 252.84586 253.68097 254.01009
 254.06020 253.84732 253.22043 252.18154 250.80066 248.97477 246.89689 244.74300
 242.54711 240.36423 238.19734 236.04945 233.92257 231.80268 229.84180 228.01191
 226.30802 224.79314 223.43625 222.22137 221.11648 220.08959 219.20671 218.36082
 217.61594 216.80905 215.92016 215.29728 214.76039 215.31282 216.61803 218.12018
 219.83600 221.67102 222.94237 222.97485 222.56036 222.31610 223.22102 224.49608
 226.53334 230.01640 234.35797 239.08629 243.62091 248.02846 252.18257 255.91687
 259.20120 262.20428 264.92557 267.41324 269.55167 271.33237 272.92126 274.54727
 276.44925 278.18536 279.70419 280.99387 282.11194 283.13849 284.08566 284.94308
 285.70358 286.32596 286.81729 287.44345
 366.78100 356.34807 345.79313 334.67220 323.08826 311.29533 299.17839 286.99446
 274.71952 262.62959 250.65165 239.96572 230.10078 221.21785 213.41291 206.42798
 200.27504 195.22611 191.82117 189.87624 188.92630 189.00337 189.85143 191.17250
 192.91056 195.01863 197.29469 199.66676 202.12482 204.61789 206.71895 208.57402
 210.21308 211.37115 211.61321 211.85428 211.80434 211.52241 211.16847 210.81154
 210.44160 210.16467 209.98573 209.86280 209.80386 210.14793 210.54699 210.94906
 211.75512 212.94619 214.20925 216.00532 217.94638 220.00245 222.11051 224.20658
 226.27964 228.37671 230.48677 232.60584 234.74791 236.93297 239.20204 241.58510
 244.21917 246.48323 248.49830 250.27636 251.70643 252.84249 253.67756 254.00662
 254.05669 253.84375 253.21682 252.17788 250.79695 248.97101 246.89308 244.73914
 242.54321 240.36027 238.19334 236.04540 233.91847 231.79853 229.83760 228.00766
 226.30373 224.78879 223.43186 222.21692 221.11199 220.08505 219.20212 218.35618
 217.61125 216.80431 215.91538 215.29244 214.75551 215.31725 216.64439 218.08342
 219.78085 221.55515 222.80902 222.89417 222.46931 222.16803 223.05817 224.35944
 226.44911 230.07401 234.48384 239.17746 243.70749 248.10809 252.25729 255.97714
 259.25510 262.25742 265.01547 267.49683 269.62808 271.41443 273.03128 274.69070
 276.44394 278.11816 279.59528 280.86557 282.01273 283.04214 283.98886 284.84875
 285.61441 286.28479 286.87042 287.61673
 366.78100 356.34869 345.79439 334.67408 323.09077 311.29846 299.18216 286.99885
 274.72454 262.63524 250.65793 239.97262 230.10832 221.22601 213.42170 206.43739
 200.28509 195.23678 191.83247 189.88817 188.93886 189.01655 189.86525 191.18694
 192.92563 195.03432 197.31102 199.68371 202.14240 204.63610 206.73779 208.59348
 210.23318 211.39187 211.63456 211.87625 211.82695 211.54564 211.19233 210.83603
 210.46672 210.19041 210.01211 209.88980 209.83149 210.17618 210.57588 210.97857
 211.78526 212.97696 214.24065 216.03734 217.97904 220.03573 222.14442 224.24111
 226.31481 228.41250 230.52319 232.64289 234.78558 236.97127 239.24096 241.62466
 244.25935 246.52404 248.53974 250.31843 251.74912 252.88582 253.72151 254.05120
 254.10189 253.88959 253.26328 252.22497 250.84467 249.01936 246.94205 244.78875
 242.59344 240.41113 238.24482 236.09752 233.97121 231.85190 229.89160 228.06229
 226.35898 224.84468 223.48837 222.27406 221.16975 220.14345 219.26114 218.41583
 217.67153 216.86522 215.97691 215.35461 214.81830 215.35071 216.60858 218.09128
 219.77158 221.45358 222.69931 222.77711 222.28583 222.02397 222.95453 224.26254
 226.43221 230.16589 234.64140 239.27725 243.79001 248.17178 252.30431 256.00049
 259.26630 262.28476 265.03629 267.53555 269.68042 271.48242 273.13184 274.78845
 276.48483 278.10574 279.55020 280.83368 281.96347 282.97720 283.92200 284.78793
 285.57477 286.27689 286.89023 287.67188
 366.78100 356.34799 345.79297 334.67196 323.08794 311.29493 299.17791 286.99390
 274.71888 262.62887 250.65085 239.96484 230.09983 221.21681 213.41180 206.42678
 200.27377 195.22475 191.81974 189.87472 188.92471 189.00169 189.84968 191.17066
 192.90865 195.01664 197.29262 199.66461 202.12259 204.61558 206.71656 208.57155
 210.21053 211.36852 211.61050 211.85149 211.80148 211.51946 211.16545 210.80843
 210.43842 210.16140 209.98239 209.85937 209.80036 210.14434 210.54333 210.94532
 211.75130 212.94229 214.20527 216.00126 217.94224 219.99823 222.10621 224.20220
 226.27518 228.37217 230.48216 232.60114 234.74313 236.92811 239.19710 241.58008
 244.21407 246.47805 248.49304 250.27102 251.70101 252.83699 253.67198 254.00097
 254.05095 253.83794 253.21092 252.17191 250.79089 248.96488 246.88686 244.73285
 242.53683 240.35382 238.18681 236.03879 233.91178 231.79176 229.83075 228.00073
 226.29672 224.78170 223.42469 222.20967 221.10466 220.07765 219.19463 218.34862
 217.60360 216.79659 215.90757 215.28456 214.74754 215.31255 216.64740 218.02663
 219.80675 221.58777 222.59299 222.53719 222.03600 221.89491 222.84622 224.16872
 226.47159 230.30846 234.83554 239.41357 243.88637 248.24829 252.36896 256.02524
 259.26126 262.31137 265.07214 267.51587 269.64551 271.45410 273.15475 274.85046
 276.51184 278.06677 279.46268 280.70078 281.80020 282.78381 283.70413 284.55017
 285.30331 285.96109 286.53430 287.26477
 366.78100 356.34709 345.79118 334.66928 323.08437 311.29046 299.17255 286.98765
 274.71174 262.62083 250.64192 239.95502 230.08911 221.20520 213.39929 206.41339
 200.25948 195.20957 191.80366 189.85776 188.90685 188.98294 189.83003 191.15013
 192.88722 194.99431 197.26940 199.64050 202.09759 204.58968 206.68977 208.54387
 210.18196 211.33905 211.58014 211.82024 211.76933 211.48642 211.13151 210.77361
 210.40270 210.12479 209.94488 209.82098 209.76107 210.10416 210.50225 210.90335
 211.70844 212.89853 214.16062 215.95572 217.89581 219.95090 222.05799 224.15309
 226.22518 228.32127 230.43036 232.54846 234.68955 236.87364 239.14173 241.52383
 244.15692 246.42001 248.43410 250.21120 251.64029 252.77538 253.60947 253.93757
 253.98666 253.77275 253.14484 252.10494 250.72303 248.89612 246.81721 244.66231
 242.46540 240.28149 238.11358 235.96468 233.83677 231.71586 229.75395 227.92305
 226.21814 224.70223 223.34432 222.12842 221.02251 219.99460 219.11069 218.26379
 217.51788 216.70997 215.82006 215.19616 214.65825 215.27490 216.73763 217.99059
 219.66580 221.16560 222.44142 222.72493 222.05348 221.55869 222.47772 224.01089
 226.35382 230.35033 234.98451 239.59706 244.06641 248.39833 252.49263 256.13806
 259.34586 262.19632 264.97165 267.51443 269.64954 271.39038 273.04367 274.72083
 276.36664 277.88898 279.19757 280.38837 281.48331 282.49783 283.47372 284.37854
 285.19229 285.91696 286.55002 287.35675
 366.78100 356.34657 345.79014 334.66772 323.08229 311.28786 299.16943 286.98400
 274.70757 262.61615 250.63672 239.94929 230.08286 221.19843 213.39201 206.40558
 200.25115 195.20072 191.79429 189.84787 188.89644 188.97201 189.81858 191.13815
 192.87472 194.98130 197.25587 199.62644 202.08301 204.57458 206.67416 208.52773
 210.16530 211.32187 211.56244 211.80202 211.75059 211.46716 211.11173 210.75330
 210.38187 210.10345 209.92302 209.79859 209.73816 210.08073 210.47831 210.87888
 211.68345 212.87302 214.13459 215.92916 217.86874 219.92331 222.02988 224.12445
 226.19602 228.29160 230.40017 232.51774 234.65831 236.84188 239.10946 241.49103
 244.12360 246.38617 248.39974 250.17631 251.60489 252.73946 253.57303 253.90060
 253.94917 253.73475 253.10632 252.06589 250.68346 248.85603 246.77661 244.62118
 242.42375 240.23932 238.07089 235.92146 233.79304 231.67161 229.70918 227.87775
 226.17232 224.65590 223.29747 222.08104 220.97461 219.94618 219.06175 218.21433
 217.46790 216.65947 215.76904 215.14461 214.60619 215.27005 216.81897 217.97548
 219.72325 221.35600 222.70522 222.76982 221.89850 221.41988 222.29140 223.83241
 226.42715 230.49153 235.14424 239.81161 244.28627 248.61116 252.68675 256.31314
 259.45557 262.38553 265.07321 267.31491 269.50128 271.29932 272.98215 274.66443
 276.21103 277.60730 279.16412 280.74396 282.11115 283.32077 284.42438 285.42416
 286.32333 287.12408 287.82358 288.71503
 366.78100 356.34685 345.79070 334.66855 323.08340 311.28925 299.17110 286.98594
 274.70979 262.61864 250.63949 239.95234 230.08619 221.20204 213.39589 206.40974
 200.25559 195.20544 191.79929 189.85314 188.90199 188.97783 189.82468 191.14453
 192.88138 194.98823 197.26308 199.63393 202.09078 204.58263 206.68248 208.53633
 210.17418 211.33103 211.57187 211.81172 211.76057 211.47742 211.12227 210.76412
 210.39297 210.11482 209.93467 209.81052 209.75037 210.09322 210.49107 210.89192
 211.69676 212.88661 214.14846 215.94331 217.88316 219.93801 222.04486 224.13971
 226.21156 228.30741 230.41626 232.53411 234.67496 236.85881 239.12665 241.50850
 244.14135 246.40420 248.41805 250.19490 251.62375 252.75860 253.59245 253.92030
 253.96915 253.75500 253.12685 252.08669 250.70454 248.87739 246.79824 244.64309
 242.44594 240.26179 238.09364 235.94449 233.81634 231.69519 229.73304 227.90189
 226.19674 224.68058 223.32243 222.10628 221.00013 219.97198 219.08783 218.24068
 217.49453 216.68638 215.79623 215.17208 214.63393 215.28230 216.80118 217.94621
 219.63815 221.49844 222.69710 222.48662 221.55235 221.24225 222.15475 223.68092
 226.41714 230.59102 235.31590 240.00937 244.45839 248.74245 252.82260 256.46466
 259.64563 262.56668 265.16644 267.52832 269.67892 271.40280 273.02820 274.66089
 276.11230 277.59033 279.15781 280.71463 282.06195 283.25397 284.34149 285.32675
 286.21286 287.00192 287.69125 288.56973
 366.78100 356.34717 345.79135 334.66952 323.08470 311.29087 299.17305 286.98822
 274.71240 262.62157 250.64275 239.95592 230.09010 221.20627 213.40045 206.41462
 200.26080 195.21097 191.80515 189.85932 188.90850 188.98467 189.83185 191.15202
 192.88920 194.99637 197.27155 199.64272 202.09990 204.59207 206.69225 208.54642
 210.18460 211.34177 211.58295 211.82312 211.77230 211.48947 211.13465 210.77682
 210.40600 210.12817 209.94835 209.82452 209.76470 210.10787 210.50604 210.90722
 211.71239 212.90257 214.16474 215.95992 217.90009 219.95527 222.06244 224.15762
 226.22979 228.32597 230.43514 232.55332 234.69449 236.87867 239.14684 241.52902
 244.16219 246.42537 248.43954 250.21672 251.64589 252.78107 253.61524 253.94342
 253.99259 253.77877 253.15094 252.11112 250.72929 248.90247 246.82364 244.66882
 242.47199 240.28817 238.12034 235.97152 233.84369 231.72287 229.76104 227.93022
 226.22539 224.70956 223.35174 222.13591 221.03009 220.00226 219.11844 218.27161
 217.52579 216.71796 215.82814 215.20431 214.66649 215.28700 216.76140 217.97618
 219.50766 221.43376 222.68590 222.41565 221.28470 220.96770 221.93991 223.47403
 226.40154 230.67267 235.43828 240.15485 244.61555 248.87283 252.92986 256.56058
 259.74350 262.59549 265.20651 267.55579 269.69989 271.44208 273.09326 274.73251
 276.20593 277.49716 278.93439 280.31699 281.62061 282.77399 283.82623 284.77954
 285.63690 286.40042 287.06738 287.91739
 366.78100 356.34755 345.79210 334.67065 323.08620 311.29275 299.17530 286.99085
 274.71540 262.62495 250.64650 239.96005 230.09460 221.21115 213.40570 206.42025
 200.26680 195.21735 191.81190 189.86645 188.91600 188.99255 189.84010 191.16065
 192.89820 195.00574 197.28129 199.65284 202.11039 204.60294 206.70349 208.55804
 210.19659 211.35414 211.59569 211.83624 211.78579 211.50334 211.14889 210.79144
 210.42099 210.14354 209.96409 209.84064 209.78119 210.12474 210.52329 210.92484
 211.73039 212.92094 214.18349 215.97904 217.91959 219.97514 222.08269 224.17824
 226.25079 228.34734 230.45689 232.57544 234.71699 236.90154 239.17009 241.55264
 244.18619 246.44974 248.46429 250.24184 251.67139 252.80694 253.64149 253.97004
 254.01959 253.80614 253.17868 252.13923 250.75778 248.93133 246.85288 244.69843
 242.50198 240.31853 238.15108 236.00263 233.87518 231.75473 229.79328 227.96283
 226.25838 224.74293 223.38548 222.17003 221.06458 220.03713 219.15368 218.30723
 217.56178 216.75433 215.86488 215.24143 214.70398 215.30244 216.73691 218.00603
 219.49637 221.36827 222.71703 222.53459 221.27974 220.70822 221.51093 223.31754
 226.40445 230.74896 235.57135 240.32736 244.81883 249.05200 253.02740 256.62180
 259.79816 262.62549 265.20972 267.52252 269.57147 271.30521 272.99625 274.66956
 276.09485 277.48895 278.97162 280.42532 281.71182 282.85004 283.88849 284.82925
 285.67535 286.42883 287.08704 287.92587
 366.78100 356.34782 345.79265 334.67147 323.08730 311.29412 299.17694 286.99277
 274.71759 262.62742 250.64924 239.96307 230.09789 221.21471 213.40954 206.42436
 200.27119 195.22201 191.81683 189.87166 188.92148 188.99831 189.84613 191.16696
 192.90478 195.01260 197.28843 199.66025 202.11808 204.61090 206.71172 208.56655
 210.20537 211.36320 211.60502 211.84585 211.79567 211.51349 211.15932 210.80214
 210.43197 210.15479 209.97561 209.85244 209.79326 210.13709 210.53591 210.93773
 211.74356 212.93438 214.19721 215.99303 217.93386 219.98968 222.09750 224.19333
 226.26615 228.36298 230.47280 232.59162 234.73345 236.91827 239.18710 241.56992
 244.20375 246.46757 248.48239 250.26022 251.69004 252.82587 253.66069 253.98951
 254.03934 253.82616 253.19899 252.15981 250.77864 248.95246 246.87428 244.72011
 242.52393 240.34076 238.17358 236.02540 233.89823 231.77805 229.81688 227.98670
 226.28253 224.76735 223.41017 222.19500 221.08982 220.06265 219.17947 218.33329
 217.58812 216.78094 215.89177 215.26859 214.73141 215.31346 216.71786 218.01260
 219.50467 221.32277 222.66310 222.49481 221.18758 220.47931 221.21124 223.26935
 226.45392 230.84756 235.71338 240.50696 245.02858 249.25548 253.15936 256.69131
 259.85745 262.68295 265.24670 267.53363 269.51779 271.24017 272.96240 274.61401
 276.01102 277.44830 278.97549 280.45868 281.74222 282.87784 283.91394 284.85254
 285.69672 286.44849 287.10519 287.94211
 366.78100 356.34762 345.79224 334.67086 323.08648 311.29309 299.17571 286.99133
 274.71595 262.62557 250.64719 239.96081 230.09543 221.21204 213.40666 206.42128
 200.26790 195.21852 191.81314 189.86776 188.91738 188.99399 189.84161 191.16223
 192.89985 195.00747 197.28309 199.65471 202.11233 204.60494 206.70556 208.56018
 210.19880 211.35642 211.59804 211.83866 211.78828 211.50589 211.15151 210.79413
 210.42375 210.14637 209.96699 209.84361 209.78423 210.12784 210.52646 210.92808
 211.73370 212.92432 214.18694 215.98256 217.92318 219.97879 222.08641 224.18203
 226.25465 228.35127 230.46089 232.57951 234.72113 236.90574 239.17436 241.55698
 244.19060 246.45422 248.46884 250.24646 251.67608 252.81169 253.64631 253.97493
 254.02455 253.81117 253.18379 252.14441 250.76303 248.93664 246.85826 244.70388
 242.50750 240.32412 238.15674 236.00836 233.88098 231.76059 229.79921 227.96883
 226.26445 224.74907 223.39169 222.17631 221.07093 220.04355 219.16016 218.31378
 217.56840 216.76102 215.87164 215.24826 214.71088 215.30109 216.72165 218.00209
 219.50833 221.29796 222.58739 222.38493 221.01103 220.20569 220.93446 223.22879
 226.51154 230.95296 235.84874 240.66843 245.22083 249.46962 253.35872 256.83865
 259.96582 262.77814 265.30435 267.54993 269.49454 271.22144 272.91830 274.47723
 275.86594 277.25763 278.81436 280.26492 281.52026 282.63089 283.64420 284.56219
 285.38782 286.12302 286.76529 287.58380
 366.78100 356.34722 345.79143 334.66965 323.08487 311.29108 299.17330 286.98852
 274.71273 262.62195 250.64317 239.95638 230.09060 221.20682 213.40103 206.41525
 200.26146 195.21168 191.80590 189.86011 188.90933 188.98555 189.83276 191.15298
 192.89020 194.99741 197.27263 199.64385 202.10106 204.59328 206.69350 208.54771
 210.18593 211.34315 211.58436 211.82458 211.77380 211.49101 211.13623 210.77845
 210.40766 210.12988 209.95009 209.82631 209.76653 210.10974 210.50796 210.90918
 211.71439 212.90461 214.16683 215.96204 217.90226 219.95748 222.06469 224.15991
 226.23213 228.32834 230.43756 232.55578 234.69699 236.88121 239.14943 241.53164
 244.16486 246.42808 248.44229 250.21951 251.64872 252.78394 253.61816 253.94637
 253.99559 253.78181 253.15402 252.11424 250.73246 248.90567 246.82689 244.67211
 242.47532 240.29154 238.12376 235.97497 233.84719 231.72641 229.76462 227.93384
 226.22906 224.71327 223.35549 222.13971 221.03392 220.00614 219.12236 218.27557
 217.52979 216.72200 215.83222 215.20844 214.67065 215.27818 216.73062 217.98032
 219.50758 221.28854 222.48907 222.22395 220.82129 219.97459 220.69971 223.19298
 226.58601 231.07089 235.98654 240.82413 245.39168 249.64940 253.54149 256.99850
 260.07578 262.86292 265.37277 267.60422 269.54587 271.27585 272.96536 274.55020
 275.45291 276.60687 278.19724 279.65054 280.90823 282.02100 283.03622 283.95593
 284.78311 285.51974 286.16321 286.98328
 366.78100 356.34671 345.79042 334.66813 323.08284 311.28856 299.17027 286.98498
 274.70869 262.61740 250.63811 239.95082 230.08453 221.20024 213.39395 206.40767
 200.25338 195.20309 191.79680 189.85051 188.89922 188.97493 189.82164 191.14135
 192.87806 194.98478 197.25949 199.63020 202.08691 204.57862 206.67833 208.53204
 210.16975 211.32646 211.56717 211.80689 211.75560 211.47231 211.11702 210.75873
 210.38744 210.10915 209.92886 209.80457 209.74428 210.08700 210.48471 210.88542
 211.69013 212.87984 214.14155 215.93626 217.87597 219.93068 222.03740 224.13211
 226.20382 228.29953 230.40824 232.52595 234.66666 236.85037 239.11808 241.49979
 244.13251 246.39522 248.40893 250.18564 251.61435 252.74906 253.58277 253.91048
 253.95919 253.74490 253.11662 252.07633 250.69404 248.86675 246.78746 244.63217
 242.43488 240.25059 238.08230 235.93301 233.80473 231.68344 229.72115 227.88986
 226.18457 224.66828 223.30999 222.09370 220.98741 219.95912 219.07484 218.22755
 217.48126 216.67297 215.78268 215.15839 214.62010 215.24347 216.72911 217.96307
 219.45923 221.29306 222.37305 221.97748 220.57942 219.78697 220.54958 223.21451
 226.70439 231.19800 236.10948 240.97977 245.55090 249.80826 253.69861 257.14154
 260.16190 262.89838 265.40369 267.63287 269.59341 271.36783 273.09506 274.49283
 275.06570 275.96216 276.75339 277.36218 277.88907 278.35519 278.78049 279.16574
 279.51227 279.82083 280.09039 280.43393
 366.78100 356.34644 345.78989 334.66733 323.08178 311.28722 299.16867 286.98311
 274.70655 262.61500 250.63544 239.94789 230.08133 221.19678 213.39022 206.40366
 200.24911 195.19855 191.79200 189.84544 188.89389 188.96933 189.81577 191.13522
 192.87166 194.97811 197.25255 199.62300 202.07944 204.57088 206.67033 208.52377
 210.16122 211.31766 211.55811 211.79755 211.74599 211.46244 211.10688 210.74833
 210.37677 210.09822 209.91766 209.79310 209.73255 210.07499 210.47244 210.87288
 211.67733 212.86677 214.12821 215.92266 217.86210 219.91655 222.02299 224.11744
 226.18888 228.28432 230.39277 232.51021 234.65066 236.83410 239.10155 241.48299
 244.11543 246.37788 248.39132 250.16777 251.59621 252.73066 253.56410 253.89154
 253.93999 253.72543 253.09688 252.05632 250.67377 248.84621 246.76666 244.61110
 242.41354 240.22899 238.06043 235.91088 233.78232 231.66077 229.69821 227.86665
 226.16110 224.64454 223.28599 222.06943 220.96288 219.93432 219.04976 218.20221
 217.45565 216.64710 215.75654 215.13199 214.59343 215.21420 216.70068 217.98381
 219.34792 221.21307 222.31335 221.79128 220.30394 219.48010 220.42491 223.21011
 226.83015 231.31941 236.22609 241.10742 245.69899 249.97029 253.87483 257.34195
 260.35699 263.00259 265.40384 267.61743 269.61685 271.42206 273.09607 274.35483
 274.98898 275.73779 276.52267 277.19766 277.71323 278.16937 278.58554 278.96259
 279.30167 279.60364 279.86743 280.20358
 354.97500 345.04800 334.58700 324.11500 313.32600 302.53700 291.65000 280.76700
 269.93100 259.19300 248.62200 238.61700 229.08700 220.35500 212.54000 205.53500
 199.46400 194.49300 191.14300 189.19000 188.08900 188.01400 188.72400 189.90600
 191.46900 193.38200 195.40300 197.55600 199.80700 202.06000 204.28800 206.47900
 208.55200 210.37800 212.02500 213.65900 214.99800 216.11800 217.17200 218.25900
 219.49400 220.64500 221.67900 222.61400 223.54500 224.98200 226.57100 228.19000
 229.79700 231.81100 233.86500 235.97200 238.24200 240.55300 242.89900 245.25300
 247.48800 249.53500 251.36600 252.84800 254.09800 255.16700 256.02700 256.25300
 256.09500 255.54300 253.93500 252.56600 251.38400 250.24500 249.05200 247.70100
 246.01600 243.99600 241.78400 239.39300 236.81300 234.22300 231.65800 229.14400
 226.74000 224.47300 222.33500 220.32500 218.44000 216.67700 214.96200 213.47200
 212.20000 211.10800 210.26000 209.63900 209.24400 209.03100 209.05800 209.33300
 209.78400 210.62600 211.33100 212.39100 213.62500 214.84668 217.72949 219.47640
 220.32566 220.86828 220.88710 220.27371 219.43733 218.84250 219.04934 220.86203
 222.60583 225.72206 229.03064 232.61777 236.12270 239.51333 242.70767 245.68587
 248.41061 250.90679 253.19353 254.91714 256.48655 257.94920 259.39966 260.69384
 261.81714 262.77997 263.71679 264.54570 265.26305 265.89772 266.47676 267.00133
 267.47312 267.89325 268.26027 268.72800
