|-------------------------------------------------------------------------|
|   File Name : in_temp.dat
|   Subject   : temperature profiles used for initial guess atmosphere
|   File Type : input of gmtr
|   Data Type : atmospherical data
|   Author/s  : WRF-Chem
|   Date      : Fri Jul 26 15:39:24 2024
|-------------------------------------------------------------------------|

 WRF-Chem temperature
#
 values of T (K)    (8f10.5)
#
 354.97500 345.04800 334.58700 324.11500 313.32600 302.53700 291.65000 280.76700
 269.93100 259.19300 248.62200 238.61700 229.08700 220.35500 212.54000 205.53500
 199.46400 194.49300 191.14300 189.19000 188.08900 188.01400 188.72400 189.90600
 191.46900 193.38200 195.40300 197.55600 199.80700 202.06000 204.28800 206.47900
 208.55200 210.37800 212.02500 213.65900 214.99800 216.11800 217.17200 218.25900
 219.49400 220.64500 221.67900 222.61400 223.54500 224.98200 226.57100 228.19000
 229.79700 231.81100 233.86500 235.97200 238.24200 240.55300 242.89900 245.25300
 247.48800 249.53500 251.36600 252.84800 254.09800 255.16700 256.02700 256.25300
 256.09500 255.54300 253.93500 252.56600 251.38400 250.24500 249.05200 247.70100
 246.01600 243.99600 241.78400 239.39300 236.81300 234.22300 231.65800 229.14400
 226.74000 224.47300 222.33500 220.32500 218.44000 216.67700 214.96200 213.47200
 212.20000 211.10800 210.26000 209.63900 209.24400 209.03100 209.05800 209.33300
 209.78400 210.62600 211.33100 212.39100 213.62500 214.84668 217.72949 219.47640
 220.32566 220.86828 220.88710 220.27371 219.43733 218.84250 219.04934 220.86203
 222.60583 225.72206 229.03064 232.61777 236.12270 239.51333 242.70767 245.68587
 248.41061 250.90679 253.19353 254.91714 256.48655 257.94920 259.39966 260.69384
 261.81714 262.77997 263.71679 264.54570 265.26305 265.89772 266.47676 267.00133
 267.47312 267.89325 268.26027 268.72800
 366.78100 356.33500 345.76700 334.63300 323.03600 311.23000 299.10000 286.90300
 274.61500 262.51200 250.52100 239.82200 229.94400 221.04800 213.23000 206.23200
 200.06600 195.00400 191.58600 189.62800 188.66500 188.72900 189.56400 190.87200
 192.59700 194.69200 196.95500 199.31400 201.75900 204.23900 206.32700 208.16900
 209.79500 210.94000 211.16900 211.39700 211.33400 211.03900 210.67200 210.30200
 209.91900 209.62900 209.43700 209.30100 209.22900 209.56000 209.94600 210.33500
 211.12800 212.30600 213.55600 215.33900 217.26700 219.31000 221.40500 223.48800
 225.54800 227.63200 229.72900 231.83500 233.96400 236.13600 238.39200 240.76200
 243.38300 245.63400 247.63600 249.40100 250.81800 251.94100 252.76300 253.07900
 253.11600 252.89000 252.25000 251.19800 249.80400 247.96500 245.87400 243.70700
 241.49800 239.30200 237.12200 234.96100 232.82100 230.68800 228.71400 226.87100
 225.15400 223.62600 222.25600 221.02800 219.91000 218.87000 217.97400 217.11500
 216.35700 215.53700 214.63500 213.99900 213.44900 212.85855 212.01316 212.61654
 214.26826 216.08686 218.14273 220.53346 223.40855 226.78828 231.49734 235.90155
 239.42278 243.28576 247.23140 251.11907 254.80144 258.23331 261.38913 264.27520
 266.89312 269.26852 271.44504 273.08845 274.58484 275.98591 277.39845 278.65879
 279.75272 280.69038 281.56708 282.34086 283.01050 283.60295 284.14348 284.63317
 285.07358 285.46577 285.80838 286.24500
 381.81900 372.39900 361.20600 349.77600 337.62200 324.85300 311.81000 298.35300
 284.86000 271.32400 258.56100 246.30400 236.08700 226.79600 218.44800 211.29000
 205.52200 200.89400 197.38100 194.84800 193.01500 192.31500 192.25000 192.43100
 192.91200 193.53700 194.13600 194.71200 195.26200 195.83100 196.39300 196.97600
 197.60400 198.14900 198.58400 199.05700 199.69500 200.37800 201.05400 201.70800
 202.31300 202.85700 203.35500 203.86200 204.56900 205.29700 206.02600 206.98700
 208.19300 209.44100 210.96900 212.57600 214.46200 216.51300 218.63000 220.85300
 223.34100 225.96200 228.73900 231.69700 234.70600 237.70600 240.69200 243.65700
 246.73700 249.69900 252.52100 255.06300 257.29000 259.23300 260.63300 261.68000
 262.46100 262.79800 262.69100 262.22400 261.06900 259.52500 257.70700 255.50700
 253.00100 250.30200 247.39800 244.45200 241.65400 239.05400 236.73300 234.59000
 232.59500 230.72500 228.83400 226.82600 224.66600 222.38700 220.10400 217.71500
 215.45900 213.06600 210.54600 208.09300 205.35400 202.08130 196.05959 200.71215
 209.01611 216.90438 223.84126 229.78593 235.00632 240.20838 245.98943 250.68668
 254.32982 257.93487 261.55666 264.96801 268.15192 271.06452 273.76717 276.25691
 278.57680 280.74479 282.77456 284.60533 286.27232 287.81705 289.31715 290.65561
 291.81734 292.81312 293.70701 294.49387 295.17482 295.77730 296.32696 296.82492
 297.27278 297.67160 298.02000 298.46400
 399.33000 389.90700 379.81300 368.66800 357.52200 345.30100 333.07400 320.22700
 307.21600 293.84800 280.37600 267.29600 254.61000 242.98700 232.15100 221.97700
 212.67200 204.28600 197.66900 192.82100 189.48600 187.45200 186.81400 187.08900
 187.78100 189.05400 190.64800 192.54200 194.63000 196.75200 198.67100 200.15800
 201.53500 202.48700 202.97500 203.34000 203.53900 203.49700 203.38500 203.24700
 203.00500 202.78600 202.60300 202.43700 202.42600 202.88800 203.42000 203.95100
 204.89500 205.99200 207.30100 208.95800 210.73800 213.10000 215.56400 218.18000
 220.96600 223.91800 226.96100 230.09200 233.29300 236.55700 239.95500 243.53700
 246.84500 249.39000 251.54200 253.47400 255.19500 256.48400 257.43100 258.05900
 258.21200 258.04000 257.58200 256.64300 255.23900 253.50700 251.40800 249.05600
 246.57600 243.99400 241.38900 238.83000 236.34400 233.98600 231.96900 230.11800
 228.42300 226.89900 225.54800 224.29700 223.10500 221.96500 220.95800 220.11300
 219.49000 218.92000 218.32500 217.88100 217.42300 216.96366 216.35568 216.80261
 217.73415 218.28582 218.64258 219.10077 220.44626 222.53987 226.38451 230.35736
 233.59734 237.39164 241.29814 245.22796 248.98002 252.51130 255.78595 258.80109
 261.54781 264.05210 266.34239 268.04198 269.58951 271.01303 272.35754 273.55718
 274.59842 275.49092 276.28989 276.99307 277.60161 278.14001 278.63122 279.07623
 279.47646 279.83287 280.14422 280.54100
 399.73800 389.78500 379.66200 368.15100 356.64100 344.35000 331.79200 318.88800
 305.72600 292.49300 279.20900 266.73800 254.69600 244.21100 234.45700 225.43300
 217.56900 210.45100 204.30000 199.30600 195.45800 192.57600 191.02700 190.38600
 190.23900 190.53400 191.16600 191.92500 192.79500 193.76600 194.73200 195.31200
 195.80000 196.05200 196.11500 196.11500 196.03900 195.72300 195.34000 194.98900
 194.75100 194.79200 195.13300 195.59800 196.50600 198.13600 199.85800 201.56600
 204.17900 206.82300 209.89300 213.28400 216.82800 220.60500 224.38700 228.20900
 232.03200 235.82500 239.56000 243.25800 246.84500 250.20100 253.70900 257.46800
 261.53000 264.22100 266.60100 268.68100 270.32900 271.74100 272.83600 273.47400
 273.89800 274.00200 273.75700 273.28800 272.37100 271.10000 269.58900 267.77900
 265.81600 263.72100 261.39300 258.91600 256.29800 253.42300 250.33100 247.11400
 243.83700 240.52900 237.24900 233.99900 230.72800 227.51500 224.25400 220.95200
 217.62700 213.65600 210.12100 206.78900 204.01000 201.99491 199.07309 198.76551
 199.40006 200.48994 201.46112 202.31912 203.45100 204.96110 207.47502 210.85391
 213.70530 217.29629 220.99574 224.72316 228.28753 231.64854 234.68024 237.40893
 239.70644 241.60899 243.46854 245.67368 247.68154 249.52395 251.24767 252.78566
 254.12057 255.26479 256.23740 257.09036 257.82852 258.48160 259.07744 259.61723
 260.10271 260.53504 260.91270 261.39400
 399.73800 389.78500 379.66200 368.15100 356.64100 344.35000 331.79200 318.88800
 305.72600 292.49300 279.20900 266.73800 254.69600 244.21100 234.45700 225.43300
 217.56900 210.45100 204.30000 199.30600 195.45800 192.57600 191.02700 190.38600
 190.23900 190.53400 191.16600 191.92500 192.79500 193.76600 194.73200 195.31200
 195.80000 196.05200 196.11500 196.11500 196.03900 195.72300 195.34000 194.98900
 194.75100 194.79200 195.13300 195.59800 196.50600 198.13600 199.85800 201.56600
 204.17900 206.82300 209.89300 213.28400 216.82800 220.60500 224.38700 228.20900
 232.03200 235.82500 239.56000 243.25800 246.84500 250.20100 253.70900 257.46800
 261.53000 264.22100 266.60100 268.68100 270.32900 271.74100 272.83600 273.47400
 273.89800 274.00200 273.75700 273.28800 272.37100 271.10000 269.58900 267.77900
 265.81600 263.72100 261.39300 258.91600 256.29800 253.42300 250.33100 247.11400
 243.83700 240.52900 237.24900 233.99900 230.72800 227.51500 224.25400 220.95200
 217.62700 213.65600 210.12100 206.78900 204.01000 201.99491 199.07309 198.76551
 199.40006 200.48994 201.46112 202.31912 203.45100 204.96110 207.47502 210.85391
 213.70530 217.29629 220.99574 224.72316 228.28753 231.64854 234.68024 237.40893
 239.70644 241.60899 243.46854 245.67368 247.68154 249.52395 251.24767 252.78566
 254.12057 255.26479 256.23740 257.09036 257.82852 258.48160 259.07744 259.61723
 260.10271 260.53504 260.91270 261.39400
 399.33000 389.90700 379.81300 368.66800 357.52200 345.30100 333.07400 320.22700
 307.21600 293.84800 280.37600 267.29600 254.61000 242.98700 232.15100 221.97700
 212.67200 204.28600 197.66900 192.82100 189.48600 187.45200 186.81400 187.08900
 187.78100 189.05400 190.64800 192.54200 194.63000 196.75200 198.67100 200.15800
 201.53500 202.48700 202.97500 203.34000 203.53900 203.49700 203.38500 203.24700
 203.00500 202.78600 202.60300 202.43700 202.42600 202.88800 203.42000 203.95100
 204.89500 205.99200 207.30100 208.95800 210.73800 213.10000 215.56400 218.18000
 220.96600 223.91800 226.96100 230.09200 233.29300 236.55700 239.95500 243.53700
 246.84500 249.39000 251.54200 253.47400 255.19500 256.48400 257.43100 258.05900
 258.21200 258.04000 257.58200 256.64300 255.23900 253.50700 251.40800 249.05600
 246.57600 243.99400 241.38900 238.83000 236.34400 233.98600 231.96900 230.11800
 228.42300 226.89900 225.54800 224.29700 223.10500 221.96500 220.95800 220.11300
 219.49000 218.92000 218.32500 217.88100 217.42300 216.96366 216.35568 216.80261
 217.73415 218.28582 218.64258 219.10077 220.44626 222.53987 226.38451 230.35736
 233.59734 237.39164 241.29814 245.22796 248.98002 252.51130 255.78595 258.80109
 261.54781 264.05210 266.34239 268.04198 269.58951 271.01303 272.35754 273.55718
 274.59842 275.49092 276.28989 276.99307 277.60161 278.14001 278.63122 279.07623
 279.47646 279.83287 280.14422 280.54100
 381.81900 372.39900 361.20600 349.77600 337.62200 324.85300 311.81000 298.35300
 284.86000 271.32400 258.56100 246.30400 236.08700 226.79600 218.44800 211.29000
 205.52200 200.89400 197.38100 194.84800 193.01500 192.31500 192.25000 192.43100
 192.91200 193.53700 194.13600 194.71200 195.26200 195.83100 196.39300 196.97600
 197.60400 198.14900 198.58400 199.05700 199.69500 200.37800 201.05400 201.70800
 202.31300 202.85700 203.35500 203.86200 204.56900 205.29700 206.02600 206.98700
 208.19300 209.44100 210.96900 212.57600 214.46200 216.51300 218.63000 220.85300
 223.34100 225.96200 228.73900 231.69700 234.70600 237.70600 240.69200 243.65700
 246.73700 249.69900 252.52100 255.06300 257.29000 259.23300 260.63300 261.68000
 262.46100 262.79800 262.69100 262.22400 261.06900 259.52500 257.70700 255.50700
 253.00100 250.30200 247.39800 244.45200 241.65400 239.05400 236.73300 234.59000
 232.59500 230.72500 228.83400 226.82600 224.66600 222.38700 220.10400 217.71500
 215.45900 213.06600 210.54600 208.09300 205.35400 202.08130 196.05959 200.71215
 209.01611 216.90438 223.84126 229.78593 235.00632 240.20838 245.98943 250.68668
 254.32982 257.93487 261.55666 264.96801 268.15192 271.06452 273.76717 276.25691
 278.57680 280.74479 282.77456 284.60533 286.27232 287.81705 289.31715 290.65561
 291.81734 292.81312 293.70701 294.49387 295.17482 295.77730 296.32696 296.82492
 297.27278 297.67160 298.02000 298.46400
 366.78100 356.33946 345.77592 334.64638 323.05384 311.25230 299.12676 286.93423
 274.65069 262.55215 250.56561 239.87107 229.99753 221.10599 213.29245 206.29891
 200.13737 195.07983 191.66629 189.71276 188.75422 188.82268 189.66214 190.97460
 192.70406 194.80352 197.07098 199.43444 201.88390 204.36836 206.46082 208.30728
 209.93775 211.08721 211.32067 211.55313 211.49459 211.20405 210.84151 210.47597
 210.09743 209.81189 209.62435 209.49281 209.42528 209.76074 210.15120 210.54466
 211.34212 212.52458 213.77904 215.56650 217.49896 219.54642 221.64588 223.73334
 225.79781 227.88627 229.98773 232.09819 234.23165 236.40811 238.66857 241.04303
 243.66849 245.92395 247.93041 249.69987 251.12133 252.24880 253.07526 253.39572
 253.43718 253.21564 252.58010 251.53256 250.14302 248.30848 246.22194 244.05940
 241.85486 239.66333 237.48779 235.33125 233.19571 231.06717 229.09763 227.25909
 225.54655 224.02301 222.65747 221.43393 220.32039 219.28485 218.39332 217.53878
 216.78524 215.96970 215.07216 214.44062 213.89508 212.95999 210.75891 210.16273
 210.56949 211.34052 212.78207 215.29999 219.19511 223.96037 229.68306 234.80347
 238.70221 242.65936 246.83754 251.01909 254.82037 258.58545 261.43790 263.22879
 265.85815 268.66995 271.14883 273.12390 275.11975 277.05093 278.54581 280.03821
 281.68954 283.24326 284.72751 286.08618 287.26550 288.31094 289.26529 290.13089
 290.91498 291.61478 292.23297 293.05045
 366.78100 356.33965 345.77629 334.64694 323.05458 311.25323 299.12787 286.93552
 274.65217 262.55381 250.56746 239.87310 229.99975 221.10839 213.29504 206.30169
 200.14033 195.08298 191.66962 189.71627 188.75791 188.82656 189.66621 190.97885
 192.70850 194.80814 197.07579 199.43944 201.88908 204.37373 206.46637 208.31302
 209.94366 211.09331 211.32696 211.55960 211.50125 211.21089 210.84854 210.48318
 210.10483 209.81948 209.63212 209.50077 209.43341 209.76906 210.15970 210.55335
 211.35100 212.53364 213.78829 215.57593 217.50858 219.55622 221.65587 223.74352
 225.80816 227.89681 229.99845 232.10910 234.24274 236.41939 238.68004 241.05468
 243.68033 245.93597 247.94262 249.71226 251.13391 252.26156 253.08820 253.40885
 253.45049 253.22914 252.59378 251.54643 250.15708 248.32272 246.23637 244.07401
 241.86966 239.67831 237.50295 235.34660 233.21124 231.08289 229.11353 227.27518
 225.56283 224.03947 222.67412 221.45076 220.33741 219.30205 218.41070 217.55635
 216.80299 215.98764 215.09028 214.45893 213.91357 213.00095 210.85222 210.27756
 210.57379 211.38593 212.84225 215.28018 219.08144 223.88078 229.61917 234.73729
 238.62752 242.57272 246.75314 250.94949 254.76555 258.53555 261.39526 263.20068
 265.83832 268.65686 271.12772 273.05331 275.04706 277.01056 278.48254 279.94678
 281.59967 283.15921 284.64261 286.00223 287.18140 288.22556 289.18030 290.04834
 290.83148 291.53177 292.15067 292.96982
 366.78100 356.33963 345.77627 334.64690 323.05454 311.25317 299.12780 286.93544
 274.65207 262.55371 250.56734 239.87298 229.99961 221.10824 213.29488 206.30151
 200.14015 195.08278 191.66941 189.71605 188.75768 188.82632 189.66595 190.97859
 192.70822 194.80785 197.07549 199.43912 201.88876 204.37339 206.46602 208.31266
 209.94329 211.09293 211.32656 211.55920 211.50083 211.21046 210.84810 210.48273
 210.10437 209.81900 209.63163 209.50027 209.43290 209.76854 210.15917 210.55280
 211.35044 212.53307 213.78771 215.57534 217.50798 219.55561 221.65524 223.74288
 225.80751 227.89615 229.99778 232.10841 234.24205 236.41868 238.67932 241.05395
 243.67959 245.93522 247.94185 249.71149 251.13312 252.26076 253.08739 253.40802
 253.44966 253.22829 252.59293 251.54556 250.15620 248.32183 246.23546 244.07310
 241.86873 239.67737 237.50200 235.34563 233.21027 231.08190 229.11254 227.27417
 225.56180 224.03844 222.67307 221.44971 220.33634 219.30098 218.40961 217.55524
 216.80188 215.98651 215.08915 214.45778 213.91241 213.03134 210.95619 210.38855
 210.58284 211.43320 212.89096 215.26140 218.97453 223.79205 229.56482 234.67450
 238.55344 242.48708 246.66869 250.88046 254.71266 258.48627 261.35104 263.17004
 265.81250 268.63690 271.10196 272.98181 274.97427 276.96960 278.42355 279.85822
 281.51254 283.07578 284.55951 285.91861 287.09787 288.14270 289.09763 289.96451
 290.74728 291.45178 292.06970 292.88983
 366.78100 356.33946 345.77591 334.64637 323.05382 311.25228 299.12673 286.93419
 274.65065 262.55210 250.56556 239.87101 229.99747 221.10593 213.29238 206.29884
 200.13729 195.07975 191.66620 189.71266 188.75412 188.82257 189.66203 190.97448
 192.70394 194.80339 197.07085 199.43431 201.88376 204.36822 206.46067 208.30713
 209.93758 211.08704 211.32050 211.55295 211.49441 211.20386 210.84132 210.47578
 210.09723 209.81169 209.62414 209.49260 209.42505 209.76051 210.15097 210.54442
 211.34188 212.52433 213.77879 215.56624 217.49870 219.54616 221.64561 223.73307
 225.79752 227.88598 229.98743 232.09789 234.23135 236.40780 238.66826 241.04271
 243.66817 245.92363 247.93008 249.69954 251.12099 252.24845 253.07490 253.39536
 253.43682 253.21527 252.57973 251.53218 250.14264 248.30809 246.22155 244.05901
 241.85446 239.66292 237.48737 235.33083 233.19528 231.06674 229.09720 227.25865
 225.54611 224.02256 222.65702 221.43348 220.31993 219.28439 218.39284 217.53830
 216.78475 215.96921 215.07167 214.44012 213.89458 213.05203 211.06686 210.49498
 210.60284 211.48050 212.91934 215.24077 218.88750 223.70224 229.51320 234.61147
 238.47939 242.40160 246.58429 250.81088 254.66165 258.43747 261.30569 263.13641
 265.78067 268.60956 271.06940 272.91077 274.90152 276.92731 278.36865 279.77628
 281.42804 282.99478 284.47656 285.83533 287.01620 288.06061 289.01526 289.88348
 290.66861 291.36923 291.98923 292.81110
 366.78100 356.33916 345.77533 334.64549 323.05265 311.25082 299.12498 286.93214
 274.64831 262.54947 250.56263 239.86780 229.99396 221.10212 213.28829 206.29445
 200.13261 195.07478 191.66094 189.70710 188.74827 188.81643 189.65560 190.96776
 192.69692 194.79609 197.06325 199.42641 201.87558 204.35974 206.45190 208.29807
 209.92823 211.07739 211.31056 211.54272 211.48388 211.19305 210.83021 210.46437
 210.08554 209.79970 209.61186 209.48003 209.41219 209.74735 210.13752 210.53068
 211.32784 212.51001 213.76417 215.55133 217.48350 219.53066 221.62982 223.71699
 225.78115 227.86931 229.97048 232.08064 234.21380 236.38997 238.65013 241.02429
 243.64946 245.90462 247.91079 249.67995 251.10111 252.22828 253.05444 253.37460
 253.41577 253.19393 252.55809 251.51026 250.12042 248.28558 246.19875 244.03591
 241.83107 239.63924 237.46340 235.30656 233.17073 231.04189 229.07205 227.23322
 225.52038 223.99654 222.63071 221.40687 220.29303 219.25720 218.36536 217.51052
 216.75669 215.94085 215.04301 214.41118 213.86534 213.06653 211.18369 210.59746
 210.63855 211.51955 212.93634 215.22585 218.81177 223.61130 229.45825 234.54555
 238.40385 242.31773 246.50117 250.74246 254.61337 258.39072 261.26080 263.10086
 265.74271 268.57321 271.03003 272.83725 274.82837 276.88104 278.31674 279.70236
 281.34845 282.91556 284.39639 285.75439 286.93573 287.97913 288.93405 289.80051
 290.58719 291.29092 291.90866 292.73679
 366.78100 356.33884 345.77469 334.64453 323.05137 311.24921 299.12306 286.92990
 274.64574 262.54658 250.55943 239.86427 229.99011 221.09795 213.28380 206.28964
 200.12748 195.06933 191.65517 189.70101 188.74185 188.80970 189.64854 190.96038
 192.68922 194.78807 197.05491 199.41775 201.86659 204.35044 206.44228 208.28812
 209.91797 211.06681 211.29965 211.53149 211.47234 211.18118 210.81802 210.45186
 210.07271 209.78655 209.59839 209.46623 209.39808 209.73292 210.12276 210.51561
 211.31245 212.49429 213.74813 215.53498 217.46682 219.51366 221.61250 223.69935
 225.76319 227.85103 229.95187 232.06172 234.19456 236.37040 238.63025 241.00409
 243.62893 245.88377 247.88962 249.65846 251.07930 252.20614 253.03199 253.35183
 253.39267 253.17052 252.53436 251.48620 250.09604 248.26089 246.17373 244.01057
 241.80541 239.61326 237.43710 235.27994 233.14378 231.01463 229.04447 227.20531
 225.49216 223.96800 222.60184 221.37768 220.26353 219.22737 218.33521 217.48005
 216.72590 215.90974 215.01158 214.37942 213.83327 213.07861 211.29922 210.70488
 210.68535 211.54739 212.94997 215.21634 218.73935 223.51901 229.39929 234.47650
 238.32889 242.23590 246.41922 250.67377 254.56766 258.34561 261.21674 263.06506
 265.69858 268.52670 270.98264 272.76166 274.75284 276.82962 278.26624 279.63528
 281.27304 282.83771 284.31726 285.67551 286.85599 287.90128 288.85599 289.72412
 290.50925 291.21338 291.83435 292.65659
 366.78100 356.33843 345.77385 334.64328 323.04971 311.24713 299.12056 286.92699
 274.64241 262.54284 250.55527 239.85969 229.98512 221.09255 213.27797 206.28340
 200.12083 195.06225 191.64768 189.69311 188.73353 188.80096 189.63939 190.95081
 192.67924 194.77767 197.04409 199.40652 201.85495 204.33837 206.42980 208.27523
 209.90465 211.05308 211.28551 211.51694 211.45736 211.16579 210.80222 210.43564
 210.05607 209.76950 209.58092 209.44835 209.37978 209.71420 210.10363 210.49606
 211.29248 212.47391 213.72734 215.51376 217.44519 219.49162 221.59004 223.67647
 225.73990 227.82732 229.92775 232.03718 234.16960 236.34503 238.60446 240.97788
 243.60231 245.85674 247.86216 249.63059 251.05102 252.17744 253.00287 253.32230
 253.36272 253.14015 252.50358 251.45500 250.06443 248.22886 246.14128 243.97771
 241.77214 239.57956 237.40299 235.24542 233.10884 230.97927 229.00870 227.16912
 225.45555 223.93098 222.56440 221.33983 220.22526 219.18868 218.29611 217.44054
 216.68596 215.86939 214.97082 214.33825 213.79167 213.08446 211.41631 210.81876
 210.74237 211.56319 212.95854 215.21103 218.67188 223.42807 229.33859 234.40475
 238.25000 242.15114 246.33510 250.60359 254.52528 258.30557 261.17767 263.03513
 265.65121 268.47150 270.92648 272.68271 274.67264 276.77051 278.21616 279.57520
 281.20319 282.76117 284.24008 285.59735 286.77811 287.82333 288.77689 289.64517
 290.43228 291.13477 291.75754 292.58185
 366.78100 356.33793 345.77285 334.64178 323.04770 311.24463 299.11755 286.92348
 274.63840 262.53833 250.55025 239.85418 229.97910 221.08603 213.27095 206.27588
 200.11280 195.05373 191.63865 189.68358 188.72350 188.79043 189.62835 190.93928
 192.66720 194.76513 197.03105 199.39298 201.84090 204.32383 206.41475 208.25968
 209.88860 211.03653 211.26845 211.49938 211.43930 211.14723 210.78315 210.41608
 210.03600 209.74893 209.55985 209.42678 209.35770 209.69163 210.08055 210.47248
 211.26840 212.44933 213.70225 215.48818 217.41910 219.46503 221.56295 223.64888
 225.71180 227.79873 229.89865 232.00758 234.13950 236.31443 238.57335 240.94628
 243.57020 245.82413 247.82905 249.59698 251.01690 252.14283 252.96775 253.28668
 253.32660 253.10353 252.46645 251.41738 250.02630 248.19023 246.10215 243.93808
 241.73200 239.53893 237.36185 235.20378 233.06670 230.93663 228.96555 227.12548
 225.41140 223.88633 222.51925 221.29418 220.17910 219.14203 218.24895 217.39288
 216.63780 215.82073 214.92165 214.28858 213.74150 213.08490 211.53564 210.93652
 210.80493 211.58261 212.96175 215.20409 218.60506 223.33559 229.27579 234.32916
 238.16866 242.06577 246.25012 250.53355 254.48759 258.27127 261.14325 263.00842
 265.59958 268.40704 270.86014 272.60022 274.59042 276.70486 278.16647 279.52490
 281.13947 282.68713 284.16208 285.51984 286.69852 287.74423 288.70032 289.56696
 290.35474 291.05722 291.67975 292.50717
 366.78100 356.33772 345.77243 334.64115 323.04686 311.24358 299.11629 286.92201
 274.63672 262.53644 250.54815 239.85187 229.97658 221.08330 213.26801 206.27273
 200.10944 195.05016 191.63487 189.67959 188.71930 188.78602 189.62373 190.93445
 192.66216 194.75988 197.02560 199.38731 201.83503 204.31774 206.40846 208.25317
 209.88189 211.02960 211.26132 211.49203 211.43175 211.13946 210.77518 210.40789
 210.02761 209.74032 209.55104 209.41775 209.34847 209.68218 210.07090 210.46261
 211.25833 212.43904 213.69176 215.47748 217.40819 219.45391 221.55162 223.63734
 225.70005 227.78677 229.88648 231.99520 234.12691 236.30163 238.56034 240.93306
 243.55677 245.81049 247.81520 249.58292 251.00263 252.12835 252.95306 253.27178
 253.31149 253.08821 252.45092 251.40164 250.01036 248.17407 246.08579 243.92150
 241.71522 239.52193 237.34465 235.18636 233.04908 230.91879 228.94751 227.10722
 225.39294 223.86765 222.50037 221.27508 220.15980 219.12251 218.22923 217.37294
 216.61766 215.80037 214.90109 214.26780 213.72052 213.09956 211.63414 211.07297
 210.87273 211.59346 212.96364 215.18964 218.54726 223.24942 229.21158 234.25414
 238.08693 241.98003 246.16313 250.45972 254.45045 258.23743 261.10699 262.97983
 265.54263 268.33499 270.78763 272.51819 274.50748 276.63699 278.12381 279.48724
 281.08514 282.61783 284.08246 285.43781 286.61874 287.66425 288.61948 289.48798
 290.27563 290.97833 291.60120 292.42999
 366.78100 356.33728 345.77157 334.63985 323.04514 311.24142 299.11371 286.91899
 274.63327 262.53256 250.54384 239.84713 229.97141 221.07770 213.26198 206.26626
 200.10255 195.04283 191.62712 189.67140 188.71069 188.77697 189.61425 190.92454
 192.65182 194.74911 197.01439 199.37568 201.82296 204.30524 206.39553 208.23981
 209.86810 211.01538 211.24667 211.47695 211.41623 211.12352 210.75880 210.39109
 210.01037 209.72266 209.53294 209.39922 209.32951 209.66279 210.05108 210.44236
 211.23765 212.41793 213.67021 215.45550 217.38578 219.43107 221.52835 223.61364
 225.67592 227.76220 229.86149 231.96977 234.10106 236.27534 238.53363 240.90591
 243.52919 245.78248 247.78676 249.55405 250.97333 252.09862 252.92290 253.24118
 253.28047 253.05675 252.41904 251.36932 249.97761 248.14089 246.05217 243.88746
 241.68074 239.48703 237.30931 235.15060 233.01288 230.88216 228.91045 227.06973
 225.35502 223.82930 222.46159 221.23587 220.12015 219.08244 218.18872 217.33201
 216.57629 215.75858 214.85886 214.22514 213.67743 213.10272 211.74612 211.19487
 210.97243 211.58279 212.96031 215.20679 218.47534 223.16397 229.14952 234.17477
 237.99678 241.88455 246.06778 250.38065 254.41541 258.20688 261.07626 262.96191
 265.48795 268.25858 270.71182 272.43585 274.42282 276.56290 278.07990 279.45596
 281.03510 282.55154 284.00284 285.35779 286.53915 287.58417 288.53973 289.40915
 290.19534 290.90088 291.52310 292.35315
 366.78100 356.33765 345.77229 334.64094 323.04658 311.24323 299.11587 286.92152
 274.63616 262.53581 250.54745 239.85110 229.97575 221.08239 213.26704 206.27168
 200.10833 195.04897 191.63362 189.67826 188.71791 188.78455 189.62220 190.93285
 192.66049 194.75814 197.02378 199.38543 201.83307 204.31572 206.40636 208.25101
 209.87965 211.02730 211.25895 211.48959 211.42924 211.13688 210.77253 210.40517
 210.02482 209.73746 209.54811 209.41476 209.34540 209.67905 210.06769 210.45934
 211.25498 212.43563 213.68827 215.47392 217.40456 219.45021 221.54786 223.63350
 225.69615 227.78279 229.88244 231.99108 234.12273 236.29737 238.55602 240.92866
 243.55231 245.80596 247.81060 249.57825 250.99789 252.12354 252.94818 253.26683
 253.30647 253.08312 252.44576 251.39641 250.00506 248.16870 246.08035 243.91599
 241.70964 239.51628 237.33893 235.18057 233.04322 230.91286 228.94151 227.10116
 225.38680 223.86145 222.49409 221.26874 220.15338 219.11603 218.22267 217.36632
 216.61096 215.79361 214.89426 214.26090 213.71355 213.14529 211.80388 211.34865
 211.06717 211.62373 212.95555 215.17009 218.41331 223.07663 229.07428 234.07716
 237.89310 241.78381 245.97371 250.30768 254.39160 258.19119 261.06296 262.96124
 265.43674 268.17630 270.62628 272.34293 274.32825 276.47592 278.02347 279.41940
 280.98547 282.48328 283.92398 285.27835 286.45981 287.50436 288.46106 289.33032
 290.11743 290.82504 291.44443 292.27829
 366.78100 356.33839 345.77379 334.64318 323.04957 311.24697 299.12036 286.92675
 274.64215 262.54254 250.55493 239.85933 229.98472 221.09211 213.27751 206.28290
 200.12029 195.06169 191.64708 189.69247 188.73287 188.80026 189.63865 190.95005
 192.67844 194.77683 197.04323 199.40562 201.85401 204.33741 206.42880 208.27419
 209.90359 211.05198 211.28437 211.51577 211.45616 211.16455 210.80095 210.43434
 210.05473 209.76813 209.57952 209.44691 209.37831 209.71270 210.10209 210.49449
 211.29088 212.47227 213.72567 215.51206 217.44345 219.48984 221.58824 223.67463
 225.73802 227.82542 229.92581 232.03520 234.16760 236.34299 238.60238 240.97578
 243.60017 245.85456 247.85996 249.62835 251.04874 252.17514 253.00053 253.31992
 253.36032 253.13771 252.50110 251.45250 250.06189 248.22628 246.13868 243.97507
 241.76946 239.57686 237.40025 235.24264 233.10604 230.97643 229.00582 227.16622
 225.45261 223.92800 222.56140 221.33679 220.22218 219.18558 218.29297 217.43736
 216.68276 215.86615 214.96754 214.33494 213.78833 213.21072 211.84706 211.44720
 211.27286 211.69208 212.91847 215.08015 218.28923 222.97354 229.00557 233.99486
 237.81416 241.70901 245.89865 250.24953 254.38113 258.18488 261.05164 262.95605
 265.37704 268.08197 270.52567 272.23602 274.22647 276.37958 277.95999 279.38422
 280.93597 282.41757 283.84567 285.20096 286.38123 287.42728 288.38391 289.25354
 290.04196 290.74619 291.36996 292.20520
 366.78100 356.33773 345.77246 334.64119 323.04692 311.24365 299.11638 286.92211
 274.63684 262.53657 250.54830 239.85202 229.97675 221.08348 213.26821 206.27294
 200.10967 195.05040 191.63513 189.67986 188.71959 188.78632 189.62405 190.93478
 192.66251 194.76024 197.02597 199.38770 201.83543 204.31816 206.40889 208.25362
 209.88235 211.03007 211.26180 211.49253 211.43226 211.13999 210.77572 210.40845
 210.02818 209.74091 209.55164 209.41837 209.34910 209.68283 210.07156 210.46329
 211.25902 212.43975 213.69248 215.47821 217.40894 219.45467 221.55240 223.63812
 225.70085 227.78758 229.88731 231.99604 234.12777 236.30250 238.56123 240.93396
 243.55769 245.81142 247.81615 249.58388 251.00361 252.12934 252.95407 253.27280
 253.31253 253.08926 252.45199 251.40272 250.01145 248.17517 246.08690 243.92263
 241.71636 239.52309 237.34582 235.18755 233.05028 230.92001 228.94874 227.10847
 225.39420 223.86893 222.50166 221.27639 220.16112 219.12385 218.23058 217.37431
 216.61904 215.80177 214.90250 214.26922 213.72195 213.20660 211.98944 211.48521
 211.39160 211.78526 212.90839 214.99261 218.16234 222.90424 228.97044 233.95190
 237.76210 241.64972 245.82841 250.18861 254.36670 258.16721 261.01776 262.92929
 265.30405 267.97818 270.41943 272.13046 274.12717 276.28656 277.90469 279.35818
 280.89343 282.35800 283.76920 285.12439 286.30563 287.35089 288.30756 289.17798
 289.96457 290.67401 291.29553 292.12772
 366.78100 356.33689 345.77079 334.63868 323.04358 311.23947 299.11137 286.91626
 274.63016 262.52905 250.53994 239.84284 229.96673 221.07263 213.25652 206.26042
 200.09631 195.03621 191.62010 189.66399 188.70289 188.76878 189.60568 190.91557
 192.64247 194.73936 197.00426 199.36515 201.81204 204.29394 206.38383 208.22773
 209.85562 211.00252 211.23341 211.46331 211.40220 211.10909 210.74399 210.37588
 209.99478 209.70667 209.51657 209.38246 209.31235 209.64525 210.03314 210.42404
 211.21893 212.39883 213.65072 215.43562 217.36551 219.41040 221.50730 223.59219
 225.65409 227.73998 229.83888 231.94677 234.07767 236.25156 238.50945 240.88135
 243.50424 245.75714 247.76103 249.52793 250.94682 252.07172 252.89561 253.21350
 253.25240 253.02829 252.39019 251.34008 249.94798 248.11087 246.02177 243.85666
 241.64955 239.45545 237.27734 235.11824 232.98013 230.84903 228.87692 227.03582
 225.32071 223.79460 222.42650 221.20039 220.08429 219.04618 218.15208 217.29497
 216.53887 215.72076 214.82065 214.18655 213.63844 213.19254 212.13913 211.55103
 211.42938 211.84155 212.90192 214.98105 218.12700 222.87254 228.93983 233.90050
 237.69051 241.56839 245.74002 250.11375 254.34178 258.13635 260.96918 262.89365
 265.22879 267.87561 270.31772 272.03476 274.03561 276.19891 277.85904 279.34073
 280.85806 282.30469 283.69568 285.05066 286.23010 287.27789 288.23459 289.10553
 289.89468 290.60043 291.22449 292.06235
 366.78100 356.33679 345.77059 334.63838 323.04317 311.23896 299.11076 286.91555
 274.62934 262.52813 250.53893 239.84172 229.96551 221.07130 213.25510 206.25889
 200.09468 195.03447 191.61827 189.66206 188.70085 188.76664 189.60344 190.91323
 192.64002 194.73681 197.00161 199.36240 201.80919 204.29098 206.38078 208.22457
 209.85236 210.99915 211.22995 211.45974 211.39853 211.10532 210.74012 210.37191
 209.99070 209.70249 209.51229 209.37808 209.30787 209.64066 210.02846 210.41925
 211.21404 212.39383 213.64563 215.43042 217.36021 219.40500 221.50180 223.58659
 225.64838 227.73417 229.83297 231.94076 234.07155 236.24534 238.50314 240.87493
 243.49772 245.75051 247.75431 249.52110 250.93989 252.06468 252.88848 253.20627
 253.24506 253.02085 252.38265 251.33244 249.94023 248.10302 246.01382 243.84861
 241.64140 239.44719 237.26899 235.10978 232.97157 230.84036 228.86816 227.02695
 225.31174 223.78553 222.41733 221.19112 220.07491 219.03670 218.14250 217.28529
 216.52908 215.71087 214.81067 214.17646 213.62825 213.21523 212.23943 211.65504
 211.45239 211.88622 212.89325 214.99782 218.14711 222.83861 228.89545 233.82401
 237.59673 241.47173 245.64534 250.03772 254.31781 258.10648 260.92303 262.86206
 265.15656 267.77487 270.21658 271.94455 273.94705 276.11191 277.81281 279.32526
 280.82480 282.25320 283.62515 284.98083 286.16095 287.20639 288.16544 289.03577
 289.82434 290.53079 291.15619 291.99069
 366.78100 356.33702 345.77105 334.63907 323.04410 311.24012 299.11215 286.91717
 274.63119 262.53022 250.54124 239.84427 229.96829 221.07432 213.25834 206.26236
 200.09839 195.03841 191.62244 189.66646 188.70549 188.77151 189.60853 190.91856
 192.64558 194.74261 197.00763 199.36866 201.81568 204.29770 206.38773 208.23175
 209.85978 211.00680 211.23783 211.46785 211.40687 211.11390 210.74892 210.38095
 209.99997 209.71200 209.52202 209.38804 209.31807 209.65109 210.03912 210.43014
 211.22517 212.40519 213.65721 215.44224 217.37226 219.41729 221.51431 223.59934
 225.66136 227.74738 229.84641 231.95443 234.08546 236.25948 238.51751 240.88953
 243.51255 245.76558 247.76960 249.53663 250.95565 252.08068 252.90470 253.22272
 253.26175 253.03777 252.39980 251.34982 249.95785 248.12087 246.03189 243.86692
 241.65994 239.46597 237.28799 235.12902 232.99104 230.86006 228.88809 227.04711
 225.33214 223.80616 222.43819 221.21221 220.09623 219.05826 218.16428 217.30731
 216.55133 215.73336 214.83338 214.19940 213.65143 213.25459 212.31703 211.77237
 211.47069 211.92709 212.91069 215.01703 218.17010 222.79138 228.84090 233.73882
 237.50215 241.37936 245.55643 249.96776 254.29768 258.07846 260.87415 262.82617
 265.08197 267.67172 270.11429 271.85422 273.85983 276.02560 277.76453 279.30591
 280.79202 282.20224 283.56049 284.91345 286.09436 287.14151 288.09882 288.97214
 289.76050 290.46759 291.09256 291.92889
 366.78100 356.33735 345.77170 334.64005 323.04540 311.24175 299.11410 286.91945
 274.63380 262.53315 250.54450 239.84785 229.97220 221.07855 213.26291 206.26726
 200.10361 195.04396 191.62831 189.67266 188.71201 188.77836 189.61571 190.92606
 192.65341 194.75076 197.01611 199.37746 201.82481 204.30716 206.39751 208.24186
 209.87021 211.01756 211.24891 211.47926 211.41861 211.12596 210.76131 210.39366
 210.01301 209.72536 209.53572 209.40207 209.33242 209.66577 210.05412 210.44547
 211.24082 212.42117 213.67352 215.45887 217.38922 219.43457 221.53192 223.61727
 225.67962 227.76597 229.86532 231.97367 234.10502 236.27937 238.53772 240.91007
 243.53342 245.78677 247.79112 249.55847 250.97782 252.10318 252.92753 253.24588
 253.28523 253.06158 252.42393 251.37428 249.98263 248.14598 246.05733 243.89268
 241.68603 239.49238 237.31473 235.15608 233.01843 230.88778 228.91613 227.07548
 225.36083 223.83518 222.46753 221.24188 220.12623 219.08858 218.19493 217.33828
 216.58263 215.76499 214.86534 214.23169 213.68404 213.29890 212.38896 211.87799
 211.50290 211.96516 212.94853 215.03871 218.17406 222.73897 228.78506 233.66190
 237.41600 241.29407 245.47226 249.90138 254.27774 258.04532 260.81580 262.78021
 265.00342 267.56763 270.01160 271.76575 273.77515 275.94116 277.71515 279.28479
 280.75925 282.15317 283.49988 284.85352 286.03394 287.08160 288.03909 288.91129
 289.69916 290.40948 291.03375 291.87033
 366.78100 356.33766 345.77232 334.64099 323.04665 311.24331 299.11597 286.92163
 274.63629 262.53596 250.54762 239.85128 229.97594 221.08260 213.26727 206.27193
 200.10859 195.04925 191.63391 189.67857 188.71824 188.78490 189.62256 190.93322
 192.66088 194.75854 197.02421 199.38587 201.83353 204.31619 206.40685 208.25152
 209.88018 211.02784 211.25950 211.49016 211.42982 211.13749 210.77315 210.40581
 210.02547 209.73813 209.54880 209.41546 209.34612 209.67978 210.06844 210.46010
 211.25577 212.43643 213.68909 215.47475 217.40541 219.45108 221.54874 223.63440
 225.69706 227.78372 229.88338 231.99205 234.12371 236.29837 238.55703 240.92969
 243.55335 245.80702 247.81168 249.57934 250.99900 252.12466 252.94933 253.26799
 253.30765 253.08431 252.44697 251.39763 250.00630 248.16996 246.08162 243.91728
 241.71094 239.51761 237.34027 235.18193 233.04459 230.91425 228.94291 227.10258
 225.38824 223.86290 222.49556 221.27022 220.15489 219.11755 218.22421 217.36787
 216.61253 215.79519 214.89586 214.26252 213.71518 213.34267 212.46255 211.97072
 211.55016 211.99805 212.99490 215.07181 218.16669 222.68910 228.72914 233.59048
 237.33295 241.20901 245.38913 249.83623 254.25427 258.00363 260.74637 262.72369
 264.92136 267.46500 269.90976 271.68124 273.69601 275.86237 277.66531 279.26056
 280.72681 282.10791 283.44440 284.79767 285.97910 287.02579 287.98471 288.85672
 289.64688 290.35587 290.98047 291.81763
 366.78100 356.33801 345.77303 334.64204 323.04805 311.24506 299.11808 286.92409
 274.63910 262.53911 250.55113 239.85514 229.98015 221.08717 213.27218 206.27719
 200.11420 195.05522 191.64023 189.68524 188.72525 188.79227 189.63028 190.94129
 192.66931 194.76732 197.03333 199.39534 201.84336 204.32637 206.41738 208.26240
 209.89141 211.03942 211.27143 211.50245 211.44246 211.15047 210.78648 210.41950
 210.03951 209.75252 209.56354 209.43055 209.36156 209.69557 210.08459 210.47660
 211.27261 212.45362 213.70664 215.49265 217.42366 219.46968 221.56769 223.65370
 225.71671 227.80373 229.90374 232.01275 234.14476 236.31978 238.57879 240.95180
 243.57582 245.82983 247.83484 249.60285 251.02287 252.14888 252.97389 253.29291
 253.33292 253.10993 252.47294 251.42396 250.03297 248.19698 246.10899 243.94501
 241.73902 239.54603 237.36905 235.21106 233.07407 230.94408 228.97310 227.13311
 225.41912 223.89413 222.52715 221.30216 220.18717 219.15019 218.25720 217.40121
 216.64622 215.82924 214.93025 214.29726 213.75027 213.38870 212.53445 212.05742
 211.60388 212.02490 213.04950 215.11919 218.16167 222.64589 228.67444 233.51727
 237.24586 241.12000 245.30591 249.77257 254.22688 257.95309 260.66733 262.65622
 264.83673 267.36374 269.80908 271.59909 273.62100 275.78766 277.61520 279.23245
 280.69550 282.06631 283.39648 284.74976 285.93048 286.97769 287.93692 288.80917
 289.59882 290.30682 290.93472 291.77084
 366.78100 356.33847 345.77395 334.64342 323.04990 311.24737 299.12084 286.92732
 274.64279 262.54326 250.55574 239.86021 229.98569 221.09316 213.27863 206.28411
 200.12158 195.06306 191.64853 189.69400 188.73448 188.80195 189.64043 190.95190
 192.68037 194.77885 197.04532 199.40779 201.85627 204.33974 206.43122 208.27669
 209.90616 211.05464 211.28711 211.51859 211.45906 211.16753 210.80401 210.43748
 210.05795 209.77143 209.58290 209.45038 209.38185 209.71632 210.10580 210.49827
 211.29475 212.47622 213.72969 215.51617 217.44764 219.49411 221.59259 223.67906
 225.74254 227.83001 229.93048 232.03996 234.17243 236.34791 238.60738 240.98085
 243.60533 245.85980 247.86528 249.63375 251.05422 252.18070 253.00617 253.32564
 253.36612 253.14359 252.50707 251.45854 250.06801 248.23249 246.14496 243.98144
 241.77591 239.58338 237.40686 235.24933 233.11280 230.98328 229.01275 227.17323
 225.45970 223.93517 222.56865 221.34412 220.22960 219.19307 218.30054 217.44502
 216.69049 215.87397 214.97544 214.34291 213.79639 213.44020 212.59866 212.13911
 211.66322 212.04770 213.10628 215.17540 218.16507 222.60863 228.62224 233.44005
 237.15462 241.02948 245.22522 249.71242 254.19701 257.89465 260.57672 262.57611
 264.74823 267.26465 269.70859 271.51935 273.55203 275.71991 277.56497 279.20004
 280.66367 282.02997 283.35513 284.70920 285.89056 286.93591 287.89569 288.76901
 289.55847 290.26730 290.89334 291.73505
 366.78100 356.33908 345.77517 334.64525 323.05233 311.25041 299.12450 286.93158
 274.64766 262.54875 250.56183 239.86691 229.99300 221.10108 213.28716 206.29324
 200.13133 195.07341 191.65949 189.70558 188.74666 188.81474 189.65383 190.96591
 192.69499 194.79407 197.06116 199.42424 201.87332 204.35741 206.44949 208.29557
 209.92566 211.07474 211.30782 211.53990 211.48099 211.19007 210.82715 210.46124
 210.08232 209.79640 209.60849 209.47657 209.40865 209.74373 210.13382 210.52690
 211.32398 212.50607 213.76015 215.54723 217.47932 219.52640 221.62548 223.71256
 225.77665 227.86473 229.96581 232.07590 234.20898 236.38506 238.64515 241.01923
 243.64431 245.89939 247.90548 249.67456 251.09564 252.22273 253.04881 253.36889
 253.40998 253.18806 252.55214 251.50422 250.11431 248.27939 246.19247 244.02956
 241.82464 239.63272 237.45681 235.29989 233.16397 231.03505 229.06514 227.22622
 225.51330 223.98939 222.62347 221.39955 220.28564 219.24972 218.35780 217.50288
 216.74897 215.93305 215.03513 214.40322 213.85730 213.49924 212.65326 212.21739
 211.73030 212.06999 213.16280 215.23430 218.17912 222.57649 228.57240 233.36014
 237.06009 240.93896 245.14825 249.65747 254.16447 257.82672 260.47321 262.47952
 264.65466 267.16705 269.60873 271.44214 273.48871 275.65881 277.51532 279.16248
 280.63046 281.99863 283.32254 284.67648 285.85739 286.90472 287.86383 288.73663
 289.52676 290.23724 290.86172 291.69907
 366.78100 356.33989 345.77679 334.64768 323.05557 311.25447 299.12936 286.93725
 274.65415 262.55604 250.56993 239.87583 230.00272 221.11161 213.29851 206.30540
 200.14429 195.08719 191.67408 189.72097 188.76287 188.83176 189.67165 190.98455
 192.71444 194.81433 197.08223 199.44612 201.89601 204.38091 206.47380 208.32070
 209.95159 211.10148 211.33538 211.56827 211.51016 211.22006 210.85795 210.49284
 210.11474 209.82963 209.64252 209.51142 209.44431 209.78020 210.17110 210.56499
 211.36288 212.54578 213.80067 215.58856 217.52146 219.56935 221.66924 223.75714
 225.82203 227.91092 230.01282 232.12371 234.25760 236.43450 238.69539 241.07028
 243.69618 245.95207 247.95896 249.72886 251.15075 252.27864 253.10554 253.42643
 253.46832 253.24722 252.61211 251.56500 250.17590 248.34179 246.25568 244.09358
 241.88947 239.69836 237.52326 235.36715 233.23204 231.10394 229.13483 227.29673
 225.58462 224.06151 222.69641 221.47330 220.36019 219.32509 218.43398 217.57987
 216.82677 216.01166 215.11455 214.48345 213.93834 213.56839 212.69435 212.29135
 211.80914 212.09685 213.21114 215.30165 218.20787 222.54126 228.51817 233.27853
 236.96512 240.84894 245.07587 249.60829 254.12814 257.75082 260.35828 262.36838
 264.55823 267.07098 269.50861 271.36777 273.42993 275.60315 277.46469 279.12024
 280.59802 281.97034 283.29919 284.65488 285.83475 286.88284 287.84232 288.71457
 289.50497 290.21268 290.84048 291.67877
 366.78100 356.34070 345.77841 334.65011 323.05881 311.25851 299.13422 286.94292
 274.66062 262.56332 250.57803 239.88473 230.01243 221.12213 213.30984 206.31754
 200.15724 195.10094 191.68865 189.73635 188.77905 188.84875 189.68946 191.00316
 192.73386 194.83456 197.10327 199.46797 201.91867 204.40437 206.49808 208.34578
 209.97748 211.12818 211.36289 211.59659 211.53929 211.24999 210.88870 210.52440
 210.14710 209.86281 209.67651 209.54621 209.47991 209.81662 210.20832 210.60302
 211.40172 212.58543 213.84113 215.62983 217.56353 219.61224 221.71294 223.80164
 225.86734 227.95705 230.05975 232.17145 234.30615 236.48386 238.74556 241.12126
 243.74796 246.00467 248.01237 249.78307 251.20577 252.33448 253.16218 253.48388
 253.52658 253.30629 252.67199 251.62569 250.23740 248.40410 246.31880 244.15750
 241.95421 239.76391 237.58961 235.43431 233.30002 231.17272 229.20442 227.36712
 225.65583 224.13353 222.76923 221.54693 220.43464 219.40034 218.51004 217.65674
 216.90445 216.09015 215.19385 214.56355 214.01926 213.63773 212.73630 212.35165
 211.89050 212.13625 213.27495 215.36609 218.22736 222.51236 228.46338 233.19781
 236.87088 240.75986 245.00719 249.56409 254.08928 257.66821 260.23166 262.24301
 264.46017 266.97705 269.40720 271.29568 273.37668 275.55142 277.41342 279.07443
 280.56653 281.94757 283.28613 284.64050 285.82166 286.86902 287.82791 288.70084
 289.48914 290.19962 290.82782 291.66437
 366.78100 356.34198 345.78095 334.65393 323.06390 311.26488 299.14185 286.95183
 274.67080 262.57478 250.59075 239.89873 230.02770 221.13868 213.32765 206.33663
 200.17760 195.12258 191.71156 189.76053 188.80451 188.87548 189.71746 191.03243
 192.76441 194.86638 197.13636 199.50233 201.95431 204.44128 206.53626 208.38523
 210.01821 211.17018 211.40616 211.64114 211.58511 211.29709 210.93706 210.57404
 210.19801 209.91499 209.72996 209.60094 209.53591 209.87389 210.26686 210.66284
 211.46281 212.64779 213.90477 215.69474 217.62972 219.67969 221.78167 223.87164
 225.93862 228.02959 230.13357 232.24654 234.38252 236.56149 238.82447 241.20144
 243.82942 246.08739 248.09637 249.86835 251.29232 252.42230 253.25127 253.57425
 253.61822 253.39920 252.76617 251.72115 250.33412 248.50210 246.41807 244.25805
 242.05602 239.86700 237.69397 235.53995 233.40693 231.28090 229.31388 227.47785
 225.76783 224.24680 222.88378 221.66275 220.55173 219.51870 218.62968 217.77765
 217.02663 216.21360 215.31858 214.68955 214.14653 213.73042 212.74733 212.42358
 212.00906 212.15855 213.30836 215.45618 218.27188 222.46196 228.40378 233.11331
 236.77332 240.66896 244.94121 249.52374 254.04684 257.57617 260.09286 262.10504
 264.36066 266.88614 269.30981 271.22940 273.33026 275.50739 277.36554 279.02911
 280.53961 281.93451 283.27863 284.63339 285.81531 286.86322 287.81970 288.69342
 289.48398 290.19333 290.81854 291.65683
 366.78100 356.34342 345.78384 334.65826 323.06968 311.27211 299.15053 286.96195
 274.68237 262.58779 250.60521 239.91463 230.04505 221.15747 213.34790 206.35832
 200.20074 195.14716 191.73758 189.78800 188.83342 188.90584 189.74926 191.06568
 192.79911 194.90253 197.17395 199.54137 201.99479 204.48321 206.57963 208.43005
 210.06447 211.21790 211.45532 211.69174 211.63716 211.35058 210.99200 210.63042
 210.25584 209.97426 209.79069 209.66311 209.59953 209.93895 210.33337 210.73079
 211.53221 212.71863 213.97705 215.76847 217.70490 219.75632 221.85974 223.95116
 226.01958 228.11200 230.21742 232.33184 234.46926 236.64969 238.91411 241.29253
 243.92195 246.18137 248.19179 249.96521 251.39063 252.52205 253.35248 253.67690
 253.72232 253.50474 252.87316 251.82958 250.44400 248.61342 246.53084 244.37226
 242.17169 239.98411 237.81253 235.65995 233.52837 231.40379 229.43821 227.60363
 225.89505 224.37548 223.01390 221.79432 220.68474 219.65316 218.76558 217.91500
 217.16542 216.35384 215.46027 214.83269 214.29111 213.83255 212.74911 212.48557
 212.11728 212.20032 213.39207 215.54074 218.27612 222.41096 228.33846 233.01938
 236.67117 240.57602 244.87781 249.48746 254.00217 257.47906 259.94833 261.96207
 264.26456 266.80154 269.21631 271.16843 273.29074 275.46930 277.31979 278.98267
 280.51419 281.92786 283.27759 284.63275 285.81412 286.86136 287.81967 288.69193
 289.48175 290.19122 290.81503 291.65991
 366.78100 356.34443 345.78586 334.66129 323.07373 311.27716 299.15659 286.96902
 274.69045 262.59688 250.61531 239.92574 230.05718 221.17061 213.36204 206.37347
 200.21690 195.16433 191.75576 189.80720 188.85363 188.92706 189.77149 191.08892
 192.82335 194.92778 197.20022 199.56865 202.02308 204.51251 206.60994 208.46137
 210.09680 211.25123 211.48967 211.72710 211.67353 211.38796 211.03039 210.66982
 210.29625 210.01569 209.83312 209.70655 209.64398 209.98441 210.37984 210.77827
 211.58071 212.76814 214.02757 215.82000 217.75743 219.80986 221.91429 224.00672
 226.07616 228.16959 230.27602 232.39145 234.52988 236.71131 238.97674 241.35618
 243.98661 246.24704 248.25847 250.03290 251.45933 252.59176 253.42319 253.74863
 253.79506 253.57849 252.94792 251.90535 250.52078 248.69121 246.60965 244.45208
 242.25251 240.06594 237.89537 235.74380 233.61323 231.48967 229.52510 227.69153
 225.98396 224.46539 223.10482 221.88625 220.77768 219.74712 218.86055 218.01098
 217.26241 216.45184 215.55927 214.93270 214.39214 213.91330 212.78200 212.49315
 212.27150 212.29054 213.40585 215.57782 218.30235 222.37323 228.27875 232.93292
 236.57352 240.48947 244.82159 249.45697 253.95757 257.38129 259.80301 261.81607
 264.16983 266.71820 269.11951 271.10666 273.25012 275.42941 277.26779 278.92978
 280.48804 281.92328 283.28189 284.63788 285.81979 286.86676 287.82318 288.69586
 289.48550 290.19601 290.81848 291.65991
 366.78100 356.34471 345.78642 334.66212 323.07483 311.27854 299.15825 286.97095
 274.69266 262.59937 250.61808 239.92878 230.06049 221.17420 213.36591 206.37761
 200.22132 195.16903 191.76074 189.81244 188.85915 188.93286 189.77757 191.09527
 192.82998 194.93469 197.20740 199.57610 202.03081 204.52052 206.61823 208.46993
 210.10564 211.26035 211.49906 211.73676 211.68347 211.39818 211.04089 210.68059
 210.30730 210.02701 209.84472 209.71842 209.65613 209.99684 210.39255 210.79125
 211.59396 212.78167 214.04138 215.83408 217.77179 219.82450 221.92921 224.02191
 226.09162 228.18533 230.29204 232.40774 234.54645 236.72816 238.99387 241.37358
 244.00428 246.26499 248.27670 250.05141 251.47811 252.61082 253.44253 253.76824
 253.81494 253.59865 252.96836 251.92607 250.54177 248.71248 246.63119 244.47390
 242.27460 240.08831 237.91802 235.76673 233.63643 231.51314 229.54885 227.71556
 226.00826 224.48997 223.12968 221.91139 220.80309 219.77280 218.88651 218.03722
 217.28892 216.47863 215.58634 214.96005 214.41975 213.95534 212.85808 212.48619
 212.39232 212.39644 213.39633 215.60042 218.36371 222.34026 228.23073 232.86290
 236.48573 240.41095 244.77301 249.43149 253.91226 257.28049 259.65228 261.66333
 264.07266 266.63321 269.01779 271.04111 273.20837 275.38538 277.21088 278.87225
 280.45874 281.91977 283.29062 284.64633 285.82748 286.87439 287.83206 288.70346
 289.49210 290.20151 290.82730 291.66571
 366.78100 356.34511 345.78721 334.66332 323.07642 311.28053 299.16064 286.97374
 274.69585 262.60295 250.62206 239.93317 230.06527 221.17938 213.37148 206.38359
 200.22770 195.17580 191.76791 189.82001 188.86712 188.94122 189.78633 191.10444
 192.83954 194.94465 197.21775 199.58686 202.04197 204.53207 206.63018 208.48228
 210.11839 211.27350 211.51260 211.75071 211.69781 211.41292 211.05603 210.69613
 210.32324 210.04334 209.86145 209.73556 209.67366 210.01477 210.41087 210.80998
 211.61309 212.80119 214.06130 215.85440 217.79251 219.84562 221.95072 224.04383
 226.11393 228.20804 230.31514 232.43125 234.57036 236.75246 239.01857 241.39867
 244.02978 246.29089 248.30299 250.07810 251.50520 252.63831 253.47042 253.79652
 253.84363 253.62773 252.99784 251.95595 250.57205 248.74316 246.66226 244.50537
 242.30648 240.12058 237.95069 235.79979 233.66990 231.54701 229.58311 227.75022
 226.04332 224.52543 223.16554 221.94764 220.83975 219.80985 218.92396 218.07506
 217.32717 216.51728 215.62538 214.99949 214.45959 214.00096 212.91736 212.52208
 212.44969 212.48325 213.41498 215.66507 218.45377 222.30322 228.17293 232.78258
 236.39246 240.33134 244.72716 249.40602 253.86082 257.17062 259.49310 261.50525
 263.97491 266.54840 268.91776 270.97809 273.17041 275.34668 277.15640 278.81650
 280.43298 281.91895 283.30176 284.65689 285.83859 286.88623 287.84177 288.71375
 289.50290 290.21136 290.83691 291.67575
 366.78100 356.34586 345.78873 334.66559 323.07946 311.28432 299.16519 286.97905
 274.70192 262.60978 250.62965 239.94151 230.07438 221.18924 213.38211 206.39497
 200.23984 195.18870 191.78157 189.83443 188.88230 188.95716 189.80302 191.12189
 192.85775 194.96362 197.23748 199.60735 202.06321 204.55408 206.65294 208.50581
 210.14267 211.29854 211.53840 211.77727 211.72513 211.44100 211.08486 210.72573
 210.35359 210.07446 209.89332 209.76818 209.70705 210.04891 210.44578 210.84564
 211.64951 212.83837 214.09924 215.89310 217.83197 219.88583 221.99170 224.08556
 226.15643 228.25129 230.35916 232.47602 234.61589 236.79875 239.06562 241.44648
 244.07835 246.34021 248.35307 250.12894 251.55680 252.69067 253.52353 253.85040
 253.89826 253.68313 253.05399 252.01286 250.62972 248.80159 246.72145 244.56532
 242.36718 240.18205 238.01291 235.86278 233.73364 231.61151 229.64837 227.81623
 226.11010 224.59296 223.23383 222.01669 220.90956 219.88042 218.99529 218.14715
 217.40002 216.59088 215.69975 215.07461 214.53548 214.06282 212.94609 212.59621
 212.47610 212.56075 213.47006 215.74756 218.52396 222.26361 228.10393 232.69073
 236.29512 240.25131 244.68303 249.38092 253.80493 257.05667 259.33298 261.35013
 263.88239 266.46887 268.82379 270.92099 273.13803 275.31369 277.10797 278.76520
 280.41016 281.92065 283.31281 284.67029 285.85187 286.89783 287.85471 288.72556
 289.51480 290.22159 290.84912 291.68405
 366.78100 356.34665 345.79030 334.66795 323.08259 311.28824 299.16989 286.98454
 274.70819 262.61684 250.63749 239.95013 230.08378 221.19943 213.39308 206.40673
 200.25238 195.20203 191.79567 189.84932 188.89797 188.97362 189.82027 191.13992
 192.87657 194.98322 197.25786 199.62851 202.08516 204.57681 206.67646 208.53011
 210.16776 211.32440 211.56505 211.80470 211.75335 211.47000 211.11465 210.75630
 210.38494 210.10659 209.92624 209.80189 209.74154 210.08419 210.48184 210.88248
 211.68713 212.87678 214.13843 215.93308 217.87273 219.92738 222.03402 224.12867
 226.20032 228.29597 230.40462 232.52227 234.66292 236.84657 239.11421 241.49586
 244.12851 246.39116 248.40481 250.18146 251.61011 252.74475 253.57840 253.90605
 253.95470 253.74035 253.11200 252.07165 250.68929 248.86194 246.78259 244.62724
 242.42989 240.24554 238.07719 235.92783 233.79948 231.67813 229.71578 227.88443
 226.17908 224.66273 223.30437 222.08802 220.98167 219.95332 219.06897 218.22162
 217.47527 216.66692 215.77656 215.15221 214.61386 214.12462 212.96872 212.67534
 212.50601 212.62984 213.55264 215.82768 218.56442 222.22423 228.03343 232.59602
 236.19870 240.17532 244.64212 249.35608 253.74533 256.93982 259.17255 261.19901
 263.79288 266.39243 268.73392 270.86826 273.10974 275.28513 277.06320 278.71750
 280.38901 281.92154 283.32446 284.68301 285.86246 286.90930 287.86499 288.73627
 289.52487 290.23300 290.85809 291.69543
 366.78100 356.34722 345.79143 334.66965 323.08486 311.29108 299.17329 286.98851
 274.71272 262.62194 250.64315 239.95637 230.09058 221.20680 213.40101 206.41523
 200.26145 195.21166 191.80588 189.86009 188.90931 188.98552 189.83274 191.15295
 192.89017 194.99738 197.27260 199.64381 202.10103 204.59324 206.69346 208.54767
 210.18589 211.34311 211.58432 211.82454 211.77375 211.49097 211.13618 210.77840
 210.40761 210.12983 209.95004 209.82626 209.76647 210.10969 210.50790 210.90912
 211.71434 212.90455 214.16677 215.96198 217.90220 219.95741 222.06463 224.15984
 226.23206 228.32827 230.43749 232.55570 234.69692 236.88113 239.14935 241.53157
 244.16478 246.42800 248.44221 250.21943 251.64864 252.78386 253.61807 253.94629
 253.99550 253.78172 253.15393 252.11415 250.73236 248.90558 246.82680 244.67201
 242.47523 240.29144 238.12366 235.97487 233.84709 231.72630 229.76452 227.93373
 226.22895 224.71316 223.35538 222.13959 221.03381 220.00602 219.12224 218.27546
 217.52967 216.72189 215.83210 215.20832 214.67053 214.17381 213.00024 212.74260
 212.55557 212.68616 213.64626 215.89911 218.59607 222.18562 227.96184 232.50230
 236.10760 240.10590 244.60521 249.32986 253.68089 256.81833 259.01129 261.05173
 263.70581 266.31784 268.64813 270.81888 273.08389 275.25784 277.02002 278.67139
 280.36795 281.92026 283.33603 284.69339 285.87402 286.92050 287.87674 288.74838
 289.53561 290.24405 290.86868 291.70511
 366.78100 356.34759 345.79219 334.67078 323.08637 311.29296 299.17556 286.99115
 274.71574 262.62534 250.64693 239.96052 230.09511 221.21171 213.40630 206.42089
 200.26749 195.21808 191.81267 189.86726 188.91686 188.99345 189.84104 191.16163
 192.89923 195.00682 197.28241 199.65401 202.11160 204.60419 206.70478 208.55938
 210.19797 211.35556 211.59716 211.83775 211.78734 211.50493 211.15053 210.79312
 210.42271 210.14531 209.96590 209.84249 209.78308 210.12668 210.52527 210.92686
 211.73246 212.92305 214.18564 215.98123 217.92183 219.97742 222.08501 224.18061
 226.25320 228.34979 230.45938 232.57798 234.71957 236.90416 239.17276 241.55535
 244.18894 246.45253 248.46713 250.24472 251.67431 252.80990 253.64450 253.97309
 254.02268 253.80928 253.18187 252.14246 250.76105 248.93465 246.85624 244.70183
 242.50543 240.32202 238.15461 236.00620 233.87880 231.75839 229.79698 227.96658
 226.26217 224.74676 223.38935 222.17395 221.06854 220.04113 219.15773 218.31132
 217.56591 216.75850 215.86910 215.24569 214.70828 214.21135 213.03731 212.80258
 212.62267 212.73395 213.74083 215.96361 218.62227 222.14719 227.89015 232.41092
 236.02162 240.04205 244.57118 249.30125 253.60925 256.69034 258.84875 260.91068
 263.62192 266.24609 268.56766 270.77429 273.06174 275.23367 276.98282 278.63113
 280.34836 281.91754 283.34219 284.70038 285.88031 286.92606 287.88153 288.75198
 289.53830 290.24683 290.87213 291.70932
 366.78100 356.34783 345.79266 334.67148 323.08731 311.29414 299.17697 286.99279
 274.71762 262.62745 250.64928 239.96311 230.09793 221.21476 213.40959 206.42442
 200.27124 195.22207 191.81690 189.87173 188.92156 188.99838 189.84621 191.16704
 192.90487 195.01270 197.28852 199.66035 202.11818 204.61101 206.71183 208.56666
 210.20549 211.36332 211.60515 211.84597 211.79580 211.51363 211.15946 210.80228
 210.43211 210.15494 209.97577 209.85260 209.79342 210.13725 210.53608 210.93791
 211.74373 212.93456 214.19739 215.99322 217.93405 219.98987 222.09770 224.19353
 226.26636 228.36319 230.47301 232.59184 234.73367 236.91850 239.18732 241.57015
 244.20398 246.46781 248.48264 250.26046 251.69029 252.82612 253.66095 253.98977
 254.03960 253.82643 253.19926 252.16009 250.77891 248.95274 246.87457 244.72040
 242.52422 240.34105 238.17388 236.02571 233.89854 231.77836 229.81719 227.98702
 226.28285 224.76768 223.41050 222.19533 221.09016 220.06299 219.17981 218.33364
 217.58847 216.78130 215.89213 215.26895 214.73178 214.23981 213.07748 212.86259
 212.69363 212.78510 213.83527 216.02048 218.63112 222.10660 227.82082 232.32655
 235.94231 239.98419 244.53922 249.26846 253.52869 256.55557 258.68668 260.77820
 263.54221 266.17752 268.49481 270.73566 273.04153 275.21432 276.94952 278.59488
 280.32794 281.90878 283.34729 284.70630 285.88766 286.93390 287.89243 288.76358
 289.55682 290.26868 290.89401 291.72906
 366.78100 356.34798 345.79296 334.67195 323.08793 311.29491 299.17789 286.99387
 274.71886 262.62884 250.65082 239.96480 230.09978 221.21677 213.41175 206.42673
 200.27371 195.22470 191.81968 189.87466 188.92464 189.00162 189.84961 191.17059
 192.90857 195.01655 197.29253 199.66452 202.12250 204.61548 206.71646 208.57144
 210.21043 211.36841 211.61039 211.85137 211.80135 211.51934 211.16532 210.80830
 210.43828 210.16127 209.98225 209.85923 209.80021 210.14419 210.54318 210.94516
 211.75114 212.94212 214.20510 216.00109 217.94207 219.99805 222.10603 224.20201
 226.27500 228.37198 230.48196 232.60094 234.74292 236.92791 239.19689 241.57987
 244.21385 246.47783 248.49282 250.27080 251.70078 252.83676 253.67175 254.00073
 254.05071 253.83769 253.21067 252.17166 250.79064 248.96462 246.88660 244.73258
 242.53657 240.35355 238.18653 236.03851 233.91149 231.79148 229.83046 228.00044
 226.29642 224.78140 223.42439 222.20937 221.10435 220.07733 219.19432 218.34830
 217.60328 216.79626 215.90724 215.28423 214.74721 214.26228 213.11659 212.92635
 212.76598 212.84264 213.92754 216.07396 218.62244 222.06459 227.75439 232.24345
 235.86536 239.93066 244.50774 249.22964 253.43771 256.41254 258.52661 260.65540
 263.46616 266.11334 268.43097 270.70425 273.02814 275.20224 276.92599 278.56573
 280.30832 281.89453 283.34741 284.70712 285.88736 286.93430 287.89182 288.76028
 289.55200 290.25711 290.88281 291.71808
 366.78100 356.34803 345.79306 334.67208 323.08811 311.29514 299.17817 286.99420
 274.71923 262.62925 250.65128 239.96531 230.10034 221.21737 213.41239 206.42742
 200.27445 195.22548 191.82051 189.87554 188.92556 189.00259 189.85062 191.17165
 192.90968 195.01770 197.29373 199.66576 202.12379 204.61682 206.71784 208.57287
 210.21190 211.36993 211.61196 211.85299 211.80301 211.52104 211.16707 210.81010
 210.44013 210.16315 209.98418 209.86121 209.80224 210.14627 210.54530 210.94732
 211.75335 212.94438 214.20741 216.00344 217.94446 220.00049 222.10852 224.20455
 226.27758 228.37461 230.48463 232.60366 234.74569 236.93072 239.19975 241.58277
 244.21680 246.48083 248.49586 250.27389 251.70391 252.83994 253.67497 254.00400
 254.05403 253.84106 253.21408 252.17511 250.79414 248.96817 246.89020 244.73622
 242.54025 240.35728 238.19031 236.04234 233.91537 231.79539 229.83442 228.00445
 226.30048 224.78551 223.42853 222.21356 221.10859 220.08162 219.19865 218.35268
 217.60770 216.80073 215.91176 215.28879 214.75182 214.27780 213.15790 212.98933
 212.84642 212.90515 214.00845 216.12442 218.61493 222.02446 227.67940 232.15611
 235.79118 239.88313 244.47876 249.18559 253.33734 256.26184 258.36703 260.54132
 263.39215 266.05069 268.37485 270.67984 273.02194 275.20016 276.91418 278.54462
 280.28894 281.87708 283.34174 284.70038 285.88193 286.92673 287.88425 288.75412
 289.54153 290.24881 290.87262 291.70789
 366.78100 356.34809 345.79319 334.67228 323.08838 311.29547 299.17856 286.99466
 274.71975 262.62985 250.65194 239.96603 230.10113 221.21822 213.41331 206.42841
 200.27550 195.22660 191.82169 189.87678 188.92688 189.00397 189.85207 191.17316
 192.91125 195.01935 197.29544 199.66754 202.12563 204.61872 206.71982 208.57491
 210.21401 211.37210 211.61419 211.85529 211.80538 211.52348 211.16957 210.81266
 210.44276 210.16585 209.98694 209.86404 209.80513 210.14923 210.54832 210.95041
 211.75651 212.94760 214.21070 216.00679 217.94788 220.00398 222.11207 224.20817
 226.28126 228.37835 230.48845 232.60754 234.74964 236.93473 239.20382 241.58692
 244.22101 246.48511 248.50020 250.27829 251.70839 252.84448 253.67957 254.00867
 254.05876 253.84586 253.21895 252.18004 250.79914 248.97323 246.89533 244.74142
 242.54551 240.36261 238.19570 236.04780 233.92089 231.80098 229.84008 228.01017
 226.30627 224.79136 223.43445 222.21955 221.11464 220.08773 219.20483 218.35892
 217.61402 216.80711 215.91820 215.29530 214.75839 214.29259 213.19206 213.06679
 212.92763 212.96478 214.08867 216.16798 218.59412 221.98685 227.60805 232.06830
 235.72081 239.84135 244.45149 249.13499 253.22475 256.10019 258.20486 260.43396
 263.31879 265.98898 268.32709 270.66278 273.02390 275.21057 276.91656 278.53329
 280.27182 281.85562 283.33176 284.69287 285.87326 286.91946 287.87720 288.74713
 289.53314 290.24216 290.86487 291.69876
 366.78100 356.34794 345.79289 334.67183 323.08778 311.29472 299.17767 286.99361
 274.71856 262.62850 250.65045 239.96439 230.09934 221.21628 213.41123 206.42617
 200.27312 195.22406 191.81901 189.87395 188.92390 189.00084 189.84879 191.16973
 192.90768 195.01562 197.29157 199.66351 202.12146 204.61440 206.71535 208.57029
 210.20924 211.36718 211.60913 211.85007 211.80002 211.51796 211.16391 210.80685
 210.43680 210.15974 209.98069 209.85763 209.79858 210.14252 210.54147 210.94341
 211.74936 212.94030 214.20325 215.99919 217.94014 219.99608 222.10403 224.19997
 226.27292 228.36986 230.47981 232.59875 234.74070 236.92564 239.19459 241.57753
 244.21148 246.47542 248.49037 250.26831 251.69826 252.83420 253.66915 253.99809
 254.04804 253.83498 253.20793 252.16887 250.78782 248.96176 246.88371 244.72965
 242.53360 240.35054 238.18349 236.03543 233.90838 231.78832 229.82727 227.99721
 226.29316 224.77810 223.42105 222.20599 221.10094 220.07388 219.19083 218.34477
 217.59972 216.79266 215.90361 215.28055 214.74350 214.29503 213.23546 213.13101
 213.03920 213.02295 214.14233 216.20569 218.57866 221.95061 227.52415 231.97311
 235.65269 239.80540 244.42593 249.07896 253.10428 255.93279 258.04623 260.33572
 263.24649 265.92831 268.28629 270.65176 273.03214 275.22845 276.92709 278.52826
 280.25354 281.82553 283.32315 284.68301 285.86469 286.91138 287.86838 288.73846
 289.52917 290.23599 290.86002 291.69476
 366.78100 356.34784 345.79267 334.67151 323.08735 311.29419 299.17702 286.99286
 274.71770 262.62754 250.64937 239.96321 230.09805 221.21488 213.40972 206.42456
 200.27140 195.22223 191.81707 189.87191 188.92175 188.99858 189.84642 191.16726
 192.90509 195.01293 197.28877 199.66061 202.11844 204.61128 206.71212 208.56696
 210.20579 211.36363 211.60547 211.84630 211.79614 211.51398 211.15982 210.80265
 210.43249 210.15533 209.97617 209.85300 209.79384 210.13768 210.53651 210.93835
 211.74419 212.93503 214.19786 215.99370 217.93454 219.99038 222.09821 224.19405
 226.26689 228.36372 230.47356 232.59240 234.73424 236.91907 239.18791 241.57075
 244.20459 246.46842 248.48326 250.26110 251.69093 252.82677 253.66161 253.99045
 254.04028 253.82712 253.19996 252.16080 250.77963 248.95347 246.87531 244.72114
 242.52498 240.34182 238.17466 236.02649 233.89933 231.77917 229.81801 227.98784
 226.28368 224.76852 223.41135 222.19619 221.09103 220.06387 219.18070 218.33454
 217.58938 216.78222 215.89305 215.26989 214.73273 214.29630 213.26517 213.24005
 213.10612 213.07703 214.22285 216.23335 218.55434 221.90564 227.44810 231.88814
 235.59410 239.77797 244.40234 249.01680 252.97269 255.75462 257.88348 260.24091
 263.17166 265.86499 268.25024 270.64426 273.04578 275.25479 276.94794 278.52975
 280.23535 281.78290 283.31335 284.67545 285.85794 286.90298 287.86115 288.73245
 289.52151 290.22943 290.85336 291.68924
 366.78100 356.34841 345.79383 334.67324 323.08966 311.29707 299.18049 286.99690
 274.72232 262.63273 250.65515 239.96956 230.10498 221.22239 213.41781 206.43322
 200.28063 195.23205 191.82746 189.88288 188.93329 189.01071 189.85912 191.18054
 192.91895 195.02737 197.30378 199.67620 202.13461 204.62803 206.72944 208.58485
 210.22427 211.38268 211.62510 211.86651 211.81693 211.53534 211.18176 210.82517
 210.45559 210.17900 210.00042 209.87783 209.81925 210.16366 210.56307 210.96549
 211.77190 212.96332 214.22673 216.02315 217.96456 220.02098 222.12939 224.22581
 226.29922 228.39664 230.50705 232.62647 234.76888 236.95429 239.22371 241.60712
 244.24154 246.50595 248.52137 250.29978 251.73020 252.86661 253.70203 254.03144
 254.08186 253.86927 253.24269 252.20410 250.82351 248.99793 246.92034 244.76676
 242.57117 240.38859 238.22200 236.07442 233.94783 231.82825 229.86766 228.03808
 226.33449 224.81991 223.46332 222.24873 221.14415 220.11756 219.23498 218.38939
 217.64481 216.83822 215.94964 215.32705 214.79047 214.33286 213.25171 213.33080
 213.31786 213.10068 214.22235 216.24828 218.50870 221.87682 227.36157 231.79204
 235.53349 239.75150 244.37582 248.94382 252.82594 255.56387 257.71942 260.15359
 263.10083 265.80878 268.22849 270.65036 273.07184 275.30072 276.98898 278.54526
 280.22244 281.75757 283.29520 284.66153 285.84311 286.89182 287.85117 288.72269
 289.51276 290.22223 290.84399 291.68201
 366.78100 356.34818 345.79337 334.67255 323.08874 311.29592 299.17911 286.99529
 274.72048 262.63066 250.65284 239.96703 230.10221 221.21940 213.41458 206.42977
 200.27695 195.22813 191.82332 189.87850 188.92869 189.00587 189.85406 191.17524
 192.91343 195.02161 197.29779 199.66998 202.12816 204.62135 206.72253 208.57772
 210.21690 211.37509 211.61727 211.85845 211.80864 211.52682 211.17301 210.81619
 210.44638 210.16956 209.99075 209.86793 209.80911 210.15330 210.55248 210.95467
 211.76085 212.95204 214.21522 216.01140 217.95259 220.00877 222.11696 224.21314
 226.28633 228.38351 230.49370 232.61288 234.75506 236.94025 239.20943 241.59262
 244.22680 246.49099 248.50617 250.28436 251.71454 252.85072 253.68591 254.01509
 254.06528 253.85246 253.22565 252.18683 250.80602 248.98020 246.90238 244.74857
 242.55275 240.36994 238.20312 236.05531 233.92849 231.80867 229.84786 228.01804
 226.31423 224.79941 223.44260 222.22778 221.12297 220.09615 219.21333 218.36752
 217.62270 216.81589 215.92707 215.30426 214.76744 214.33083 213.29930 213.34723
 213.44249 213.26161 214.28448 216.23473 218.49504 221.77321 227.25941 231.69687
 235.47577 239.72896 244.34859 248.86488 252.67484 255.37625 257.56885 260.08026
 263.03668 265.76169 268.21942 270.66620 273.10748 275.35681 277.04449 278.57230
 280.21393 281.73569 283.27551 284.64215 285.82697 286.87512 287.83527 288.70859
 289.49905 290.20734 290.83206 291.67188
 366.78100 356.34771 345.79243 334.67114 323.08686 311.29357 299.17628 286.99200
 274.71671 262.62643 250.64814 239.96185 230.09657 221.21328 213.40800 206.42271
 200.26942 195.22014 191.81485 189.86957 188.91928 188.99599 189.84371 191.16442
 192.90214 195.00985 197.28556 199.65728 202.11499 204.60771 206.70842 208.56313
 210.20185 211.35956 211.60128 211.84199 211.79170 211.50942 211.15513 210.79785
 210.42756 210.15027 209.97099 209.84770 209.78842 210.13213 210.53084 210.93256
 211.73827 212.92898 214.19170 215.98741 217.92813 219.98384 222.09155 224.18727
 226.25998 228.35670 230.46641 232.58512 234.72684 236.91155 239.18027 241.56298
 244.19669 246.46041 248.47512 250.25284 251.68255 252.81826 253.65298 253.98169
 254.03141 253.81812 253.19083 252.15155 250.77026 248.94398 246.86569 244.71140
 242.51512 240.33183 238.16455 236.01626 233.88897 231.76869 229.80740 227.97712
 226.27283 224.75754 223.40026 222.18497 221.07969 220.05240 219.16911 218.32283
 217.57754 216.77026 215.88097 215.25768 214.72040 214.31488 213.35678 213.38309
 213.53094 213.37868 214.33867 216.24727 218.50533 221.67955 227.16402 231.61722
 235.43158 239.71541 244.32382 248.78468 252.52539 255.19518 257.42734 260.01318
 262.97153 265.71066 268.20871 270.67773 273.13907 275.40823 277.09372 278.59708
 280.20401 281.71451 283.25372 284.62183 285.80682 286.85727 287.81714 288.69278
 289.48517 290.19327 290.81732 291.65573
 366.78100 356.34747 345.79194 334.67040 323.08587 311.29234 299.17481 286.99028
 274.71475 262.62421 250.64568 239.95915 230.09362 221.21009 213.40456 206.41902
 200.26549 195.21596 191.81043 189.86490 188.91437 188.99083 189.83830 191.15877
 192.89624 195.00371 197.27918 199.65064 202.10811 204.60058 206.70105 208.55552
 210.19399 211.35145 211.59292 211.83339 211.78286 211.50033 211.14580 210.78826
 210.41773 210.14020 209.96067 209.83714 209.77761 210.12107 210.51954 210.92101
 211.72648 212.91695 214.17942 215.97488 217.91535 219.97082 222.07829 224.17376
 226.24623 228.34269 230.45216 232.57063 234.71210 236.89657 239.16504 241.54750
 244.18097 246.44444 248.45891 250.23638 251.66585 252.80131 253.63578 253.96425
 254.01372 253.80019 253.17266 252.13312 250.75159 248.92506 246.84653 244.69200
 242.49547 240.31193 238.14440 235.99587 233.86834 231.74781 229.78627 227.95574
 226.25121 224.73568 223.37815 222.16262 221.05708 220.02955 219.14602 218.29949
 217.55396 216.74643 215.85689 215.23336 214.69583 214.30881 213.39441 213.43843
 213.63567 213.45059 214.37209 216.28860 218.50301 221.60690 227.08150 231.55196
 235.39890 239.70850 244.29849 248.70065 252.37263 255.01166 257.28479 259.94333
 262.89752 265.64987 268.18887 270.68021 273.16248 275.44977 277.13422 278.61789
 280.19281 281.69131 283.23160 284.60110 285.78647 286.83780 287.79950 288.67456
 289.46609 290.17651 290.80054 291.63837
 366.78100 356.34742 345.79184 334.67027 323.08569 311.29211 299.17453 286.98995
 274.71437 262.62380 250.64522 239.95864 230.09306 221.20948 213.40390 206.41833
 200.26475 195.21517 191.80959 189.86401 188.91344 188.98986 189.83728 191.15770
 192.89512 195.00254 197.27797 199.64939 202.10681 204.59923 206.69965 208.55407
 210.19250 211.34992 211.59134 211.83176 211.78118 211.49861 211.14403 210.78645
 210.41587 210.13829 209.95871 209.83514 209.77556 210.11898 210.51740 210.91882
 211.72425 212.91467 214.17709 215.97251 217.91293 219.96835 222.07578 224.17120
 226.24362 228.34004 230.44946 232.56788 234.70931 236.89373 239.16215 241.54457
 244.17799 246.44142 248.45584 250.23326 251.66268 252.79810 253.63252 253.96095
 254.01037 253.79679 253.16921 252.12963 250.74805 248.92148 246.84290 244.68832
 242.49174 240.30816 238.14059 235.99201 233.86443 231.74385 229.78227 227.95169
 226.24712 224.73154 223.37396 222.15838 221.05280 220.02522 219.14165 218.29507
 217.54949 216.74191 215.85233 215.22876 214.69118 214.31157 213.41470 213.50717
 213.74223 213.52039 214.39742 216.34006 218.48831 221.54390 227.00465 231.49417
 235.37288 239.70439 244.27031 248.61011 252.21259 254.82211 257.13904 259.86905
 262.81683 265.58133 268.16376 270.67862 273.18234 275.48718 277.17212 278.64011
 280.18497 281.66849 283.20877 284.57880 285.76462 286.81717 287.77994 288.65408
 289.44702 290.15546 290.77979 291.61792
 366.78100 356.34754 345.79207 334.67061 323.08614 311.29268 299.17521 286.99075
 274.71529 262.62482 250.64636 239.95989 230.09443 221.21096 213.40550 206.42004
 200.26657 195.21711 191.81164 189.86618 188.91572 188.99225 189.83979 191.16032
 192.89786 195.00539 197.28093 199.65247 202.11000 204.60254 206.70307 208.55761
 210.19614 211.35368 211.59522 211.83575 211.78529 211.50282 211.14836 210.79089
 210.42043 210.14297 209.96350 209.84004 209.78057 210.12411 210.52264 210.92418
 211.72972 212.92025 214.18279 215.97832 217.91886 219.97440 222.08193 224.17747
 226.25000 228.34654 230.45607 232.57461 234.71615 236.90068 239.16922 241.55175
 244.18529 246.44882 248.46336 250.24090 251.67043 252.80597 253.64050 253.96904
 254.01857 253.80511 253.17765 252.13818 250.75672 248.93025 246.85179 244.69732
 242.50086 240.31740 238.14993 236.00147 233.87400 231.75354 229.79208 227.96161
 226.25715 224.74168 223.38422 222.16875 221.06329 220.03583 219.15236 218.30590
 217.56043 216.75297 215.86350 215.24004 214.70258 214.32158 213.42140 213.58684
 213.83992 213.60478 214.42334 216.38702 218.47461 221.48341 226.92885 231.44154
 235.35085 239.70006 244.23715 248.51140 252.04488 254.62704 256.99258 259.79178
 262.73169 265.51001 268.13602 270.67435 273.19955 275.52103 277.20770 278.66342
 280.17767 281.64697 283.18530 284.55527 285.74197 286.79395 287.75543 288.63174
 289.42419 290.13318 290.75757 291.59412
 366.78100 356.34770 345.79240 334.67110 323.08680 311.29350 299.17620 286.99190
 274.71661 262.62631 250.64801 239.96171 230.09641 221.21311 213.40781 206.42251
 200.26921 195.21991 191.81461 189.86931 188.91901 188.99571 189.84342 191.16412
 192.90182 195.00952 197.28522 199.65692 202.11462 204.60732 206.70802 208.56272
 210.20142 211.35912 211.60082 211.84152 211.79123 211.50893 211.15463 210.79733
 210.42703 210.14973 209.97043 209.84713 209.78783 210.13153 210.53023 210.93193
 211.73763 212.92833 214.19104 215.98674 217.92744 219.98314 222.09084 224.18654
 226.25924 228.35594 230.46564 232.58434 234.72604 236.91074 239.17944 241.56214
 244.19585 246.45955 248.47425 250.25195 251.68165 252.81735 253.65205 253.98075
 254.03045 253.81715 253.18985 252.15055 250.76925 248.94295 246.86465 244.71036
 242.51406 240.33076 238.16346 236.01516 233.88786 231.76756 229.80626 227.97596
 226.27166 224.75636 223.39906 222.18376 221.07846 220.05117 219.16787 218.32157
 217.57627 216.76897 215.87967 215.25637 214.71907 214.33420 213.42493 213.66637
 213.93382 213.69739 214.46001 216.42909 218.46143 221.42778 226.85654 231.39560
 235.33170 239.69394 244.19765 248.40414 251.87018 254.43025 256.84842 259.71259
 262.64383 265.43704 268.10489 270.66565 273.21204 275.54645 277.23611 278.68335
 280.17282 281.62247 283.16074 284.53021 285.71802 286.76834 287.72910 288.60397
 289.39694 290.10602 290.72955 291.56339
 366.78100 356.34791 345.79282 334.67174 323.08765 311.29456 299.17747 286.99339
 274.71830 262.62821 250.65012 239.96403 230.09895 221.21586 213.41077 206.42568
 200.27260 195.22351 191.81842 189.87333 188.92324 189.00016 189.84807 191.16898
 192.90689 195.01480 197.29072 199.66263 202.12054 204.61345 206.71437 208.56928
 210.20819 211.36610 211.60801 211.84893 211.79884 211.51675 211.16266 210.80558
 210.43549 210.15840 209.97931 209.85622 209.79714 210.14105 210.53996 210.94187
 211.74779 212.93870 214.20161 215.99752 217.93843 219.99435 222.10226 224.19817
 226.27108 228.36799 230.47791 232.59682 234.73873 236.92364 239.19256 241.57547
 244.20938 246.47329 248.48820 250.26612 251.69603 252.83194 253.66685 253.99577
 254.04568 253.83259 253.20550 252.16641 250.78533 248.95924 246.88115 244.72706
 242.53098 240.34789 238.18080 236.03271 233.90562 231.78554 229.82445 227.99436
 226.29027 224.77519 223.41810 222.20301 221.09792 220.07083 219.18775 218.34166
 217.59657 216.78948 215.90039 215.27731 214.74022 214.35010 213.42841 213.73622
 214.03387 213.79123 214.50229 216.46707 218.44730 221.38347 226.79276 231.35516
 235.31380 239.68304 244.14951 248.28792 251.68942 254.23387 256.70792 259.63141
 262.55392 265.36246 268.06897 270.65045 273.21503 275.55801 277.25000 278.69397
 280.16345 281.59869 283.13638 284.50461 285.69073 286.74118 287.70300 288.57834
 289.36829 290.07639 290.69946 291.53204
 366.78100 356.34815 345.79331 334.67246 323.08861 311.29577 299.17892 286.99507
 274.72023 262.63038 250.65253 239.96668 230.10184 221.21899 213.41414 206.42930
 200.27645 195.22760 191.82276 189.87791 188.92806 189.00522 189.85337 191.17452
 192.91268 195.02083 197.29698 199.66913 202.12729 204.62044 206.72159 208.57675
 210.21590 211.37405 211.61621 211.85736 211.80751 211.52567 211.17182 210.81497
 210.44513 210.16828 209.98943 209.86658 209.80774 210.15189 210.55104 210.95320
 211.75935 212.95050 214.21366 216.00981 217.95096 220.00712 222.11527 224.21142
 226.28458 228.38173 230.49188 232.61103 234.75319 236.93834 239.20749 241.59065
 244.22480 246.48895 248.50411 250.28226 251.71241 252.84857 253.68372 254.01287
 254.06303 253.85018 253.22333 252.18448 250.80364 248.97779 246.89994 244.74610
 242.55025 240.36740 238.20056 236.05271 233.92586 231.80602 229.84517 228.01532
 226.31148 224.79663 223.43978 222.22493 221.12009 220.09324 219.21039 218.36455
 217.61970 216.81285 215.92401 215.30116 214.76431 214.36832 213.43271 213.79524
 214.13438 213.88246 214.56438 216.50632 218.42877 221.34914 226.73569 231.31598
 235.29390 239.66599 244.09109 248.16315 251.50655 254.04399 256.57529 259.54965
 262.46576 265.28925 268.02945 270.62946 273.21085 275.55753 277.25201 278.69705
 280.15225 281.57239 283.10583 284.47339 285.65695 286.70560 287.66470 288.53735
 289.32776 290.03415 290.65594 291.48938
 366.78100 356.34837 345.79373 334.67310 323.08946 311.29683 299.18020 286.99656
 274.72193 262.63229 250.65466 239.96903 230.10439 221.22176 213.41712 206.43249
 200.27986 195.23122 191.82659 189.88195 188.93232 189.00969 189.85805 191.17942
 192.91778 195.02615 197.30252 199.67488 202.13325 204.62661 206.72798 208.58335
 210.22271 211.38108 211.62344 211.86481 211.81518 211.53354 211.17991 210.82327
 210.45364 210.17701 209.99837 209.87574 209.81710 210.16147 210.56084 210.96320
 211.76957 212.96093 214.22430 216.02067 217.96203 220.01840 222.12676 224.22313
 226.29650 228.39386 230.50423 232.62359 234.76596 236.95133 239.22069 241.60406
 244.23842 246.50279 248.51816 250.29652 251.72689 252.86325 253.69862 254.02799
 254.07835 253.86572 253.23908 252.20045 250.81982 248.99418 246.91655 244.76291
 242.56728 240.38464 238.21801 236.07038 233.94374 231.82411 229.86347 228.03384
 226.33021 224.81557 223.45894 222.24430 221.13967 220.11304 219.23040 218.38477
 217.64013 216.83350 215.94487 215.32223 214.78560 214.38562 213.44064 213.83762
 214.23621 213.97948 214.63760 216.54471 218.41495 221.32298 226.68129 231.27574
 235.27180 239.64136 244.02278 248.03130 251.32393 253.86313 256.45135 259.46979
 262.38074 265.21902 267.98691 270.60229 273.19632 275.54175 277.23947 278.69122
 280.13968 281.54773 283.07864 284.44348 285.62668 286.67484 287.63354 288.50970
 289.30545 290.02350 290.65027 291.48300
 366.78100 356.34870 345.79440 334.67410 323.09080 311.29849 299.18219 286.99889
 274.72459 262.63529 250.65799 239.97269 230.10839 221.22608 213.42178 206.43748
 200.28518 195.23688 191.83258 189.88828 188.93898 189.01667 189.86537 191.18707
 192.92577 195.03447 197.31117 199.68387 202.14257 204.63626 206.73796 208.59366
 210.23336 211.39206 211.63476 211.87646 211.82716 211.54585 211.19255 210.83625
 210.46695 210.19065 210.01235 209.89005 209.83175 210.17645 210.57614 210.97884
 211.78554 212.97724 214.24094 216.03764 217.97934 220.03604 222.14473 224.24143
 226.31513 228.41283 230.52353 232.64323 234.78593 236.97163 239.24132 241.62502
 244.25972 246.52442 248.54012 250.31882 251.74952 252.88622 253.72191 254.05161
 254.10231 253.89001 253.26371 252.22541 250.84511 249.01981 246.94250 244.78920
 242.59390 240.41160 238.24530 236.09800 233.97170 231.85240 229.89210 228.06279
 226.35949 224.84519 223.48889 222.27459 221.17029 220.14399 219.26169 218.41638
 217.67208 216.86578 215.97748 215.35518 214.81888 214.40935 213.44180 213.86990
 214.33789 214.08096 214.71819 216.58423 218.41010 221.30711 226.63266 231.24129
 235.25259 239.61337 243.94807 247.89447 251.14436 253.69177 256.33624 259.38910
 262.29611 265.14825 267.93802 270.56720 273.17221 275.51065 277.21344 278.67691
 280.12125 281.52499 283.05212 284.41785 285.59808 286.64557 287.60440 288.48196
 289.28046 289.99948 290.63162 291.46432
 366.78100 356.34893 345.79486 334.67479 323.09173 311.29966 299.18359 287.00052
 274.72645 262.63738 250.66032 239.97525 230.11118 221.22911 213.42504 206.44097
 200.28891 195.24084 191.83677 189.89270 188.94363 189.02156 189.87050 191.19243
 192.93136 195.04029 197.31722 199.69015 202.14909 204.64302 206.74495 208.60088
 210.24081 211.39974 211.64268 211.88461 211.83554 211.55447 211.20140 210.84533
 210.47627 210.20020 210.02213 209.90006 209.84199 210.18692 210.58686 210.98979
 211.79672 212.98865 214.25258 216.04951 217.99144 220.04838 222.15731 224.25424
 226.32817 228.42610 230.53703 232.65697 234.79990 236.98583 239.25576 241.63969
 244.27462 246.53956 248.55549 250.33442 251.76535 252.90228 253.73821 254.06815
 254.11908 253.90701 253.28094 252.24287 250.86280 249.03774 246.96067 244.80760
 242.61253 240.43046 238.26439 236.11733 233.99126 231.87219 229.91212 228.08305
 226.37998 224.86592 223.50985 222.29578 221.19171 220.16564 219.28357 218.43850
 217.69444 216.88837 216.00030 215.37823 214.84216 214.42781 213.44885 213.87970
 214.44745 214.20180 214.78294 216.62218 218.41917 221.30362 226.59286 231.21127
 235.23268 239.57954 243.86401 247.75087 250.96243 253.52950 256.22876 259.30988
 262.21741 265.08270 267.88757 270.52649 273.13617 275.46066 277.16797 278.65253
 280.10489 281.50790 283.02533 284.38678 285.56631 286.61142 287.56985 288.44614
 289.24936 289.97122 290.60574 291.43497
 366.78100 356.34926 345.79551 334.67577 323.09303 311.30128 299.18554 287.00280
 274.72905 262.64031 250.66357 239.97882 230.11508 221.23334 213.42959 206.44585
 200.29411 195.24636 191.84262 189.89888 188.95013 189.02839 189.87765 191.19990
 192.93916 195.04842 197.32567 199.69893 202.15819 204.65244 206.75470 208.61096
 210.25121 211.41047 211.65373 211.89598 211.84724 211.56650 211.21375 210.85801
 210.48927 210.21352 210.03578 209.91404 209.85629 210.20155 210.60181 211.00506
 211.81232 213.00458 214.26883 216.06609 218.00835 220.06560 222.17486 224.27212
 226.34637 228.44463 230.55589 232.67614 234.81940 237.00566 239.27591 241.66017
 244.29543 246.56068 248.57694 250.35620 251.78745 252.92471 253.76097 254.09122
 254.14248 253.93073 253.30499 252.26725 250.88750 249.06276 246.98602 244.83327
 242.63853 240.45679 238.29104 236.14430 234.01856 231.89981 229.94007 228.11133
 226.40858 224.89484 223.53910 222.32535 221.22161 220.19587 219.31412 218.46938
 217.72564 216.91989 216.03215 215.41041 214.87466 214.45065 213.44888 213.89546
 214.53682 214.32234 214.87189 216.67108 218.43851 221.29871 226.54845 231.18274
 235.21167 239.53905 243.77092 247.59982 250.78778 253.38048 256.13406 259.23444
 262.14243 265.01898 267.83359 270.48047 273.08911 275.39081 277.10175 278.60349
 280.06210 281.48767 282.98947 284.34860 285.52429 286.56818 287.52057 288.39465
 289.19440 289.91339 290.53046 291.34106
 366.78100 356.34966 345.79632 334.67698 323.09463 311.30329 299.18795 287.00561
 274.73227 262.64393 250.66759 239.98325 230.11990 221.23856 213.43522 206.45188
 200.30054 195.25320 191.84986 189.90652 188.95817 189.03683 189.88649 191.20915
 192.94881 195.05847 197.33613 199.70979 202.16944 204.66410 206.76676 208.62342
 210.26408 211.42374 211.66740 211.91005 211.86171 211.58137 211.22903 210.87369
 210.50535 210.23001 210.05267 209.93132 209.87398 210.21964 210.62030 211.02396
 211.83162 213.02428 214.28894 216.08659 218.02925 220.08691 222.19657 224.29423
 226.36889 228.46755 230.57921 232.69986 234.84352 237.03018 239.30084 241.68550
 244.32116 246.58682 248.60348 250.38313 251.81479 252.95245 253.78911 254.11977
 254.17143 253.96009 253.33474 252.29740 250.91806 249.09372 247.01738 244.86504
 242.67070 240.48936 238.32401 236.17767 234.05233 231.93399 229.97465 228.14631
 226.44397 224.93063 223.57528 222.36194 221.25860 220.23326 219.35192 218.50758
 217.76424 216.95890 216.07155 215.45021 214.91487 214.47885 213.44870 213.90334
 214.65088 214.43681 214.94383 216.70235 218.44043 221.30637 226.52293 231.17241
 235.20140 239.50340 243.68050 247.45459 250.60960 253.23683 256.03766 259.15259
 262.06754 264.95316 267.76920 270.42322 273.02457 275.30234 277.02133 278.55551
 280.03644 281.47745 282.94980 284.29395 285.44653 286.48215 287.43115 288.30182
 289.09897 289.81662 290.42715 291.23456
 366.78100 356.34922 345.79543 334.67565 323.09286 311.30108 299.18530 287.00251
 274.72873 262.63994 250.66316 239.97837 230.11459 221.23281 213.42902 206.44524
 200.29345 195.24567 191.84189 189.89810 188.94932 189.02753 189.87675 191.19897
 192.93818 195.04740 197.32461 199.69783 202.15705 204.65126 206.75348 208.60969
 210.24991 211.40912 211.65234 211.89456 211.84577 211.56499 211.21220 210.85642
 210.48764 210.21185 210.03407 209.91228 209.85450 210.19972 210.59993 211.00315
 211.81036 213.00258 214.26680 216.06401 218.00623 220.06344 222.17266 224.26987
 226.34409 228.44231 230.55352 232.67374 234.81695 237.00317 239.27339 241.65760
 244.29282 246.55803 248.57425 250.35347 251.78468 252.92190 253.75811 254.08833
 254.13954 253.92776 253.30198 252.26419 250.88441 249.05962 246.98284 244.83006
 242.63527 240.45349 238.28770 236.14092 234.01514 231.89635 229.93657 228.10778
 226.40500 224.89122 223.53543 222.32165 221.21786 220.19208 219.31029 218.46551
 217.72173 216.91594 216.02816 215.40637 214.87059 214.46533 213.50784 213.88225
 214.72882 214.54977 214.99873 216.74811 218.47560 221.30453 226.47269 231.13960
 235.17509 239.44768 243.57001 247.29066 250.45430 253.11597 255.96295 259.09277
 262.00156 264.89359 267.71149 270.36133 272.95477 275.20789 276.93280 278.49252
 279.99246 281.45364 282.90524 284.22864 285.35852 286.39038 287.33984 288.21005
 289.00861 289.72107 290.33719 291.14621
 366.78100 356.34720 345.79141 334.66961 323.08482 311.29102 299.17323 286.98843
 274.71264 262.62184 250.64305 239.95625 230.09046 221.20666 213.40087 206.41507
 200.26128 195.21148 191.80569 189.85989 188.90910 188.98530 189.83251 191.15271
 192.88992 194.99712 197.27233 199.64353 202.10074 204.59294 206.69315 208.54735
 210.18556 211.34276 211.58397 211.82417 211.77338 211.49058 211.13579 210.77799
 210.40720 210.12940 209.94961 209.82581 209.76602 210.10922 210.50743 210.90863
 211.71384 212.90404 214.16625 215.96145 217.90166 219.95686 222.06407 224.15927
 226.23148 228.32768 230.43689 232.55509 234.69630 236.88050 239.14871 241.53091
 244.16412 246.42732 248.44153 250.21873 251.64794 252.78314 253.61735 253.94555
 253.99476 253.78096 253.15317 252.11337 250.73158 248.90478 246.82599 244.67119
 242.47440 240.29060 238.12281 235.97401 233.84622 231.72542 229.76363 227.93283
 226.22804 224.71224 223.35445 222.13865 221.03286 220.00506 219.12126 218.27447
 217.52867 216.72088 215.83108 215.20729 214.66949 214.36403 213.64233 213.88956
 214.69650 214.60074 215.03712 216.78955 218.49445 221.23526 226.41873 231.12602
 235.16438 239.41722 243.49918 247.21140 250.36504 253.07173 255.96574 259.10214
 262.02267 264.90891 267.71887 270.35364 272.91125 275.13486 276.85574 278.42563
 279.93588 281.44257 282.89026 284.19638 285.32144 286.33783 287.28046 288.15384
 288.95511 289.66971 290.30109 291.11798
 366.78100 356.34591 345.78882 334.66572 323.07963 311.28454 299.16545 286.97935
 274.70226 262.61017 250.63008 239.94198 230.07489 221.18980 213.38271 206.39561
 200.24052 195.18943 191.78234 189.83525 188.88315 188.95806 189.80397 191.12288
 192.85878 194.96469 197.23860 199.60851 202.06441 204.55532 206.65423 208.50714
 210.14404 211.29995 211.53986 211.77877 211.72668 211.44258 211.08649 210.72740
 210.35531 210.07621 209.89512 209.77003 209.70894 210.05084 210.44775 210.84766
 211.65157 212.84047 214.10138 215.89529 217.83420 219.88811 221.99401 224.08792
 226.15883 228.25374 230.36164 232.47855 234.61846 236.80137 239.06827 241.44918
 244.08109 246.34300 248.35590 250.13181 251.55972 252.69363 253.52654 253.85344
 253.90135 253.68626 253.05717 252.01607 250.63298 248.80489 246.72480 244.56870
 242.37061 240.18552 238.01643 235.86633 233.73724 231.61515 229.65206 227.81997
 226.11387 224.59678 223.23769 222.02060 220.91350 219.88441 218.99932 218.15123
 217.40413 216.59504 215.70395 215.07886 214.53976 214.29309 213.71317 213.97997
 214.70775 214.60973 215.03148 216.70406 218.37357 221.11705 226.32764 231.11024
 235.12640 239.34991 243.38072 247.05025 250.41132 253.28288 256.18152 259.25540
 262.18787 265.05182 267.80301 270.39572 272.86801 275.01617 276.73038 278.28610
 279.79822 281.24792 282.63547 283.86478 284.93481 285.94189 286.90225 287.77676
 288.51730 289.01764 289.38928 289.86288
 366.78100 356.34653 345.79006 334.66760 323.08213 311.28766 299.16919 286.98373
 274.70726 262.61579 250.63632 239.94885 230.08239 221.19792 213.39145 206.40498
 200.25051 195.20005 191.79358 189.84711 188.89564 188.97118 189.81771 191.13724
 192.87377 194.98030 197.25484 199.62537 202.08190 204.57343 206.67297 208.52650
 210.16403 211.32056 211.56109 211.80063 211.74916 211.46569 211.11022 210.75176
 210.38029 210.10182 209.92135 209.79688 209.73642 210.07895 210.47648 210.87701
 211.68154 212.87108 214.13261 215.92714 217.86667 219.92121 222.02774 224.12227
 226.19380 228.28933 230.39787 232.51540 234.65593 236.83946 239.10700 241.48853
 244.12106 246.38359 248.39712 250.17366 251.60219 252.73672 253.57025 253.89779
 253.94632 253.73185 253.10338 252.06291 250.68045 248.85298 246.77351 244.61804
 242.42057 240.23611 238.06764 235.91817 233.78970 231.66824 229.70577 227.87430
 226.16883 224.65236 223.29390 222.07743 220.97096 219.94249 219.05803 218.21056
 217.46409 216.65562 215.76515 215.14069 214.60222 214.31992 213.67377 214.09583
 214.79051 214.72874 215.18286 216.63727 218.26357 221.03464 226.22028 231.05754
 235.04366 239.20735 243.16121 246.82109 250.27435 253.32336 256.28677 259.32080
 262.26218 265.12042 267.82755 270.39429 272.81470 274.87997 276.51526 278.22586
 279.63739 281.10077 282.41904 283.58591 284.64319 285.62061 286.52905 287.29785
 287.84027 288.30453 288.71008 289.22693
 366.78100 356.34786 345.79272 334.67158 323.08743 311.29429 299.17715 286.99301
 274.71787 262.62773 250.64959 239.96344 230.09830 221.21516 213.41002 206.42488
 200.27174 195.22260 191.81746 189.87231 188.92217 188.99903 189.84689 191.16775
 192.90561 195.01347 197.28932 199.66118 202.11904 204.61190 206.71276 208.56762
 210.20648 211.36433 211.60619 211.84705 211.79691 211.51477 211.16063 210.80349
 210.43335 210.15620 209.97706 209.85392 209.79478 210.13864 210.53750 210.93936
 211.74521 212.93607 214.19893 215.99479 217.93565 219.99151 222.09937 224.19522
 226.26808 228.36494 230.47480 232.59366 234.73552 236.92038 239.18924 241.57209
 244.20595 246.46981 248.48467 250.26253 251.69239 252.82825 253.66310 253.99196
 254.04182 253.82868 253.20154 252.16240 250.78126 248.95511 246.87697 244.72283
 242.52669 240.34355 238.17641 236.02827 233.90113 231.78098 229.81984 227.98970
 226.28556 224.77042 223.41328 222.19814 221.09299 220.06585 219.18271 218.33657
 217.59143 216.78429 215.89515 215.27200 214.73486 214.37933 213.55455 214.18399
 215.02504 215.00327 215.41931 216.66580 218.17154 220.90117 226.15059 230.97336
 234.96045 239.06120 242.94769 246.57101 250.05309 253.23906 256.24396 259.27805
 262.21866 265.07700 267.77988 270.34714 272.76483 274.86829 276.56009 278.23929
 279.73688 281.07886 282.33325 283.45416 284.42786 285.32831 286.21805 286.99893
 287.59552 288.11450 288.56787 289.14563
 366.78100 356.34705 345.79110 334.66915 323.08420 311.29025 299.17230 286.98735
 274.71140 262.62045 250.64150 239.95455 230.08860 221.20465 213.39870 206.41275
 200.25880 195.20885 191.80290 189.85695 188.90600 188.98205 189.82909 191.14914
 192.88619 194.99324 197.26829 199.63934 202.09639 204.58844 206.68849 208.54254
 210.18059 211.33764 211.57869 211.81874 211.76779 211.48484 211.12989 210.77194
 210.40099 210.12304 209.94309 209.81914 209.75919 210.10224 210.50029 210.90134
 211.70639 212.89644 214.15849 215.95354 217.89359 219.94864 222.05569 224.15074
 226.22279 228.31884 230.42789 232.54594 234.68699 236.87104 239.13909 241.52114
 244.15418 246.41723 248.43128 250.20833 251.63738 252.77243 253.60648 253.93453
 253.98358 253.76963 253.14168 252.10173 250.71978 248.89283 246.81388 244.65893
 242.46198 240.27803 238.11008 235.96113 233.83318 231.71223 229.75028 227.91933
 226.21438 224.69843 223.34048 222.12453 221.01858 219.99063 219.10668 218.25973
 217.51378 216.70583 215.81588 215.19193 214.65398 214.33089 213.56757 214.21248
 215.18768 215.30017 215.67065 216.76627 218.17444 220.88965 226.15286 230.91541
 234.89598 238.91679 242.71152 246.29021 249.86002 253.15364 256.13754 259.12140
 262.05908 264.92969 267.61407 270.18918 272.60349 274.69412 276.46082 278.23877
 279.84317 281.00891 282.30878 283.42950 284.36487 285.21201 286.03003 286.75604
 287.39218 288.03958 288.64566 289.44885
 366.78100 356.34371 345.78443 334.65914 323.07085 311.27357 299.15228 286.96400
 274.68471 262.59042 250.60814 239.91785 230.04856 221.16128 213.35199 206.36270
 200.20542 195.15213 191.74284 189.79356 188.83927 188.91199 189.75570 191.07241
 192.80613 194.90984 197.18155 199.54927 202.00298 204.49169 206.58841 208.43912
 210.07383 211.22755 211.46526 211.70198 211.64769 211.36140 211.00312 210.64183
 210.26754 209.98626 209.80297 209.67568 209.61240 209.95211 210.34682 210.74454
 211.54625 212.73297 213.99168 215.78339 217.72011 219.77182 221.87553 223.96725
 226.03596 228.12867 230.23439 232.34910 234.48681 236.66753 238.93224 241.31096
 243.94067 246.20038 248.21110 249.98481 251.41052 252.54224 253.37295 253.69766
 253.74338 253.52609 252.89481 251.85152 250.46623 248.63595 246.55366 244.39537
 242.19509 240.00780 237.83651 235.68423 233.55294 231.42865 229.46337 227.62908
 225.92080 224.40151 223.04022 221.82094 220.71165 219.68036 218.79308 217.94279
 217.19350 216.38222 215.48893 214.86164 214.32036 214.14417 213.72789 214.35474
 215.13110 215.28743 215.72757 216.85664 218.27222 220.97539 226.17172 230.96011
 234.93372 238.94759 242.73047 246.29031 249.76561 253.01256 255.99426 258.99091
 261.90704 264.75974 267.50366 270.09445 272.47754 274.57388 276.46582 278.28879
 279.63678 281.04480 282.29233 283.29706 284.15558 284.96927 285.72232 286.36200
 287.02380 287.70703 288.32498 289.14771
 366.78100 356.34488 345.78677 334.66265 323.07554 311.27942 299.15931 286.97219
 274.69408 262.60096 250.61985 239.93073 230.06262 221.17650 213.36839 206.38027
 200.22416 195.17204 191.76393 189.81581 188.86270 188.93658 189.78147 191.09935
 192.83424 194.93912 197.21201 199.58089 202.03578 204.52566 206.62355 208.47543
 210.11132 211.26620 211.50508 211.74297 211.68985 211.40474 211.04762 210.68751
 210.31439 210.03428 209.85216 209.72605 209.66393 210.00482 210.40070 210.79959
 211.60247 212.79036 214.05024 215.84313 217.78101 219.83390 221.93878 224.03167
 226.10155 228.19544 230.30232 232.41821 234.55709 236.73898 239.00486 241.38475
 244.01563 246.27652 248.28840 250.06328 251.49017 252.62305 253.45494 253.78082
 253.82771 253.61159 252.98148 251.93936 250.55525 248.72613 246.64502 244.48790
 242.28879 240.10267 237.93256 235.78144 233.65133 231.52821 229.56410 227.73098
 226.02387 224.50575 223.14564 221.92752 220.81941 219.78929 218.90318 218.05406
 217.30595 216.49583 215.60372 214.97760 214.43748 214.18994 213.60812 214.57104
 215.48831 215.42590 215.61844 216.58615 217.94951 220.75328 226.06485 230.89209
 234.84056 238.82611 242.59250 246.18341 249.77222 253.16269 256.18811 259.11221
 262.03650 264.88971 267.54306 270.06223 272.38516 274.50168 276.55435 278.29138
 279.66162 280.74503 281.84665 282.86807 283.72910 284.46301 285.13062 285.70065
 286.42075 287.13184 287.77170 288.58713
 366.78100 356.35115 345.79931 334.68146 323.10061 311.31077 299.19692 287.01607
 274.74423 262.65738 250.68253 239.99969 230.13784 221.25800 213.45615 206.47430
 200.32446 195.27861 191.87676 189.93492 188.98807 189.06822 189.91938 191.24353
 192.98468 195.09584 197.37499 199.75014 202.21130 204.70745 206.81160 208.66976
 210.31191 211.47306 211.71822 211.96237 211.91552 211.63668 211.28583 210.93199
 210.56514 210.29129 210.11545 209.99560 209.93975 210.28691 210.68906 211.09421
 211.90337 213.09752 214.36367 216.16283 218.10698 220.16613 222.27729 224.37644
 226.45259 228.55275 230.66590 232.78805 234.93321 237.12136 239.39351 241.77967
 244.41682 246.68398 248.70213 250.48328 251.91644 253.05559 253.89374 254.22590
 254.27905 254.06920 253.44536 252.40951 251.03166 249.20882 247.13397 244.98312
 242.79028 240.61043 238.44658 236.30174 234.17789 232.06104 230.10320 228.27635
 226.57550 225.06366 223.70981 222.49797 221.39612 220.37227 219.49243 218.64958
 217.90773 217.10389 216.21804 215.59819 215.06435 214.53508 213.41646 214.50157
 215.81868 215.73180 215.78577 216.52959 217.91254 220.77969 225.86041 230.76819
 234.60634 238.51833 242.25316 245.90144 249.56363 253.05275 256.23773 259.20496
 262.12766 264.94022 267.52109 269.95218 272.13434 274.54355 276.66040 278.29297
 279.52829 280.50580 281.46875 282.38934 283.15759 283.88205 284.70551 285.45151
 286.12244 286.71994 287.24188 287.90704
 366.78100 356.35265 345.80230 334.68595 323.10660 311.31825 299.20590 287.02656
 274.75621 262.67086 250.69751 240.01616 230.15581 221.27746 213.47711 206.49676
 200.34841 195.30406 191.90371 189.96337 189.01802 189.09967 189.95232 191.27797
 193.02062 195.13327 197.41392 199.79057 202.25322 204.75087 206.85652 208.71618
 210.35983 211.52248 211.76913 212.01478 211.96943 211.69208 211.34273 210.99038
 210.62503 210.35268 210.17833 210.05998 210.00564 210.35429 210.75794 211.16459
 211.97524 213.17089 214.43854 216.23919 218.18484 220.24549 222.35814 224.45879
 226.53645 228.63810 230.75275 232.87640 235.02305 237.21270 239.48635 241.87400
 244.51265 246.78130 248.80095 250.58360 252.01825 253.15891 253.99856 254.33221
 254.38686 254.17851 253.55616 252.52181 251.14546 249.32411 247.25076 245.10141
 242.91006 240.73172 238.56937 236.42602 234.30367 232.18832 230.23197 228.40662
 226.70727 225.19692 223.84457 222.63422 221.53387 220.51153 219.63318 218.79183
 218.05148 217.24913 216.36478 215.74643 215.21408 214.66006 213.53009 214.25488
 215.82732 216.08302 216.30820 216.96957 218.19598 221.01944 225.89977 230.72346
 234.56535 238.40813 242.07225 245.73456 249.41437 252.85632 256.16876 259.37045
 262.30917 265.08081 267.74951 269.95868 272.22336 274.68472 276.63382 278.18185
 279.34714 280.30557 281.28357 282.08365 282.77603 283.38861 283.94751 284.45383
 284.90921 285.31473 285.66898 286.12042
 366.78100 356.34972 345.79644 334.67716 323.09488 311.30360 299.18833 287.00605
 274.73277 262.64449 250.66821 239.98393 230.12065 221.23937 213.43609 206.45281
 200.30154 195.25426 191.85098 189.90770 188.95942 189.03814 189.88786 191.21058
 192.95030 195.06002 197.33775 199.71147 202.17119 204.66591 206.76863 208.62535
 210.26607 211.42579 211.66951 211.91223 211.86395 211.58368 211.23140 210.87612
 210.50784 210.23256 210.05528 209.93400 209.87672 210.22244 210.62316 211.02689
 211.83461 213.02733 214.29205 216.08977 218.03249 220.09021 222.19993 224.29765
 226.37237 228.47110 230.58282 232.70354 234.84726 237.03398 239.30470 241.68942
 244.32514 246.59086 248.60758 250.38730 251.81903 252.95675 253.79347 254.12419
 254.17591 253.96463 253.33935 252.30207 250.92279 249.09851 247.02224 244.86996
 242.67568 240.49440 238.32912 236.18284 234.05756 231.93928 229.98000 228.15172
 226.44945 224.93617 223.58089 222.36761 221.26433 220.23905 219.35777 218.51349
 217.77021 216.96493 216.07765 215.45638 214.92110 214.54591 213.73679 214.14882
 215.61371 216.13301 216.53740 217.23042 218.32697 221.03366 225.95981 230.72252
 234.48334 238.29915 241.99356 245.68481 249.34962 252.81650 256.30795 259.47592
 262.42911 265.17102 267.82645 269.87888 272.48386 274.65613 276.53082 277.99554
 279.26331 280.33627 281.28281 282.11395 282.83322 283.46957 284.05017 284.57617
 285.04922 285.47049 285.83850 286.30746
 366.78100 356.34846 345.79393 334.67339 323.08986 311.29732 299.18078 286.99725
 274.72271 262.63318 250.65564 239.97010 230.10557 221.22303 213.41850 206.43396
 200.28142 195.23289 191.82835 189.88382 188.93428 189.01174 189.86021 191.18167
 192.92013 195.02860 197.30506 199.67753 202.13599 204.62945 206.73092 208.58638
 210.22585 211.38431 211.62677 211.86824 211.81870 211.53717 211.18363 210.82709
 210.45756 210.18102 210.00249 209.87995 209.82141 210.16588 210.56534 210.96781
 211.77427 212.96573 214.22920 216.02566 217.96713 220.02359 222.13205 224.22852
 226.30198 228.39945 230.50991 232.62937 234.77184 236.95730 239.22676 241.61023
 244.24469 246.50916 248.52462 250.30308 251.73355 252.87001 253.70548 254.03494
 254.08540 253.87287 253.24633 252.20780 250.82726 249.00172 246.92419 244.77065
 242.57512 240.39258 238.22604 236.07851 233.95197 231.83244 229.87190 228.04236
 226.33883 224.82429 223.46776 222.25322 221.14868 220.12215 219.23961 218.39408
 217.64954 216.84300 215.95447 215.33193 214.79539 214.47659 213.79060 214.11406
 215.52446 216.28490 216.71967 217.30350 218.34872 221.08292 225.93248 230.76633
 234.50577 238.25931 241.92946 245.64478 249.31413 252.82967 256.31131 259.49072
 262.50916 265.28714 267.64493 269.81189 272.39606 274.39670 276.37497 277.95062
 279.33508 280.86264 282.27875 283.52222 284.59830 285.55038 286.41901 287.20590
 287.91364 288.54388 289.09445 289.79608
 366.78100 356.34672 345.79044 334.66815 323.08287 311.28859 299.17031 286.98502
 274.70874 262.61746 250.63818 239.95090 230.08461 221.20033 213.39405 206.40777
 200.25348 195.20320 191.79692 189.85064 188.89935 188.97507 189.82179 191.14151
 192.87823 194.98494 197.25966 199.63038 202.08710 204.57881 206.67853 208.53225
 210.16997 211.32669 211.56740 211.80712 211.75584 211.47256 211.11727 210.75899
 210.38771 210.10943 209.92914 209.80486 209.74458 210.08730 210.48502 210.88573
 211.69045 212.88017 214.14189 215.93660 217.87632 219.93104 222.03776 224.13248
 226.20419 228.29991 230.40863 232.52635 234.66706 236.85078 239.11850 241.50022
 244.13293 246.39565 248.40937 250.18609 251.61481 252.74952 253.58324 253.91096
 253.95968 253.74539 253.11711 252.07683 250.69455 248.86727 246.78798 244.63270
 242.43542 240.25114 238.08285 235.93357 233.80529 231.68401 229.72173 227.89044
 226.18516 224.66888 223.31060 222.09431 220.98803 219.95975 219.07547 218.22818
 217.48190 216.67362 215.78334 215.15906 214.62077 214.34305 213.75764 214.24638
 215.39334 216.28667 216.72089 217.23396 218.48933 221.23679 225.94841 230.68163
 234.39375 238.13980 241.79749 245.44974 249.06622 252.60811 256.13055 259.38034
 262.31989 265.13907 267.63281 269.86368 272.19778 274.35138 276.24792 278.14096
 279.74188 281.09738 282.21814 283.17334 284.03323 284.80661 285.51273 286.15244
 286.72775 287.24008 287.68765 288.25803
 366.78100 356.34822 345.79344 334.67265 323.08887 311.29609 299.17931 286.99553
 274.72075 262.63096 250.65318 239.96740 230.10262 221.21984 213.41506 206.43027
 200.27749 195.22871 191.82393 189.87915 188.92937 189.00658 189.85480 191.17602
 192.91424 195.02246 197.29868 199.67089 202.12911 204.62233 206.72355 208.57877
 210.21799 211.37620 211.61842 211.85964 211.80986 211.52808 211.17429 210.81751
 210.44773 210.17095 209.99217 209.86939 209.81060 210.15482 210.55404 210.95626
 211.76248 212.95370 214.21691 216.01313 217.95435 220.01057 222.11879 224.21501
 226.28822 228.38544 230.49566 232.61488 234.75710 236.94232 239.21153 241.59475
 244.22897 246.49319 248.50841 250.28662 251.71684 252.85306 253.68828 254.01750
 254.06772 253.85493 253.22815 252.18937 250.80859 248.98281 246.90503 244.75124
 242.55546 240.37268 238.20590 236.05812 233.93134 231.81155 229.85077 228.02099
 226.31721 224.80243 223.44565 222.23086 221.12608 220.09930 219.21652 218.37074
 217.62596 216.81917 215.93039 215.30761 214.77083 214.39478 213.57967 214.42273
 215.81332 216.44934 216.77551 217.06665 218.18840 220.93065 225.79550 230.48924
 234.16287 237.80270 241.38617 244.99947 248.67021 252.46497 256.13855 259.25153
 262.11447 264.92154 267.39890 269.69583 272.24802 274.37213 276.16061 277.75641
 279.32510 280.64487 281.76398 282.71472 283.48285 284.12112 284.48630 284.65417
 284.80515 284.93958 285.05704 285.20670
 366.78100 356.35102 345.79905 334.68107 323.10009 311.31012 299.19614 287.01516
 274.74319 262.65621 250.68123 239.99825 230.13628 221.25630 213.45432 206.47235
 200.32237 195.27639 191.87442 189.93244 188.98546 189.06549 189.91651 191.24053
 192.98156 195.09258 197.37160 199.74663 202.20765 204.70367 206.80769 208.66572
 210.30774 211.46876 211.71379 211.95781 211.91083 211.63186 211.28088 210.92690
 210.55993 210.28595 210.10997 209.99000 209.93402 210.28104 210.68307 211.08809
 211.89711 213.09113 214.35716 216.15618 218.10020 220.15923 222.27025 224.36927
 226.44530 228.54532 230.65834 232.78037 234.92539 237.11341 239.38544 241.77146
 244.40848 246.67550 248.69353 250.47455 251.90757 253.04660 253.88462 254.21664
 254.26967 254.05969 253.43571 252.39974 251.02176 249.19878 247.12381 244.97283
 242.77985 240.59988 238.43590 236.29092 234.16694 232.04997 230.09199 228.26501
 226.56404 225.05206 223.69808 222.48611 221.38413 220.36015 219.48018 218.63720
 217.89522 217.09125 216.20527 215.58529 215.05132 214.56982 213.53871 214.18910
 216.06342 216.77264 217.09195 217.42160 218.45570 221.08029 225.79013 230.42459
 233.97591 237.56308 241.13171 244.75526 248.48051 252.50595 256.24387 259.20569
 261.99649 264.75061 267.22583 269.82520 272.28564 274.32306 276.15176 277.64014
 279.06042 280.31317 281.36435 282.19791 282.78613 283.30655 283.78134 284.21149
 284.59833 284.94284 285.24380 285.62732
 366.78100 356.34798 345.79295 334.67193 323.08790 311.29488 299.17785 286.99383
 274.71880 262.62878 250.65075 239.96473 230.09970 221.21668 213.41165 206.42663
 200.27360 195.22458 191.81955 189.87453 188.92450 189.00148 189.84945 191.17043
 192.90840 195.01638 197.29235 199.66433 202.12230 204.61528 206.71625 208.57123
 210.21020 211.36818 211.61015 211.85113 211.80110 211.51908 211.16505 210.80803
 210.43800 210.16098 209.98195 209.85893 209.79990 210.14388 210.54285 210.94483
 211.75080 212.94178 214.20475 216.00073 217.94170 219.99768 222.10565 224.20163
 226.27460 228.37158 230.48155 232.60053 234.74250 236.92748 239.19645 241.57943
 244.21340 246.47738 248.49235 250.27033 251.70030 252.83628 253.67125 254.00023
 254.05020 253.83718 253.21015 252.17113 250.79010 248.96408 246.88605 244.73203
 242.53600 240.35298 238.18595 236.03793 233.91090 231.79088 229.82985 227.99983
 226.29581 224.78078 223.42376 222.20873 221.10371 220.07668 219.19366 218.34763
 217.60261 216.79558 215.90656 215.28353 214.74651 214.43881 213.75298 213.98436
 215.74817 216.74442 217.28157 217.77243 218.76624 221.24336 225.88644 230.48685
 234.01143 237.58287 241.15231 244.79077 248.59464 252.65866 256.33752 259.26660
 262.00223 264.75150 267.21255 269.82260 272.23041 274.25604 276.10037 277.61456
 279.04504 280.27173 281.27103 282.03903 282.70288 283.43973 284.11197 284.72101
 285.26874 285.75650 286.18262 286.72565
 366.78100 356.34435 345.78569 334.66104 323.07339 311.27673 299.15608 286.96843
 274.68977 262.59612 250.61447 239.92481 230.05616 221.16950 213.36085 206.37220
 200.21554 195.16289 191.75424 189.80558 188.85193 188.92528 189.76962 191.08697
 192.82132 194.92566 197.19801 199.56636 202.02070 204.51005 206.60740 208.45874
 210.09409 211.24844 211.48678 211.72413 211.67047 211.38482 211.02717 210.66651
 210.29286 210.01221 209.82955 209.70290 209.64025 209.98059 210.37594 210.77429
 211.57663 212.76398 214.02333 215.81567 217.75302 219.80537 221.90971 224.00206
 226.07140 228.16475 230.27110 232.38644 234.52479 236.70614 238.97148 241.35083
 243.98118 246.24152 248.25287 250.02722 251.45356 252.58591 253.41726 253.74260
 253.78895 253.57230 252.94164 251.89899 250.51434 248.68468 246.60303 244.44537
 242.24572 240.05907 237.88841 235.73676 233.60611 231.48245 229.51780 227.68415
 225.97649 224.45784 223.09719 221.87853 220.76988 219.73923 218.85257 218.00292
 217.25427 216.44361 215.55096 214.92431 214.38365 214.23689 213.90860 214.14177
 215.44504 216.48387 217.20241 217.80983 218.80707 221.22154 225.91447 230.48264
 234.01308 237.55870 241.09761 244.76567 248.63937 252.63205 256.26425 259.29318
 262.04816 264.74432 267.18759 269.75272 272.13834 274.18338 276.00919 277.62631
 279.02899 280.25348 281.26572 282.10199 282.76843 283.34235 283.98688 284.58679
 285.12637 285.60684 286.02658 286.56149
 366.78100 356.34493 345.78687 334.66280 323.07573 311.27966 299.15960 286.97253
 274.69446 262.60139 250.62033 239.93126 230.06319 221.17713 213.36906 206.38099
 200.22492 195.17286 191.76479 189.81672 188.86366 188.93759 189.78252 191.10045
 192.83539 194.94032 197.21325 199.58218 202.03712 204.52705 206.62498 208.47692
 210.11285 211.26778 211.50671 211.74465 211.69158 211.40651 211.04944 210.68938
 210.31631 210.03624 209.85418 209.72811 209.66604 210.00697 210.40291 210.80184
 211.60477 212.79271 214.05264 215.84557 217.78350 219.83644 221.94137 224.03430
 226.10423 228.19817 230.30510 232.42103 234.55997 236.74190 239.00783 241.38776
 244.01870 246.27963 248.29156 250.06649 251.49343 252.62636 253.45829 253.78423
 253.83116 253.61509 252.98502 251.94296 250.55889 248.72982 246.64876 244.49169
 242.29262 240.10655 237.93649 235.78542 233.65535 231.53228 229.56822 227.73515
 226.02808 224.51002 223.14995 221.93188 220.82381 219.79375 218.90768 218.05861
 217.31054 216.50048 215.60841 214.98234 214.44228 214.24686 213.79454 214.30258
 215.79326 216.72868 217.26764 217.71931 218.59798 221.03278 225.86432 230.36534
 233.90916 237.38016 240.88275 244.59361 248.56689 252.60272 256.18774 259.21942
 262.02917 264.72516 267.26291 269.68170 272.07541 274.11356 275.90384 277.50247
 278.88852 280.11896 281.16937 282.05237 282.79916 283.43991 283.99988 284.49335
 284.98996 285.40530 285.76816 286.23059
 366.78100 356.34620 345.78941 334.66661 323.08082 311.28602 299.16722 286.98143
 274.70463 262.61284 250.63304 239.94524 230.07845 221.19365 213.38686 206.40006
 200.24526 195.19447 191.78767 189.84088 188.88908 188.96428 189.81049 191.12969
 192.86590 194.97210 197.24630 199.61651 202.07271 204.56392 206.66312 208.51632
 210.15353 211.30973 211.54993 211.78914 211.73734 211.45355 211.09775 210.73895
 210.36716 210.08836 209.90757 209.78277 209.72197 210.06418 210.46138 210.86159
 211.66579 212.85499 214.11620 215.91040 217.84961 219.90381 222.01001 224.10422
 226.17542 228.27063 230.37883 232.49603 234.63624 236.81944 239.08665 241.46785
 244.10005 246.36226 248.37546 250.15167 251.57987 252.71407 253.54728 253.87448
 253.92269 253.70789 253.07909 252.03830 250.65550 248.82771 246.74791 244.59211
 242.39432 240.20952 238.04073 235.89093 233.76213 231.64034 229.67754 227.84575
 226.13995 224.62315 223.26436 222.04756 220.94077 219.91197 219.02717 218.17938
 217.43258 216.62379 215.73299 215.10819 214.56940 214.31926 213.73012 214.17535
 216.09508 217.14442 217.48209 217.72443 218.46396 220.91119 225.77908 230.22826
 233.73401 237.10916 240.59529 244.37904 248.54779 252.58833 256.14819 259.18359
 261.98627 264.69019 267.27548 269.68439 272.06253 274.07501 275.80899 277.27722
 278.59561 279.81586 280.86514 281.73914 282.47546 283.11786 283.69836 284.21054
 284.70398 285.14539 285.51978 285.99686
 366.78100 356.34535 345.78770 334.66405 323.07740 311.28175 299.16210 286.97545
 274.69780 262.60515 250.62450 239.93585 230.06820 221.18255 213.37489 206.38724
 200.23159 195.17994 191.77229 189.82464 188.87199 188.94634 189.79169 191.11004
 192.84539 194.95074 197.22409 199.59344 202.04879 204.53914 206.63749 208.48984
 210.12619 211.28154 211.52089 211.75924 211.70659 211.42194 211.06529 210.70564
 210.33299 210.05333 209.87168 209.74603 209.68438 210.02573 210.42208 210.82143
 211.62478 212.81313 214.07348 215.86683 217.80518 219.85853 221.96388 224.05723
 226.12758 228.22193 230.32928 232.44563 234.58498 236.76733 239.03368 241.41403
 244.04538 246.30673 248.31908 250.09443 251.52177 252.65512 253.48747 253.81382
 253.86117 253.64552 253.01587 251.97422 250.59057 248.76192 246.68127 244.52462
 242.32597 240.14032 237.97067 235.82002 233.69037 231.56772 229.60407 227.77142
 226.06477 224.54712 223.18747 221.96982 220.86217 219.83252 218.94687 218.09821
 217.35056 216.54091 215.64926 215.02361 214.48396 214.29184 213.84258 214.06102
 216.01482 217.27873 217.66295 217.85957 218.52563 220.95235 225.75764 230.19543
 233.62094 236.97142 240.46355 244.31424 248.58109 252.59479 256.14340 259.23837
 261.88620 264.54825 267.14780 269.66721 272.06757 274.03854 275.73557 277.14481
 278.43994 279.67004 280.67880 281.50037 282.18552 282.79312 283.36356 283.88348
 284.38745 284.90134 285.35025 285.92236
 366.78100 356.34415 345.78531 334.66046 323.07261 311.27577 299.15492 286.96708
 274.68823 262.59438 250.61254 239.92269 230.05384 221.16700 213.35815 206.36930
 200.21246 195.15961 191.75077 189.80192 188.84807 188.92123 189.76538 191.08253
 192.81669 194.92084 197.19299 199.56115 202.01530 204.50446 206.60161 208.45276
 210.08792 211.24207 211.48022 211.71738 211.66353 211.37768 211.01984 210.65899
 210.28515 210.00430 209.82145 209.69461 209.63176 209.97191 210.36707 210.76522
 211.56738 212.75453 214.01368 215.80584 217.74299 219.79514 221.89930 223.99145
 226.06060 228.15376 230.25991 232.37507 234.51322 236.69437 238.95953 241.33868
 243.96883 246.22899 248.24014 250.01429 251.44045 252.57260 253.40376 253.72891
 253.77506 253.55822 252.92737 251.88452 250.49968 248.66983 246.58798 244.43014
 242.23029 240.04345 237.87260 235.72075 233.58991 231.46606 229.50121 227.66737
 225.95952 224.44067 223.07983 221.86098 220.75214 219.72129 218.83444 217.98460
 217.23575 216.42490 215.53206 214.90521 214.36436 214.23459 213.93102 214.13756
 215.83632 217.19533 217.74599 217.97505 218.61955 221.05083 225.81331 230.22575
 233.61145 236.93573 240.43982 244.33638 248.61926 252.61320 256.13705 259.20139
 261.78769 264.44208 267.08112 269.68939 272.04788 273.97144 275.64346 277.04233
 278.36578 279.57825 280.54703 281.33734 281.99323 282.54089 283.01566 283.45786
 283.91394 284.46884 284.95361 285.57138
 366.78100 356.34319 345.78337 334.65756 323.06874 311.27093 299.14911 286.96030
 274.68048 262.58567 250.60285 239.91204 230.04222 221.15441 213.34459 206.35478
 200.19696 195.14315 191.73333 189.78352 188.82870 188.90089 189.74407 191.06026
 192.79344 194.89663 197.16781 199.53500 201.98818 204.47637 206.57255 208.42274
 210.05692 211.21011 211.44729 211.68348 211.62866 211.34185 210.98303 210.62122
 210.24640 209.96459 209.78077 209.65296 209.58914 209.92833 210.32251 210.71970
 211.52088 212.70707 213.96525 215.75644 217.69262 219.74381 221.84699 223.93818
 226.00636 228.09855 230.20373 232.31792 234.45510 236.63529 238.89947 241.27766
 243.90684 246.16603 248.17621 249.94940 251.37458 252.50577 253.33595 253.66014
 253.70532 253.48751 252.85569 251.81188 250.42606 248.59525 246.51243 244.35362
 242.15280 239.96499 237.79317 235.64036 233.50854 231.38373 229.41791 227.58310
 225.87428 224.35447 222.99265 221.77284 220.66302 219.63121 218.74339 217.89258
 217.14276 216.33095 215.43713 214.80932 214.26750 214.19063 214.01256 214.23978
 215.78174 217.11807 217.75070 217.99117 218.63596 221.09866 225.83856 230.23088
 233.55882 236.85498 240.38161 244.33044 248.61130 252.59399 256.09058 259.13739
 261.75058 264.42703 267.07388 269.67386 272.00723 273.87735 275.52155 276.94751
 278.25995 279.43109 280.38159 281.14267 281.75427 282.26132 282.71106 283.13947
 283.65378 284.29684 284.85861 285.57455
 366.78100 356.34097 345.77894 334.65092 323.05989 311.25986 299.13583 286.94481
 274.66278 262.56575 250.58072 239.88770 230.01567 221.12564 213.31361 206.32159
 200.16156 195.10553 191.69350 189.74148 188.78445 188.85442 189.69539 191.00937
 192.74034 194.84131 197.11028 199.47526 201.92623 204.41220 206.50617 208.35415
 209.98612 211.13709 211.37206 211.60604 211.54901 211.25998 210.89895 210.53493
 210.15790 209.87387 209.68784 209.55782 209.49179 209.82876 210.22073 210.61571
 211.41468 212.59865 213.85462 215.64360 217.57757 219.62654 221.72751 223.81649
 225.88246 227.97243 230.07540 232.18738 234.32235 236.50032 238.76229 241.13827
 243.76524 246.02221 248.03018 249.80116 251.22413 252.35310 253.18107 253.50305
 253.54602 253.32599 252.69196 251.64594 250.25791 248.42488 246.33985 244.17883
 241.97580 239.78577 237.61174 235.45672 233.32269 231.19566 229.22763 227.39061
 225.67958 224.15755 222.79352 221.57150 220.45947 219.42544 218.53541 217.68239
 216.93036 216.11633 215.22030 214.59028 214.04625 214.09785 214.21703 214.31973
 215.60136 216.93674 217.70103 218.01369 218.77051 221.23109 225.84052 230.20451
 233.43329 236.74127 240.30699 244.32576 248.58084 252.54504 256.04187 259.05298
 261.76913 264.45935 267.13089 269.69763 271.96576 273.71854 275.36002 276.79160
 278.15042 279.28665 280.20407 280.91678 281.47174 281.94528 282.44815 283.25323
 283.97733 284.62210 285.18539 285.90323
 366.78100 356.33987 345.77674 334.64762 323.05549 311.25436 299.12923 286.93711
 274.65398 262.55585 250.56972 239.87560 230.00247 221.11134 213.29821 206.30509
 200.14396 195.08683 191.67370 189.72058 188.76245 188.83132 189.67119 190.98407
 192.71394 194.81381 197.08168 199.44556 201.89543 204.38030 206.47317 208.32005
 209.95092 211.10079 211.33466 211.56754 211.50941 211.21928 210.85715 210.49203
 210.11390 209.82877 209.64164 209.51052 209.44339 209.77926 210.17013 210.56401
 211.36188 212.54475 213.79962 215.58750 217.52037 219.56824 221.66811 223.75599
 225.82086 227.90973 230.01160 232.12248 234.25635 236.43322 238.69409 241.06897
 243.69484 245.95071 247.95758 249.72746 251.14933 252.27720 253.10407 253.42495
 253.46682 253.24569 252.61056 251.56344 250.17431 248.34018 246.25405 244.09193
 241.88780 239.69667 237.52154 235.36542 233.23029 231.10216 229.13303 227.29491
 225.58278 224.05965 222.69452 221.47140 220.35827 219.32314 218.43201 217.57789
 216.82476 216.00963 215.11250 214.48138 213.93625 214.06032 214.34018 214.47153
 215.53770 216.82861 217.67166 218.02072 218.86609 221.35147 225.88571 230.19934
 233.36644 236.67542 240.27397 244.34737 248.59631 252.53247 256.02097 258.99557
 261.75531 264.45096 267.12210 269.69379 271.92429 273.65552 275.19327 276.76923
 278.19952 279.36420 280.25226 280.92282 281.50833 282.34726 283.27661 284.11856
 284.87576 285.55008 286.13916 286.88986
 366.78100 356.34119 345.77939 334.65158 323.06078 311.26097 299.13717 286.94636
 274.66455 262.56775 250.58294 239.89014 230.01833 221.12852 213.31672 206.32491
 200.16511 195.10930 191.69750 189.74569 188.78888 188.85908 189.70027 191.01447
 192.74566 194.84686 197.11605 199.48124 201.93244 204.41863 206.51283 208.36102
 209.99321 211.14441 211.37960 211.61380 211.55699 211.26819 210.90738 210.54357
 210.16677 209.88296 209.69716 209.56735 209.50154 209.83874 210.23093 210.62613
 211.42532 212.60952 213.86571 215.65490 217.58910 219.63829 221.73949 223.82868
 225.89488 227.98507 230.08826 232.20046 234.33565 236.51385 238.77604 241.15223
 243.77943 246.03662 248.04482 249.81601 251.23921 252.36840 253.19659 253.51879
 253.56198 253.34218 252.70837 251.66257 250.27476 248.44195 246.35715 244.19634
 241.99354 239.80373 237.62992 235.47512 233.34131 231.21451 229.24670 227.40990
 225.69909 224.17728 222.81348 221.59167 220.47987 219.44606 218.55626 217.70345
 216.95164 216.13784 215.24203 214.61223 214.06842 214.14275 214.31892 214.59631
 215.72499 216.88786 217.66806 217.98138 218.85989 221.38472 225.90233 230.16138
 233.28477 236.57527 240.20552 244.33966 248.59691 252.50293 255.95726 258.90094
 261.68698 264.40213 267.07944 269.64462 271.85962 273.51334 275.08078 276.85809
 278.32544 279.49677 280.40204 281.14587 282.15765 283.19202 284.13571 284.99063
 285.75955 286.44427 287.04242 287.80472
 366.78100 356.34337 345.78375 334.65812 323.06949 311.27187 299.15024 286.96161
 274.68199 262.58736 250.60473 239.91411 230.04448 221.15685 213.34723 206.35760
 200.19997 195.14635 191.73672 189.78709 188.83247 188.90484 189.74821 191.06459
 192.79796 194.90133 197.17271 199.54008 201.99345 204.48183 206.57820 208.42857
 210.06295 211.21632 211.45369 211.69007 211.63544 211.34881 210.99019 210.62856
 210.25393 209.97231 209.78868 209.66105 209.59743 209.93680 210.33117 210.72855
 211.52992 212.71629 213.97467 215.76604 217.70241 219.75379 221.85716 223.94853
 226.01691 228.10928 230.21465 232.32903 234.46640 236.64677 238.91115 241.28952
 243.91889 246.17827 248.18864 249.96201 251.38739 252.51876 253.34913 253.67351
 253.71888 253.50125 252.86963 251.82600 250.44037 248.60975 246.52712 244.36849
 242.16786 239.98024 237.80861 235.65598 233.52436 231.39973 229.43410 227.59948
 225.89085 224.37122 223.00960 221.78997 220.68034 219.64872 218.76109 217.91046
 217.16084 216.34921 215.45558 214.82796 214.28633 214.27902 214.27898 214.64828
 215.91998 217.02081 217.74352 218.02400 218.87845 221.40578 225.91069 230.09036
 233.18735 236.44553 240.08737 244.28990 248.58119 252.45065 255.83568 258.80814
 261.62167 264.35962 267.05710 269.60593 271.77048 273.42590 274.99612 276.84094
 278.31534 279.45148 280.44601 281.75540 282.91904 283.94855 284.88782 285.73874
 286.50403 287.18555 287.78088 288.53958
 366.78100 356.34472 345.78645 334.66217 323.07490 311.27862 299.15835 286.97107
 274.69279 262.59952 250.61824 239.92897 230.06069 221.17442 213.36614 206.37786
 200.22159 195.16931 191.76104 189.81276 188.85949 188.93321 189.77794 191.09566
 192.83038 194.93511 197.20783 199.57656 202.03128 204.52101 206.61873 208.47045
 210.10618 211.26090 211.49963 211.73735 211.68408 211.39880 211.04152 210.68125
 210.30797 210.02770 209.84542 209.71915 209.65687 209.99759 210.39332 210.79204
 211.59477 212.78249 214.04222 215.83494 217.77266 219.82539 221.93011 224.02284
 226.09256 228.18629 230.29301 232.40874 234.54746 236.72918 238.99491 241.37463
 244.00536 246.26608 248.27781 250.05253 251.47925 252.61198 253.44370 253.76943
 253.81615 253.59988 252.96960 251.92732 250.54305 248.71377 246.63250 244.47522
 242.27595 240.08967 237.91939 235.76812 233.63784 231.51457 229.55029 227.71702
 226.00974 224.49146 223.13119 221.91291 220.80464 219.77436 218.88809 218.03881
 217.29054 216.48026 215.58798 214.96171 214.42143 214.37941 214.28693 214.62930
 215.95737 217.05006 217.75513 218.06464 218.91252 221.43640 225.95840 230.03264
 233.13567 236.41743 240.10245 244.29637 248.54747 252.41487 255.79120 258.80533
 261.63712 264.39838 267.10052 269.57022 271.67368 273.32584 274.95074 276.76694
 278.24377 279.48233 281.02731 282.40326 283.59402 284.64752 285.60870 286.47946
 287.26260 287.95999 288.56921 289.34561
 366.78100 356.34299 345.78297 334.65696 323.06795 311.26993 299.14792 286.95891
 274.67889 262.58388 250.60087 239.90985 230.03984 221.15183 213.34182 206.35180
 200.19379 195.13978 191.72976 189.77975 188.82474 188.89672 189.73971 191.05570
 192.78868 194.89167 197.16266 199.52964 201.98263 204.47062 206.56660 208.41659
 210.05058 211.20356 211.44055 211.67654 211.62153 211.33451 210.97550 210.61349
 210.23847 209.95646 209.77245 209.64443 209.58042 209.91941 210.31339 210.71038
 211.51137 212.69735 213.95534 215.74633 217.68231 219.73330 221.83629 223.92727
 225.99526 228.08725 230.19223 232.30622 234.44321 236.62320 238.88718 241.26517
 243.89416 246.15314 248.16313 249.93612 251.36110 252.49209 253.32208 253.64606
 253.69105 253.47304 252.84102 251.79701 250.41100 248.57998 246.49697 244.33796
 242.13694 239.94893 237.77692 235.62390 233.49189 231.36688 229.40087 227.56585
 225.85684 224.33683 222.97481 221.75480 220.64479 219.61277 218.72476 217.87375
 217.12373 216.31172 215.41771 214.78969 214.24768 214.31491 214.42731 214.54512
 215.75348 217.02658 217.84001 218.17743 219.00705 221.52634 225.98535 230.04788
 233.10371 236.34052 240.04121 244.30717 248.58617 252.42352 255.77620 258.79852
 261.65451 264.42706 267.12909 269.61267 271.68039 273.20740 274.89432 276.79575
 278.28915 279.59042 281.05640 282.39981 283.56241 284.59103 285.52948 286.37964
 287.14429 287.82520 288.42001 289.17807
 366.78100 356.33811 345.77321 334.64232 323.04842 311.24553 299.11863 286.92474
 274.63985 262.53995 250.55206 239.85616 229.98127 221.08838 213.27348 206.27859
 200.11569 195.05680 191.64190 189.68701 188.72712 188.79422 189.63233 190.94343
 192.67154 194.76965 197.03575 199.39786 201.84596 204.32907 206.42017 208.26528
 209.89439 211.04249 211.27460 211.50570 211.44581 211.15392 210.79002 210.42313
 210.04323 209.75634 209.56744 209.43455 209.36566 209.69976 210.08887 210.48097
 211.27708 212.45819 213.71129 215.49740 217.42850 219.47461 221.57271 223.65882
 225.72193 227.80903 229.90914 232.01824 234.15035 236.32546 238.58456 240.95767
 243.58177 245.83588 247.84098 249.60909 251.02920 252.15530 252.98041 253.29951
 253.33962 253.11673 252.47983 251.43094 250.04004 248.20415 246.11625 243.95236
 241.74647 239.55357 237.37668 235.21878 233.08189 230.95200 228.98110 227.14121
 225.42731 223.90242 222.53552 221.31063 220.19574 219.15884 218.26595 217.41005
 216.65516 215.83827 214.93937 214.30648 213.75958 214.06085 214.71843 214.63843
 215.28868 216.75104 217.74556 218.19159 219.11121 221.61177 225.96510 230.00809
 233.05305 236.33047 240.05667 244.27473 248.50175 252.32124 255.69003 258.74619
 261.63693 264.42471 267.08060 269.50098 271.54871 273.19376 274.81131 276.61359
 278.16855 279.41248 280.43362 281.32932 282.23315 283.25140 284.18042 285.02203
 285.77899 286.45303 287.04190 287.79230
 366.78100 356.33778 345.77256 334.64134 323.04713 311.24391 299.11669 286.92247
 274.63725 262.53703 250.54881 239.85259 229.97738 221.08416 213.26894 206.27372
 200.11050 195.05128 191.63606 189.68084 188.72063 188.78741 189.62519 190.93597
 192.66375 194.76153 197.02731 199.38909 201.83688 204.31966 206.41044 208.25522
 209.88400 211.03178 211.26356 211.49434 211.43413 211.14191 210.77769 210.41047
 210.03025 209.74303 209.55381 209.42059 209.35138 209.68516 210.07394 210.46572
 211.26150 212.44228 213.69506 215.48084 217.41163 219.45741 221.55519 223.64097
 225.70375 227.79053 229.89031 231.99909 234.13088 236.30566 238.56444 240.93722
 243.56100 245.81478 247.81956 249.58735 251.00713 252.13291 252.95769 253.27647
 253.31625 253.09303 252.45581 251.40660 250.01538 248.17916 246.09094 243.92672
 241.72050 239.52728 237.35006 235.19185 233.05463 230.92441 228.95319 227.11297
 225.39875 223.87353 222.50631 221.28110 220.16588 219.12866 218.23544 217.37922
 216.62400 215.80678 214.90756 214.27435 213.72713 214.02390 214.71764 214.99579
 215.30479 216.67320 217.62247 217.90610 218.77776 221.42282 225.91769 229.81929
 232.91008 236.15756 239.91957 244.19632 248.42224 252.21550 255.58337 258.66879
 261.58636 264.37793 267.01575 269.41742 271.47223 273.11377 274.67734 276.47528
 278.02817 279.32178 280.38446 281.27280 282.00116 282.57993 283.12317 283.92688
 284.71204 285.41122 286.02200 286.80038
 366.78100 356.34117 345.77934 334.65151 323.06068 311.26085 299.13702 286.94619
 274.66436 262.56753 250.58270 239.88987 230.01804 221.12821 213.31638 206.32455
 200.16472 195.10889 191.69706 189.74523 188.78840 188.85857 189.69974 191.01391
 192.74508 194.84625 197.11542 199.48059 201.93176 204.41793 206.51210 208.36027
 209.99244 211.14361 211.37878 211.61295 211.55612 211.26729 210.90646 210.54263
 210.16580 209.88197 209.69614 209.56631 209.50048 209.83765 210.22982 210.62499
 211.42416 212.60833 213.86450 215.65367 217.58784 219.63701 221.73818 223.82735
 225.89352 227.98369 230.08686 232.19903 234.33420 236.51237 238.77454 241.15071
 243.77788 246.03505 248.04322 249.81439 251.23756 252.36673 253.19490 253.51707
 253.56024 253.34041 252.70658 251.66075 250.27292 248.44009 246.35526 244.19443
 241.99160 239.80177 237.62794 235.47311 233.33928 231.21245 229.24462 227.40779
 225.69695 224.17512 222.81129 221.58946 220.47763 219.44380 218.55397 217.70114
 216.94931 216.13548 215.23965 214.60982 214.06599 214.21777 214.58441 215.00935
 215.57994 216.70010 217.58858 217.83667 218.69289 221.33578 225.80798 229.73711
 232.71927 236.01082 239.86601 244.20598 248.41005 252.16997 255.53288 258.63516
 261.56912 264.35889 266.98138 269.37061 271.42340 273.09970 274.67133 276.46240
 277.96686 279.19162 280.24261 281.12778 281.81824 282.39984 283.31775 284.19485
 284.98370 285.68619 286.29987 287.08191
 366.78100 356.34160 345.78021 334.65281 323.06242 311.26302 299.13963 286.94923
 274.66784 262.57144 250.58705 239.89465 230.02326 221.13386 213.32247 206.33107
 200.17167 195.11628 191.70488 189.75349 188.79709 188.86770 189.70930 191.02391
 192.75551 194.85712 197.12672 199.49233 201.94393 204.43054 206.52514 208.37374
 210.00635 211.15795 211.39356 211.62816 211.57177 211.28337 210.92298 210.55958
 210.18319 209.89979 209.71440 209.58500 209.51961 209.85721 210.24981 210.64542
 211.44502 212.62963 213.88623 215.67584 217.61044 219.66005 221.76165 223.85126
 225.91786 228.00847 230.11207 232.22468 234.36028 236.53888 238.80149 241.17809
 243.80570 246.06330 248.07191 249.84351 251.26712 252.39672 253.22533 253.54793
 253.59154 253.37214 252.73875 251.69335 250.30595 248.47356 246.38916 244.22877
 242.02637 239.83698 237.66358 235.50919 233.37579 231.24940 229.28200 227.44561
 225.73521 224.21382 222.85042 221.62902 220.51763 219.48423 218.59484 217.74244
 216.99105 216.17765 215.28226 214.65286 214.10947 214.27948 214.66725 214.87016
 215.67461 216.76218 217.60870 217.89203 218.81619 221.43333 225.84535 229.77737
 232.72485 236.04268 239.95930 244.31192 248.48465 252.20581 255.54678 258.64368
 261.57245 264.34729 266.94754 269.31305 271.36816 272.99554 274.59042 276.41272
 277.82147 279.06628 280.04611 280.77182 281.58432 282.65485 283.63159 284.51642
 285.31223 286.02090 286.64001 287.42896
 366.78100 356.34105 345.77909 334.65114 323.06019 311.26023 299.13628 286.94533
 274.66337 262.56642 250.58147 239.88851 230.01656 221.12661 213.31466 206.32270
 200.16275 195.10680 191.69484 189.74289 188.78594 188.85598 189.69703 191.01108
 192.74212 194.84317 197.11222 199.47726 201.92831 204.41436 206.50840 208.35645
 209.98850 211.13954 211.37459 211.60864 211.55168 211.26273 210.90178 210.53783
 210.16087 209.87692 209.69097 209.56101 209.49506 209.83211 210.22415 210.61920
 211.41825 212.60229 213.85834 215.64739 217.58143 219.63048 221.73153 223.82057
 225.88662 227.97667 230.07971 232.19176 234.32681 236.50486 238.76690 241.14295
 243.77000 246.02704 248.03509 249.80614 251.22918 252.35823 253.18628 253.50832
 253.55137 253.33142 252.69746 251.65151 250.26356 248.43060 246.34565 244.18470
 241.98174 239.79179 237.61784 235.46288 233.32893 231.20198 229.23403 227.39707
 225.68612 224.16417 222.80021 221.57826 220.46631 219.43235 218.54240 217.68945
 216.93749 216.12354 215.22759 214.59763 214.05368 214.28050 214.77907 214.89873
 215.61636 216.64291 217.51295 217.89696 218.90031 221.52736 225.94350 229.85672
 232.79251 236.08997 240.02405 244.38474 248.52034 252.18945 255.50459 258.60123
 261.52972 264.29968 266.89761 269.26620 271.34277 272.97049 274.46774 276.31763
 277.75739 278.92999 279.72519 280.50476 281.68338 282.74359 283.71085 284.58713
 285.37524 286.07706 286.69016 287.47147
 366.78100 356.34026 345.77752 334.64879 323.05705 311.25631 299.13157 286.93983
 274.65710 262.55936 250.57362 239.87988 230.00714 221.11640 213.30367 206.31093
 200.15019 195.09345 191.68071 189.72798 188.77024 188.83950 189.67976 190.99302
 192.72329 194.82355 197.09181 199.45607 201.90633 204.39159 206.48486 208.33212
 209.96338 211.11364 211.34790 211.58117 211.52343 211.23369 210.87195 210.50721
 210.12948 209.84474 209.65800 209.52726 209.46052 209.79679 210.18805 210.58231
 211.38057 212.56383 213.81909 215.60736 217.54062 219.58888 221.68914 223.77740
 225.84267 227.93193 230.03419 232.14545 234.27971 236.45698 238.71824 241.09350
 243.71976 245.97602 247.98328 249.75355 251.17581 252.30407 253.13133 253.45259
 253.49486 253.27412 252.63938 251.59264 250.20390 248.37017 246.28443 244.12269
 241.91895 239.72821 237.55348 235.39774 233.26300 231.13526 229.16652 227.32878
 225.61705 224.09431 222.72957 221.50683 220.39409 219.35936 218.46862 217.61488
 216.86214 216.04740 215.15067 214.51993 213.97519 214.27010 214.89896 214.96761
 215.50899 216.57042 217.50687 217.94719 218.96945 221.59509 226.01395 229.84041
 232.75409 236.01326 239.97235 244.37767 248.47292 252.11552 255.45204 258.58002
 261.52383 264.29742 266.88705 269.23813 271.28708 272.89175 274.37894 276.20959
 277.68875 278.72134 279.58887 281.01001 282.23990 283.32803 284.32077 285.22015
 286.02902 286.74933 287.37860 288.18048
 366.78100 356.33930 345.77559 334.64589 323.05318 311.25148 299.12577 286.93307
 274.64936 262.55066 250.56396 239.86925 229.99555 221.10384 213.29014 206.29643
 200.13473 195.07702 191.66332 189.70962 188.75091 188.81921 189.65850 190.97080
 192.70009 194.79939 197.06668 199.42998 201.87928 204.36357 206.45587 208.30216
 209.93246 211.08175 211.31505 211.54734 211.48864 211.19794 210.83523 210.46953
 210.09082 209.80512 209.61741 209.48571 209.41800 209.75330 210.14360 210.53689
 211.33419 212.51648 213.77078 215.55807 217.49037 219.53766 221.63696 223.72426
 225.78855 227.87685 229.97814 232.08844 234.22173 236.39803 238.65832 241.03262
 243.65792 245.91321 247.91951 249.68880 251.11010 252.23739 253.06369 253.38398
 253.42528 253.20358 252.56787 251.52017 250.13046 248.29576 246.20905 244.04635
 241.84164 239.64994 237.47424 235.31753 233.18183 231.05312 229.08342 227.24471
 225.53201 224.00830 222.64260 221.41890 220.30519 219.26949 218.37778 217.52308
 216.76937 215.95367 215.05596 214.42426 213.87856 214.24319 215.01833 215.03975
 215.36444 216.50204 217.48691 217.89442 218.92484 221.59811 226.07558 229.85657
 232.73352 235.96831 239.96582 244.37691 248.45407 252.09425 255.45337 258.59872
 261.54971 264.31747 266.89951 269.26309 271.34756 272.99588 274.27808 276.24707
 277.72650 278.65631 279.96643 281.38782 282.61789 283.70621 284.69910 285.59863
 286.40762 287.12805 287.75742 288.55945
 366.78100 356.34071 345.77842 334.65013 323.05885 311.25856 299.13427 286.94298
 274.66069 262.56340 250.57812 239.88483 230.01254 221.12225 213.30996 206.31767
 200.15739 195.10110 191.68881 189.73652 188.77923 188.84894 189.68965 191.00337
 192.73408 194.83479 197.10350 199.46821 201.91892 204.40464 206.49835 208.34606
 209.97777 211.12848 211.36319 211.59690 211.53962 211.25033 210.88904 210.52475
 210.14746 209.86317 209.67689 209.54660 209.48031 209.81702 210.20873 210.60344
 211.40216 212.58587 213.84158 215.63029 217.56400 219.61271 221.71342 223.80214
 225.86785 227.95756 230.06027 232.17198 234.30669 236.48441 238.74612 241.12183
 243.74854 246.00525 248.01296 249.78368 251.20639 252.33510 253.16281 253.48452
 253.52723 253.30694 252.67266 251.62637 250.23808 248.40479 246.31950 244.15821
 241.95493 239.76464 237.59035 235.43506 233.30077 231.17348 229.20519 227.36791
 225.65662 224.13433 222.77004 221.54775 220.43546 219.40118 218.51089 217.65760
 216.90531 216.09102 215.19473 214.56445 214.02016 214.33493 215.01636 215.12355
 215.43584 216.52144 217.39326 217.67802 218.73387 221.50894 226.03725 229.78935
 232.66875 235.95212 239.96266 244.36960 248.43312 252.07246 255.43474 258.58948
 261.54327 264.30075 266.86349 269.21149 271.29794 272.97968 274.37949 276.25671
 277.73157 278.67688 280.23331 281.67065 282.91458 284.01514 285.01920 285.92883
 286.74695 287.47549 288.11191 288.92297
 366.78100 356.34289 345.78278 334.65667 323.06756 311.26945 299.14734 286.95823
 274.67812 262.58301 250.59990 239.90879 230.03868 221.15057 213.34046 206.35035
 200.19224 195.13813 191.72802 189.77791 188.82280 188.89468 189.73757 191.05346
 192.78635 194.88924 197.16013 199.52702 201.97991 204.46780 206.56369 208.41358
 210.04747 211.20036 211.43725 211.67314 211.61803 211.33092 210.97181 210.60970
 210.23459 209.95248 209.76837 209.64026 209.57615 209.91504 210.30893 210.70582
 211.50671 212.69260 213.95049 215.74138 217.67727 219.72816 221.83105 223.92194
 225.98983 228.08172 230.18661 232.30050 234.43739 236.61728 238.88117 241.25905
 243.88794 246.14683 248.15672 249.92961 251.35450 252.48539 253.31528 253.63917
 253.68406 253.46595 252.83384 251.78973 250.40362 248.57251 246.48940 244.33029
 242.12918 239.94107 237.76896 235.61585 233.48374 231.35863 229.39252 227.55741
 225.84830 224.32819 222.96608 221.74597 220.63586 219.60375 218.71564 217.86453
 217.11442 216.30231 215.40820 214.78009 214.23798 214.47549 214.98891 215.10379
 215.46815 216.55197 217.41641 217.61330 218.62718 221.43855 226.01212 229.72270
 232.59998 235.92516 239.97275 244.38216 248.42844 252.05147 255.41754 258.57822
 261.52167 264.27319 266.84637 269.20871 271.30984 272.95590 274.35208 276.43756
 277.71729 279.07626 280.70334 282.13480 283.37363 284.46967 285.46964 286.37555
 287.19031 287.91586 288.54968 289.35742
 366.78100 356.34214 345.78129 334.65443 323.06458 311.26572 299.14287 286.95301
 274.67215 262.57630 250.59244 239.90059 230.02973 221.14088 213.33002 206.33917
 200.18031 195.12545 191.71460 189.76374 188.80789 188.87903 189.72118 191.03632
 192.76846 194.87061 197.14075 199.50690 201.95904 204.44619 206.54133 208.39048
 210.02362 211.17576 211.41191 211.64705 211.59120 211.30334 210.94349 210.58063
 210.20477 209.92192 209.73706 209.60821 209.54335 209.88150 210.27464 210.67079
 211.47093 212.65607 213.91322 215.70336 217.63851 219.68865 221.79080 223.88094
 225.94808 228.03923 230.14337 232.25652 234.39266 236.57181 238.83495 241.21210
 243.84024 246.09838 248.10753 249.87967 251.30382 252.43396 253.26311 253.58625
 253.63039 253.41154 252.77868 251.73383 250.34697 248.51512 246.43126 244.27141
 242.06955 239.88069 237.70784 235.55398 233.42113 231.29527 229.32842 227.49256
 225.78270 224.26185 222.89899 221.67814 220.56728 219.53443 218.64557 217.79372
 217.04286 216.23000 215.33515 214.70629 214.16344 214.45854 215.09605 215.07814
 215.26042 216.28659 217.31718 217.70760 218.79588 221.57840 225.97762 229.78229
 232.67015 236.01970 240.02722 244.43837 248.49782 252.05351 255.38426 258.52963
 261.47449 264.22363 266.77905 269.10355 271.15298 272.89624 274.43921 276.34653
 277.80780 278.85986 280.02405 281.43314 282.69461 283.81070 284.82895 285.75140
 286.58109 287.31989 287.96530 288.78781
 366.78100 356.33883 345.77465 334.64448 323.05131 311.24913 299.12296 286.92979
 274.64561 262.54644 250.55927 239.86409 229.98992 221.09775 213.28357 206.28940
 200.12723 195.06905 191.65488 189.70071 188.74153 188.80936 189.64819 190.96001
 192.68884 194.78767 197.05449 199.41732 201.86615 204.34997 206.44180 208.28763
 209.91745 211.06628 211.29911 211.53093 211.47176 211.18059 210.81741 210.45124
 210.07207 209.78589 209.59772 209.46555 209.39737 209.73220 210.12203 210.51485
 211.31168 212.49351 213.74733 215.53416 217.46599 219.51281 221.61164 223.69847
 225.76229 227.85012 229.95095 232.06077 234.19360 236.36943 238.62925 241.00308
 243.62791 245.88273 247.88856 249.65739 251.07821 252.20504 253.03087 253.35069
 253.39152 253.16935 252.53317 251.48500 250.09483 248.25965 246.17248 244.00931
 241.80413 239.61196 237.43579 235.27861 233.14244 231.01327 229.04309 227.20392
 225.49075 223.96657 222.60040 221.37623 220.26205 219.22588 218.33371 217.47853
 216.72436 215.90819 215.01001 214.37784 213.83167 214.30965 215.34959 215.09926
 215.04153 216.00258 217.21486 217.79422 218.84070 221.57832 225.93756 229.71297
 232.61215 236.00735 240.05428 244.40498 248.38554 251.95601 255.32947 258.51242
 261.46484 264.20444 266.73752 269.03418 271.07877 272.83652 274.25879 276.32486
 277.79965 278.76566 279.63736 280.76614 281.93658 283.00342 283.97675 284.85852
 285.65158 286.35779 286.97473 287.76093
 366.78100 356.33765 345.77230 334.64096 323.04661 311.24326 299.11591 286.92157
 274.63622 262.53587 250.54752 239.85118 229.97583 221.08248 213.26713 206.27179
 200.10844 195.04909 191.63374 189.67840 188.71805 188.78470 189.62235 190.93301
 192.66066 194.75831 197.02396 199.38562 201.83327 204.31592 206.40657 208.25123
 209.87988 211.02753 211.25918 211.48984 211.42949 211.13714 210.77279 210.40545
 210.02510 209.73775 209.54840 209.41506 209.34571 209.67936 210.06801 210.45967
 211.25532 212.43597 213.68862 215.47428 217.40493 219.45058 221.54823 223.63389
 225.69654 227.78319 229.88284 231.99150 234.12315 236.29780 238.55645 240.92911
 243.55276 245.80641 247.81106 249.57872 250.99837 252.12402 252.94867 253.26733
 253.30698 253.08363 252.44628 251.39694 250.00559 248.16924 246.08089 243.91655
 241.71020 239.51685 237.33950 235.18116 233.04381 230.91346 228.94211 227.10177
 225.38742 223.86207 222.49472 221.26938 220.15403 219.11668 218.22333 217.36699
 216.61164 215.79429 214.89494 214.26160 213.71425 214.28746 215.47260 215.18114
 214.98022 216.01920 217.27066 217.88287 218.92780 221.61740 225.99464 229.67032
 232.49873 235.83435 239.92699 244.34021 248.36972 251.97678 255.34486 258.51370
 261.46011 264.19360 266.70673 268.97641 271.00470 272.72366 274.27814 275.95569
 277.40482 278.61661 279.96628 281.37674 282.59735 283.67731 284.66260 285.55518
 286.35797 287.07288 287.69739 288.49326
 366.78100 356.34039 345.77779 334.64918 323.05758 311.25697 299.13237 286.94076
 274.65816 262.56055 250.57494 239.88134 230.00873 221.11813 213.30552 206.31292
 200.15231 195.09571 191.68310 189.73050 188.77289 188.84228 189.68268 190.99607
 192.72647 194.82686 197.09526 199.45965 201.91005 204.39544 206.48883 208.33623
 209.96762 211.11802 211.35241 211.58581 211.52820 211.23860 210.87699 210.51239
 210.13478 209.85017 209.66357 209.53296 209.46636 209.80275 210.19415 210.58854
 211.38694 212.57033 213.82572 215.61412 217.54751 219.59591 221.69630 223.78470
 225.85009 227.93949 230.04188 232.15327 234.28767 236.46506 238.72646 241.10185
 243.72825 245.98464 247.99204 249.76243 251.18483 252.31322 253.14061 253.46201
 253.50440 253.28380 252.64919 251.60259 250.21398 248.38038 246.29477 244.13316
 241.92956 239.73895 237.56435 235.40874 233.27414 231.14653 229.17793 227.34032
 225.62872 224.10611 222.74150 221.51890 220.40629 219.37169 218.48108 217.62748
 216.87487 216.06027 215.16366 214.53305 213.98845 214.46278 215.45686 215.26512
 214.85832 215.88385 217.05295 217.77249 218.94977 221.57208 226.03773 229.69363
 232.55449 235.97223 240.03743 244.37012 248.42580 252.11783 255.50873 258.63211
 261.50955 264.18076 266.65073 268.93552 270.97421 272.77792 274.26764 275.77615
 277.00195 278.05264 278.96185 279.76019 280.45111 281.06238 281.62006 282.12527
 282.57968 282.98431 283.33780 283.78830
 366.78100 356.34127 345.77955 334.65182 323.06110 311.26137 299.13764 286.94692
 274.66519 262.56847 250.58374 239.89101 230.01929 221.12956 213.31784 206.32611
 200.16638 195.11066 191.69893 189.74721 188.79048 188.86075 189.70203 191.01630
 192.74758 194.84885 197.11812 199.48340 201.93467 204.42095 206.51522 208.36349
 209.99577 211.14704 211.38232 211.61659 211.55986 211.27114 210.91041 210.54669
 210.16996 209.88623 209.70051 209.57078 209.50506 209.84233 210.23460 210.62988
 211.42915 212.61343 213.86970 215.65897 217.59325 219.64252 221.74380 223.83307
 225.89934 227.98962 230.09289 232.20517 234.34044 236.51871 238.78099 241.15726
 243.78454 246.04181 248.05008 249.82136 251.24463 252.37391 253.20218 253.52445
 253.56773 253.34800 252.71428 251.66855 250.28082 248.44810 246.36337 244.20265
 241.99992 239.81019 237.63647 235.48174 233.34802 231.22129 229.25356 227.41684
 225.70611 224.18439 222.82066 221.59893 220.48721 219.45348 218.56376 217.71103
 216.95930 216.14558 215.24985 214.62013 214.07640 214.54492 215.55089 215.31935
 214.49550 215.35606 216.61093 217.40637 218.74466 221.78709 226.11276 229.82048
 232.74635 236.21361 240.25391 244.54694 248.63528 252.34396 255.73412 258.83719
 261.67804 264.32477 266.77832 268.94910 270.94662 272.87173 274.68442 276.30734
 277.71597 278.92340 279.96820 280.88562 281.67957 282.38202 283.02289 283.60349
 284.12564 284.59064 284.99686 285.51453
 366.78100 356.34037 345.77775 334.64912 323.05749 311.25687 299.13224 286.94061
 274.65799 262.56036 250.57473 239.88111 230.00848 221.11785 213.30523 206.31260
 200.15197 195.09535 191.68272 189.73009 188.77247 188.84184 189.68221 190.99559
 192.72596 194.82633 197.09471 199.45908 201.90945 204.39483 206.48820 208.33557
 209.96694 211.11732 211.35169 211.58506 211.52744 211.23781 210.87618 210.51156
 210.13393 209.84930 209.66268 209.53205 209.46542 209.80180 210.19317 210.58754
 211.38592 212.56929 213.82466 215.61304 217.54641 219.59478 221.69516 223.78353
 225.84890 227.93828 230.04065 232.15202 234.28640 236.46377 238.72514 241.10052
 243.72689 245.98326 247.99064 249.76101 251.18338 252.31176 253.13913 253.46050
 253.50288 253.28225 252.64762 251.60100 250.21237 248.37874 246.29312 244.13149
 241.92786 239.73724 237.56261 235.40698 233.27236 231.14473 229.17610 227.33848
 225.62685 224.10422 222.73960 221.51697 220.40434 219.36972 218.47909 217.62546
 216.87283 216.05821 215.16158 214.53095 213.98633 214.53159 215.65192 215.44234
 214.39302 215.10562 216.39157 217.14841 218.65465 221.78796 226.19719 229.91730
 232.85069 236.31084 240.34714 244.66249 248.73688 252.41385 255.78470 258.90433
 261.80109 264.52710 267.04553 269.24475 271.15286 273.12820 275.76315 278.12393
 280.17300 281.92938 283.44922 284.78375 285.93866 286.96048 287.89273 288.73727
 289.49686 290.17328 290.76416 291.51718
 366.78100 356.34094 345.77887 334.65081 323.05975 311.25968 299.13562 286.94456
 274.66249 262.56543 250.58037 239.88730 230.01524 221.12518 213.31312 206.32105
 200.16099 195.10493 191.69286 189.74080 188.78374 188.85367 189.69461 191.00855
 192.73948 194.84042 197.10936 199.47429 201.92523 204.41117 206.50510 208.35304
 209.98498 211.13591 211.37085 211.60479 211.54772 211.25866 210.89760 210.53353
 210.15647 209.87241 209.68635 209.55628 209.49022 209.82716 210.21909 210.61403
 211.41297 212.59690 213.85284 215.64178 217.57571 219.62465 221.72559 223.81452
 225.88046 227.97040 230.07333 232.18527 234.32021 236.49814 238.76008 241.13602
 243.76295 246.01989 248.02783 249.79876 251.22170 252.35064 253.17858 253.50051
 253.54345 253.32339 252.68932 251.64326 250.25520 248.42213 246.33707 244.17601
 241.97294 239.78288 237.60882 235.45375 233.31969 231.19263 229.22456 227.38750
 225.67644 224.15437 222.79031 221.56825 220.45618 219.42212 218.53206 217.67899
 216.92693 216.11287 215.21681 214.58674 214.04268 214.57288 215.70943 215.55838
 214.43889 215.02080 216.30084 217.03529 218.63145 221.71877 226.16051 229.86790
 232.80519 236.28535 240.32513 244.62578 248.67072 252.31528 255.66777 258.79343
 261.71439 264.47055 267.02505 269.28152 271.23712 273.17001 276.18063 279.11679
 281.66525 283.84967 285.73993 287.39972 288.83612 290.10696 291.26642 292.31680
 293.26151 294.10275 294.83768 295.77423
 366.78100 356.34182 345.78064 334.65346 323.06328 311.26410 299.14092 286.95074
 274.66956 262.57338 250.58920 239.89701 230.02583 221.13665 213.32547 206.33429
 200.17511 195.11993 191.70875 189.75757 188.80139 188.87221 189.71403 191.02885
 192.76067 194.86249 197.13231 199.49813 201.94995 204.43677 206.53159 208.38040
 210.01322 211.16504 211.40086 211.63568 211.57950 211.29132 210.93114 210.56796
 210.19178 209.90860 209.72342 209.59424 209.52906 209.86688 210.25970 210.65552
 211.45534 212.64016 213.89698 215.68679 217.62161 219.67143 221.77325 223.86307
 225.92989 228.02071 230.12453 232.23735 234.37317 236.55199 238.81481 241.19163
 243.81945 246.07727 248.08609 249.85791 251.28173 252.41155 253.24037 253.56319
 253.60700 253.38782 252.75464 251.70946 250.32228 248.49010 246.40592 244.24574
 242.04356 239.85438 237.68120 235.52702 233.39384 231.26766 229.30048 227.46430
 225.75412 224.23294 222.86976 221.64858 220.53739 219.50421 218.61503 217.76285
 217.01167 216.19849 215.30331 214.67413 214.13095 214.63124 215.74263 215.65494
 214.43216 214.84877 216.15677 216.92496 218.61835 221.73268 226.21596 229.87004
 232.76889 236.26047 240.33574 244.66879 248.72754 252.40698 255.78932 258.93924
 261.85736 264.60526 267.17838 269.42545 271.41388 273.23260 276.30975 279.63791
 282.52661 285.00269 287.14532 289.02670 290.65488 292.09540 293.40964 294.60025
 295.67108 296.62466 297.45770 298.51932
 366.78100 356.34189 345.78078 334.65368 323.06357 311.26446 299.14135 286.95124
 274.67013 262.57403 250.58992 239.89781 230.02670 221.13759 213.32648 206.33538
 200.17627 195.12116 191.71005 189.75894 188.80283 188.87373 189.71562 191.03051
 192.76240 194.86429 197.13418 199.50008 201.95197 204.43886 206.53375 208.38264
 210.01553 211.16743 211.40332 211.63821 211.58210 211.29399 210.93388 210.57078
 210.19467 209.91156 209.72645 209.59734 209.53223 209.87013 210.26302 210.65891
 211.45880 212.64369 213.90058 215.69048 217.62537 219.67526 221.77715 223.86704
 225.93393 228.02483 230.12872 232.24161 234.37750 236.55639 238.81928 241.19618
 243.82407 246.08196 248.09085 249.86274 251.28663 252.41653 253.24542 253.56831
 253.61220 253.39309 252.75998 251.71488 250.32777 248.49566 246.41155 244.25144
 242.04933 239.86023 237.68712 235.53301 233.39990 231.27379 229.30668 227.47058
 225.76047 224.23936 222.87625 221.65514 220.54403 219.51093 218.62182 217.76971
 217.01860 216.20549 215.31038 214.68128 214.13817 214.64766 215.76788 215.74667
 214.67131 214.78459 215.85620 216.71568 218.56029 221.78079 226.22774 229.91393
 232.80402 236.29790 240.37169 244.73152 248.80295 252.47035 255.85956 259.00497
 261.92032 264.68719 267.31137 269.64395 271.71118 273.58444 275.62537 278.36649
 281.10254 283.44775 285.47717 287.25912 288.80127 290.16565 291.41046 292.53818
 293.55243 294.45563 295.24463 296.25012
 366.78100 356.34223 345.78145 334.65468 323.06491 311.26613 299.14336 286.95359
 274.67281 262.57704 250.59327 239.90149 230.03072 221.14195 213.33117 206.34040
 200.18163 195.12686 191.71608 189.76531 188.80954 188.88076 189.72299 191.03822
 192.77044 194.87267 197.14290 199.50912 201.96135 204.44858 206.54380 208.39303
 210.02626 211.17848 211.41471 211.64994 211.59416 211.30639 210.94662 210.58384
 210.20807 209.92530 209.74052 209.61175 209.54698 209.88520 210.27843 210.67466
 211.47488 212.66011 213.91734 215.70757 217.64279 219.69302 221.79525 223.88547
 225.95270 228.04393 230.14815 232.26138 234.39761 236.57683 238.84006 241.21729
 243.84551 246.10374 248.11297 249.88519 251.30942 252.43965 253.26887 253.59210
 253.63633 253.41755 252.78478 251.74001 250.35323 248.52146 246.43769 244.27791
 242.07614 239.88737 237.71459 235.56082 233.42805 231.30228 229.33550 227.49973
 225.78996 224.26918 222.90641 221.68564 220.57486 219.54209 218.65332 217.80154
 217.05077 216.23800 215.34322 214.71445 214.17168 214.67815 215.79718 215.80675
 214.80745 214.84848 215.67070 216.43179 218.35915 221.74323 226.15874 229.84789
 232.74690 236.27200 240.37914 244.74417 248.82539 252.47232 255.83615 258.93625
 261.79929 264.53186 267.13342 269.47382 271.60721 273.60159 275.43875 277.86102
 280.43225 282.67651 284.61856 286.32382 287.79956 289.10522 290.29645 291.37561
 292.34619 293.21051 293.96555 294.92776
 366.78100 356.34291 345.78282 334.65673 323.06764 311.26955 299.14746 286.95837
 274.67827 262.58318 250.60009 239.90900 230.03891 221.15082 213.34073 206.35064
 200.19255 195.13846 191.72837 189.77828 188.82319 188.89510 189.73800 191.05391
 192.78682 194.88973 197.16064 199.52755 201.98046 204.46837 206.56428 208.41419
 210.04810 211.20101 211.43792 211.67383 211.61873 211.33164 210.97255 210.61046
 210.23537 209.95328 209.76919 209.64110 209.57701 209.91592 210.30983 210.70674
 211.50765 212.69356 213.95146 215.74237 217.67828 219.72919 221.83210 223.92301
 225.99092 228.08283 230.18774 232.30165 234.43856 236.61847 238.88238 241.26029
 243.88919 246.14810 248.15801 249.93092 251.35583 252.48674 253.31665 253.64056
 253.68547 253.46738 252.83529 251.79120 250.40511 248.57402 246.49092 244.33183
 242.13074 239.94265 237.77056 235.61747 233.48538 231.36029 229.39420 227.55911
 225.85002 224.32993 222.96784 221.74775 220.63765 219.60556 218.71747 217.86638
 217.11629 216.30420 215.41011 214.78202 214.23993 214.73026 215.82602 215.83456
 214.76726 214.78561 215.57739 216.35391 218.30838 221.71167 226.16875 229.81683
 232.70312 236.24432 240.39424 244.80031 248.89308 252.58148 255.96907 259.06485
 261.88754 264.56024 267.11923 269.40967 271.53210 273.54974 275.49496 278.00067
 280.62537 282.87512 284.82193 286.53134 288.01071 289.31958 290.51370 291.59552
 292.56848 293.43491 294.19180 295.15637
 366.78100 356.34300 345.78301 334.65701 323.06801 311.27002 299.14802 286.95903
 274.67903 262.58403 250.60104 239.91004 230.04004 221.15205 213.34205 206.35205
 200.19406 195.14006 191.73006 189.78007 188.82507 188.89708 189.74008 191.05608
 192.78909 194.89209 197.16309 199.53010 201.98310 204.47110 206.56711 208.41711
 210.05111 211.20412 211.44112 211.67713 211.62213 211.33513 210.97614 210.61414
 210.23914 209.95715 209.77315 209.64515 209.58116 209.92016 210.31417 210.71117
 211.51217 212.69818 213.95618 215.74718 217.68319 219.73419 221.83719 223.92820
 225.99620 228.08820 230.19321 232.30721 234.44422 236.62422 238.88822 241.26623
 243.89523 246.15423 248.16424 249.93724 251.36224 252.49325 253.32325 253.64725
 253.69226 253.47426 252.84227 251.79827 250.41227 248.58128 246.49828 244.33928
 242.13829 239.95029 237.77829 235.62530 233.49330 231.36831 229.40231 227.56731
 225.85832 224.33832 222.97632 221.75633 220.64633 219.61433 218.72634 217.87534
 217.12534 216.31335 215.41935 214.79136 214.24936 214.74945 215.86133 215.90303
 214.81107 214.63708 215.35329 216.15414 218.19235 221.72540 226.17513 229.85033
 232.74809 236.30513 240.47057 244.87189 248.99622 252.69321 256.08221 259.18341
 262.00760 264.66425 267.20798 269.49738 271.65244 273.74744 275.52637 277.82834
 280.25528 282.44821 284.34586 286.01212 287.45413 288.72992 289.89392 290.94839
 291.89679 292.74133 293.47913 294.41934
 366.78100 356.34328 345.78356 334.65784 323.06911 311.27139 299.14967 286.96095
 274.68123 262.58651 250.60379 239.91307 230.04334 221.15562 213.34590 206.35618
 200.19846 195.14474 191.73502 189.78530 188.83057 188.90285 189.74613 191.06241
 192.79569 194.89897 197.17025 199.53753 201.99080 204.47908 206.57536 208.42564
 210.05992 211.21320 211.45048 211.68675 211.63203 211.34531 210.98659 210.62487
 210.25015 209.96843 209.78471 209.65698 209.59326 209.93254 210.32682 210.72410
 211.52538 212.71166 213.96994 215.76121 217.69749 219.74877 221.85205 223.94333
 226.01161 228.10389 230.20917 232.32344 234.46072 236.64100 238.90528 241.28356
 243.91284 246.17212 248.18239 249.95567 251.38095 252.51223 253.34251 253.66679
 253.71207 253.49435 252.86262 251.81890 250.43318 248.60246 246.51974 244.36102
 242.16030 239.97258 237.80085 235.64813 233.51641 231.39169 229.42597 227.59125
 225.88253 224.36280 223.00108 221.78136 220.67164 219.63992 218.75220 217.90148
 217.15176 216.34003 215.44631 214.81859 214.27687 214.77289 215.88336 215.99550
 214.92557 214.54547 215.13225 215.90784 218.01198 221.70045 226.10771 229.81087
 232.72690 236.31573 240.50597 244.90317 249.01942 252.72188 256.09689 259.18982
 262.01184 264.66553 267.19775 269.50110 271.67245 273.80270 275.59515 277.66916
 279.92899 282.15552 284.08221 285.77402 287.23810 288.53345 289.71527 290.78592
 291.74884 292.60632 293.35541 294.31003
 366.78100 356.34419 345.78537 334.66056 323.07274 311.27593 299.15511 286.96730
 274.68848 262.59467 250.61286 239.92304 230.05423 221.16741 213.35860 206.36978
 200.21297 195.16015 191.75134 189.80253 188.84871 188.92190 189.76608 191.08327
 192.81745 194.92164 197.19382 199.56201 202.01620 204.50538 206.60257 208.45375
 210.08894 211.24312 211.48131 211.71849 211.66468 211.37886 211.02105 210.66024
 210.28642 210.00561 209.82279 209.69598 209.63316 209.97335 210.36853 210.76672
 211.56891 212.75609 214.01528 215.80746 217.74465 219.79683 221.90102 223.99320
 226.06239 228.15558 230.26176 232.37695 234.51513 236.69632 238.96150 241.34069
 243.97087 246.23106 248.24225 250.01643 251.44262 252.57480 253.40599 253.73117
 253.77736 253.56054 252.92973 251.88692 250.50210 248.67229 246.59047 244.43266
 242.23284 240.04603 237.87521 235.72340 233.59259 231.46877 229.50396 227.67014
 225.96233 224.44351 223.08270 221.86388 220.75507 219.72425 218.83744 217.98763
 217.23881 216.42800 215.53518 214.90837 214.36755 214.82433 215.87848 216.09145
 214.99168 214.44920 214.94255 215.75867 217.89560 221.66083 226.08324 229.78827
 232.71736 236.34044 240.56268 244.98187 249.11182 252.81956 256.19571 259.28302
 262.09164 264.72122 267.23846 269.50781 271.66391 273.79779 275.57404 277.50275
 279.69098 281.87762 283.76984 285.43130 286.86917 288.14133 289.30194 290.35339
 291.29907 292.14120 292.87686 293.81439
 366.78100 356.34559 345.78819 334.66478 323.07837 311.28296 299.16356 286.97715
 274.69974 262.60734 250.62693 239.93852 230.07111 221.18571 213.37830 206.39089
 200.23549 195.18408 191.77667 189.82926 188.87686 188.95145 189.79704 191.11564
 192.85123 194.95682 197.23041 199.60001 202.05560 204.54619 206.64479 208.49738
 210.13397 211.28956 211.52916 211.76775 211.71534 211.43094 211.07453 210.71512
 210.34271 210.06331 209.88190 209.75649 209.69509 210.03668 210.43327 210.83286
 211.63646 212.82505 214.08564 215.87924 217.81783 219.87142 221.97701 224.07061
 226.14120 228.23579 230.34339 232.45998 234.59957 236.78216 239.04876 241.42935
 244.06094 246.32254 248.33513 250.11072 251.53831 252.67191 253.50450 253.83109
 253.87869 253.66328 253.03387 251.99246 250.60906 248.78065 246.70024 244.54384
 242.34543 240.16002 237.99061 235.84021 233.71080 231.58839 229.62499 227.79258
 226.08617 224.56876 223.20936 221.99195 220.88454 219.85514 218.96973 218.12132
 217.37391 216.56451 215.67310 215.04769 214.50829 214.90158 215.84921 216.18378
 215.11490 214.35931 214.67740 215.50179 217.77657 221.55713 226.04266 229.72978
 232.70547 236.38020 240.64125 245.08890 249.24757 252.98930 256.37823 259.47510
 262.28860 264.90979 267.41412 269.66110 271.75677 273.81146 275.47479 277.46411
 279.76508 282.01352 283.95920 285.66766 287.14618 288.45428 289.64774 290.72891
 291.70132 292.56726 293.32373 294.28775
 366.78100 356.34690 345.79080 334.66870 323.08360 311.28950 299.17140 286.98630
 274.71021 262.61911 250.64001 239.95291 230.08681 221.20271 213.39661 206.41051
 200.25641 195.20631 191.80021 189.85411 188.90301 188.97891 189.82582 191.14572
 192.88262 194.98952 197.26442 199.63532 202.09222 204.58412 206.68402 208.53792
 210.17582 211.33272 211.57362 211.81352 211.76242 211.47933 211.12423 210.76613
 210.39503 210.11693 209.93683 209.81273 209.75263 210.09553 210.49343 210.89433
 211.69923 212.88913 214.15103 215.94593 217.88584 219.94074 222.04764 224.14254
 226.21444 228.31034 230.41924 232.53714 234.67804 236.86194 239.12984 241.51174
 244.14464 246.40754 248.42145 250.19835 251.62725 252.76215 253.59605 253.92395
 253.97285 253.75875 253.13065 252.09055 250.70845 248.88135 246.80225 244.64715
 242.45005 240.26596 238.09786 235.94876 233.82066 231.69956 229.73746 227.90636
 226.20126 224.68516 223.32706 222.11096 221.00486 219.97676 219.09266 218.24557
 217.49947 216.69137 215.80127 215.17717 214.63907 214.97951 215.81160 216.20554
 215.31741 214.39713 214.45885 215.24873 217.58604 221.37926 225.90633 229.58882
 232.61955 236.37065 240.69228 245.18376 249.38539 253.16934 256.60431 259.73276
 262.56955 265.19424 267.69604 269.95377 272.00632 273.96808 275.52750 277.57028
 279.98306 282.23013 284.17462 285.88199 287.35959 288.66687 289.85959 290.94009
 291.91190 292.77728 293.53326 294.49667
 366.78100 356.34639 345.78978 334.66717 323.08156 311.28695 299.16834 286.98273
 274.70612 262.61451 250.63490 239.94729 230.08068 221.19607 213.38946 206.40285
 200.24824 195.19763 191.79102 189.84441 188.89280 188.96819 189.81458 191.13397
 192.87036 194.97675 197.25114 199.62153 202.07792 204.56930 206.66869 208.52208
 210.15947 211.31586 211.55625 211.79564 211.74403 211.46042 211.10481 210.74620
 210.37459 210.09598 209.91537 209.79076 209.73015 210.07254 210.46993 210.87032
 211.67471 212.86410 214.12549 215.91988 217.85927 219.91366 222.02005 224.11444
 226.18583 228.28122 230.38961 232.50700 234.64739 236.83078 239.09817 241.47956
 244.11195 246.37434 248.38773 250.16412 251.59251 252.72690 253.56029 253.88768
 253.93607 253.72146 253.09285 252.05224 250.66963 248.84202 246.76241 244.60680
 242.40919 240.22458 238.05597 235.90636 233.77775 231.65613 229.69352 227.86191
 226.15630 224.63969 223.28108 222.06447 220.95786 219.92925 219.04464 218.19703
 217.45042 216.64181 215.75120 215.12659 214.58798 214.96536 215.82365 216.14253
 215.54260 214.59686 214.38911 215.03571 217.35564 221.26303 225.70012 229.43271
 232.50410 236.33310 240.71265 245.22083 249.42867 253.22292 256.66870 259.80765
 262.68390 265.36914 267.92252 270.23892 272.34393 274.36252 276.02213 277.67407
 279.82117 282.02933 283.95703 285.64975 287.11462 288.41064 289.59311 290.66431
 291.62775 292.48569 293.23517 294.19031
 366.78100 356.34548 345.78796 334.66444 323.07793 311.28241 299.16289 286.97637
 274.69885 262.60633 250.62582 239.93730 230.06978 221.18426 213.37674 206.38922
 200.23371 195.18219 191.77467 189.82715 188.87463 188.94911 189.79460 191.11308
 192.84856 194.95404 197.22752 199.59700 202.05249 204.54297 206.64145 208.49393
 210.13041 211.28589 211.52538 211.76386 211.71134 211.42682 211.07030 210.71078
 210.33826 210.05875 209.87723 209.75171 209.69019 210.03167 210.42815 210.82764
 211.63112 212.81960 214.08008 215.87356 217.81204 219.86553 221.97101 224.06449
 226.13497 228.22945 230.33693 232.45342 234.59290 236.77538 239.04186 241.42234
 244.05382 246.31531 248.32779 250.10327 251.53075 252.66423 253.49671 253.82319
 253.87068 253.65516 253.02564 251.98412 250.60060 248.77208 246.69157 244.53505
 242.33653 240.15101 237.98149 235.83097 233.70146 231.57894 229.61542 227.78290
 226.07638 224.55886 223.19935 221.98183 220.87431 219.84479 218.95927 218.11075
 217.36324 216.55372 215.66220 215.03668 214.49716 214.91852 215.85216 216.09048
 215.70836 214.81419 214.44733 215.06305 217.31358 221.10751 225.44737 229.25560
 232.33224 236.25044 240.68918 245.20312 249.39091 253.14574 256.55478 259.69315
 262.60147 265.33640 267.93304 270.31738 272.50247 274.55939 276.33917 277.80283
 279.63690 281.42398 283.17712 284.75079 286.11267 287.31757 288.41687 289.41275
 290.30844 291.10608 291.80286 292.69080
 366.78100 356.34542 345.78783 334.66425 323.07767 311.28208 299.16250 286.97591
 274.69833 262.60575 250.62516 239.93658 230.06900 221.18341 213.37583 206.38824
 200.23266 195.18108 191.77349 189.82591 188.87333 188.94774 189.79316 191.11158
 192.84699 194.95241 197.22582 199.59524 202.05066 204.54107 206.63949 208.49191
 210.12832 211.28374 211.52315 211.76157 211.70899 211.42440 211.06782 210.70824
 210.33565 210.05607 209.87449 209.74890 209.68732 210.02873 210.42515 210.82457
 211.62798 212.81640 214.07682 215.87023 217.80865 219.86206 221.96748 224.06090
 226.13131 228.22573 230.33315 232.44956 234.58898 236.77139 239.03781 241.41823
 244.04964 246.31106 248.32348 250.09889 251.52631 252.65973 253.49214 253.81856
 253.86597 253.65039 253.02081 251.97922 250.59564 248.76706 246.68647 244.52989
 242.33130 240.14572 237.97614 235.82555 233.69597 231.57339 229.60980 227.77722
 226.07064 224.55305 223.19347 221.97588 220.86830 219.83872 218.95313 218.10455
 217.35697 216.54738 215.65580 215.03021 214.49063 214.91037 215.84494 216.04935
 215.81035 215.00569 214.52330 214.97061 217.16043 220.89853 225.25871 229.06534
 232.19321 236.19833 240.69810 245.25246 249.44150 253.18584 256.57297 259.69461
 262.60309 265.35406 267.96460 270.36038 272.56769 274.62805 276.43518 277.90933
 279.38702 281.05844 282.58633 284.09589 285.42493 286.60083 287.67365 288.64554
 289.51962 290.29803 290.97803 291.84460
 366.78100 356.34576 345.78851 334.66527 323.07902 311.28378 299.16454 286.97829
 274.70105 262.60880 250.62856 239.94032 230.07307 221.18783 213.38058 206.39334
 200.23810 195.18685 191.77961 189.83236 188.88012 188.95488 189.80063 191.11939
 192.85514 194.96090 197.23466 199.60441 202.06017 204.55092 206.64968 208.50244
 210.13919 211.29495 211.53470 211.77346 211.72121 211.43697 211.08073 210.72148
 210.34924 210.06999 209.88875 209.76351 209.70226 210.04402 210.44077 210.84053
 211.64429 212.83304 214.09380 215.88755 217.82631 219.88007 221.98582 224.07958
 226.15033 228.24509 230.35285 232.46960 234.60936 236.79211 239.05887 241.43963
 244.07138 246.33314 248.34589 250.12165 251.54941 252.68316 253.51592 253.84267
 253.89043 253.67519 253.04594 252.00470 250.62145 248.79321 246.71297 244.55672
 242.35848 240.17323 238.00399 235.85375 233.72450 231.60226 229.63901 227.80677
 226.10053 224.58328 223.22404 222.00679 220.89955 219.87031 218.98506 218.13682
 217.38957 216.58033 215.68909 215.06384 214.52460 214.92194 215.81654 216.00732
 215.83754 215.12457 214.60881 214.90587 217.00645 220.73189 225.13464 228.91032
 232.14342 236.18527 240.72749 245.28993 249.49017 253.24231 256.59787 259.69595
 262.59424 265.36209 268.00034 270.42383 272.64621 274.70355 276.51541 278.00983
 279.29474 280.76904 282.25113 283.61905 284.91510 286.06525 287.11459 288.06522
 288.92020 289.68155 290.34668 291.19427
 366.78100 356.34621 345.78942 334.66663 323.08085 311.28606 299.16727 286.98148
 274.70469 262.61290 250.63311 239.94532 230.07854 221.19375 213.38696 206.40017
 200.24538 195.19459 191.78780 189.84101 188.88923 188.96444 189.81065 191.12986
 192.86607 194.97228 197.24649 199.61670 202.07292 204.56413 206.66334 208.51655
 210.15376 211.30997 211.55018 211.78940 211.73761 211.45382 211.09803 210.73924
 210.36745 210.08866 209.90787 209.78309 209.72230 210.06451 210.46172 210.86193
 211.66614 212.85535 214.11656 215.91078 217.84999 219.90420 222.01041 224.10462
 226.17583 228.27104 230.37926 232.49647 234.63668 236.81989 239.08710 241.46831
 244.10052 246.36273 248.37595 250.15216 251.58037 252.71458 253.54779 253.87500
 253.92321 253.70842 253.07964 252.03885 250.65606 248.82827 246.74848 244.59269
 242.39490 240.21011 238.04133 235.89154 233.76275 231.64096 229.67817 227.84638
 226.14059 224.62381 223.26502 222.04823 220.94144 219.91265 219.02786 218.18007
 217.43328 216.62450 215.73371 215.10892 214.57013 214.93636 215.77596 216.01527
 215.83760 215.14812 214.63348 214.85245 216.88293 220.61954 225.08275 228.79953
 232.11871 236.19025 240.75946 245.31493 249.49591 253.21402 256.54675 259.61810
 262.51016 265.30707 267.98926 270.44708 272.67929 274.71393 276.49338 277.97052
 279.25253 280.61139 282.02087 283.31363 284.47437 285.57275 286.57486 287.48273
 288.29922 289.02634 289.66153 290.47101
 366.78100 356.34722 345.79145 334.66967 323.08490 311.29112 299.17335 286.98857
 274.71280 262.62202 250.64325 239.95647 230.09070 221.20692 213.40115 206.41537
 200.26160 195.21182 191.80605 189.86027 188.90950 188.98572 189.83295 191.15317
 192.89040 194.99762 197.27285 199.64407 202.10130 204.59352 206.69375 208.54797
 210.18620 211.34342 211.58465 211.82487 211.77410 211.49132 211.13655 210.77877
 210.40800 210.13022 209.95045 209.82667 209.76690 210.11012 210.50835 210.90957
 211.71480 212.90502 214.16725 215.96247 217.90270 219.95792 222.06515 224.16037
 226.23260 228.32882 230.43805 232.55627 234.69750 236.88172 239.14995 241.53217
 244.16540 246.42862 248.44285 250.22007 251.64930 252.78452 253.61875 253.94697
 253.99620 253.78242 253.15465 252.11487 250.73310 248.90632 246.82754 244.67277
 242.47599 240.29222 238.12444 235.97567 233.84789 231.72712 229.76534 227.93457
 226.22979 224.71402 223.35624 222.14047 221.03469 220.00692 219.12314 218.27637
 217.53059 216.72282 215.83304 215.20927 214.67149 214.97896 215.69783 216.05707
 215.88284 215.13284 214.58592 214.76764 216.77744 220.53761 225.03618 228.70837
 232.08189 236.19826 240.81290 245.36772 249.53661 253.22598 256.53009 259.58578
 262.47308 265.29108 268.02036 270.51627 272.75281 274.74817 276.45959 277.88373
 279.14081 280.38608 281.63281 282.82376 283.94360 284.99481 285.98242 286.87711
 287.68179 288.39835 289.02432 289.82208
 366.78100 356.34753 345.79207 334.67060 323.08613 311.29267 299.17520 286.99074
 274.71527 262.62480 250.64634 239.95987 230.09440 221.21094 213.40547 206.42000
 200.26654 195.21707 191.81161 189.86614 188.91567 188.99221 189.83974 191.16027
 192.89781 195.00534 197.28087 199.65241 202.10994 204.60247 206.70301 208.55754
 210.19608 211.35361 211.59514 211.83568 211.78521 211.50274 211.14828 210.79081
 210.42034 210.14288 209.96341 209.83995 209.78048 210.12401 210.52255 210.92408
 211.72961 212.92015 214.18268 215.97821 217.91875 219.97428 222.08182 224.17735
 226.24988 228.34642 230.45595 232.57448 234.71602 236.90055 239.16908 241.55162
 244.18515 246.44869 248.46322 250.24075 251.67029 252.80582 253.64035 253.96889
 254.01842 253.80495 253.17749 252.13802 250.75656 248.93009 246.85162 244.69716
 242.50069 240.31722 238.14976 236.00129 233.87382 231.75336 229.79189 227.96142
 226.25696 224.74149 223.38403 222.16856 221.06309 220.03563 219.15216 218.30569
 217.56023 216.75276 215.86329 215.23983 214.70236 214.98901 215.66197 216.04156
 215.91942 215.19502 214.58604 214.70885 216.69965 220.46442 224.96147 228.62317
 232.02596 236.20372 240.86726 245.43057 249.59140 253.26364 256.54944 259.60223
 262.48071 265.30743 268.06631 270.59875 272.84445 274.80734 276.45975 277.83148
 279.05093 280.20590 281.26599 282.20667 283.24866 284.30643 285.31250 286.22397
 287.04373 287.77371 288.41144 289.22412
 366.78100 356.34809 345.79317 334.67226 323.08835 311.29543 299.17852 286.99461
 274.71969 262.62978 250.65187 239.96595 230.10104 221.21813 213.41321 206.42830
 200.27539 195.22647 191.82156 189.87665 188.92674 189.00382 189.85191 191.17300
 192.91108 195.01917 197.29526 199.66734 202.12543 204.61852 206.71960 208.57469
 210.21378 211.37186 211.61395 211.85504 211.80512 211.52321 211.16930 210.81238
 210.44247 210.16556 209.98664 209.86373 209.80482 210.14890 210.54799 210.95008
 211.75616 212.94725 214.21034 216.00642 217.94751 220.00360 222.11168 224.20777
 226.28086 228.37794 230.48803 232.60712 234.74921 236.93429 239.20338 241.58647
 244.22055 246.48464 248.49973 250.27781 251.70790 252.84399 253.67907 254.00816
 254.05825 253.84533 253.21842 252.17951 250.79859 248.97268 246.89477 244.74085
 242.54494 240.36203 238.19511 236.04720 233.92029 231.80037 229.83946 228.00955
 226.30563 224.79072 223.43381 222.21889 221.11398 220.08707 219.20415 218.35824
 217.61333 216.80641 215.91750 215.29459 214.75768 215.00885 215.60719 216.07832
 215.94603 215.21339 214.57591 214.66110 216.63976 220.40976 224.89592 228.54388
 231.97682 236.20746 240.92348 245.50578 249.65768 253.30919 256.57562 259.62051
 262.50143 265.33377 268.10690 270.66199 272.90369 274.82507 276.41791 277.74994
 278.95178 280.04721 281.00787 281.88446 282.90344 283.96558 284.97330 285.88623
 286.70734 287.43851 288.07724 288.89127
 366.78100 356.34872 345.79444 334.67415 323.09087 311.29859 299.18231 286.99903
 274.72475 262.63546 250.65818 239.97290 230.10862 221.22634 213.42205 206.43777
 200.28549 195.23721 191.83293 189.88865 188.93936 189.01708 189.86580 191.18752
 192.92624 195.03495 197.31167 199.68439 202.14311 204.63683 206.73854 208.59426
 210.23398 211.39270 211.63542 211.87714 211.82785 211.54657 211.19329 210.83701
 210.46773 210.19144 210.01316 209.89088 209.83260 210.17732 210.57704 210.97975
 211.78647 212.97819 214.24191 216.03863 217.98034 220.03706 222.14578 224.24250
 226.31622 228.41394 230.52465 232.64437 234.78709 236.97281 239.24253 241.62624
 244.26096 246.52568 248.54140 250.32012 251.75083 252.88755 253.72327 254.05299
 254.10371 253.89143 253.26514 252.22686 250.84658 249.02130 246.94402 244.79073
 242.59545 240.41317 238.24689 236.09961 233.97333 231.85404 229.89376 228.06448
 226.36120 224.84692 223.49063 222.27635 221.17207 220.14579 219.26351 218.41823
 217.67394 216.86766 215.97938 215.35710 214.82082 215.03847 215.56387 216.06148
 216.06245 215.26619 214.56062 214.62201 216.60329 220.34192 224.78249 228.46870
 231.91283 236.21970 240.97340 245.58282 249.74576 253.40146 256.66840 259.71091
 262.57236 265.39340 268.16614 270.73538 272.97675 274.86044 276.38345 277.66278
 278.84924 279.94357 280.88837 281.80603 282.93167 284.04907 285.07364 286.00183
 286.83661 287.58002 288.22943 289.05704
 366.78100 356.34670 345.79040 334.66811 323.08281 311.28851 299.17021 286.98492
 274.70862 262.61732 250.63802 239.95073 230.08443 221.20013 213.39383 206.40754
 200.25324 195.20294 191.79664 189.85035 188.89905 188.97475 189.82145 191.14116
 192.87786 194.98456 197.25926 199.62997 202.08667 204.57837 206.67807 208.53178
 210.16948 211.32618 211.56688 211.80659 211.75529 211.47199 211.11669 210.75840
 210.38710 210.10880 209.92850 209.80421 209.74391 210.08661 210.48431 210.88502
 211.68972 212.87942 214.14112 215.93583 217.87553 219.93023 222.03693 224.13164
 226.20334 228.29904 230.40774 232.52545 234.66615 236.84985 239.11755 241.49926
 244.13196 246.39466 248.40836 250.18507 251.61377 252.74847 253.58217 253.90988
 253.95858 253.74428 253.11598 252.07569 250.69339 248.86609 246.78679 244.63150
 242.43420 240.24990 238.08160 235.93231 233.80401 231.68271 229.72041 227.88912
 226.18382 224.66752 223.30922 222.09293 220.98663 219.95833 219.07403 218.22674
 217.48044 216.67214 215.78184 215.15754 214.61925 214.94260 215.67601 215.87570
 216.09190 215.51100 214.67090 214.57794 216.52016 220.23663 224.62927 228.33287
 231.81654 236.19806 241.00911 245.65736 249.82500 253.47343 256.73743 259.78845
 262.66251 265.48578 268.26959 270.87213 273.15091 275.05630 276.54117 277.77374
 278.93402 280.03174 280.93530 281.95938 283.17355 284.34116 285.40640 286.37143
 287.23938 288.01230 288.68750 289.54797
 366.78100 356.34568 345.78835 334.66503 323.07871 311.28339 299.16406 286.97774
 274.70042 262.60810 250.62777 239.93945 230.07213 221.18680 213.37948 206.39216
 200.23684 195.18551 191.77819 189.83087 188.87854 188.95322 189.79890 191.11758
 192.85325 194.95893 197.23261 199.60229 202.05796 204.54864 206.64732 208.49999
 210.13667 211.29235 211.53203 211.77070 211.71838 211.43406 211.07773 210.71841
 210.34609 210.06677 209.88544 209.76012 209.69880 210.04048 210.43715 210.83683
 211.64051 212.82918 214.08986 215.88354 217.82222 219.87589 221.98157 224.07525
 226.14593 228.24060 230.34828 232.46496 234.60463 236.78731 239.05399 241.43467
 244.06634 246.32802 248.34070 250.11637 251.54405 252.67773 253.51041 253.83708
 253.88476 253.66944 253.04012 251.99879 250.61547 248.78715 246.70682 244.55050
 242.35218 240.16686 237.99753 235.84721 233.71789 231.59557 229.63224 227.79992
 226.09360 224.57627 223.21695 221.99963 220.89231 219.86298 218.97766 218.12934
 217.38201 216.57269 215.68137 215.05605 214.51672 214.87888 215.70930 215.85519
 215.95030 215.61519 214.77919 214.53368 216.38666 220.11453 224.54993 228.17305
 231.75391 236.16605 241.00597 245.63969 249.75714 253.36488 256.62247 259.68213
 262.60779 265.49377 268.34622 271.03894 273.41275 275.40186 276.96207 278.18359
 279.31140 280.40433 281.34100 282.12531 283.11249 284.10901 285.04437 285.89178
 286.65390 287.33258 287.92548 288.68103
 366.78100 356.34807 345.79314 334.67221 323.08827 311.29534 299.17841 286.99448
 274.71955 262.62962 250.65168 239.96575 230.10082 221.21789 213.41296 206.42803
 200.27510 195.22616 191.82123 189.87630 188.92637 189.00344 189.85151 191.17257
 192.91064 195.01871 197.29478 199.66685 202.12492 204.61798 206.71905 208.57412
 210.21319 211.37126 211.61333 211.85440 211.80446 211.52253 211.16860 210.81167
 210.44174 210.16481 209.98587 209.86294 209.80401 210.14808 210.54715 210.94922
 211.75529 212.94635 214.20942 216.00549 217.94656 220.00263 222.11070 224.20676
 226.27983 228.37690 230.48697 232.60604 234.74811 236.93317 239.20224 241.58531
 244.21938 246.48345 248.49852 250.27659 251.70665 252.84272 253.67779 254.00686
 254.05693 253.84400 253.21706 252.17813 250.79720 248.97127 246.89334 244.73941
 242.54348 240.36054 238.19361 236.04568 233.91875 231.79882 229.83789 228.00795
 226.30402 224.78909 223.43216 222.21723 221.11230 220.08537 219.20243 218.35650
 217.61157 216.80464 215.91571 215.29278 214.75584 214.98056 215.51401 216.03268
 216.08559 215.68217 214.83093 214.44382 216.24174 220.01704 224.54729 227.98631
 231.68430 236.12808 241.00725 245.62778 249.69998 253.25371 256.46481 259.49060
 262.42938 265.35989 268.26492 271.00775 273.45810 275.53955 277.18912 278.47827
 279.62454 280.72906 281.72223 282.53317 283.24802 284.08337 284.96152 285.73505
 286.42032 287.03055 287.56363 288.24301
 366.78100 356.34895 345.79490 334.67484 323.09179 311.29974 299.18369 287.00063
 274.72658 262.63753 250.66048 239.97542 230.11137 221.22932 213.42527 206.44121
 200.28916 195.24111 191.83706 189.89301 188.94395 189.02190 189.87085 191.19280
 192.93174 195.04069 197.31764 199.69059 202.14953 204.64348 206.74543 208.60138
 210.24132 211.40027 211.64322 211.88517 211.83612 211.55506 211.20201 210.84596
 210.47691 210.20085 210.02280 209.90075 209.84270 210.18764 210.58759 210.99054
 211.79749 212.98943 214.25338 216.05033 217.99228 220.04923 222.15817 224.25512
 226.32907 228.42702 230.53796 232.65791 234.80086 236.98681 239.25675 241.64070
 244.27565 246.54060 248.55655 250.33549 251.76644 252.90339 253.73934 254.06928
 254.12023 253.90818 253.28213 252.24407 250.86402 249.03897 246.96192 244.80886
 242.61381 240.43176 238.26571 236.11866 233.99260 231.87355 229.91350 228.08445
 226.38139 224.86734 223.51129 222.29724 221.19318 220.16713 219.28508 218.44003
 217.69597 216.88992 216.00187 215.37982 214.84377 215.02080 215.44051 215.99402
 216.26071 215.75261 214.81236 214.35657 216.16646 219.98128 224.50803 227.88934
 231.62746 236.12175 241.04376 245.67735 249.75114 253.30092 256.49649 259.47821
 262.34589 265.22650 268.12784 270.88934 273.36832 275.47037 277.12814 278.44858
 279.64795 280.80591 281.81982 282.61862 283.30441 284.06522 284.90225 285.64899
 286.27808 286.82928 287.31082 287.92447
 366.78100 356.34765 345.79229 334.67094 323.08659 311.29323 299.17588 286.99153
 274.71618 262.62582 250.64747 239.96112 230.09576 221.21241 213.40706 206.42170
 200.26835 195.21900 191.81365 189.86829 188.91794 188.99459 189.84223 191.16288
 192.90053 195.00817 197.28382 199.65547 202.11312 204.60576 206.70641 208.56106
 210.19970 211.35735 211.59900 211.83964 211.78929 211.50694 211.15259 210.79523
 210.42488 210.14753 209.96817 209.84482 209.78547 210.12911 210.52776 210.92941
 211.73506 212.92570 214.18835 215.98400 217.92464 219.98029 222.08794 224.18358
 226.25623 228.35288 230.46253 232.58117 234.72282 236.90747 239.17611 241.55876
 244.19241 246.45605 248.47070 250.24835 251.67800 252.81364 253.64829 253.97694
 254.02658 253.81323 253.18588 252.14652 250.76517 248.93882 246.86047 244.70611
 242.50976 240.32641 238.15905 236.01070 233.88335 231.76299 229.80164 227.97129
 226.26694 224.75158 223.39423 222.17888 221.07352 220.04617 219.16282 218.31646
 217.57111 216.76376 215.87441 215.25105 214.71370 214.95320 215.51901 215.88000
 216.27771 215.77359 214.78590 214.30530 216.13779 219.97298 224.48482 227.86145
 231.60002 236.12585 241.07802 245.72893 249.81941 253.39098 256.60629 259.57571
 262.38092 265.18582 268.04492 270.80066 273.30426 275.43369 277.09457 278.43359
 279.69672 280.89670 281.89948 282.62778 283.24234 283.92224 284.69202 285.39667
 285.95276 286.42639 286.84012 287.36743
 366.78100 356.34737 345.79175 334.67012 323.08549 311.29186 299.17424 286.98961
 274.71398 262.62336 250.64473 239.95810 230.09248 221.20885 213.40322 206.41759
 200.26397 195.21434 191.80871 189.86309 188.91246 188.98883 189.83620 191.15658
 192.89395 195.00132 197.27670 199.64807 202.10544 204.59782 206.69819 208.55256
 210.19093 211.34831 211.58968 211.83005 211.77943 211.49680 211.14217 210.78454
 210.41392 210.13629 209.95666 209.83304 209.77341 210.11678 210.51516 210.91653
 211.72190 212.91227 214.17465 215.97002 217.91039 219.96577 222.07314 224.16851
 226.24088 228.33726 230.44663 232.56500 234.70638 236.89075 239.15912 241.54150
 244.17487 246.43824 248.45261 250.22999 251.65936 252.79473 253.62911 253.95748
 254.00685 253.79323 253.16560 252.12597 250.74434 248.91772 246.83909 244.68446
 242.48784 240.30421 238.13658 235.98795 233.86033 231.73970 229.77807 227.94745
 226.24282 224.72719 223.36957 222.15394 221.04831 220.02068 219.13706 218.29043
 217.54480 216.73718 215.84755 215.22392 214.68629 214.93439 215.52055 215.87692
 216.30380 215.80942 214.76738 214.28131 216.09904 219.95796 224.42998 227.77333
 231.55615 236.11732 241.09627 245.75073 249.84521 253.43437 256.67749 259.65500
 262.42139 265.15619 267.96243 270.71393 273.25089 275.42999 277.12973 278.50830
 279.81192 281.01785 281.98633 282.67126 283.19180 283.75363 284.45557 285.12256
 285.68964 286.13098 286.50449 286.98047
 366.78100 356.34774 345.79248 334.67122 323.08697 311.29371 299.17645 286.99219
 274.71693 262.62667 250.64841 239.96215 230.09690 221.21364 213.40838 206.42312
 200.26986 195.22060 191.81534 189.87008 188.91983 188.99657 189.84431 191.16505
 192.90279 195.01053 197.28627 199.65801 202.11576 204.60850 206.70924 208.56398
 210.20272 211.36046 211.60220 211.84295 211.79269 211.51043 211.15617 210.79891
 210.42865 210.15139 209.97213 209.84888 209.78962 210.13336 210.53210 210.93384
 211.73958 212.93032 214.19306 215.98881 217.92955 219.98529 222.09303 224.18877
 226.26151 228.35825 230.46799 232.58674 234.72848 236.91322 239.18196 241.56470
 244.19844 246.46218 248.47693 250.25467 251.68441 252.82015 253.65489 253.98363
 254.03337 253.82011 253.19286 252.15360 250.77234 248.94608 246.86782 244.71356
 242.51730 240.33404 238.16679 236.01853 233.89127 231.77101 229.80975 227.97949
 226.27523 224.75998 223.40272 222.18746 221.08220 220.05494 219.17168 218.32542
 217.58016 216.77291 215.88365 215.26039 214.72313 214.95267 215.49501 215.87357
 216.34035 215.88629 214.79234 214.23515 216.03497 219.85072 224.29466 227.67581
 231.50296 236.10796 241.09946 245.74570 249.84142 253.45610 256.73679 259.73706
 262.48782 265.15826 267.88876 270.61548 273.19070 275.44000 277.17969 278.58633
 279.92813 281.15125 282.09860 282.73093 283.17471 283.63654 284.28503 284.96143
 285.54837 285.96887 286.31000 286.74475
 366.78100 356.34709 345.79118 334.66927 323.08436 311.29044 299.17253 286.98762
 274.71171 262.62080 250.64189 239.95498 230.08907 221.20515 213.39924 206.41333
 200.25942 195.20951 191.80360 189.85769 188.90678 188.98287 189.82995 191.15004
 192.88713 194.99422 197.26931 199.64040 202.09749 204.58958 206.68966 208.54375
 210.18184 211.33893 211.58002 211.82011 211.76920 211.48629 211.13138 210.77346
 210.40255 210.12464 209.94473 209.82082 209.76091 210.10400 210.50209 210.90317
 211.70826 212.89835 214.16044 215.95553 217.89562 219.95071 222.05780 224.15289
 226.22497 228.32106 230.43015 232.54824 234.68933 236.87342 239.14151 241.52360
 244.15668 246.41977 248.43386 250.21095 251.64004 252.77513 253.60922 253.93731
 253.98640 253.77248 253.14457 252.10466 250.72275 248.89584 246.81693 244.66202
 242.46511 240.28119 238.11328 235.96437 233.83646 231.71555 229.75364 227.92273
 226.21782 224.70191 223.34399 222.12808 221.02217 219.99426 219.11035 218.26344
 217.51753 216.70962 215.81971 215.19579 214.65788 214.92249 215.54762 215.82588
 216.28752 215.91245 214.86836 214.24535 215.98019 219.74319 224.14905 227.61954
 231.46625 236.10794 241.09683 245.72789 249.82187 253.46025 256.77466 259.80020
 262.55930 265.19199 267.84106 270.52301 273.13358 275.48022 277.30276 278.75549
 280.11688 281.33960 282.27847 282.86508 283.23886 283.63715 284.22650 284.88904
 285.48230 285.85226 286.17548 286.58734
 366.78100 356.34584 345.78869 334.66553 323.07938 311.28422 299.16507 286.97891
 274.70176 262.60960 250.62945 239.94129 230.07414 221.18898 213.38183 206.39467
 200.23952 195.18836 191.78121 189.83405 188.88190 188.95674 189.80259 191.12143
 192.85728 194.96312 197.23697 199.60681 202.06266 204.55350 206.65235 208.50519
 210.14204 211.29788 211.53773 211.77657 211.72442 211.44026 211.08411 210.72495
 210.35280 210.07364 209.89249 209.76733 209.70618 210.04802 210.44487 210.84471
 211.64856 212.83740 214.09825 215.89209 217.83094 219.88478 221.99063 224.08447
 226.15532 228.25016 230.35801 232.47485 234.61470 236.79754 239.06439 241.44523
 244.07708 246.33892 248.35177 250.12761 251.55546 252.68930 253.52215 253.84899
 253.89683 253.68168 253.05252 252.01137 250.62821 248.80006 246.71990 244.56375
 242.36559 240.18044 238.01128 235.86113 233.73197 231.60982 229.64666 227.81451
 226.10835 224.59120 223.23204 222.01489 220.90773 219.87858 218.99342 218.14527
 217.39811 216.58896 215.69780 215.07265 214.53349 214.85876 215.62724 215.81042
 216.20345 215.86285 214.93556 214.33948 216.02281 219.68610 224.07239 227.56479
 231.43736 236.11092 241.10176 245.71300 249.78986 253.43222 256.76270 259.79858
 262.56390 265.17502 267.75977 270.39453 273.04810 275.52728 277.47223 278.97464
 280.35764 281.60147 282.57083 283.16135 283.47729 283.76511 284.24277 284.86038
 285.44818 285.80679 286.09552 286.46350
 366.78100 356.34473 345.78645 334.66218 323.07491 311.27863 299.15836 286.97109
 274.69281 262.59954 250.61827 239.92899 230.06072 221.17445 213.36617 206.37790
 200.22163 195.16935 191.76108 189.81281 188.85953 188.93326 189.77799 191.09571
 192.83044 194.93517 197.20789 199.57662 202.03135 204.52107 206.61880 208.47053
 210.10625 211.26098 211.49970 211.73743 211.68416 211.39888 211.04161 210.68134
 210.30806 210.02779 209.84552 209.71924 209.65697 209.99770 210.39342 210.79215
 211.59488 212.78260 214.04233 215.83506 217.77278 219.82551 221.93024 224.02296
 226.09269 228.18642 230.29314 232.40887 234.54760 236.72932 238.99505 241.37478
 244.00550 246.26623 248.27796 250.05268 251.47941 252.61214 253.44386 253.76959
 253.81632 253.60004 252.96977 251.92750 250.54322 248.71395 246.63268 244.47540
 242.27613 240.08986 237.91958 235.76831 233.63804 231.51476 229.55049 227.71722
 226.00994 224.49167 223.13140 221.91312 220.80485 219.77458 218.88830 218.03903
 217.29075 216.48048 215.58821 214.96193 214.42166 214.79802 215.68723 215.82843
 216.16679 215.78471 214.92825 214.42859 216.09375 219.64116 224.00513 227.52600
 231.42099 236.12061 241.11121 245.70084 249.76633 253.42262 256.77274 259.81631
 262.57742 265.14594 267.64017 270.20755 272.89703 275.48538 277.50830 279.06583
 280.48535 281.72449 282.64157 283.20663 283.53763 283.83026 284.21490 284.77875
 285.35614 285.81863 286.10117 286.46124
 366.78100 356.34430 345.78560 334.66090 323.07320 311.27650 299.15580 286.96810
 274.68940 262.59570 250.61400 239.92430 230.05560 221.16890 213.36020 206.37150
 200.21480 195.16210 191.75340 189.80470 188.85100 188.92430 189.76860 191.08590
 192.82020 194.92450 197.19680 199.56510 202.01940 204.50870 206.60600 208.45730
 210.09260 211.24690 211.48520 211.72250 211.66880 211.38310 211.02540 210.66470
 210.29100 210.01030 209.82760 209.70090 209.63820 209.97850 210.37380 210.77210
 211.57440 212.76170 214.02100 215.81330 217.75060 219.80290 221.90720 223.99950
 226.06880 228.16210 230.26840 232.38370 234.52200 236.70330 238.96860 241.34790
 243.97820 246.23850 248.24980 250.02410 251.45040 252.58270 253.41400 253.73930
 253.78560 253.56890 252.93820 251.89550 250.51080 248.68110 246.59940 244.44170
 242.24200 240.05530 237.88460 235.73290 233.60220 231.47850 229.51380 227.68010
 225.97240 224.45370 223.09300 221.87430 220.76560 219.73490 218.84820 217.99850
 217.24980 216.43910 215.54640 214.91970 214.37900 214.77229 215.70152 215.90157
 216.12413 215.68773 214.83707 214.40297 216.08853 219.60251 223.95801 227.52164
 231.42154 236.12859 241.12500 245.71161 249.78513 253.46625 256.84045 259.89432
 262.65622 265.19879 267.61829 270.07376 272.73691 275.39868 277.47095 279.05884
 280.51025 281.74887 282.62619 283.11212 283.36963 283.64377 284.05899 284.63269
 285.24384 285.76767 286.04968 286.40906
 366.78100 356.34458 345.78616 334.66174 323.07432 311.27790 299.15748 286.97006
 274.69164 262.59822 250.61680 239.92737 230.05895 221.17253 213.36411 206.37569
 200.21927 195.16685 191.75843 189.81001 188.85659 188.93017 189.77475 191.09233
 192.82691 194.93149 197.20407 199.57265 202.02723 204.51681 206.61439 208.46597
 210.10154 211.25612 211.49470 211.73228 211.67886 211.39344 211.03602 210.67560
 210.30218 210.02176 209.83934 209.71292 209.65050 209.99108 210.38666 210.78524
 211.58782 212.77540 214.03498 215.82756 217.76513 219.81771 221.92229 224.01487
 226.08445 228.17803 230.28461 232.40019 234.53877 236.72035 238.98593 241.36551
 243.99609 246.25667 248.26825 250.04283 251.46941 252.60199 253.43357 253.75915
 253.80573 253.58930 252.95888 251.91646 250.53204 248.70262 246.62120 244.46378
 242.26436 240.07794 237.90752 235.75610 233.62568 231.50226 229.53784 227.70442
 225.99700 224.47858 223.11816 221.89974 220.79132 219.76090 218.87447 218.02505
 217.27663 216.46621 215.57379 214.94737 214.40695 214.78458 215.67677 216.00018
 216.13104 215.51053 214.68962 214.37030 216.10056 219.55434 223.88152 227.55896
 231.45482 236.16553 241.13196 245.70615 249.79427 253.51782 256.93295 260.00586
 262.77438 265.27490 267.59708 269.94598 272.60159 275.37335 277.49945 279.11057
 280.59302 281.76746 282.45609 282.71982 282.97498 283.36420 283.88171 284.49701
 285.10776 285.62088 285.96219 286.39716
 354.97500 345.04800 334.58700 324.11500 313.32600 302.53700 291.65000 280.76700
 269.93100 259.19300 248.62200 238.61700 229.08700 220.35500 212.54000 205.53500
 199.46400 194.49300 191.14300 189.19000 188.08900 188.01400 188.72400 189.90600
 191.46900 193.38200 195.40300 197.55600 199.80700 202.06000 204.28800 206.47900
 208.55200 210.37800 212.02500 213.65900 214.99800 216.11800 217.17200 218.25900
 219.49400 220.64500 221.67900 222.61400 223.54500 224.98200 226.57100 228.19000
 229.79700 231.81100 233.86500 235.97200 238.24200 240.55300 242.89900 245.25300
 247.48800 249.53500 251.36600 252.84800 254.09800 255.16700 256.02700 256.25300
 256.09500 255.54300 253.93500 252.56600 251.38400 250.24500 249.05200 247.70100
 246.01600 243.99600 241.78400 239.39300 236.81300 234.22300 231.65800 229.14400
 226.74000 224.47300 222.33500 220.32500 218.44000 216.67700 214.96200 213.47200
 212.20000 211.10800 210.26000 209.63900 209.24400 209.03100 209.05800 209.33300
 209.78400 210.62600 211.33100 212.39100 213.62500 214.84668 217.72949 219.47640
 220.32566 220.86828 220.88710 220.27371 219.43733 218.84250 219.04934 220.86203
 222.60583 225.72206 229.03064 232.61777 236.12270 239.51333 242.70767 245.68587
 248.41061 250.90679 253.19353 254.91714 256.48655 257.94920 259.39966 260.69384
 261.81714 262.77997 263.71679 264.54570 265.26305 265.89772 266.47676 267.00133
 267.47312 267.89325 268.26027 268.72800
