|-------------------------------------------------------------------------|
|   File Name : in_temp.dat
|   Subject   : temperature profiles used for initial guess atmosphere
|   File Type : input of gmtr
|   Data Type : atmospherical data
|   Author/s  : WRF-Chem
|   Date      : Fri Jul 26 15:39:24 2024
|-------------------------------------------------------------------------|

 WRF-Chem temperature
#
 values of T (K)    (8f10.5)
#
 354.97500 345.04800 334.58700 324.11500 313.32600 302.53700 291.65000 280.76700
 269.93100 259.19300 248.62200 238.61700 229.08700 220.35500 212.54000 205.53500
 199.46400 194.49300 191.14300 189.19000 188.08900 188.01400 188.72400 189.90600
 191.46900 193.38200 195.40300 197.55600 199.80700 202.06000 204.28800 206.47900
 208.55200 210.37800 212.02500 213.65900 214.99800 216.11800 217.17200 218.25900
 219.49400 220.64500 221.67900 222.61400 223.54500 224.98200 226.57100 228.19000
 229.79700 231.81100 233.86500 235.97200 238.24200 240.55300 242.89900 245.25300
 247.48800 249.53500 251.36600 252.84800 254.09800 255.16700 256.02700 256.25300
 256.09500 255.54300 253.93500 252.56600 251.38400 250.24500 249.05200 247.70100
 246.01600 243.99600 241.78400 239.39300 236.81300 234.22300 231.65800 229.14400
 226.74000 224.47300 222.33500 220.32500 218.44000 216.67700 214.96200 213.47200
 212.20000 211.10800 210.26000 209.63900 209.24400 209.03100 209.05800 209.33300
 209.78400 210.62600 211.33100 212.39100 213.62500 214.84668 217.72949 219.47640
 220.32566 220.86828 220.88710 220.27371 219.43733 218.84250 219.04934 220.86203
 222.60583 225.72206 229.03064 232.61777 236.12270 239.51333 242.70767 245.68587
 248.41061 250.90679 253.19353 254.91714 256.48655 257.94920 259.39966 260.69384
 261.81714 262.77997 263.71679 264.54570 265.26305 265.89772 266.47676 267.00133
 267.47312 267.89325 268.26027 268.72800
 366.78100 356.33500 345.76700 334.63300 323.03600 311.23000 299.10000 286.90300
 274.61500 262.51200 250.52100 239.82200 229.94400 221.04800 213.23000 206.23200
 200.06600 195.00400 191.58600 189.62800 188.66500 188.72900 189.56400 190.87200
 192.59700 194.69200 196.95500 199.31400 201.75900 204.23900 206.32700 208.16900
 209.79500 210.94000 211.16900 211.39700 211.33400 211.03900 210.67200 210.30200
 209.91900 209.62900 209.43700 209.30100 209.22900 209.56000 209.94600 210.33500
 211.12800 212.30600 213.55600 215.33900 217.26700 219.31000 221.40500 223.48800
 225.54800 227.63200 229.72900 231.83500 233.96400 236.13600 238.39200 240.76200
 243.38300 245.63400 247.63600 249.40100 250.81800 251.94100 252.76300 253.07900
 253.11600 252.89000 252.25000 251.19800 249.80400 247.96500 245.87400 243.70700
 241.49800 239.30200 237.12200 234.96100 232.82100 230.68800 228.71400 226.87100
 225.15400 223.62600 222.25600 221.02800 219.91000 218.87000 217.97400 217.11500
 216.35700 215.53700 214.63500 213.99900 213.44900 212.85855 212.01316 212.61654
 214.26826 216.08686 218.14273 220.53346 223.40855 226.78828 231.49734 235.90155
 239.42278 243.28576 247.23140 251.11907 254.80144 258.23331 261.38913 264.27520
 266.89312 269.26852 271.44504 273.08845 274.58484 275.98591 277.39845 278.65879
 279.75272 280.69038 281.56708 282.34086 283.01050 283.60295 284.14348 284.63317
 285.07358 285.46577 285.80838 286.24500
 381.81900 372.39900 361.20600 349.77600 337.62200 324.85300 311.81000 298.35300
 284.86000 271.32400 258.56100 246.30400 236.08700 226.79600 218.44800 211.29000
 205.52200 200.89400 197.38100 194.84800 193.01500 192.31500 192.25000 192.43100
 192.91200 193.53700 194.13600 194.71200 195.26200 195.83100 196.39300 196.97600
 197.60400 198.14900 198.58400 199.05700 199.69500 200.37800 201.05400 201.70800
 202.31300 202.85700 203.35500 203.86200 204.56900 205.29700 206.02600 206.98700
 208.19300 209.44100 210.96900 212.57600 214.46200 216.51300 218.63000 220.85300
 223.34100 225.96200 228.73900 231.69700 234.70600 237.70600 240.69200 243.65700
 246.73700 249.69900 252.52100 255.06300 257.29000 259.23300 260.63300 261.68000
 262.46100 262.79800 262.69100 262.22400 261.06900 259.52500 257.70700 255.50700
 253.00100 250.30200 247.39800 244.45200 241.65400 239.05400 236.73300 234.59000
 232.59500 230.72500 228.83400 226.82600 224.66600 222.38700 220.10400 217.71500
 215.45900 213.06600 210.54600 208.09300 205.35400 202.08130 196.05959 200.71215
 209.01611 216.90438 223.84126 229.78593 235.00632 240.20838 245.98943 250.68668
 254.32982 257.93487 261.55666 264.96801 268.15192 271.06452 273.76717 276.25691
 278.57680 280.74479 282.77456 284.60533 286.27232 287.81705 289.31715 290.65561
 291.81734 292.81312 293.70701 294.49387 295.17482 295.77730 296.32696 296.82492
 297.27278 297.67160 298.02000 298.46400
 399.33000 389.90700 379.81300 368.66800 357.52200 345.30100 333.07400 320.22700
 307.21600 293.84800 280.37600 267.29600 254.61000 242.98700 232.15100 221.97700
 212.67200 204.28600 197.66900 192.82100 189.48600 187.45200 186.81400 187.08900
 187.78100 189.05400 190.64800 192.54200 194.63000 196.75200 198.67100 200.15800
 201.53500 202.48700 202.97500 203.34000 203.53900 203.49700 203.38500 203.24700
 203.00500 202.78600 202.60300 202.43700 202.42600 202.88800 203.42000 203.95100
 204.89500 205.99200 207.30100 208.95800 210.73800 213.10000 215.56400 218.18000
 220.96600 223.91800 226.96100 230.09200 233.29300 236.55700 239.95500 243.53700
 246.84500 249.39000 251.54200 253.47400 255.19500 256.48400 257.43100 258.05900
 258.21200 258.04000 257.58200 256.64300 255.23900 253.50700 251.40800 249.05600
 246.57600 243.99400 241.38900 238.83000 236.34400 233.98600 231.96900 230.11800
 228.42300 226.89900 225.54800 224.29700 223.10500 221.96500 220.95800 220.11300
 219.49000 218.92000 218.32500 217.88100 217.42300 216.96366 216.35568 216.80261
 217.73415 218.28582 218.64258 219.10077 220.44626 222.53987 226.38451 230.35736
 233.59734 237.39164 241.29814 245.22796 248.98002 252.51130 255.78595 258.80109
 261.54781 264.05210 266.34239 268.04198 269.58951 271.01303 272.35754 273.55718
 274.59842 275.49092 276.28989 276.99307 277.60161 278.14001 278.63122 279.07623
 279.47646 279.83287 280.14422 280.54100
 399.73800 389.78500 379.66200 368.15100 356.64100 344.35000 331.79200 318.88800
 305.72600 292.49300 279.20900 266.73800 254.69600 244.21100 234.45700 225.43300
 217.56900 210.45100 204.30000 199.30600 195.45800 192.57600 191.02700 190.38600
 190.23900 190.53400 191.16600 191.92500 192.79500 193.76600 194.73200 195.31200
 195.80000 196.05200 196.11500 196.11500 196.03900 195.72300 195.34000 194.98900
 194.75100 194.79200 195.13300 195.59800 196.50600 198.13600 199.85800 201.56600
 204.17900 206.82300 209.89300 213.28400 216.82800 220.60500 224.38700 228.20900
 232.03200 235.82500 239.56000 243.25800 246.84500 250.20100 253.70900 257.46800
 261.53000 264.22100 266.60100 268.68100 270.32900 271.74100 272.83600 273.47400
 273.89800 274.00200 273.75700 273.28800 272.37100 271.10000 269.58900 267.77900
 265.81600 263.72100 261.39300 258.91600 256.29800 253.42300 250.33100 247.11400
 243.83700 240.52900 237.24900 233.99900 230.72800 227.51500 224.25400 220.95200
 217.62700 213.65600 210.12100 206.78900 204.01000 201.99491 199.07309 198.76551
 199.40006 200.48994 201.46112 202.31912 203.45100 204.96110 207.47502 210.85391
 213.70530 217.29629 220.99574 224.72316 228.28753 231.64854 234.68024 237.40893
 239.70644 241.60899 243.46854 245.67368 247.68154 249.52395 251.24767 252.78566
 254.12057 255.26479 256.23740 257.09036 257.82852 258.48160 259.07744 259.61723
 260.10271 260.53504 260.91270 261.39400
 399.73800 389.78500 379.66200 368.15100 356.64100 344.35000 331.79200 318.88800
 305.72600 292.49300 279.20900 266.73800 254.69600 244.21100 234.45700 225.43300
 217.56900 210.45100 204.30000 199.30600 195.45800 192.57600 191.02700 190.38600
 190.23900 190.53400 191.16600 191.92500 192.79500 193.76600 194.73200 195.31200
 195.80000 196.05200 196.11500 196.11500 196.03900 195.72300 195.34000 194.98900
 194.75100 194.79200 195.13300 195.59800 196.50600 198.13600 199.85800 201.56600
 204.17900 206.82300 209.89300 213.28400 216.82800 220.60500 224.38700 228.20900
 232.03200 235.82500 239.56000 243.25800 246.84500 250.20100 253.70900 257.46800
 261.53000 264.22100 266.60100 268.68100 270.32900 271.74100 272.83600 273.47400
 273.89800 274.00200 273.75700 273.28800 272.37100 271.10000 269.58900 267.77900
 265.81600 263.72100 261.39300 258.91600 256.29800 253.42300 250.33100 247.11400
 243.83700 240.52900 237.24900 233.99900 230.72800 227.51500 224.25400 220.95200
 217.62700 213.65600 210.12100 206.78900 204.01000 201.99491 199.07309 198.76551
 199.40006 200.48994 201.46112 202.31912 203.45100 204.96110 207.47502 210.85391
 213.70530 217.29629 220.99574 224.72316 228.28753 231.64854 234.68024 237.40893
 239.70644 241.60899 243.46854 245.67368 247.68154 249.52395 251.24767 252.78566
 254.12057 255.26479 256.23740 257.09036 257.82852 258.48160 259.07744 259.61723
 260.10271 260.53504 260.91270 261.39400
 399.33000 389.90700 379.81300 368.66800 357.52200 345.30100 333.07400 320.22700
 307.21600 293.84800 280.37600 267.29600 254.61000 242.98700 232.15100 221.97700
 212.67200 204.28600 197.66900 192.82100 189.48600 187.45200 186.81400 187.08900
 187.78100 189.05400 190.64800 192.54200 194.63000 196.75200 198.67100 200.15800
 201.53500 202.48700 202.97500 203.34000 203.53900 203.49700 203.38500 203.24700
 203.00500 202.78600 202.60300 202.43700 202.42600 202.88800 203.42000 203.95100
 204.89500 205.99200 207.30100 208.95800 210.73800 213.10000 215.56400 218.18000
 220.96600 223.91800 226.96100 230.09200 233.29300 236.55700 239.95500 243.53700
 246.84500 249.39000 251.54200 253.47400 255.19500 256.48400 257.43100 258.05900
 258.21200 258.04000 257.58200 256.64300 255.23900 253.50700 251.40800 249.05600
 246.57600 243.99400 241.38900 238.83000 236.34400 233.98600 231.96900 230.11800
 228.42300 226.89900 225.54800 224.29700 223.10500 221.96500 220.95800 220.11300
 219.49000 218.92000 218.32500 217.88100 217.42300 216.96366 216.35568 216.80261
 217.73415 218.28582 218.64258 219.10077 220.44626 222.53987 226.38451 230.35736
 233.59734 237.39164 241.29814 245.22796 248.98002 252.51130 255.78595 258.80109
 261.54781 264.05210 266.34239 268.04198 269.58951 271.01303 272.35754 273.55718
 274.59842 275.49092 276.28989 276.99307 277.60161 278.14001 278.63122 279.07623
 279.47646 279.83287 280.14422 280.54100
 381.81900 372.39900 361.20600 349.77600 337.62200 324.85300 311.81000 298.35300
 284.86000 271.32400 258.56100 246.30400 236.08700 226.79600 218.44800 211.29000
 205.52200 200.89400 197.38100 194.84800 193.01500 192.31500 192.25000 192.43100
 192.91200 193.53700 194.13600 194.71200 195.26200 195.83100 196.39300 196.97600
 197.60400 198.14900 198.58400 199.05700 199.69500 200.37800 201.05400 201.70800
 202.31300 202.85700 203.35500 203.86200 204.56900 205.29700 206.02600 206.98700
 208.19300 209.44100 210.96900 212.57600 214.46200 216.51300 218.63000 220.85300
 223.34100 225.96200 228.73900 231.69700 234.70600 237.70600 240.69200 243.65700
 246.73700 249.69900 252.52100 255.06300 257.29000 259.23300 260.63300 261.68000
 262.46100 262.79800 262.69100 262.22400 261.06900 259.52500 257.70700 255.50700
 253.00100 250.30200 247.39800 244.45200 241.65400 239.05400 236.73300 234.59000
 232.59500 230.72500 228.83400 226.82600 224.66600 222.38700 220.10400 217.71500
 215.45900 213.06600 210.54600 208.09300 205.35400 202.08130 196.05959 200.71215
 209.01611 216.90438 223.84126 229.78593 235.00632 240.20838 245.98943 250.68668
 254.32982 257.93487 261.55666 264.96801 268.15192 271.06452 273.76717 276.25691
 278.57680 280.74479 282.77456 284.60533 286.27232 287.81705 289.31715 290.65561
 291.81734 292.81312 293.70701 294.49387 295.17482 295.77730 296.32696 296.82492
 297.27278 297.67160 298.02000 298.46400
 366.78100 356.33851 345.77403 334.64354 323.05006 311.24757 299.12108 286.92760
 274.64311 262.54363 250.55614 239.86066 229.98617 221.09368 213.27920 206.28471
 200.12223 195.06374 191.64925 189.69477 188.73528 188.80280 189.64131 190.95283
 192.68134 194.77985 197.04637 199.40888 201.85740 204.34091 206.43242 208.27794
 209.90745 211.05597 211.28848 211.52000 211.46051 211.16902 210.80554 210.43905
 210.05957 209.77308 209.58459 209.45211 209.38362 209.71814 210.10765 210.50017
 211.29668 212.47819 213.73171 215.51822 217.44974 219.49625 221.59476 223.68128
 225.74479 227.83231 229.93282 232.04233 234.17485 236.35036 238.60988 240.98339
 243.60791 245.86242 247.86793 249.63645 251.05696 252.18348 253.00899 253.32850
 253.36902 253.14653 252.51005 251.46156 250.07108 248.23559 246.14810 243.98462
 241.77913 239.58665 237.41016 235.25267 233.11619 230.98670 229.01622 227.17673
 225.46325 223.93876 222.57227 221.34779 220.23330 219.19682 218.30433 217.44884
 216.69436 215.87787 214.97939 214.34690 213.80042 213.02525 211.19621 210.38287
 210.71875 212.28233 214.29066 216.28903 219.19003 223.61848 229.44627 234.60504
 238.50105 242.32625 246.15152 250.06627 254.03821 257.73151 260.53113 262.38156
 265.12595 267.94629 270.27478 272.08481 273.94348 275.83640 277.41513 278.99539
 280.70673 282.29794 283.76389 285.11914 286.30029 287.34839 288.30878 289.18112
 289.96957 290.67334 291.29904 292.12259
 366.78100 356.33865 345.77431 334.64396 323.05061 311.24826 299.12192 286.92857
 274.64422 262.54488 250.55753 239.86218 229.98783 221.09549 213.28114 206.28679
 200.12445 195.06610 191.65175 189.69740 188.73806 188.80571 189.64436 190.95602
 192.68467 194.78332 197.04997 199.41263 201.86128 204.34493 206.43659 208.28224
 209.91189 211.06054 211.29320 211.52485 211.46550 211.17416 210.81081 210.44446
 210.06511 209.77877 209.59042 209.45807 209.38973 209.72438 210.11403 210.50668
 211.30334 212.48499 213.73864 215.52530 217.45695 219.50360 221.60225 223.68891
 225.75256 227.84021 229.94087 232.05052 234.18317 236.35882 238.61848 240.99213
 243.61678 245.87144 247.87709 249.64574 251.06639 252.19305 253.01870 253.33835
 253.37901 253.15666 252.52031 251.47196 250.08162 248.24627 246.15892 243.99558
 241.79023 239.59788 237.42153 235.26419 233.12784 230.99849 229.02815 227.18880
 225.47545 223.95110 222.58476 221.36041 220.24606 219.20972 218.31737 217.46202
 216.70767 215.89133 214.99298 214.36063 213.81429 213.06372 211.29221 210.44188
 210.78291 212.36140 214.38571 216.35126 219.15675 223.54958 229.39165 234.53401
 238.41403 242.22549 246.04286 249.96791 253.98270 257.66183 260.43320 262.30081
 265.05316 267.88455 270.21997 272.00839 273.83209 275.70978 277.30246 278.89572
 280.61380 282.20557 283.66422 285.01965 286.20148 287.24951 288.20929 289.08246
 289.87207 290.57584 291.19910 292.02588
 366.78100 356.33890 345.77480 334.64469 323.05159 311.24949 299.12339 286.93029
 274.64618 262.54708 250.55998 239.86488 229.99078 221.09867 213.28457 206.29047
 200.12837 195.07027 191.65617 189.70206 188.74296 188.81086 189.64976 190.96166
 192.69055 194.78945 197.05635 199.41925 201.86815 204.35204 206.44394 208.28984
 209.91974 211.06864 211.30153 211.53343 211.47433 211.18323 210.82013 210.45402
 210.07492 209.78882 209.60072 209.46862 209.40051 209.73541 210.12531 210.51821
 211.31511 212.49701 213.75090 215.53780 217.46970 219.51660 221.61550 223.70239
 225.76629 227.85419 229.95509 232.06499 234.19788 236.37378 238.63368 241.00758
 243.63248 245.88737 247.89327 249.66217 251.08307 252.20997 253.03586 253.35576
 253.39666 253.17456 252.53846 251.49035 250.10025 248.26515 246.17805 244.01495
 241.80984 239.61774 237.44164 235.28454 233.14844 231.01934 229.04923 227.21013
 225.49703 223.97293 222.60683 221.38272 220.26862 219.23252 218.34042 217.48532
 216.73121 215.91511 215.01701 214.38491 213.83881 213.10585 211.37553 210.51157
 210.85814 212.43430 214.47002 216.40900 219.14377 223.48601 229.33525 234.45831
 238.32269 242.12276 245.93471 249.87109 253.92909 257.59036 260.32941 262.21741
 264.97504 267.81793 270.16245 271.93353 273.72461 275.58823 277.19556 278.79977
 280.52454 282.11594 283.56943 284.92398 286.10712 287.15564 288.11594 288.98685
 289.77692 290.48438 291.10645 291.93634
 366.78100 356.33915 345.77529 334.64544 323.05258 311.25073 299.12488 286.93202
 274.64817 262.54931 250.56246 239.86761 229.99375 221.10190 213.28804 206.29419
 200.13234 195.07448 191.66063 189.70677 188.74792 188.81607 189.65521 190.96736
 192.69650 194.79565 197.06280 199.42594 201.87509 204.35923 206.45138 208.29753
 209.92767 211.07682 211.30996 211.54211 211.48326 211.19240 210.82955 210.46369
 210.08484 209.79899 209.61113 209.47928 209.41142 209.74657 210.13672 210.52986
 211.32701 212.50915 213.76330 215.55045 217.48259 219.52974 221.62888 223.71603
 225.78018 227.86832 229.96947 232.07961 234.21276 236.38891 238.64905 241.02320
 243.64835 245.90349 247.90964 249.67878 251.09993 252.22708 253.05322 253.37337
 253.41451 253.19266 252.55681 251.50895 250.11910 248.28424 246.19739 244.03454
 241.82968 239.63783 237.46197 235.30512 233.16927 231.04041 229.07056 227.23170
 225.51885 223.99500 222.62914 221.40529 220.29143 219.25558 218.36373 217.50887
 216.75502 215.93916 215.04131 214.40946 213.86360 213.14639 211.45294 210.59291
 210.93491 212.50525 214.55159 216.46329 219.13271 223.43015 229.27940 234.38208
 238.23077 242.02011 245.82710 249.77589 253.87688 257.51566 260.22089 262.13007
 264.89078 267.74329 270.09933 271.85678 273.62219 275.47394 277.09552 278.71127
 280.43930 282.03098 283.47931 284.83463 286.01767 287.06607 288.02686 288.89972
 289.68881 290.39587 291.02029 291.84979
 366.78100 356.33928 345.77556 334.64585 323.05313 311.25141 299.12569 286.93297
 274.64925 262.55054 250.56382 239.86910 229.99538 221.10366 213.28995 206.29623
 200.13451 195.07679 191.66307 189.70935 188.75064 188.81892 189.65820 190.97048
 192.69976 194.79905 197.06633 199.42961 201.87889 204.36317 206.45545 208.30174
 209.93202 211.08130 211.31458 211.54686 211.48815 211.19743 210.83471 210.46899
 210.09027 209.80455 209.61684 209.48512 209.41740 209.75268 210.14296 210.53625
 211.33353 212.51581 213.77009 215.55737 217.48965 219.53694 221.63622 223.72350
 225.78778 227.87606 229.97735 232.08763 234.22091 236.39719 238.65747 241.03175
 243.65704 245.91232 247.91860 249.68788 251.10916 252.23645 253.06273 253.38301
 253.42429 253.20257 252.56685 251.51914 250.12942 248.29470 246.20798 244.04526
 241.84055 239.64883 237.47311 235.31639 233.18067 231.05195 229.08224 227.24352
 225.53080 224.00708 222.64136 221.41765 220.30393 219.26821 218.37649 217.52177
 216.76805 215.95234 215.05462 214.42290 213.87718 213.17957 211.53218 210.67976
 211.01265 212.57460 214.63071 216.52226 219.11478 223.37930 229.22414 234.30623
 238.13753 241.91551 245.72005 249.68459 253.82753 257.43805 260.10831 262.03949
 264.79935 267.65833 270.02557 271.77673 273.52396 275.36719 277.00568 278.63150
 280.36035 281.95306 283.39633 284.75018 285.93338 286.98273 287.94357 288.81604
 289.60590 290.31378 290.93668 291.77036
 366.78100 356.33931 345.77563 334.64594 323.05325 311.25157 299.12588 286.93320
 274.64951 262.55082 250.56414 239.86945 229.99576 221.10408 213.29039 206.29671
 200.13502 195.07733 191.66365 189.70996 188.75127 188.81959 189.65890 190.97122
 192.70053 194.79984 197.06716 199.43047 201.87978 204.36410 206.45641 208.30273
 209.93304 211.08235 211.31567 211.54798 211.48929 211.19861 210.83592 210.47023
 210.09155 209.80586 209.61818 209.48649 209.41880 209.75412 210.14443 210.53774
 211.33506 212.51737 213.77169 215.55900 217.49131 219.53863 221.63794 223.72525
 225.78957 227.87788 229.97920 232.08951 234.22282 236.39914 238.65945 241.03376
 243.65908 245.91439 247.92070 249.69002 251.11133 252.23865 253.06496 253.38527
 253.42659 253.20490 252.56921 251.52153 250.13184 248.29716 246.21047 244.04778
 241.84310 239.65141 237.47572 235.31904 233.18335 231.05467 229.08498 227.24629
 225.53361 224.00992 222.64423 221.42055 220.30686 219.27118 218.37949 217.52480
 216.77112 215.95543 215.05774 214.42606 213.88037 213.20621 211.61398 210.77336
 211.09038 212.64125 214.71129 216.58788 219.09622 223.32671 229.16833 234.23056
 238.04340 241.81021 245.61525 249.59796 253.77995 257.36014 259.99594 261.94809
 264.70172 267.56317 269.94107 271.69003 273.42877 275.26984 276.92419 278.55826
 280.28604 281.88077 283.31934 284.67319 285.85559 286.90747 287.86639 288.74005
 289.53009 290.23865 290.86258 291.69733
 366.78100 356.33924 345.77549 334.64573 323.05298 311.25122 299.12547 286.93271
 274.64896 262.55020 250.56345 239.86869 229.99494 221.10318 213.28942 206.29567
 200.13391 195.07616 191.66240 189.70865 188.74989 188.81814 189.65738 190.96963
 192.69887 194.79811 197.06536 199.42860 201.87785 204.36209 206.45434 208.30058
 209.93083 211.08007 211.31332 211.54556 211.48681 211.19605 210.83329 210.46754
 210.08878 209.80303 209.61527 209.48352 209.41576 209.75101 210.14125 210.53450
 211.33174 212.51398 213.76823 215.55547 217.48772 219.53496 221.63421 223.72145
 225.78570 227.87394 229.97519 232.08543 234.21868 236.39492 238.65516 241.02941
 243.65465 245.90990 247.91614 249.68539 251.10663 252.23388 253.06012 253.38037
 253.42161 253.19985 252.56410 251.51634 250.12659 248.29183 246.20508 244.04232
 241.83757 239.64581 237.47006 235.31330 233.17755 231.04879 229.07903 227.24028
 225.52752 224.00377 222.63801 221.41426 220.30050 219.26475 218.37299 217.51824
 216.76448 215.94873 215.05097 214.41921 213.87346 213.22656 211.69858 210.86989
 211.17340 212.70273 214.79146 216.65982 219.07899 223.27194 229.11111 234.14969
 237.94362 241.70178 245.51230 249.51694 253.73463 257.28342 259.88669 261.85965
 264.59952 267.45627 269.84381 271.59384 273.33441 275.18057 276.85080 278.49194
 280.22031 281.81308 283.24878 284.60382 285.78680 286.83682 287.79694 288.67114
 289.46210 290.16998 290.79407 291.63297
 366.78100 356.33904 345.77507 334.64511 323.05214 311.25018 299.12421 286.93125
 274.64729 262.54832 250.56136 239.86639 229.99243 221.10046 213.28650 206.29254
 200.13057 195.07261 191.65864 189.70468 188.74571 188.81375 189.65279 190.96482
 192.69386 194.79289 197.05993 199.42296 201.87200 204.35604 206.44807 208.29411
 209.92414 211.07318 211.30621 211.53825 211.47929 211.18832 210.82536 210.45939
 210.08043 209.79446 209.60650 209.47453 209.40657 209.74161 210.13164 210.52468
 211.32171 212.50375 213.75778 215.54482 217.47686 219.52389 221.62293 223.70996
 225.77400 227.86203 229.96307 232.07311 234.20614 236.38218 238.64221 241.01625
 243.64128 245.89632 247.90236 249.67139 251.09243 252.21946 253.04550 253.36553
 253.40657 253.18461 252.54864 251.50068 250.11071 248.27575 246.18878 244.02582
 241.82086 239.62889 237.45293 235.29596 233.16000 231.03103 229.06107 227.22211
 225.50914 223.98518 222.61921 221.39525 220.28128 219.24532 218.35336 217.49839
 216.74443 215.92846 215.03050 214.39853 213.85257 213.23857 211.78813 210.96829
 211.26006 212.76520 214.86685 216.72791 219.07056 223.21629 229.04791 234.06030
 237.83939 241.59254 245.41563 249.44449 253.69388 257.20981 259.78070 261.77713
 264.49442 267.33859 269.73236 271.48828 273.23929 275.09845 276.78351 278.42963
 280.15698 281.74982 283.18637 284.54105 285.72345 286.77493 287.73465 288.60953
 289.39752 290.10947 290.73431 291.56937
 366.78100 356.33884 345.77469 334.64453 323.05138 311.24922 299.12307 286.92991
 274.64575 262.54660 250.55944 239.86429 229.99013 221.09797 213.28382 206.28966
 200.12751 195.06935 191.65520 189.70104 188.74188 188.80973 189.64857 190.96042
 192.68926 194.78810 197.05495 199.41779 201.86664 204.35048 206.44233 208.28817
 209.91801 211.06686 211.29970 211.53155 211.47239 211.18124 210.81808 210.45192
 210.07277 209.78661 209.59846 209.46630 209.39814 209.73299 210.12283 210.51568
 211.31252 212.49437 213.74821 215.53505 217.46690 219.51374 221.61259 223.69943
 225.76328 227.85112 229.95196 232.06181 234.19465 236.37050 238.63034 241.00418
 243.62903 245.88387 247.88972 249.65856 251.07941 252.20625 253.03209 253.35194
 253.39278 253.17063 252.53447 251.48631 250.09616 248.26100 246.17385 244.01069
 241.80554 239.61338 237.43722 235.28007 233.14391 231.01476 229.04460 227.20545
 225.49229 223.96813 222.60198 221.37782 220.26367 219.22751 218.33535 217.48020
 216.72604 215.90989 215.01173 214.37958 213.83342 213.25034 211.87280 211.07990
 211.34624 212.81329 214.94392 216.79933 219.06892 223.16705 228.98532 233.96448
 237.72827 241.48019 245.32137 249.38065 253.65752 257.13962 259.68063 261.70255
 264.38818 267.21167 269.60760 271.37180 273.14017 275.01938 276.71796 278.36740
 280.09427 281.69061 283.12943 284.48413 285.66818 286.71722 287.67896 288.55093
 289.34280 290.05264 290.68115 291.51541
 366.78100 356.33811 345.77322 334.64233 323.04843 311.24554 299.11865 286.92476
 274.63987 262.53998 250.55209 239.85619 229.98130 221.08841 213.27352 206.27863
 200.11574 195.05685 191.64195 189.68706 188.72717 188.79428 189.63239 190.94350
 192.67161 194.76971 197.03582 199.39793 201.84604 204.32915 206.42026 208.26537
 209.89447 211.04258 211.27469 211.50580 211.44591 211.15402 210.79013 210.42323
 210.04334 209.75645 209.56756 209.43467 209.36578 209.69989 210.08899 210.48110
 211.27721 212.45832 213.71143 215.49754 217.42865 219.47475 221.57286 223.65897
 225.72208 227.80919 229.90930 232.01841 234.15051 236.32562 238.58473 240.95784
 243.58195 245.83606 247.84117 249.60927 251.02938 252.15549 252.98060 253.29971
 253.33982 253.11693 252.48003 251.43114 250.04025 248.20436 246.11647 243.95258
 241.74669 239.55379 237.37690 235.21901 233.08212 230.95223 228.98134 227.14145
 225.42755 223.90266 222.53577 221.31088 220.19599 219.15910 218.26621 217.41031
 216.65542 215.83853 214.93964 214.30675 213.75986 213.23352 211.98999 211.17055
 211.43274 212.87035 215.01968 216.87305 219.07788 223.12503 228.91371 233.85869
 237.61220 241.36609 245.23058 249.32326 253.62315 257.07040 259.58240 261.63260
 264.28101 267.07541 269.47247 271.24854 273.04160 274.94675 276.65799 278.30856
 280.03525 281.63388 283.07767 284.43295 285.61609 286.66647 287.62766 288.50055
 289.29181 290.00192 290.62714 291.46881
 366.78100 356.33796 345.77291 334.64187 323.04782 311.24478 299.11774 286.92369
 274.63865 262.53861 250.55056 239.85452 229.97947 221.08643 213.27139 206.27634
 200.11330 195.05425 191.63921 189.68417 188.72412 188.79108 189.62904 190.93999
 192.66795 194.76590 197.03186 199.39382 201.84177 204.32473 206.41568 208.26064
 209.88960 211.03755 211.26951 211.50046 211.44042 211.14838 210.78433 210.41729
 210.03725 209.75020 209.56116 209.42811 209.35907 209.69303 210.08198 210.47394
 211.26989 212.45085 213.70381 215.48976 217.42072 219.46668 221.56463 223.65059
 225.71354 227.80050 229.90046 232.00941 234.14137 236.31632 238.57528 240.94824
 243.57219 245.82615 247.83111 249.59906 251.01902 252.14497 252.96993 253.28889
 253.32884 253.10580 252.46875 251.41971 250.02867 248.19262 246.10458 243.94053
 241.73449 239.54145 237.36440 235.20636 233.06932 230.93927 228.96823 227.12818
 225.41414 223.88910 222.52205 221.29701 220.18196 219.14492 218.25188 217.39583
 216.64079 215.82375 214.92470 214.29166 213.74461 213.24400 212.06128 211.30789
 211.51675 212.91951 215.10803 216.94093 219.07875 223.07510 228.84489 233.75073
 237.48946 241.24448 245.13747 249.26733 253.58517 256.99548 259.48172 261.56531
 264.17477 266.93457 269.33398 271.12909 272.95319 274.88837 276.61203 278.25778
 279.97992 281.57831 283.03091 284.38574 285.56949 286.62000 287.58017 288.45404
 289.24643 289.95490 290.58395 291.42499
 366.78100 356.33780 345.77260 334.64141 323.04721 311.24401 299.11681 286.92261
 274.63741 262.53722 250.54902 239.85282 229.97762 221.08442 213.26922 206.27403
 200.11083 195.05163 191.63643 189.68123 188.72103 188.78784 189.62564 190.93644
 192.66424 194.76204 197.02784 199.38965 201.83745 204.32025 206.41105 208.25585
 209.88465 211.03246 211.26426 211.49506 211.43486 211.14266 210.77847 210.41127
 210.03107 209.74387 209.55467 209.42147 209.35228 209.68608 210.07488 210.46668
 211.26248 212.44328 213.69609 215.48189 217.41269 219.45849 221.55629 223.64209
 225.70490 227.79170 229.89150 232.00030 234.13210 236.30690 238.56571 240.93851
 243.56231 245.81611 247.82091 249.58872 251.00852 252.13432 252.95912 253.27792
 253.31772 253.09453 252.45733 251.40813 250.01693 248.18073 246.09253 243.92834
 241.72214 239.52894 237.35174 235.19354 233.05634 230.92615 228.95495 227.11475
 225.40055 223.87535 222.50815 221.28296 220.16776 219.13056 218.23736 217.38116
 216.62596 215.80877 214.90957 214.27637 213.72917 213.25470 212.13368 211.40915
 211.67819 212.97957 215.15720 216.99054 219.08403 223.03920 228.75760 233.61923
 237.34966 241.11116 245.04309 249.21526 253.54814 256.92465 259.39301 261.51367
 264.07767 266.79617 269.19666 271.01440 272.87106 274.83875 276.57224 278.21063
 279.92648 281.52383 282.98752 284.34354 285.52673 286.57626 287.53720 288.41052
 289.20367 289.91525 290.54193 291.38580
 366.78100 356.33681 345.77062 334.63843 323.04324 311.23904 299.11085 286.91566
 274.62947 262.52828 250.53909 239.84190 229.96571 221.07151 213.25532 206.25913
 200.09494 195.03475 191.61856 189.66237 188.70118 188.76699 189.60379 190.91360
 192.64041 194.73722 197.00203 199.36284 201.80965 204.29146 206.38126 208.22507
 209.85288 210.99969 211.23050 211.46031 211.39912 211.10593 210.74074 210.37254
 209.99135 209.70316 209.51297 209.37878 209.30859 209.64140 210.02921 210.42001
 211.21482 212.39463 213.64644 215.43125 217.36106 219.40587 221.50268 223.58749
 225.64929 227.73510 229.83391 231.94172 234.07253 236.24634 238.50415 240.87596
 243.49876 245.75157 247.75538 249.52219 250.94100 252.06581 252.88962 253.20743
 253.24624 253.02204 252.38385 251.33366 249.94147 248.10428 246.01509 243.84990
 241.64271 239.44852 237.27032 235.11113 232.97294 230.84175 228.86956 227.02837
 225.31318 223.78699 222.41879 221.19260 220.07641 219.03822 218.14403 217.28684
 216.53065 215.71246 214.81227 214.17807 213.62988 213.22250 212.26003 211.47456
 211.75925 213.16846 215.25484 216.99182 219.05724 222.93852 228.67209 233.49857
 237.21687 240.99115 244.96416 249.17529 253.51852 256.86444 259.31894 261.47461
 263.98630 266.65634 269.05441 270.89365 272.78439 274.78458 276.52545 278.15762
 279.87262 281.46927 282.94534 284.30173 285.48587 286.53552 287.49506 288.37018
 289.16113 289.87317 290.50241 291.34869
 366.78100 356.33598 345.76897 334.63595 323.03994 311.23492 299.10591 286.90989
 274.62287 262.52086 250.53084 239.83283 229.95581 221.06080 213.24378 206.24676
 200.08175 195.02073 191.60372 189.64670 188.68468 188.74967 189.58565 190.89464
 192.62062 194.71661 196.98059 199.34057 201.78656 204.26754 206.35653 208.19951
 209.82650 210.97248 211.20246 211.43145 211.36943 211.07542 210.70940 210.34039
 209.95837 209.66935 209.47834 209.34332 209.27231 209.60429 209.99128 210.38126
 211.17524 212.35423 213.60521 215.38920 217.31818 219.36216 221.45815 223.54213
 225.60312 227.68810 229.78609 231.89307 234.02305 236.19604 238.45302 240.82401
 243.44599 245.69798 247.70096 249.46694 250.88493 252.00891 252.83190 253.14888
 253.18687 252.96185 252.32283 251.27182 249.87880 248.04079 245.95077 243.78476
 241.57674 239.38172 237.20271 235.04269 232.90368 230.77166 228.79864 226.95663
 225.24061 223.71360 222.34458 221.11757 220.00055 218.96153 218.06652 217.20850
 216.45149 215.63247 214.73146 214.09644 213.54742 213.19711 212.36946 211.59508
 211.79010 213.32124 215.35776 217.01482 219.04276 222.84126 228.59163 233.38838
 237.09261 240.88330 244.89694 249.14192 253.48857 256.80161 259.24161 261.43207
 263.89380 266.51273 268.90607 270.76892 272.69601 274.72934 276.47549 278.10138
 279.81622 281.40366 282.90857 284.26779 285.45087 286.50146 287.46072 288.33459
 289.12708 289.83798 290.46811 291.31790
 366.78100 356.33545 345.76790 334.63435 323.03780 311.23224 299.10269 286.90614
 274.61859 262.51604 250.52549 239.82694 229.94939 221.05384 213.23629 206.23873
 200.07318 195.01163 191.59408 189.63653 188.67398 188.73843 189.57388 190.88233
 192.60778 194.70322 196.96667 199.32612 201.77157 204.25202 206.34047 208.18292
 209.80937 210.95482 211.18426 211.41271 211.35016 211.05561 210.68906 210.31951
 209.93696 209.64741 209.45586 209.32031 209.24875 209.58020 209.96665 210.35610
 211.14955 212.32800 213.57845 215.36190 217.29035 219.33380 221.42924 223.51269
 225.57314 227.65759 229.75504 231.86149 233.99094 236.16339 238.41984 240.79028
 243.41173 245.66318 247.66563 249.43108 250.84853 251.97198 252.79443 253.11088
 253.14833 252.92277 252.28322 251.23167 249.83812 247.99957 245.90902 243.74247
 241.53392 239.33837 237.15882 234.99826 232.85871 230.72616 228.75261 226.91006
 225.19351 223.66596 222.29641 221.06886 219.95130 218.91175 218.01620 217.15765
 216.40010 215.58055 214.67900 214.04345 213.49390 213.18506 212.45537 211.73973
 211.83594 213.43489 215.45459 217.04819 219.03069 222.75775 228.51694 233.27930
 236.96872 240.77831 244.83406 249.11053 253.45279 256.72995 259.15689 261.38477
 263.80124 266.36978 268.76047 270.65033 272.61322 274.67908 276.43018 278.04614
 279.75824 281.34131 282.87256 284.23431 285.41757 286.46857 287.42792 288.30209
 289.09467 289.80594 290.43622 291.28369
 366.78100 356.33477 345.76653 334.63230 323.03507 311.22884 299.09860 286.90137
 274.61314 262.50990 250.51867 239.81944 229.94121 221.04497 213.22674 206.22851
 200.06228 195.00004 191.58181 189.62358 188.66034 188.72411 189.55888 190.86665
 192.59141 194.68618 196.94895 199.30771 201.75248 204.23225 206.32002 208.16178
 209.78755 210.93232 211.16108 211.38885 211.32562 211.03039 210.66315 210.29292
 209.90969 209.61946 209.42722 209.29099 209.21876 209.54952 209.93529 210.32406
 211.11683 212.29459 213.54436 215.32713 217.25489 219.29766 221.39243 223.47520
 225.53496 227.61873 229.71550 231.82126 233.95003 236.12180 238.37757 240.74733
 243.36810 245.61887 247.62064 249.38540 250.80217 251.92494 252.74670 253.06247
 253.09924 252.87301 252.23277 251.18054 249.78631 247.94707 245.85584 243.68861
 241.47938 239.28314 237.10291 234.94168 232.80144 230.66821 228.69398 226.85075
 225.13351 223.60528 222.23505 221.00682 219.88858 218.84835 217.95212 217.09288
 216.33465 215.51442 214.61219 213.97595 213.42572 213.16499 212.54900 211.86839
 211.91171 213.53767 215.53728 217.07613 219.01942 222.68289 228.44478 233.16646
 236.84390 240.67647 244.77597 249.08124 253.41161 256.65250 259.06827 261.33408
 263.71024 266.23181 268.62009 270.53897 272.53821 274.63455 276.39059 277.99509
 279.70255 281.29480 282.83304 284.19641 285.38226 286.43246 287.39322 288.26874
 289.06100 289.77466 290.40314 291.25412
 366.78100 356.33397 345.76494 334.62990 323.03187 311.22484 299.09381 286.89578
 274.60674 262.50271 250.51068 239.81065 229.93162 221.03459 213.21555 206.21652
 200.04949 194.98646 191.56743 189.60839 188.64436 188.70733 189.54130 190.84827
 192.57223 194.66620 196.92817 199.28614 201.73011 204.20907 206.29604 208.13701
 209.76198 210.90595 211.13392 211.36088 211.29685 211.00082 210.63279 210.26176
 209.87772 209.58669 209.39366 209.25663 209.18360 209.51356 209.89853 210.28650
 211.07847 212.25544 213.50440 215.28637 217.21334 219.25531 221.34928 223.43125
 225.49021 227.57318 229.66915 231.77412 233.90209 236.07305 238.32802 240.69699
 243.31696 245.56693 247.56789 249.33186 250.74783 251.86980 252.69077 253.00574
 253.04170 252.81467 252.17364 251.12061 249.72558 247.88554 245.79351 243.62548
 241.41545 239.21842 237.03738 234.87535 232.73432 230.60029 228.62526 226.78122
 225.06319 223.53416 222.16313 220.93410 219.81507 218.77403 217.87700 217.01697
 216.25794 215.43691 214.53387 213.89684 213.34581 213.13858 212.64899 211.98695
 212.00809 213.63414 215.60123 217.10036 219.01416 222.61635 228.37076 233.05150
 236.72241 240.58202 244.72441 249.05380 253.36386 256.56888 258.97482 261.27734
 263.62024 266.09885 268.48712 270.43903 272.47092 274.59521 276.35373 277.94696
 279.64880 281.25171 282.79181 284.15765 285.34232 286.39392 287.35577 288.22986
 289.02493 289.73715 290.36646 291.22018
 366.78100 356.33322 345.76344 334.62766 323.02887 311.22109 299.08931 286.89053
 274.60075 262.49597 250.50319 239.80240 229.92262 221.02484 213.20506 206.20528
 200.03750 194.97372 191.55393 189.59415 188.62937 188.69159 189.52481 190.83103
 192.55425 194.64746 196.90868 199.26590 201.70912 204.18734 206.27356 208.11378
 209.73799 210.88121 211.10843 211.33465 211.26987 210.97309 210.60431 210.23252
 209.84774 209.55596 209.36218 209.22440 209.15062 209.47984 209.86406 210.25127
 211.04249 212.21871 213.46693 215.24815 217.17437 219.21559 221.30880 223.39002
 225.44824 227.53046 229.62568 231.72990 233.85712 236.02733 238.28155 240.64977
 243.26899 245.51821 247.51843 249.28165 250.69686 251.81808 252.63830 252.95252
 252.98774 252.75996 252.11818 251.06439 249.66861 247.82783 245.73505 243.56627
 241.35549 239.15771 236.97592 234.81314 232.67136 230.53658 228.56080 226.71602
 224.99724 223.46745 222.09567 220.86589 219.74611 218.70433 217.80655 216.94577
 216.18598 215.36420 214.46042 213.82264 213.27086 213.11417 212.74396 212.11143
 212.11472 213.72102 215.64731 217.12386 219.01060 222.55893 228.29506 232.93990
 236.60971 240.49779 244.68048 249.02774 253.30931 256.47687 258.87448 261.21268
 263.53156 265.97360 268.36429 270.35117 272.41275 274.55814 276.31714 277.89941
 279.59421 281.20956 282.75119 284.11670 285.30191 286.35553 287.31613 288.19138
 288.98535 289.69965 290.33005 291.18414
 366.78100 356.33254 345.76208 334.62562 323.02616 311.21770 299.08524 286.88578
 274.59532 262.48986 250.49640 239.79494 229.91448 221.01602 213.19556 206.19510
 200.02664 194.96218 191.54172 189.58126 188.61580 188.67734 189.50988 190.81542
 192.53796 194.63050 196.89104 199.24758 201.69013 204.16767 206.25321 208.09275
 209.71629 210.85883 211.08537 211.31091 211.24545 210.94799 210.57853 210.20607
 209.82061 209.52815 209.33369 209.19523 209.12077 209.44931 209.83285 210.21939
 211.00993 212.18547 213.43301 215.21355 217.13909 219.17963 221.27217 223.35271
 225.41025 227.49179 229.58633 231.68987 233.81641 235.98595 238.23949 240.60703
 243.22557 245.47411 247.47365 249.23619 250.65073 251.77127 252.59081 252.90435
 252.93889 252.71043 252.06797 251.01351 249.61705 247.77559 245.68213 243.51267
 241.30121 239.10275 236.92029 234.75684 232.61438 230.47892 228.50246 226.65700
 224.93754 223.40708 222.03462 220.80416 219.68370 218.64124 217.74278 216.88132
 216.12086 215.29840 214.39394 213.75548 213.20302 213.09288 212.83266 212.24803
 212.22716 213.79782 215.67824 217.13995 219.00800 222.50980 228.22116 232.83563
 236.50754 240.42378 244.64304 249.00200 253.24541 256.37408 258.76517 261.13904
 263.44324 265.85748 268.25302 270.27570 272.36264 274.52258 276.27826 277.85223
 279.53696 281.16626 282.71085 284.07712 285.26260 286.31476 287.27649 288.15179
 288.94714 289.65869 290.29205 291.14645
 366.78100 356.33189 345.76077 334.62366 323.02354 311.21443 299.08132 286.88120
 274.59009 262.48397 250.48986 239.78774 229.90663 221.00752 213.18640 206.18529
 200.01617 194.95106 191.52995 189.56883 188.60272 188.66360 189.49549 190.80038
 192.52226 194.61415 196.87403 199.22992 201.67180 204.14869 206.23358 208.07246
 209.69535 210.83723 211.06312 211.28801 211.22189 210.92378 210.55366 210.18055
 209.79444 209.50132 209.30621 209.16709 209.09198 209.41986 209.80275 210.18864
 210.97852 212.15341 213.40029 215.18018 217.10507 219.14495 221.23684 223.31672
 225.37361 227.45450 229.54838 231.65127 233.77715 235.94604 238.19892 240.56581
 243.18370 245.43158 247.43047 249.19235 250.60624 251.72613 252.54501 252.85790
 252.89178 252.66267 252.01956 250.96444 249.56733 247.72521 245.63110 243.46098
 241.24887 239.04976 236.86664 234.70253 232.55941 230.42330 228.44619 226.60007
 224.87996 223.34884 221.97573 220.74462 219.62350 218.58039 217.68127 216.81916
 216.05804 215.23493 214.32982 213.69070 213.13759 213.07231 212.91805 212.39450
 212.34238 213.86404 215.69574 217.14899 219.00827 222.47029 228.15247 232.74016
 236.41737 240.36284 244.61331 248.97545 253.17154 256.26123 258.64792 261.05484
 263.35327 265.74899 268.15302 270.21106 272.32040 274.48874 276.24033 277.80630
 279.48117 281.12427 282.66891 284.03564 285.22159 286.27371 287.23557 288.11063
 288.90567 289.61993 290.25043 291.10992
 366.78100 356.33123 345.75946 334.62169 323.02092 311.21115 299.07738 286.87661
 274.58485 262.47808 250.48331 239.78054 229.89877 220.99900 213.17723 206.17546
 200.00569 194.93992 191.51815 189.55638 188.58961 188.64984 189.48107 190.78531
 192.50654 194.59777 196.85700 199.21223 201.65346 204.12969 206.21392 208.05215
 209.67438 210.81561 211.04084 211.26507 211.19830 210.89953 210.52877 210.15500
 209.76823 209.47446 209.27869 209.13892 209.06315 209.39038 209.77261 210.15784
 210.94707 212.12130 213.36753 215.14676 217.07099 219.11023 221.20146 223.28069
 225.33692 227.41715 229.51038 231.61261 233.73784 235.90607 238.15830 240.52453
 243.14176 245.38899 247.38722 249.14846 250.56169 251.68092 252.49915 252.81138
 252.84461 252.61484 251.97107 250.91530 249.51753 247.67476 245.57999 243.40922
 241.19645 238.99668 236.81292 234.64815 232.50438 230.36761 228.38984 226.54307
 224.82230 223.29053 221.91676 220.68499 219.56322 218.51945 217.61968 216.75691
 215.99514 215.17138 214.26561 213.62584 213.07207 213.05154 213.00305 212.54817
 212.45792 213.92300 215.69876 217.14780 219.01627 222.43663 228.09160 232.65453
 236.34084 240.31429 244.59181 248.94965 253.09000 256.14139 258.52466 260.95706
 263.25699 265.64310 268.05902 270.15430 272.28448 274.45807 276.20590 277.76352
 279.42761 281.08340 282.62845 283.99469 285.18112 286.23322 287.19516 288.07114
 288.86578 289.57843 290.21112 291.07330
 366.78100 356.33041 345.75782 334.61923 323.01764 311.20705 299.07245 286.87086
 274.57827 262.47068 250.47509 239.77150 229.88891 220.98832 213.16573 206.16314
 199.99255 194.92596 191.50336 189.54077 188.57318 188.63259 189.46300 190.76641
 192.48682 194.57723 196.83564 199.19005 201.63046 204.10587 206.18927 208.02668
 209.64809 210.78850 211.01291 211.23632 211.16873 210.86914 210.49755 210.12296
 209.73537 209.44077 209.24418 209.10359 209.02700 209.35341 209.73482 210.11923
 210.90764 212.08105 213.32646 215.10487 217.02828 219.06668 221.15709 223.23550
 225.29091 227.37032 229.46273 231.56414 233.68855 235.85596 238.10737 240.47278
 243.08918 245.33559 247.33300 249.09341 250.50582 251.62423 252.44164 252.75305
 252.78546 252.55487 251.91028 250.85369 249.45509 247.61150 245.51591 243.34432
 241.13073 238.93014 236.74555 234.57996 232.43537 230.29778 228.31919 226.47160
 224.75000 223.21741 221.84282 220.61023 219.48764 218.44305 217.54246 216.67887
 215.91628 215.09169 214.18510 213.54450 212.98991 213.02251 213.09952 212.69926
 212.57991 213.96706 215.67351 217.14772 219.03453 222.40784 228.03482 232.58000
 236.27817 240.28027 244.57996 248.92680 253.00186 256.01526 258.39359 260.84283
 263.14987 265.53677 267.96988 270.10480 272.25708 274.43152 276.17459 277.72565
 279.37292 281.04926 282.59164 283.95654 285.14325 286.19431 287.15768 288.03256
 288.82755 289.54169 290.17181 291.03244
 366.78100 356.32975 345.75650 334.61725 323.01500 311.20375 299.06850 286.86625
 274.57300 262.46475 250.46850 239.76425 229.88101 220.97976 213.15651 206.15326
 199.98201 194.91476 191.49151 189.52826 188.56001 188.61876 189.44851 190.75126
 192.47101 194.56076 196.81851 199.17226 201.61201 204.08676 206.16951 208.00626
 209.62701 210.76676 210.99051 211.21326 211.14502 210.84477 210.47252 210.09727
 209.70902 209.41377 209.21652 209.07527 208.99802 209.32377 209.70452 210.08827
 210.87602 212.04877 213.29352 215.07127 216.99402 219.03177 221.12152 223.19927
 225.25402 227.33277 229.42452 231.52527 233.64903 235.81578 238.06653 240.43128
 243.04703 245.29278 247.28953 249.04928 250.46103 251.57878 252.39553 252.70628
 252.73803 252.50678 251.86153 250.80428 249.40503 247.56078 245.46453 243.29228
 241.07803 238.87678 236.69153 234.52528 232.38004 230.24179 228.26254 226.41429
 224.69204 223.15879 221.78354 220.55029 219.42704 218.38179 217.48054 216.61629
 215.85304 215.02779 214.12054 213.47929 212.92404 213.00180 213.18552 212.87285
 212.68945 213.99408 215.64908 217.13441 219.04005 222.38528 227.98776 232.51813
 236.22878 240.25932 244.57771 248.90785 252.90950 255.88449 258.25629 260.71268
 263.03146 265.42920 267.88489 270.06247 272.23737 274.40714 276.14127 277.68585
 279.31470 281.02017 282.55957 283.92224 285.10501 286.15741 287.11984 287.99390
 288.78992 289.50433 290.13498 290.99484
 366.78100 356.32833 345.75366 334.61300 323.00933 311.19666 299.05999 286.85632
 274.56166 262.45199 250.45432 239.74865 229.86398 220.96132 213.13665 206.13198
 199.95931 194.89064 191.46598 189.50131 188.53164 188.58897 189.41730 190.71864
 192.43697 194.52530 196.78163 199.13396 201.57229 204.04563 206.12696 207.96229
 209.58162 210.71995 210.94229 211.16362 211.09395 210.79228 210.41861 210.04195
 209.65228 209.35561 209.15694 209.01427 208.93561 209.25994 209.63927 210.02160
 210.80793 211.97927 213.22260 214.99893 216.92026 218.95659 221.04493 223.12126
 225.17459 227.25192 229.34225 231.44159 233.56392 235.72925 237.97858 240.34191
 242.95625 245.20058 247.19591 248.95424 250.36457 251.48091 252.29624 252.60557
 252.63590 252.40323 251.75657 250.69790 249.29723 247.45156 245.35389 243.18022
 240.96456 238.76189 236.57522 234.40755 232.26088 230.12122 228.14055 226.29088
 224.56721 223.03254 221.65588 220.42121 219.29654 218.24987 217.34720 216.48154
 215.71687 214.89020 213.98153 213.33886 212.78220 212.94391 213.32600 213.00230
 212.81259 214.01700 215.57535 217.13420 219.08575 222.37080 227.94341 232.46648
 236.19055 240.25102 244.58543 248.89377 252.81433 255.74889 258.10995 260.56531
 262.89886 265.31607 267.79907 270.02066 272.21835 274.37952 276.10098 277.64127
 279.25995 280.98849 282.52814 283.88876 285.07150 286.12210 287.08383 287.96082
 288.75494 289.47083 290.09988 290.95801
 366.78100 356.32756 345.75211 334.61067 323.00623 311.19278 299.05534 286.85089
 274.55545 262.44501 250.44656 239.74012 229.85468 220.95123 213.12579 206.12035
 199.94690 194.87746 191.45201 189.48657 188.51613 188.57268 189.40024 190.70080
 192.41835 194.50591 196.76147 199.11302 201.55058 204.02313 206.10369 207.93825
 209.55680 210.69436 210.91592 211.13647 211.06603 210.76359 210.38914 210.01170
 209.62125 209.32381 209.12437 208.98092 208.90148 209.22504 209.60359 209.98515
 210.77071 211.94126 213.18382 214.95937 216.87993 218.91549 221.00304 223.07860
 225.13116 227.20771 229.29727 231.39583 233.51738 235.68194 237.93049 240.29305
 242.90661 245.15016 247.14472 248.90228 250.31183 251.42739 252.24194 252.55050
 252.58006 252.34661 251.69917 250.63973 249.23828 247.39184 245.29340 243.11895
 240.90251 238.69906 236.51162 234.34318 232.19573 230.05529 228.07385 226.22340
 224.49896 222.96352 221.58607 220.35063 219.22518 218.17774 217.27430 216.40785
 215.64241 214.81497 213.90552 213.26208 212.70464 212.91870 213.42445 213.17972
 212.89493 214.03018 215.55556 217.12201 219.08136 222.36272 227.91586 232.43109
 236.16687 240.25574 244.60217 248.88153 252.71214 255.59924 257.94577 260.39532
 262.74918 265.19623 267.71307 269.98260 272.20398 274.35556 276.06488 277.60104
 279.21469 280.95471 282.49652 283.85730 285.03873 286.08990 287.04993 287.92743
 288.72064 289.43726 290.06476 290.92853
 366.78100 356.32804 345.75308 334.61213 323.00817 311.19521 299.05825 286.85430
 274.55934 262.44938 250.45142 239.74547 229.86051 220.95755 213.13259 206.12764
 199.95468 194.88572 191.46076 189.49580 188.52585 188.58289 189.41093 190.71197
 192.43002 194.51806 196.77410 199.12614 201.56419 204.03723 206.11827 207.95331
 209.57236 210.71040 210.93244 211.15348 211.08352 210.78157 210.40761 210.03065
 209.64069 209.34374 209.14478 209.00182 208.92286 209.24691 209.62595 210.00799
 210.79403 211.96508 213.20812 214.98416 216.90520 218.94124 221.02929 223.10533
 225.15837 227.23541 229.32546 231.42450 233.54654 235.71158 237.96063 240.32367
 242.93771 245.18175 247.17680 248.93484 250.34488 251.46092 252.27596 252.58501
 252.61505 252.38209 251.73513 250.67618 249.27522 247.42926 245.33130 243.15735
 240.94139 238.73843 236.55147 234.38351 232.23656 230.09660 228.11564 226.26568
 224.54173 223.00677 221.62981 220.39485 219.26990 218.22294 217.31998 216.45402
 215.68907 214.86211 213.95315 213.31019 212.75323 212.95897 213.44502 213.41081
 213.00873 213.97723 215.47536 217.14983 219.16895 222.37013 227.87822 232.38821
 236.14270 240.26225 244.61775 248.86092 252.59265 255.42670 257.76120 260.20724
 262.59094 265.07849 267.63647 269.95837 272.20242 274.34348 276.04324 277.57181
 279.18027 280.92273 282.46512 283.82553 285.00803 286.05756 287.01913 287.89648
 288.69031 289.40359 290.03470 290.89188
 366.78100 356.32778 345.75256 334.61135 323.00713 311.19391 299.05669 286.85248
 274.55726 262.44704 250.44882 239.74261 229.85739 220.95417 213.12895 206.12374
 199.95052 194.88130 191.45608 189.49086 188.52065 188.57743 189.40521 190.70599
 192.42378 194.51156 196.76734 199.11912 201.55691 204.02969 206.11047 207.94525
 209.56403 210.70182 210.92360 211.14438 211.07416 210.77195 210.39773 210.02051
 209.63029 209.33308 209.13386 208.99064 208.91142 209.23521 209.61399 209.99577
 210.78155 211.95233 213.19512 214.97090 216.89168 218.92746 221.01525 223.09103
 225.14381 227.22059 229.31038 231.40916 233.53094 235.69572 237.94451 240.30729
 242.92107 245.16485 247.15963 248.91742 250.32720 251.44298 252.25776 252.56655
 252.59633 252.36311 251.71589 250.65668 249.25546 247.40924 245.31102 243.13680
 240.92059 238.71737 236.53015 234.36193 232.21472 230.07450 228.09328 226.24306
 224.51885 222.98363 221.60641 220.37119 219.24598 218.19876 217.29554 216.42932
 215.66410 214.83689 213.92767 213.28445 212.72723 212.96449 213.52504 213.57617
 213.14102 213.94279 215.36163 217.18494 219.27762 222.35309 227.84673 232.35492
 236.12573 240.27530 244.63454 248.83385 252.46089 255.24144 257.56946 260.01587
 262.43536 264.97058 267.57211 269.94751 272.21106 274.33786 276.02744 277.54852
 279.16647 280.88696 282.42868 283.79074 284.97452 286.02478 286.98715 287.86472
 288.66043 289.37268 290.00378 290.86038
 366.78100 356.32711 345.75123 334.60934 323.00446 311.19057 299.05269 286.84780
 274.55192 262.44103 250.44215 239.73526 229.84938 220.94549 213.11961 206.11372
 199.93984 194.86995 191.44407 189.47818 188.50730 188.56341 189.39053 190.69064
 192.40776 194.49487 196.74999 199.10110 201.53822 204.01033 206.09045 207.92456
 209.54268 210.67979 210.90091 211.12102 211.05014 210.74725 210.37237 209.99448
 209.60360 209.30571 209.10583 208.96194 208.88206 209.20517 209.58329 209.96440
 210.74952 211.91963 213.16175 214.93686 216.85698 218.89209 220.97921 223.05432
 225.10644 227.18255 229.27167 231.36978 233.49090 235.65501 237.90313 240.26524
 242.87835 245.12147 247.11558 248.87270 250.28181 251.39693 252.21104 252.51916
 252.54827 252.31439 251.66650 250.60662 249.20473 247.35785 245.25896 243.08408
 240.86719 238.66331 236.47542 234.30654 232.15865 230.01777 228.03588 226.18500
 224.46011 222.92423 221.54634 220.31046 219.18457 218.13669 217.23280 216.36592
 215.60003 214.77215 213.86226 213.21838 212.66049 212.95175 213.63989 213.69254
 213.25383 213.96358 215.31383 217.20609 219.32605 222.32785 227.81219 232.32111
 236.11205 240.29262 244.65126 248.79987 252.32050 255.05176 257.37970 259.82721
 262.28607 264.87057 267.51675 269.94037 272.21893 274.32639 276.00250 277.51718
 279.14258 280.85477 282.39719 283.76022 284.94489 285.99545 286.95895 287.83582
 288.63080 289.34482 289.97351 290.82867
 366.78100 356.32670 345.75040 334.60810 323.00280 311.18849 299.05019 286.84489
 274.54859 262.43729 250.43799 239.73069 229.84439 220.94009 213.11379 206.10748
 199.93318 194.86288 191.43658 189.47028 188.49898 188.55468 189.38138 190.68108
 192.39778 194.48447 196.73917 199.08987 201.52657 203.99827 206.07797 207.91167
 209.52937 210.66607 210.88676 211.10646 211.03516 210.73186 210.35656 209.97826
 209.58696 209.28866 209.08836 208.94406 208.86375 209.18645 209.56415 209.94485
 210.72955 211.89925 213.14095 214.91565 216.83535 218.87005 220.95674 223.03144
 225.08314 227.15884 229.24754 231.34524 233.46594 235.62964 237.87734 240.23903
 242.85173 245.09443 247.08813 248.84483 250.25353 251.36823 252.18193 252.48963
 252.51833 252.28402 251.63572 250.57542 249.17312 247.32582 245.22652 243.05122
 240.83392 238.62962 236.44132 234.27201 232.12371 229.98241 228.00011 226.14881
 224.42351 222.88721 221.50891 220.27261 219.14630 218.09800 217.19370 216.32640
 215.56010 214.73180 213.82150 213.17720 212.61890 212.95306 213.74258 213.80295
 213.34918 214.02020 215.32823 217.20419 219.31602 222.30583 227.77156 232.28383
 236.10245 240.31435 244.66707 248.76067 252.17616 254.86324 257.19458 259.64136
 262.14041 264.77512 267.46246 269.93124 272.21967 274.30527 275.96695 277.48041
 279.11771 280.82095 282.36597 283.73148 284.91614 285.96765 286.92978 287.80750
 288.60284 289.31647 289.94629 290.79840
 366.78100 356.32667 345.75033 334.60800 323.00267 311.18833 299.05000 286.84467
 274.54833 262.43700 250.43766 239.73033 229.84400 220.93966 213.11333 206.10700
 199.93266 194.86233 191.43600 189.46966 188.49833 188.55400 189.38066 190.68033
 192.39700 194.48366 196.73833 199.08899 201.52566 203.99733 206.07699 207.91066
 209.52833 210.66499 210.88566 211.10533 211.03399 210.73066 210.35533 209.97699
 209.58566 209.28733 209.08699 208.94266 208.86232 209.18499 209.56266 209.94332
 210.72799 211.89766 213.13932 214.91399 216.83366 218.86832 220.95499 223.02966
 225.08132 227.15699 229.24565 231.34332 233.46399 235.62765 237.87532 240.23699
 242.84965 245.09232 247.08599 248.84265 250.25132 251.36599 252.17965 252.48732
 252.51599 252.28165 251.63332 250.57298 249.17065 247.32332 245.22398 243.04865
 240.83132 238.62698 236.43865 234.26932 232.12098 229.97965 227.99732 226.14598
 224.42065 222.88432 221.50598 220.26965 219.14331 218.09498 217.19065 216.32331
 215.55698 214.72865 213.81831 213.17398 212.61565 212.97519 213.82465 213.91534
 213.44148 214.08067 215.36612 217.19312 219.29445 222.29530 227.72704 232.24782
 236.09692 240.33929 244.68031 248.71407 252.02602 254.67073 257.00714 259.45319
 261.99420 264.67944 267.40710 269.91681 272.21402 274.27884 275.92722 277.44092
 279.08850 280.78851 282.33652 283.70285 284.88843 285.94034 286.90302 287.77869
 288.57437 289.28815 289.91898 290.76706
 366.78100 356.32699 345.75098 334.60897 323.00396 311.18995 299.05193 286.84692
 274.55091 262.43990 250.44089 239.73388 229.84787 220.94386 213.11785 206.11184
 199.93782 194.86781 191.44180 189.47579 188.50478 188.56077 189.38776 190.68775
 192.40474 194.49173 196.74671 199.09770 201.53469 204.00668 206.08667 207.92066
 209.53865 210.67564 210.89663 211.11662 211.04561 210.74259 210.36758 209.98957
 209.59856 209.30055 209.10054 208.95653 208.87652 209.19951 209.57750 209.95848
 210.74347 211.91346 213.15545 214.93044 216.85043 218.88542 220.97241 223.04740
 225.09939 227.17537 229.26436 231.36235 233.48334 235.64733 237.89532 240.25731
 242.87030 245.11329 247.10728 248.86427 250.27325 251.38824 252.20223 252.51022
 252.53921 252.30520 251.65719 250.59718 249.19517 247.34816 245.24914 243.07413
 240.85712 238.65311 236.46510 234.29609 232.14808 230.00707 228.02506 226.17405
 224.44904 222.91302 221.53501 220.29900 219.17299 218.12498 217.22097 216.35396
 215.58795 214.75994 213.84993 213.20591 212.64790 213.01744 213.89047 214.02223
 213.54080 214.13965 215.40840 217.18752 219.28717 222.29390 227.68086 232.21657
 236.09573 240.36552 244.68713 248.65439 251.86319 254.46828 256.81204 259.26248
 261.84808 264.58524 267.35150 269.89810 272.20184 274.24875 275.88712 277.40411
 279.05814 280.75894 282.30710 283.67343 284.85828 285.90958 286.87256 287.74960
 288.54471 289.25879 289.88687 290.73190
 366.78100 356.32759 345.75219 334.61078 323.00637 311.19297 299.05556 286.85115
 274.55575 262.44534 250.44693 239.74053 229.85512 220.95171 213.12631 206.12090
 199.94749 194.87809 191.45268 189.48728 188.51687 188.57346 189.40106 190.70165
 192.41924 194.50684 196.76243 199.11402 201.55162 204.02421 206.10480 207.93940
 209.55799 210.69558 210.91718 211.13777 211.06736 210.76496 210.39055 210.01314
 209.62274 209.32533 209.12592 208.98252 208.90311 209.22670 209.60530 209.98689
 210.77248 211.94308 213.18567 214.96127 216.88186 218.91745 221.00505 223.08064
 225.13323 227.20983 229.29942 231.39801 233.51961 235.68420 237.93279 240.29539
 242.90898 245.15257 247.14717 248.90476 250.31435 251.42995 252.24454 252.55313
 252.58273 252.34932 251.70191 250.64251 249.24110 247.39469 245.29629 243.12188
 240.90547 238.70207 236.51466 234.34626 232.19885 230.05844 228.07704 226.22663
 224.50222 222.96682 221.58941 220.35400 219.22860 218.18119 217.27778 216.41138
 215.64597 214.81856 213.90916 213.26575 212.70834 213.07605 213.94478 214.11543
 213.65063 214.20296 215.45201 217.19232 219.29141 222.29826 227.63571 232.19130
 236.09694 240.38863 244.68370 248.57832 251.68646 254.25476 256.61133 259.07266
 261.70569 264.49304 267.29611 269.87161 272.18100 274.21341 275.84470 277.37015
 279.02808 280.73157 282.27979 283.64691 284.83316 285.88403 286.84796 287.72632
 288.52481 289.24292 289.87183 290.71652
 366.78100 356.32840 345.75380 334.61320 323.00960 311.19700 299.06040 286.85680
 274.56220 262.45260 250.45500 239.74940 229.86480 220.96220 213.13760 206.13300
 199.96040 194.89180 191.46720 189.50260 188.53300 188.59040 189.41880 190.72020
 192.43860 194.52700 196.78340 199.13580 201.57420 204.04760 206.12900 207.96440
 209.58380 210.72220 210.94460 211.16600 211.09640 210.79479 210.42119 210.04459
 209.65499 209.35839 209.15979 209.01719 208.93859 209.26299 209.64239 210.02479
 210.81119 211.98259 213.22599 215.00239 216.92379 218.96019 221.04859 223.12499
 225.17839 227.25579 229.34619 231.44559 233.56799 235.73339 237.98279 240.34619
 242.96059 245.20499 247.20039 248.95879 250.36919 251.48559 252.30099 252.61039
 252.64079 252.40819 251.76159 250.70299 249.30239 247.45679 245.35919 243.18559
 240.96999 238.76739 236.58079 234.41319 232.26659 230.12699 228.14639 226.29679
 224.57319 223.03859 221.66199 220.42739 219.30279 218.25619 217.35359 216.48799
 215.72339 214.89679 213.98819 213.34559 212.78899 213.14648 213.99112 214.19014
 213.77361 214.27698 215.49899 217.20834 219.30309 222.30276 227.59299 232.17053
 236.10008 240.40691 244.66780 248.48375 251.49583 254.03261 256.40747 258.88757
 261.56970 264.40524 267.23816 269.83771 272.15158 274.17175 275.80167 277.33768
 278.99835 280.70276 282.25104 283.61774 284.80365 285.85672 286.82101 287.69818
 288.49707 289.21387 289.84412 290.68784
 366.78100 356.32944 345.75588 334.61633 323.01377 311.20221 299.06665 286.86410
 274.57054 262.46198 250.46542 239.76087 229.87731 220.97575 213.15219 206.14864
 199.97708 194.90952 191.48596 189.52240 188.55385 188.61229 189.44173 190.74417
 192.46362 194.55306 196.81050 199.16394 201.60339 204.07783 206.16027 207.99671
 209.61715 210.75660 210.98004 211.20248 211.13392 210.83337 210.46081 210.08525
 209.69669 209.40114 209.20358 209.06202 208.98446 209.30991 209.69035 210.07379
 210.86123 212.03367 213.27812 215.05556 216.97800 219.01544 221.10489 223.18233
 225.23677 227.31521 229.40666 231.50710 233.63054 235.79698 238.04743 240.41187
 243.02731 245.27275 247.26919 249.02864 250.44008 251.55752 252.37396 252.68441
 252.71585 252.48429 251.83873 250.78118 249.38162 247.53706 245.44050 243.26795
 241.05339 238.85183 236.66627 234.49971 232.35416 230.21560 228.23604 226.38748
 224.66493 223.13137 221.75581 220.52225 219.39870 218.35314 217.45158 216.58702
 215.82346 214.99791 214.09035 213.44879 212.89323 213.22992 214.02536 214.25026
 213.90689 214.36142 215.55807 217.23650 219.31281 222.30708 227.55502 232.15283
 236.10239 240.41771 244.63547 248.36710 251.28957 253.80133 256.20160 258.71057
 261.44418 264.32446 267.18060 269.79779 272.11557 274.12665 275.75577 277.30347
 278.96564 280.66815 282.21646 283.58398 284.77002 285.82129 286.78516 287.66403
 288.46069 289.17807 289.80588 290.65018
 366.78100 356.33070 345.75841 334.62011 323.01882 311.20852 299.07422 286.87293
 274.58063 262.47334 250.47804 239.77475 229.89245 220.99215 213.16986 206.16756
 199.99727 194.93097 191.50867 189.54638 188.57908 188.63879 189.46949 190.77319
 192.49390 194.58460 196.84331 199.19801 201.63871 204.11442 206.19812 208.03583
 209.65753 210.79824 211.02294 211.24664 211.17935 210.88005 210.50876 210.13446
 209.74716 209.45287 209.25657 209.11628 209.03998 209.36668 209.74839 210.13309
 210.92180 212.09550 213.34120 215.11991 217.04361 219.08232 221.17302 223.25173
 225.30743 227.38713 229.47984 231.58154 233.70625 235.87395 238.12565 240.49136
 243.10806 245.35477 247.35247 249.11317 250.52588 251.64458 252.46229 252.77399
 252.80669 252.57640 251.93210 250.87581 249.47751 247.63422 245.53892 243.36762
 241.15433 238.95403 236.76974 234.60444 232.46014 230.32285 228.34455 226.49726
 224.77596 223.24366 221.86937 220.63707 219.51478 218.47048 217.57018 216.70689
 215.94459 215.12030 214.21400 213.57371 213.01941 213.32574 214.04950 214.29924
 214.04634 214.45647 215.62914 217.27628 219.33092 222.30876 227.51865 232.13634
 236.10490 240.42052 244.58652 248.22578 251.06540 253.55942 255.99330 258.54346
 261.33127 264.25262 267.12607 269.75546 272.07626 274.07956 275.71213 277.27054
 278.93256 280.62613 282.17474 283.54123 284.72705 285.77881 286.74304 287.62088
 288.41745 289.13608 289.76471 290.60358
 366.78100 356.33235 345.76170 334.62505 323.02540 311.21675 299.08410 286.88445
 274.59380 262.48815 250.49450 239.79285 229.91220 221.01355 213.19290 206.19225
 200.02360 194.95895 191.53830 189.57765 188.61200 188.67334 189.50569 190.81104
 192.53339 194.62574 196.88609 199.24244 201.68479 204.16214 206.24749 208.08684
 209.71019 210.85254 211.07889 211.30424 211.23859 210.94094 210.57129 210.19864
 209.81299 209.52034 209.32569 209.18704 209.11239 209.44074 209.82409 210.21044
 211.00079 212.17614 213.42349 215.20384 217.12919 219.16954 221.26189 223.34224
 225.39959 227.48094 229.57529 231.67864 233.80499 235.97433 238.22768 240.59503
 243.21338 245.46173 247.46108 249.22343 250.63778 251.75813 252.57748 252.89083
 252.92518 252.69653 252.05388 250.99923 249.60258 247.76093 245.66728 243.49763
 241.28598 239.08733 236.90468 234.74103 232.59838 230.46273 228.48608 226.64043
 224.92078 223.39013 222.01748 220.78683 219.66618 218.62353 217.72488 216.86323
 216.10258 215.27993 214.37528 213.73663 213.18398 213.44182 214.05098 214.35339
 214.18491 214.55513 215.71994 217.32747 219.34119 222.31024 227.48837 232.12233
 236.10771 240.41588 244.51942 248.06006 250.82309 253.30748 255.78334 258.38593
 261.23102 264.18948 267.07523 269.71201 272.03604 274.03571 275.67520 277.24268
 278.89941 280.57779 282.12341 283.49228 284.67712 285.72836 286.69159 287.57037
 288.36780 289.08307 289.71494 290.55112
 366.78100 356.33415 345.76531 334.63046 323.03261 311.22576 299.09492 286.89707
 274.60822 262.50438 250.51253 239.81268 229.93383 221.03699 213.21814 206.21929
 200.05245 194.98960 191.57075 189.61190 188.64806 188.71121 189.54536 190.85252
 192.57667 194.67082 196.93297 199.29113 201.73528 204.21443 206.30159 208.14274
 209.76789 210.91205 211.14020 211.36735 211.30350 211.00766 210.63981 210.26896
 209.88512 209.59427 209.40142 209.26457 209.19173 209.52188 209.90703 210.29519
 211.08734 212.26449 213.51364 215.29580 217.22295 219.26510 221.35926 223.44141
 225.50056 227.58371 229.67987 231.78502 233.91317 236.08433 238.33948 240.70863
 243.32878 245.57894 247.58009 249.34424 250.76040 251.88255 252.70370 253.01885
 253.05501 252.82816 252.18731 251.13447 249.73962 247.89977 245.80792 243.64008
 241.43023 239.23338 237.05254 234.89069 232.74984 230.61600 228.64115 226.79730
 225.07945 223.55061 222.17976 220.95091 219.83207 218.79122 217.89437 217.03452
 216.27568 215.45483 214.55198 213.91514 213.36429 213.56662 214.04466 214.39227
 214.34946 214.66029 215.79637 217.37967 219.37251 222.30794 227.45992 232.11067
 236.10977 240.40407 244.43503 247.87138 250.56570 253.04893 255.57449 258.23795
 261.14249 264.13525 267.02710 269.66754 271.99493 273.99606 275.64563 277.21869
 278.86496 280.52209 282.06772 283.43466 284.61972 285.67059 286.63464 287.51398
 288.31076 289.02811 289.65503 290.49020
 366.78100 356.33647 345.76994 334.63741 323.04187 311.23734 299.10881 286.91328
 274.62675 262.52522 250.53569 239.83815 229.96162 221.06709 213.25056 206.25403
 200.08950 195.02897 191.61243 189.65590 188.69437 188.75984 189.59631 190.90578
 192.63225 194.72871 196.99318 199.35365 201.80012 204.28159 206.37106 208.21453
 209.84199 210.98846 211.21893 211.44840 211.38687 211.09334 210.72781 210.35927
 209.97774 209.68921 209.49868 209.36415 209.29362 209.62609 210.01355 210.40402
 211.19849 212.37796 213.62943 215.41390 217.34336 219.38783 221.48430 223.56877
 225.63024 227.71571 229.81418 231.92164 234.05211 236.22558 238.48305 240.85452
 243.47699 245.72946 247.73292 249.49939 250.91786 252.04233 252.86580 253.18327
 253.22174 252.99720 252.35867 251.30814 249.91561 248.07808 245.98855 243.82302
 241.61548 239.42095 237.24242 235.08289 232.94436 230.81283 228.84030 226.99876
 225.28323 223.75670 222.38817 221.16164 220.04511 219.00658 218.11204 217.25451
 216.49798 215.67945 214.77892 214.14439 213.59586 213.71729 214.00417 214.45422
 214.50510 214.77065 215.89259 217.44217 219.37924 222.30208 227.42813 232.09969
 236.11360 240.38660 244.33749 247.66588 250.29971 252.78949 255.36943 258.10034
 261.06378 264.08643 266.98019 269.62146 271.95514 273.96280 275.62341 277.19775
 278.82687 280.46045 282.00293 283.37042 284.55533 285.60699 286.56894 287.44849
 288.24576 288.96158 289.59094 290.42975
 366.78100 356.33883 345.77467 334.64450 323.05133 311.24917 299.12300 286.92983
 274.64567 262.54650 250.55934 239.86417 229.99000 221.09784 213.28367 206.28950
 200.12734 195.06917 191.65500 189.70084 188.74167 188.80950 189.64834 190.96017
 192.68900 194.78784 197.05467 199.41750 201.86634 204.35017 206.44201 208.28784
 209.91767 211.06651 211.29934 211.53117 211.47201 211.18084 210.81767 210.45151
 210.07234 209.78617 209.59801 209.46584 209.39767 209.73251 210.12234 210.51518
 211.31201 212.49384 213.74768 215.53451 217.46634 219.51318 221.61201 223.69884
 225.76268 227.85051 229.95134 232.06118 234.19401 236.36984 238.62968 241.00351
 243.62835 245.88318 247.88901 249.65785 251.07868 252.20551 253.03135 253.35118
 253.39201 253.16985 252.53368 251.48551 250.09535 248.26018 246.17301 244.00985
 241.80468 239.61251 237.43635 235.27918 233.14302 231.01385 229.04368 227.20452
 225.49135 223.96718 222.60102 221.37685 220.26268 219.22652 218.33435 217.47918
 216.72502 215.90885 215.01068 214.37852 213.83235 213.87169 213.96465 214.48061
 214.71808 214.87715 215.97125 217.48936 219.38364 222.29799 227.41751 232.10251
 236.11832 240.36276 244.22511 247.44226 250.02254 252.52541 255.16457 257.96872
 260.99179 264.04184 266.93271 269.57208 271.91483 273.93607 275.61105 277.18298
 278.78839 280.39337 281.93320 283.30182 284.48627 285.53790 286.50189 287.37982
 288.17883 288.89389 289.52115 290.35864
 366.78100 356.34038 345.77776 334.64914 323.05752 311.25691 299.13229 286.94067
 274.65805 262.56043 250.57481 239.88119 230.00857 221.11795 213.30533 206.31272
 200.15210 195.09548 191.68286 189.73024 188.77262 188.84200 189.68238 190.99576
 192.72615 194.82653 197.09491 199.45929 201.90967 204.39505 206.48843 208.33581
 209.96719 211.11758 211.35196 211.58534 211.52772 211.23810 210.87648 210.51186
 210.13424 209.84962 209.66300 209.53239 209.46577 209.80215 210.19353 210.58791
 211.38629 212.56967 213.82505 215.61343 217.54682 219.59520 221.69558 223.78396
 225.84934 227.93872 230.04110 232.15248 234.28686 236.46424 238.72563 241.10101
 243.72739 245.98377 247.99115 249.76153 251.18391 252.31229 253.13967 253.46106
 253.50344 253.28282 252.64820 251.60158 250.21296 248.37934 246.29372 244.13210
 241.92849 239.73787 237.56325 235.40763 233.27301 231.14539 229.17677 227.33915
 225.62753 224.10491 222.74030 221.51768 220.40506 219.37044 218.47982 217.62620
 216.87358 216.05896 215.16234 214.53173 213.98711 213.98676 213.98593 214.45319
 214.87355 215.02013 216.04765 217.60390 219.43079 222.31367 227.39059 232.09142
 236.11572 240.32614 244.09380 247.19865 249.73465 252.25888 254.96297 257.84625
 260.93036 264.00397 266.88986 269.52579 271.87683 273.91678 275.61255 277.18277
 278.75809 280.32349 281.85941 283.22681 284.41260 285.46344 286.42670 287.30612
 288.10498 288.82193 289.45203 290.28625
 366.78100 356.34215 345.78130 334.65445 323.06460 311.26574 299.14289 286.95304
 274.67219 262.57634 250.59249 239.90064 230.02979 221.14094 213.33009 206.33923
 200.18038 195.12553 191.71468 189.76383 188.80798 188.87913 189.72128 191.03643
 192.76857 194.87072 197.14087 199.50702 201.95917 204.44632 206.54147 208.39062
 210.02377 211.17592 211.41206 211.64721 211.59136 211.30351 210.94366 210.58081
 210.20496 209.92211 209.73726 209.60840 209.54355 209.88170 210.27485 210.67100
 211.47115 212.65630 213.91345 215.70360 217.63875 219.68889 221.79104 223.88119
 225.94834 228.03949 230.14364 232.25679 234.39294 236.57209 238.83523 241.21238
 243.84053 246.09868 248.10783 249.87998 251.30413 252.43428 253.26343 253.58658
 253.63072 253.41187 252.77902 251.73417 250.34732 248.51547 246.43162 244.27177
 242.06992 239.88106 237.70821 235.55436 233.42151 231.29566 229.32881 227.49296
 225.78311 224.26226 222.89941 221.67855 220.56770 219.53485 218.64600 217.79415
 217.04330 216.23045 215.33560 214.70675 214.16389 214.11214 213.98988 214.45862
 215.00310 215.15428 216.09276 217.68491 219.48979 222.34358 227.37137 232.09024
 236.11896 240.28911 243.95744 246.95183 249.45064 252.00053 254.77084 257.73587
 260.87961 263.97385 266.85040 269.48062 271.83960 273.89865 275.61713 277.19131
 278.73361 280.25223 281.78192 283.14905 284.33344 285.38339 286.34824 287.22388
 288.01904 288.73276 289.36066 290.19327
 366.78100 356.34386 345.78473 334.65959 323.07145 311.27432 299.15318 286.96505
 274.68591 262.59177 250.60964 239.91950 230.05036 221.16323 213.35409 206.36496
 200.20782 195.15468 191.74555 189.79641 188.84227 188.91514 189.75900 191.07587
 192.80973 194.91359 197.18546 199.55332 202.00718 204.49605 206.59291 208.44378
 210.07864 211.23250 211.47037 211.70723 211.65309 211.36696 211.00882 210.64769
 210.27355 209.99241 209.80928 209.68214 209.61900 209.95887 210.35373 210.75160
 211.55346 212.74032 213.99919 215.79105 217.72791 219.77978 221.88364 223.97551
 226.04437 228.13723 230.24310 232.35796 234.49582 236.67669 238.94155 241.32041
 243.95028 246.21014 248.22101 249.99487 251.42073 252.55260 253.38346 253.70832
 253.75419 253.53705 252.90592 251.86278 250.47764 248.64751 246.56537 244.40723
 242.20710 240.01996 237.84883 235.69669 233.56555 231.44142 229.47628 227.64214
 225.93401 224.41487 223.05374 221.83460 220.72546 219.69433 218.80719 217.95705
 217.20792 216.39678 215.50365 214.87651 214.33537 214.23372 213.99356 214.47035
 215.13396 215.27309 216.12584 217.74113 219.54750 222.39435 227.37209 232.10373
 236.12602 240.24857 243.81557 246.70241 249.17140 251.74951 254.58508 257.63272
 260.83337 263.94424 266.80927 269.43134 271.79709 273.87711 275.61948 277.20163
 278.71198 280.18451 281.70886 283.07550 284.26001 285.31018 286.27368 287.15103
 287.94431 288.65997 289.28482 290.11938
 366.78100 356.34521 345.78742 334.66363 323.07684 311.28104 299.16125 286.97446
 274.69667 262.60388 250.62309 239.93430 230.06651 221.18072 213.37293 206.38513
 200.22934 195.17755 191.76976 189.82197 188.86918 188.94339 189.78860 191.10681
 192.84201 194.94722 197.22043 199.58964 202.04485 204.53506 206.63327 208.48548
 210.12169 211.27690 211.51610 211.75431 211.70152 211.41673 211.05994 210.70015
 210.32736 210.04757 209.86578 209.73998 209.67819 210.01940 210.41561 210.81482
 211.61803 212.80624 214.06645 215.85966 217.79787 219.85107 221.95628 224.04949
 226.11970 228.21391 230.32112 232.43733 234.57654 236.75875 239.02495 241.40516
 244.03637 246.29758 248.30979 250.08500 251.51221 252.64542 253.47763 253.80384
 253.85104 253.63525 253.00546 251.96367 250.57988 248.75109 246.67030 244.51351
 242.31472 240.12892 237.95913 235.80834 233.67855 231.55576 229.59197 227.75918
 226.05239 224.53460 223.17480 221.95701 220.84922 219.81943 218.93364 218.08485
 217.33706 216.52727 215.63548 215.00969 214.46989 214.33527 214.01720 214.47098
 215.26164 215.37460 216.16809 217.80415 219.59724 222.45337 227.38200 232.12114
 236.12953 240.19971 243.66638 246.45200 248.89851 251.50526 254.40440 257.53281
 260.78818 263.91171 266.76413 269.37863 271.75372 273.85760 275.62906 277.22351
 278.70782 280.12326 281.63528 283.00223 284.18567 285.23581 286.19800 287.07443
 287.86816 288.58182 289.20932 290.03912
 366.78100 356.34630 345.78961 334.66691 323.08121 311.28652 299.16782 286.98212
 274.70543 262.61373 250.63403 239.94633 230.07964 221.19494 213.38824 206.40155
 200.24685 195.19615 191.78946 189.84276 188.89106 188.96637 189.81267 191.13197
 192.86828 194.97458 197.24888 199.61919 202.07549 204.56679 206.66609 208.51940
 210.15670 211.31300 211.55331 211.79261 211.74091 211.45722 211.10152 210.74282
 210.37113 210.09243 209.91173 209.78704 209.72634 210.06864 210.46594 210.86625
 211.67055 212.85985 214.12116 215.91546 217.85476 219.90907 222.01537 224.10967
 226.18098 228.27628 230.38458 232.50189 234.64219 236.82549 239.09280 241.47410
 244.10640 246.36870 248.38201 250.15831 251.58661 252.72092 253.55422 253.88152
 253.92983 253.71513 253.08643 252.04574 250.66304 248.83534 246.75565 244.59995
 242.40225 240.21756 238.04886 235.89916 233.77046 231.64877 229.68607 227.85437
 226.14868 224.63198 223.27328 222.05659 220.94989 219.92119 219.03650 218.18880
 217.44210 216.63341 215.74271 215.11801 214.57932 214.42245 214.05183 214.47404
 215.37346 215.47119 216.22214 217.87105 219.63466 222.50816 227.39474 232.13838
 236.12909 240.14609 243.51620 246.20544 248.63297 251.26689 254.22736 257.43484
 260.74182 263.87570 266.71576 269.32510 271.71170 273.84079 275.64062 277.24957
 278.71381 280.08417 281.56900 282.93369 284.11697 285.16678 286.12878 287.00549
 287.79880 288.51080 289.14212 289.96887
 366.78100 356.34729 345.79157 334.66986 323.08515 311.29144 299.17372 286.98901
 274.71330 262.62259 250.64387 239.95716 230.09145 221.20774 213.40202 206.41631
 200.26260 195.21289 191.80717 189.86146 188.91075 188.98704 189.83432 191.15461
 192.89190 194.99919 197.27447 199.64576 202.10305 204.59534 206.69562 208.54991
 210.18820 211.34549 211.58677 211.82706 211.77635 211.49364 211.13892 210.78121
 210.41050 210.13279 209.95307 209.82936 209.76965 210.11294 210.51122 210.91251
 211.71780 212.90809 214.17037 215.96566 217.90595 219.96124 222.06852 224.16381
 226.23610 228.33239 230.44167 232.55996 234.70125 236.88554 239.15382 241.53611
 244.16940 246.43269 248.44697 250.22426 251.65355 252.78884 253.62312 253.95141
 254.00070 253.78699 253.15927 252.11956 250.73785 248.91114 246.83242 244.67771
 242.48100 240.29729 238.12957 235.98086 233.85315 231.73244 229.77072 227.94001
 226.23530 224.71959 223.36187 222.14616 221.04045 220.01274 219.12902 218.28231
 217.53660 216.72889 215.83917 215.21546 214.67775 214.50223 214.08752 214.49194
 215.46277 215.57593 216.27814 217.91902 219.65811 222.55919 227.41486 232.15862
 236.12875 240.09354 243.36838 245.96210 248.37354 251.03430 254.05508 257.34180
 260.69617 263.83875 266.66815 269.27341 271.67194 273.82483 275.65018 277.27042
 278.71600 280.06372 281.51581 282.87656 284.05951 285.11072 286.07248 286.94742
 287.74255 288.45535 289.08426 289.91605
 366.78100 356.34812 345.79324 334.67236 323.08848 311.29560 299.17872 286.99483
 274.71995 262.63007 250.65219 239.96631 230.10143 221.21855 213.41367 206.42879
 200.27591 195.22703 191.82215 189.87727 188.92739 189.00450 189.85262 191.17374
 192.91186 195.01998 197.29610 199.66822 202.12634 204.61946 206.72058 208.57570
 210.21482 211.37294 211.61505 211.85617 211.80629 211.52441 211.17053 210.81365
 210.44377 210.16689 209.98801 209.86513 209.80625 210.15037 210.54949 210.95160
 211.75772 212.94884 214.21196 216.00808 217.94920 220.00532 222.11344 224.20956
 226.28268 228.37980 230.48992 232.60904 234.75116 236.93627 239.20539 241.58851
 244.22263 246.48675 248.50187 250.27999 251.71011 252.84623 253.68135 254.01047
 254.06059 253.84771 253.22082 252.18194 250.80106 248.97518 246.89730 244.74342
 242.54754 240.36466 238.19778 236.04990 233.92302 231.80314 229.84226 228.01238
 226.30849 224.79361 223.43673 222.22185 221.11697 220.09009 219.20721 218.36133
 217.61645 216.80957 215.92069 215.29781 214.76093 214.57237 214.12689 214.52414
 215.53398 215.68605 216.32965 217.94289 219.67747 222.61096 227.44662 232.18323
 236.12956 240.03816 243.21754 245.71962 248.12016 250.81070 253.89107 257.25275
 260.64868 263.79727 266.61719 269.22052 271.63293 273.81046 275.66293 277.29858
 278.73346 280.07251 281.46472 282.81955 284.00424 285.05557 286.01740 286.89401
 287.68832 288.40048 289.03290 289.85577
 366.78100 356.34874 345.79449 334.67423 323.09097 311.29872 299.18246 286.99920
 274.72495 262.63569 250.65843 239.97318 230.10892 221.22666 213.42240 206.43815
 200.28589 195.23763 191.83338 189.88912 188.93986 189.01761 189.86635 191.18809
 192.92684 195.03558 197.31232 199.68507 202.14381 204.63755 206.73930 208.59504
 210.23478 211.39353 211.63627 211.87801 211.82875 211.54750 211.19424 210.83798
 210.46873 210.19247 210.01421 209.89196 209.83370 210.17844 210.57819 210.98093
 211.78767 212.97942 214.24316 216.03990 217.98165 220.03839 222.14713 224.24388
 226.31762 228.41536 230.52610 232.64585 234.78859 236.97433 239.24408 241.62782
 244.26256 246.52731 248.54305 250.32179 251.75254 252.88928 253.72502 254.05477
 254.10551 253.89325 253.26700 252.22874 250.84848 249.02323 246.94597 244.79271
 242.59745 240.41520 238.24894 236.10168 233.97543 231.85617 229.89591 228.06666
 226.36340 224.84914 223.49289 222.27863 221.17437 220.14812 219.26586 218.42060
 217.67635 216.87009 215.98183 215.35958 214.82332 214.62991 214.17297 214.56419
 215.59346 215.78641 216.38396 217.96437 219.70331 222.66614 227.48656 232.20827
 236.12807 239.97186 243.05536 245.47517 247.87317 250.59760 253.73682 257.16656
 260.59756 263.74860 266.55972 269.16428 271.59317 273.79559 275.67480 277.32596
 278.75183 280.07794 281.43268 282.78549 283.97086 285.02237 285.98541 286.86276
 287.65756 288.37122 289.00046 289.82617
 366.78100 356.34913 345.79527 334.67540 323.09253 311.30066 299.18480 287.00193
 274.72806 262.63920 250.66233 239.97746 230.11359 221.23173 213.42786 206.44399
 200.29213 195.24426 191.84039 189.89652 188.94766 189.02579 189.87492 191.19706
 192.93619 195.04532 197.32246 199.69559 202.15472 204.64885 206.75099 208.60712
 210.24725 211.40639 211.64952 211.89165 211.84278 211.56192 211.20905 210.85318
 210.48432 210.20845 210.03058 209.90871 209.85085 210.19598 210.59611 210.99925
 211.80638 212.99851 214.26264 216.05978 218.00191 220.05904 222.16818 224.26531
 226.33944 228.43757 230.54871 232.66884 234.81197 236.99811 239.26824 241.65237
 244.28751 246.55264 248.56877 250.34790 251.77904 252.91617 253.75230 254.08244
 254.13357 253.92170 253.29583 252.25797 250.87810 249.05323 246.97637 244.82350
 242.62863 240.44676 238.28090 236.13403 234.00816 231.88930 229.92943 228.10056
 226.39769 224.88383 223.52796 222.31409 221.21023 220.18436 219.30249 218.45762
 217.71376 216.90789 216.02002 215.39816 214.86229 214.67352 214.22755 214.60716
 215.64339 215.87691 216.44904 218.00143 219.74509 222.72064 227.52434 232.22664
 236.11792 239.88766 242.87730 245.22641 247.63046 250.39395 253.59038 257.08231
 260.54175 263.69229 266.49942 269.11172 271.55875 273.78561 275.69040 277.35535
 278.77078 280.08212 281.41711 282.76880 283.95401 285.00739 285.97208 286.85266
 287.65073 288.37183 289.00272 289.82874
 366.78100 356.34931 345.79563 334.67594 323.09325 311.30156 299.18588 287.00319
 274.72950 262.64082 250.66413 239.97944 230.11576 221.23407 213.43038 206.44669
 200.29501 195.24732 191.84363 189.89995 188.95126 189.02957 189.87888 191.20120
 192.94051 195.04982 197.32714 199.70045 202.15976 204.65408 206.75639 208.61270
 210.25301 211.41233 211.65564 211.89795 211.84927 211.56858 211.21589 210.86020
 210.49152 210.21583 210.03814 209.91646 209.85877 210.20408 210.60440 211.00771
 211.81502 213.00733 214.27165 216.06896 218.01127 220.06859 222.17790 224.27521
 226.34953 228.44784 230.55915 232.67946 234.82278 237.00909 239.27940 241.66372
 244.29903 246.56434 248.58065 250.35997 251.79128 252.92859 253.76491 254.09522
 254.14653 253.93485 253.30916 252.27147 250.89178 249.06710 246.99041 244.83772
 242.64304 240.46135 238.29566 236.14897 234.02329 231.90460 229.94491 228.11623
 226.41354 224.89985 223.54417 222.33048 221.22679 220.20110 219.31942 218.47473
 217.73104 216.92536 216.03767 215.41598 214.88029 214.70403 214.28757 214.65321
 215.68909 215.95821 216.53394 218.05344 219.79219 222.77133 227.55901 232.23816
 236.09795 239.78574 242.68330 244.97084 247.38899 250.19711 253.45117 257.00098
 260.48318 263.63412 266.44193 269.06473 271.53128 273.78320 275.71539 277.39661
 278.80588 280.10178 281.40555 282.75391 283.94040 284.99286 285.95767 286.83521
 287.63553 288.35251 288.98685 289.81155
 366.78100 356.34924 345.79548 334.67572 323.09296 311.30120 299.18543 287.00267
 274.72891 262.64015 250.66339 239.97863 230.11487 221.23311 213.42935 206.44559
 200.29383 195.24606 191.84230 189.89854 188.94978 189.02802 189.87726 191.19950
 192.93874 195.04798 197.32522 199.69846 202.15769 204.65193 206.75417 208.61041
 210.25065 211.40989 211.65313 211.89537 211.84661 211.56585 211.21309 210.85732
 210.48856 210.21280 210.03504 209.91328 209.85552 210.20076 210.60100 211.00424
 211.81148 213.00372 214.26795 216.06519 218.00743 220.06467 222.17391 224.27115
 226.34539 228.44363 230.55487 232.67511 234.81835 237.00458 239.27482 241.65906
 244.29430 246.55954 248.57578 250.35502 251.78626 252.92350 253.75974 254.08998
 254.14121 253.92945 253.30369 252.26593 250.88617 249.06141 246.98465 244.83189
 242.63713 240.45537 238.28961 236.14284 234.01708 231.89832 229.93856 228.10980
 226.40704 224.89328 223.53752 222.32376 221.22000 220.19424 219.31247 218.46771
 217.72395 216.91819 216.03043 215.40867 214.87291 214.71956 214.35725 214.69762
 215.73820 216.04716 216.61647 218.10722 219.85358 222.81938 227.59004 232.24147
 236.06477 239.66676 242.47375 244.71011 247.15230 250.01123 253.32378 256.92535
 260.42560 263.57645 266.38718 269.02054 271.50522 273.78214 275.74286 277.44189
 278.84628 280.12936 281.40170 282.74866 283.93488 284.98776 285.95117 286.82986
 287.62897 288.34552 288.97849 289.80231
 366.78100 356.34912 345.79525 334.67537 323.09249 311.30061 299.18474 287.00186
 274.72798 262.63911 250.66223 239.97735 230.11348 221.23160 213.42772 206.44384
 200.29197 195.24409 191.84021 189.89634 188.94746 189.02558 189.87471 191.19683
 192.93595 195.04507 197.32220 199.69532 202.15444 204.64857 206.75069 208.60681
 210.24694 211.40606 211.64918 211.89130 211.84243 211.56155 211.20867 210.85280
 210.48392 210.20804 210.03016 209.90829 209.85041 210.19553 210.59566 210.99878
 211.80590 212.99803 214.26215 216.05927 218.00139 220.05852 222.16764 224.26476
 226.33889 228.43701 230.54813 232.66826 234.81138 236.99750 239.26762 241.65175
 244.28687 246.55199 248.56812 250.34724 251.77836 252.91549 253.75161 254.08173
 254.13285 253.92098 253.29510 252.25722 250.87735 249.05247 246.97559 244.82272
 242.62784 240.44596 238.28008 236.13321 234.00733 231.88845 229.92858 228.09970
 226.39682 224.88294 223.52707 222.31319 221.20931 220.18344 219.30156 218.45668
 217.71281 216.90693 216.01905 215.39717 214.86130 214.73045 214.42131 214.75684
 215.77568 216.13911 216.73030 218.16031 219.89767 222.85573 227.61600 232.23798
 236.02119 239.53642 242.25766 244.45447 246.92931 249.84261 253.21123 256.85596
 260.36728 263.51416 266.32620 268.97165 271.47638 273.78131 275.77139 277.49060
 278.89249 280.16214 281.40933 282.75208 283.93903 284.99261 285.95538 286.83414
 287.63132 288.35031 288.97998 289.80496
 366.78100 356.34876 345.79453 334.67429 323.09106 311.29882 299.18258 286.99935
 274.72511 262.63588 250.65864 239.97340 230.10917 221.22693 213.42270 206.43846
 200.28622 195.23799 191.83375 189.88951 188.94028 189.01804 189.86681 191.18857
 192.92733 195.03610 197.31286 199.68563 202.14439 204.63815 206.73992 208.59568
 210.23545 211.39421 211.63697 211.87874 211.82950 211.54827 211.19503 210.83879
 210.46956 210.19332 210.01509 209.89285 209.83461 210.17938 210.57914 210.98191
 211.78867 212.98043 214.24420 216.04096 217.98272 220.03949 222.14825 224.24502
 226.31878 228.41654 230.52731 232.64707 234.78984 236.97560 239.24536 241.62913
 244.26389 246.52866 248.54442 250.32318 251.75395 252.89071 253.72648 254.05624
 254.10700 253.89477 253.26853 252.23030 250.85006 249.02482 246.94759 244.79435
 242.59911 240.41688 238.25064 236.10341 233.97717 231.85793 229.89770 228.06846
 226.36523 224.85099 223.49475 222.28052 221.17628 220.15005 219.26781 218.42257
 217.67834 216.87210 215.98387 215.36163 214.82539 214.72676 214.49370 214.80304
 215.83447 216.23643 216.81465 218.21613 219.96257 222.89627 227.64359 232.23151
 235.96901 239.39621 242.03264 244.19810 246.71288 249.68378 253.10612 256.78772
 260.30325 263.44302 266.25891 268.91922 271.44818 273.78354 275.80582 277.54749
 278.94901 280.20383 281.42392 282.76407 283.95035 285.00314 285.96600 286.84387
 287.64133 288.35916 288.98895 289.81085
 366.78100 356.34816 345.79332 334.67248 323.08864 311.29580 299.17896 286.99512
 274.72028 262.63044 250.65260 239.96676 230.10192 221.21908 213.41424 206.42940
 200.27656 195.22773 191.82289 189.87805 188.92821 189.00537 189.85353 191.17469
 192.91285 195.02101 197.29717 199.66933 202.12749 204.62065 206.72181 208.57697
 210.21613 211.37429 211.61645 211.85761 211.80777 211.52593 211.17209 210.81525
 210.44541 210.16857 209.98973 209.86689 209.80805 210.15221 210.55137 210.95353
 211.75969 212.95085 214.21401 216.01018 217.95134 220.00750 222.11566 224.21182
 226.28498 228.38214 230.49230 232.61146 234.75362 236.93878 239.20794 241.59110
 244.22526 246.48942 248.50458 250.28274 251.71290 252.84906 253.68422 254.01338
 254.06354 253.85070 253.22386 252.18502 250.80418 248.97834 246.90050 244.74666
 242.55082 240.36798 238.20114 236.05330 233.92647 231.80663 229.84579 228.01595
 226.31211 224.79727 223.44043 222.22559 221.12075 220.09391 219.21107 218.36523
 217.62039 216.81355 215.92471 215.30187 214.76503 214.70877 214.57587 214.84796
 215.84512 216.37125 216.97256 218.27167 220.00381 222.93178 227.66458 232.21605
 235.90343 239.23805 241.79074 243.93649 246.50174 249.53484 253.00932 256.72238
 260.23746 263.37006 266.19357 268.87204 271.42621 273.78891 275.84225 277.60431
 279.00644 280.24872 281.44238 282.77939 283.96609 285.02008 285.98260 286.85806
 287.65546 288.37363 289.00122 289.81888
 366.78100 356.34780 345.79260 334.67140 323.08720 311.29400 299.17680 286.99260
 274.71740 262.62720 250.64900 239.96281 230.09761 221.21441 213.40921 206.42401
 200.27081 195.22161 191.81641 189.87121 188.92101 188.99781 189.84561 191.16641
 192.90421 195.01201 197.28781 199.65961 202.11741 204.61021 206.71101 208.56582
 210.20462 211.36242 211.60422 211.84502 211.79482 211.51262 211.15842 210.80122
 210.43102 210.15382 209.97462 209.85142 209.79222 210.13602 210.53482 210.93662
 211.74242 212.93322 214.19602 215.99183 217.93263 219.98843 222.09623 224.19203
 226.26483 228.36163 230.47143 232.59023 234.73203 236.91683 239.18563 241.56843
 244.20223 246.46603 248.48083 250.25863 251.68843 252.82423 253.65903 253.98784
 254.03764 253.82444 253.19724 252.15804 250.77684 248.95064 246.87244 244.71824
 242.52204 240.33884 238.17164 236.02344 233.89624 231.77604 229.81484 227.98464
 226.28044 224.76524 223.40804 222.19285 221.08765 220.06045 219.17725 218.33105
 217.58585 216.77865 215.88945 215.26625 214.72905 214.70058 214.63330 214.93553
 215.81247 216.45537 217.14410 218.39612 220.05858 222.94882 227.68092 232.19899
 235.83194 239.07161 241.54584 243.68262 246.30418 249.40108 252.92448 256.66327
 260.17462 263.30197 266.13510 268.83102 271.40567 273.79483 275.87482 277.65558
 279.05597 280.28918 281.46402 282.79779 283.98596 285.03732 285.99982 286.87555
 287.67169 288.38675 289.01657 289.83240
 366.78100 356.34772 345.79244 334.67116 323.08688 311.29359 299.17631 286.99203
 274.71675 262.62647 250.64819 239.96191 230.09663 221.21335 213.40806 206.42278
 200.26950 195.22022 191.81494 189.86966 188.91938 188.99610 189.84381 191.16453
 192.90225 195.00997 197.28569 199.65741 202.11513 204.60785 206.70857 208.56328
 210.20200 211.35972 211.60144 211.84216 211.79188 211.50960 211.15532 210.79804
 210.42775 210.15047 209.97119 209.84791 209.78863 210.13235 210.53107 210.93279
 211.73851 212.92922 214.19194 215.98766 217.92838 219.98410 222.09182 224.18754
 226.26026 228.35698 230.46669 232.58541 234.72713 236.91185 239.18057 241.56329
 244.19701 246.46073 248.47544 250.25316 251.68288 252.81860 253.65332 253.98204
 254.03176 253.81848 253.19120 252.15191 250.77063 248.94435 246.86607 244.71179
 242.51551 240.33223 238.16495 236.01667 233.88938 231.76910 229.80782 227.97754
 226.27326 224.75798 223.40070 222.18542 221.08014 220.05285 219.16957 218.32329
 217.57801 216.77073 215.88145 215.25817 214.72089 214.70438 214.66536 215.04834
 215.78613 216.52303 217.30721 218.52066 220.10573 222.96507 227.69989 232.18404
 235.75621 238.89696 241.29689 243.43495 246.11908 249.28003 252.84862 256.60812
 260.11267 263.23468 266.07748 268.78778 271.38260 273.79535 275.90112 277.69977
 279.10031 280.32553 281.48666 282.81903 284.00555 285.05814 286.01910 286.89352
 287.69000 288.40509 289.03140 289.84753
 366.78100 356.34745 345.79190 334.67035 323.08580 311.29225 299.17471 286.99016
 274.71461 262.62406 250.64551 239.95896 230.09341 221.20986 213.40431 206.41876
 200.26521 195.21567 191.81012 189.86457 188.91402 188.99047 189.83792 191.15837
 192.89582 195.00327 197.27872 199.65017 202.10763 204.60008 206.70053 208.55498
 210.19343 211.35088 211.59233 211.83278 211.78223 211.49968 211.14513 210.78759
 210.41704 210.13949 209.95994 209.83639 209.77684 210.12029 210.51874 210.92019
 211.72564 212.91609 214.17855 215.97400 217.91445 219.96990 222.07735 224.17280
 226.24525 228.34170 230.45115 232.56960 234.71106 236.89551 239.16396 241.54641
 244.17986 246.44331 248.45776 250.23521 251.66466 252.80011 253.63456 253.96302
 254.01247 253.79892 253.17137 252.13182 250.75027 248.92372 246.84517 244.69062
 242.49407 240.31052 238.14298 235.99443 233.86688 231.74633 229.78478 227.95423
 226.24968 224.73413 223.37658 222.16103 221.05548 220.02794 219.14439 218.29784
 217.55229 216.74474 215.85519 215.23164 214.69409 214.69754 214.70572 215.14920
 215.77928 216.59624 217.46063 218.63284 220.15598 222.99358 227.72482 232.17180
 235.67424 238.71547 241.05034 243.20018 245.94685 249.17088 252.78026 256.55405
 260.04883 263.16336 266.01233 268.73642 271.35178 273.78763 275.91766 277.73407
 279.13687 280.35721 281.50970 282.84076 284.02667 285.07916 286.04141 286.91611
 287.70895 288.42496 289.05148 289.86383
 366.78100 356.34684 345.79067 334.66851 323.08334 311.28918 299.17101 286.98585
 274.70968 262.61852 250.63935 239.95219 230.08602 221.20186 213.39569 206.40953
 200.25536 195.20520 191.79903 189.85287 188.90170 188.97754 189.82437 191.14421
 192.88105 194.98788 197.26272 199.63355 202.09039 204.58222 206.68206 208.53589
 210.17373 211.33056 211.57140 211.81123 211.76007 211.47690 211.12174 210.76357
 210.39241 210.11424 209.93408 209.80991 209.74975 210.09259 210.49042 210.89126
 211.69609 212.88593 214.14776 215.94260 217.88243 219.93727 222.04410 224.13894
 226.21077 228.30661 230.41544 232.53328 234.67411 236.85795 239.12578 241.50762
 244.14045 246.40329 248.41712 250.19396 251.62280 252.75763 253.59147 253.91930
 253.96814 253.75397 253.12581 252.08564 250.70348 248.87631 246.79715 244.64198
 242.44482 240.26065 238.09249 235.94332 233.81516 231.69399 229.73183 227.90066
 226.19550 224.67934 223.32117 222.10501 220.99884 219.97068 219.08651 218.23935
 217.49318 216.68502 215.79485 215.17069 214.63252 214.67226 214.76611 215.23154
 215.79558 216.66585 217.59723 218.72276 220.19653 223.02165 227.74313 232.15276
 235.58821 238.53294 240.81128 242.97501 245.79277 249.07526 252.72012 256.50629
 259.98938 263.09512 265.94626 268.68234 271.31714 273.77673 275.92783 277.75723
 279.15121 280.36240 281.50867 282.85733 284.04446 285.09753 286.05545 286.93143
 287.72485 288.44046 289.06744 289.87720
 366.78100 356.34617 345.78934 334.66651 323.08068 311.28585 299.16703 286.98120
 274.70437 262.61254 250.63271 239.94488 230.07805 221.19322 213.38639 206.39956
 200.24473 195.19390 191.78708 189.84025 188.88842 188.96359 189.80976 191.12893
 192.86510 194.97127 197.24544 199.61561 202.07178 204.56295 206.66213 208.51530
 210.15247 211.30864 211.54881 211.78798 211.73615 211.45232 211.09649 210.73766
 210.36583 210.08701 209.90618 209.78135 209.72052 210.06269 210.45986 210.86003
 211.66420 212.85337 214.11454 215.90871 217.84788 219.90206 222.00823 224.10240
 226.17357 228.26874 230.37691 232.49408 234.63425 236.81742 239.08459 241.46576
 244.09793 246.36011 248.37328 250.14945 251.57762 252.71179 253.54496 253.87213
 253.92030 253.70547 253.07664 252.03581 250.65299 248.82516 246.74533 244.58950
 242.39167 240.20684 238.03801 235.88818 233.75935 231.63752 229.67469 227.84286
 226.13704 224.62021 223.26138 222.04455 220.93772 219.90889 219.02406 218.17623
 217.42940 216.62057 215.72974 215.10491 214.56609 214.64641 214.83615 215.28755
 215.81622 216.70377 217.70006 218.77460 220.19348 223.00713 227.72476 232.12729
 235.49590 238.34662 240.57277 242.75108 245.64517 248.98738 252.66591 256.47299
 259.95380 263.05588 265.91190 268.65579 271.29932 273.76721 275.93756 277.75198
 279.15259 280.34308 281.54831 282.88550 284.07501 285.13065 286.09378 286.97153
 287.77161 288.49191 289.15494 289.99988
 366.78100 356.34563 345.78826 334.66489 323.07852 311.28315 299.16378 286.97741
 274.70004 262.60767 250.62730 239.93893 230.07156 221.18619 213.37881 206.39144
 200.23607 195.18470 191.77733 189.82996 188.87759 188.95222 189.79785 191.11648
 192.85211 194.95774 197.23137 199.60100 202.05663 204.54726 206.64589 208.49852
 210.13515 211.29078 211.53041 211.76904 211.71667 211.43230 211.07593 210.71656
 210.34419 210.06481 209.88344 209.75807 209.69670 210.03833 210.43496 210.83459
 211.63822 212.82685 214.08748 215.88111 217.81974 219.87337 221.97900 224.07263
 226.14326 228.23789 230.34552 232.46215 234.60178 236.78441 239.05104 241.43167
 244.06330 246.32493 248.33756 250.11319 251.54081 252.67444 253.50707 253.83370
 253.88133 253.66596 253.03659 251.99522 250.61185 248.78348 246.70311 244.54674
 242.34837 240.16300 237.99363 235.84326 233.71389 231.59152 229.62815 227.79578
 226.08941 224.57204 223.21267 221.99530 220.88793 219.85856 218.97319 218.12481
 217.37744 216.56807 215.67670 215.05133 214.51196 214.62497 214.89296 215.35103
 215.83041 216.72462 217.79912 218.83105 220.19672 222.99442 227.70369 232.10258
 235.41321 238.18352 240.36739 242.55836 245.52238 248.93350 252.64224 256.43927
 259.91394 263.02374 265.89395 268.64807 271.29742 273.77289 275.96530 277.77646
 279.18588 280.34808 281.58447 282.91138 284.10324 285.16171 286.12915 287.01096
 287.81415 288.56992 289.23779 290.08896
 366.78100 356.34521 345.78742 334.66363 323.07684 311.28106 299.16127 286.97448
 274.69669 262.60390 250.62311 239.93432 230.06653 221.18074 213.37296 206.38517
 200.22938 195.17759 191.76980 189.82201 188.86922 188.94343 189.78864 191.10685
 192.84207 194.94728 197.22049 199.58970 202.04491 204.53512 206.63333 208.48554
 210.12175 211.27697 211.51618 211.75439 211.70160 211.41681 211.06002 210.70023
 210.32744 210.04765 209.86587 209.74008 209.67829 210.01950 210.41571 210.81492
 211.61813 212.80634 214.06655 215.85977 217.79798 219.85119 221.95640 224.04961
 226.11982 228.21403 230.32124 232.43745 234.57666 236.75888 239.02509 241.40530
 244.03651 246.29772 248.30993 250.08514 251.51235 252.64556 253.47778 253.80399
 253.85120 253.63541 253.00562 251.96383 250.58004 248.75125 246.67046 244.51368
 242.31489 240.12910 237.95931 235.80852 233.67873 231.55594 229.59215 227.75936
 226.05258 224.53479 223.17500 221.95721 220.84942 219.81963 218.93384 218.08505
 217.33726 216.52747 215.63569 215.00990 214.47011 214.60501 214.92491 215.45206
 215.89400 216.78073 217.90849 218.90355 220.23283 223.01277 227.70741 232.06378
 235.30936 238.00586 240.16180 242.38628 245.40378 248.86525 252.59656 256.39523
 259.85931 262.96506 265.84274 268.61285 271.27966 273.77658 275.99362 277.82571
 279.24500 280.39963 281.61047 282.93286 284.12433 285.18228 286.14914 287.02786
 287.83029 288.59024 289.26099 290.11581
 366.78100 356.34515 345.78731 334.66346 323.07661 311.28076 299.16092 286.97407
 274.69622 262.60338 250.62253 239.93368 230.06583 221.17999 213.37214 206.38429
 200.22844 195.17660 191.76875 189.82090 188.86806 188.94221 189.78736 191.10551
 192.84067 194.94582 197.21897 199.58813 202.04328 204.53343 206.63158 208.48374
 210.11989 211.27504 211.51419 211.75235 211.69950 211.41465 211.05781 210.69796
 210.32511 210.04526 209.86342 209.73757 209.67572 210.01688 210.41303 210.81218
 211.61533 212.80349 214.06364 215.85679 217.79495 219.84810 221.95325 224.04640
 226.11656 228.21071 230.31786 232.43401 234.57317 236.75532 239.02147 241.40163
 244.03278 246.29393 248.30608 250.08124 251.50839 252.64154 253.47370 253.79985
 253.84700 253.63115 253.00131 251.95946 250.57561 248.74676 246.66592 244.50907
 242.31022 240.12438 237.95453 235.80368 233.67383 231.55099 229.58714 227.75429
 226.04745 224.52960 223.16975 221.95190 220.84406 219.81421 218.92836 218.07952
 217.33167 216.52182 215.62997 215.00413 214.46428 214.60092 214.92375 215.56044
 216.01389 216.88254 218.01669 218.97636 220.27304 223.03233 227.71272 232.00078
 235.17912 237.80063 239.93642 242.20979 245.27663 248.77745 252.53561 256.34018
 259.79181 262.89078 265.77652 268.56516 271.25266 273.77017 276.00787 277.86438
 279.29614 280.45038 281.64224 282.94977 284.14145 285.19983 286.16623 287.05048
 287.85489 288.60422 289.27591 290.13190
 366.78100 356.34550 345.78800 334.66449 323.07799 311.28249 299.16299 286.97649
 274.69899 262.60648 250.62598 239.93748 230.06998 221.18448 213.37698 206.38947
 200.23397 195.18247 191.77497 189.82747 188.87497 188.94946 189.79496 191.11346
 192.84896 194.95446 197.22795 199.59745 202.05295 204.54345 206.64195 208.49445
 210.13094 211.28644 211.52594 211.76444 211.71194 211.42744 211.07093 210.71143
 210.33893 210.05943 209.87793 209.75242 209.69092 210.03242 210.42892 210.82842
 211.63192 212.82041 214.08091 215.87441 217.81291 219.86641 221.97191 224.06540
 226.13590 228.23040 230.33790 232.45440 234.59390 236.77639 239.04289 241.42339
 244.05489 246.31639 248.32888 250.10438 251.53188 252.66538 253.49788 253.82438
 253.87187 253.65637 253.02687 251.98537 250.60187 248.77337 246.69286 244.53636
 242.33786 240.15236 237.98286 235.83235 233.70285 231.58035 229.61685 227.78435
 226.07785 224.56034 223.20084 221.98334 220.87584 219.84634 218.96084 218.11233
 217.36483 216.55533 215.66383 215.03833 214.49883 214.61758 214.89818 215.65610
 216.14685 217.00372 218.12169 219.04788 220.31107 223.04189 227.70866 231.92650
 235.04379 237.59517 239.71884 242.04442 245.16655 248.71310 252.48642 256.29486
 259.73581 262.83170 265.72516 268.53131 271.23578 273.77005 276.02832 277.90921
 279.35156 280.50848 281.66147 282.95123 284.14093 285.19907 286.16415 287.04474
 287.84814 288.58688 289.25760 290.11237
 366.78100 356.34589 345.78878 334.66567 323.07956 311.28445 299.16534 286.97923
 274.70212 262.61001 250.62990 239.94179 230.07468 221.18957 213.38246 206.39535
 200.24024 195.18913 191.78202 189.83491 188.88280 188.95769 189.80358 191.12247
 192.85835 194.96424 197.23813 199.60802 202.06391 204.55480 206.65369 208.50658
 210.14347 211.29936 211.53925 211.77814 211.72603 211.44192 211.08581 210.72670
 210.35459 210.07548 209.89437 209.76926 209.70815 210.05004 210.44693 210.84682
 211.65071 212.83960 214.10049 215.89438 217.83327 219.88716 221.99305 224.08694
 226.15783 228.25272 230.36061 232.47750 234.61739 236.80028 239.06717 241.44806
 244.07995 246.34184 248.35473 250.13062 251.55851 252.69240 253.52529 253.85218
 253.90006 253.68495 253.05584 252.01473 250.63162 248.80351 246.72340 244.56729
 242.36918 240.18407 238.01496 235.86485 233.73574 231.61363 229.65052 227.81841
 226.11230 224.59519 223.23608 222.01897 220.91186 219.88275 218.99764 218.14953
 217.40242 216.59331 215.70220 215.07709 214.53798 214.63698 214.87088 215.74429
 216.28381 217.13083 218.22926 219.12375 220.35048 223.05159 227.70309 231.84734
 234.90593 237.39563 239.51485 241.89607 245.07037 248.65926 252.45033 256.25113
 259.68341 262.77808 265.67972 268.50177 271.22443 273.77454 276.05411 277.96402
 279.41779 280.58807 281.69342 282.93945 284.12738 285.18445 286.14874 287.02942
 287.82828 288.55911 289.22626 290.07648
 366.78100 356.34620 345.78941 334.66661 323.08082 311.28602 299.16723 286.98143
 274.70464 262.61284 250.63305 239.94525 230.07845 221.19366 213.38686 206.40007
 200.24527 195.19448 191.78768 189.84089 188.88909 188.96430 189.81050 191.12971
 192.86591 194.97211 197.24632 199.61652 202.07273 204.56393 206.66314 208.51634
 210.15355 211.30975 211.54996 211.78916 211.73736 211.45357 211.09777 210.73898
 210.36718 210.08839 209.90759 209.78280 209.72200 210.06421 210.46141 210.86162
 211.66582 212.85502 214.11623 215.91043 217.84964 219.90384 222.01005 224.10425
 226.17546 228.27066 230.37887 232.49607 234.63627 236.81948 239.08668 241.46789
 244.10009 246.36230 248.37550 250.15171 251.57991 252.71412 253.54732 253.87453
 253.92273 253.70793 253.07914 252.03834 250.65555 248.82775 246.74796 244.59216
 242.39437 240.20957 238.04078 235.89098 233.76218 231.64039 229.67759 227.84580
 226.14000 224.62321 223.26441 222.04762 220.94082 219.91203 219.02723 218.17944
 217.43264 216.62384 215.73305 215.10825 214.56946 214.65218 214.84760 215.82701
 216.44272 217.27670 218.32848 219.19569 220.40332 223.07120 227.69287 231.75685
 234.75108 237.18701 239.31015 241.75285 244.97736 248.60654 252.41379 256.19626
 259.61844 262.71750 265.62747 268.46475 271.20615 273.77081 276.07010 278.00925
 279.45749 280.63202 281.68918 282.94528 284.13159 285.18594 286.15121 287.02850
 287.82816 288.55167 289.20486 290.05576
 366.78100 356.34661 345.79023 334.66784 323.08245 311.28807 299.16968 286.98430
 274.70791 262.61652 250.63714 239.94975 230.08336 221.19898 213.39259 206.40621
 200.25182 195.20143 191.79505 189.84866 188.89727 188.97289 189.81950 191.13911
 192.87573 194.98234 197.25696 199.62757 202.08418 204.57580 206.67541 208.52902
 210.16664 211.32325 211.56386 211.80348 211.75209 211.46871 211.11332 210.75493
 210.38355 210.10516 209.92477 209.80039 209.74000 210.08262 210.48023 210.88084
 211.68546 212.87507 214.13668 215.93130 217.87091 219.92552 222.03214 224.12675
 226.19837 228.29398 230.40259 232.52021 234.66082 236.84443 239.11205 241.49366
 244.12627 246.38889 248.40250 250.17912 251.60773 252.74234 253.57596 253.90357
 253.95218 253.73780 253.10941 252.06903 250.68664 248.85925 246.77987 244.62448
 242.42709 240.24271 238.07432 235.92493 233.79655 231.67516 229.71278 227.88139
 226.17600 224.65962 223.30123 222.08484 220.97846 219.95007 219.06568 218.21830
 217.47191 216.66353 215.77314 215.14875 214.61037 214.67188 214.81721 215.90331
 216.61140 217.42459 218.43727 219.26553 220.43701 223.07683 227.67180 231.66087
 234.59125 236.97983 239.11180 241.61758 244.89101 248.55762 252.37672 256.14020
 259.55179 262.65402 265.57678 268.43506 271.18842 273.76016 276.07443 278.03772
 279.47958 280.65527 281.62500 282.95691 284.13950 285.19247 286.15024 287.02670
 287.82062 288.53906 289.17307 289.98700
 366.78100 356.34713 345.79125 334.66938 323.08451 311.29063 299.17276 286.98789
 274.71202 262.62114 250.64227 239.95540 230.08952 221.20565 213.39978 206.41390
 200.26003 195.21016 191.80429 189.85841 188.90754 188.98367 189.83079 191.15092
 192.88805 194.99517 197.27030 199.64143 202.09856 204.59068 206.69081 208.54494
 210.18306 211.34019 211.58132 211.82144 211.77057 211.48770 211.13283 210.77495
 210.40408 210.12621 209.94633 209.82246 209.76259 210.10571 210.50384 210.90497
 211.71009 212.90022 214.16235 215.95748 217.89760 219.95273 222.05986 224.15498
 226.22711 228.32324 230.43236 232.55049 234.69162 236.87575 239.14387 241.52600
 244.15913 246.42225 248.43638 250.21351 251.64263 252.77776 253.61189 253.94002
 253.98914 253.77527 253.14740 252.10752 250.72565 248.89878 246.81990 244.66503
 242.46816 240.28428 238.11641 235.96754 233.83967 231.71879 229.75692 227.92605
 226.22117 224.70530 223.34743 222.13155 221.02568 219.99781 219.11394 218.26706
 217.52119 216.71332 215.82344 215.19957 214.66170 214.69759 214.78236 215.96968
 216.78317 217.55557 218.51292 219.32208 220.47995 223.09618 227.64771 231.56425
 234.43413 236.77556 238.92102 241.49129 244.81689 248.51666 252.34402 256.09018
 259.49002 262.59213 265.52325 268.39972 271.16687 273.74188 276.06778 278.04141
 279.47800 280.65106 281.63766 282.94196 284.12592 285.17825 286.13715 287.00980
 287.80627 288.52420 289.15256 289.96423
 366.78100 356.34739 345.79178 334.67017 323.08556 311.29195 299.17434 286.98973
 274.71413 262.62352 250.64491 239.95830 230.09269 221.20908 213.40347 206.41786
 200.26425 195.21464 191.80903 189.86342 188.91281 188.98920 189.83659 191.15698
 192.89438 195.00177 197.27716 199.64855 202.10594 204.59833 206.69872 208.55311
 210.19150 211.34889 211.59028 211.83067 211.78006 211.49745 211.14284 210.78524
 210.41463 210.13702 209.95741 209.83380 209.77419 210.11758 210.51597 210.91736
 211.72275 212.91314 214.17553 215.97092 217.91131 219.96670 222.07409 224.16949
 226.24188 228.33827 230.44766 232.56605 234.70744 236.89183 239.16022 241.54261
 244.17600 246.43939 248.45378 250.23117 251.66056 252.79595 253.63035 253.95874
 254.00813 253.79452 253.16691 252.12730 250.74569 248.91908 246.84047 244.68586
 242.48925 240.30564 238.13803 235.98942 233.86181 231.74120 229.77960 227.94899
 226.24438 224.72877 223.37116 222.15555 221.04994 220.02233 219.13872 218.29211
 217.54650 216.73889 215.84928 215.22567 214.68806 214.71088 214.76482 216.01309
 216.93262 217.69797 218.61519 219.39984 220.52501 223.08748 227.60268 231.45088
 234.26453 236.56329 238.73410 241.37662 244.75804 248.48885 252.32091 256.04996
 259.43848 262.53891 265.47583 268.36823 271.14569 273.72357 276.05862 278.03915
 279.46259 280.62994 281.62656 282.92538 284.10757 285.15884 286.11749 286.99237
 287.78925 288.50623 289.13538 289.94904
 366.78100 356.34728 345.79157 334.66985 323.08513 311.29142 299.17370 286.98898
 274.71327 262.62255 250.64384 239.95712 230.09140 221.20769 213.40197 206.41625
 200.26254 195.21282 191.80710 189.86139 188.91067 188.98695 189.83424 191.15452
 192.89180 194.99909 197.27437 199.64566 202.10294 204.59522 206.69551 208.54979
 210.18807 211.34536 211.58664 211.82692 211.77621 211.49349 211.13877 210.78106
 210.41034 210.13262 209.95291 209.82919 209.76948 210.11276 210.51104 210.91233
 211.71761 212.90789 214.17018 215.96546 217.90574 219.96103 222.06831 224.16359
 226.23588 228.33216 230.44144 232.55973 234.70101 236.88530 239.15358 241.53586
 244.16915 246.43243 248.44671 250.22400 251.65328 252.78856 253.62285 253.95113
 254.00041 253.78670 253.15898 252.11926 250.73755 248.91083 246.83212 244.67740
 242.48068 240.29697 238.12925 235.98053 233.85282 231.73210 229.77038 227.93967
 226.23495 224.71923 223.36152 222.14580 221.04008 220.01237 219.12865 218.28194
 217.53622 216.72850 215.83879 215.21507 214.67735 214.70493 214.77007 216.04282
 217.05832 217.84660 218.74081 219.47993 220.55397 223.06464 227.54236 231.32533
 234.08783 236.35587 238.56435 241.28375 244.71849 248.47563 252.30791 256.01682
 259.39334 262.49115 265.43103 268.33859 271.12338 273.70053 276.04349 278.02670
 279.43213 280.59464 281.60172 282.90872 284.09100 285.13995 286.10010 286.97330
 287.76971 288.48807 289.11966 289.93228
 366.78100 356.34711 345.79122 334.66933 323.08444 311.29054 299.17265 286.98776
 274.71187 262.62098 250.64209 239.95520 230.08931 221.20541 213.39952 206.41363
 200.25974 195.20985 191.80396 189.85807 188.90718 188.98329 189.83039 191.15050
 192.88761 194.99472 197.26983 199.64094 202.09805 204.59016 206.69026 208.54437
 210.18248 211.33959 211.58070 211.82081 211.76992 211.48703 211.13214 210.77424
 210.40335 210.12546 209.94557 209.82168 209.76179 210.10490 210.50301 210.90411
 211.70922 212.89933 214.16144 215.95655 217.89666 219.95177 222.05888 224.15398
 226.22609 228.32220 230.43131 232.54942 234.69053 236.87464 239.14275 241.52486
 244.15796 246.42107 248.43518 250.21229 251.64140 252.77651 253.61062 253.93873
 253.98783 253.77394 253.14605 252.10616 250.72427 248.89738 246.81849 244.66360
 242.46671 240.28281 238.11492 235.96603 233.83814 231.71725 229.75536 227.92447
 226.21958 224.70368 223.34579 222.12990 221.02401 219.99612 219.11223 218.26534
 217.51945 216.71156 215.82166 215.19777 214.65988 214.69429 214.77560 216.06488
 217.18867 218.00623 218.87119 219.55164 220.56656 223.03354 227.47244 231.19341
 233.91013 236.15784 238.41098 241.20787 244.69199 248.47095 252.29898 255.98268
 259.34448 262.43771 265.38156 268.30362 271.09457 273.67078 276.02112 277.99963
 279.38708 280.54932 281.57532 282.88776 284.06989 285.12048 286.07971 286.95319
 287.75015 288.46951 289.09967 289.91086
 366.78100 356.34718 345.79135 334.66953 323.08471 311.29088 299.17306 286.98824
 274.71241 262.62159 250.64277 239.95594 230.09012 221.20630 213.40047 206.41465
 200.26083 195.21100 191.80518 189.85936 188.90853 188.98471 189.83189 191.15206
 192.88924 194.99642 197.27159 199.64277 202.09995 204.59212 206.69230 208.54648
 210.18465 211.34183 211.58301 211.82319 211.77236 211.48954 211.13472 210.77689
 210.40607 210.12825 209.94842 209.82460 209.76478 210.10795 210.50613 210.90731
 211.71248 212.90266 214.16484 215.96001 217.90019 219.95537 222.06254 224.15772
 226.22990 228.32607 230.43525 232.55343 234.69460 236.87878 239.14696 241.52913
 244.16231 246.42549 248.43966 250.21684 251.64602 252.78119 253.61537 253.94355
 253.99272 253.77890 253.15108 252.11125 250.72943 248.90261 246.82378 244.66896
 242.47214 240.28831 238.12049 235.97167 233.84384 231.72302 229.76120 227.93037
 226.22555 224.70973 223.35190 222.13608 221.03026 220.00243 219.11861 218.27179
 217.52596 216.71814 215.82832 215.20450 214.66667 214.69438 214.75983 216.08720
 217.32683 218.17628 218.99969 219.61906 220.57704 223.00313 227.39926 231.06136
 233.73532 235.96753 238.26788 241.14253 244.67363 248.47009 252.28957 255.94464
 259.28934 262.37802 265.32846 268.26569 271.06189 273.63770 275.99338 277.96283
 279.33759 280.50211 281.55176 282.86575 284.04755 285.09756 286.05566 286.93127
 287.72787 288.44537 289.07922 289.89206
 366.78100 356.34758 345.79216 334.67074 323.08632 311.29291 299.17549 286.99107
 274.71565 262.62523 250.64681 239.96039 230.09497 221.21155 213.40614 206.42072
 200.26730 195.21788 191.81246 189.86704 188.91662 188.99320 189.84078 191.16136
 192.89895 195.00653 197.28211 199.65369 202.11127 204.60385 206.70443 208.55901
 210.19759 211.35518 211.59676 211.83734 211.78692 211.50450 211.15008 210.79266
 210.42224 210.14482 209.96541 209.84199 209.78257 210.12615 210.52473 210.92631
 211.73189 212.92247 214.18505 215.98063 217.92122 219.97680 222.08438 224.17996
 226.25254 228.34912 230.45870 232.57728 234.71886 236.90345 239.17203 241.55461
 244.18819 246.45177 248.46635 250.24393 251.67351 252.80909 253.64368 253.97226
 254.02184 253.80842 253.18100 252.14158 250.76016 248.93374 246.85532 244.70090
 242.50449 240.32107 238.15365 236.00523 233.87781 231.75739 229.79597 227.96555
 226.26113 224.74572 223.38830 222.17288 221.06746 220.04004 219.15662 218.31020
 217.56478 216.75736 215.86795 215.24453 214.70711 214.70996 214.71671 216.11971
 217.46446 218.34824 219.12524 219.68723 220.59767 222.97929 227.32529 230.92751
 233.55829 235.77753 238.12817 241.08240 244.65909 248.47067 252.27914 255.90253
 259.23032 262.31552 265.27585 268.22818 271.02707 273.60196 275.96021 277.91568
 279.28357 280.45346 281.52518 282.84167 284.02304 285.07333 286.03284 286.90744
 287.70401 288.42139 289.05392 289.86835
 366.78100 356.34817 345.79335 334.67252 323.08869 311.29587 299.17904 286.99521
 274.72038 262.63056 250.65273 239.96690 230.10208 221.21925 213.41442 206.42960
 200.27677 195.22794 191.82312 189.87829 188.92846 189.00564 189.85381 191.17498
 192.91315 195.02133 197.29750 199.66967 202.12785 204.62102 206.72219 208.57737
 210.21654 211.37471 211.61689 211.85806 211.80823 211.52641 211.17258 210.81575
 210.44592 210.16910 209.99027 209.86744 209.80862 210.15279 210.55196 210.95414
 211.76031 212.95148 214.21466 216.01083 217.95200 220.00818 222.11635 224.21252
 226.28569 228.38287 230.49304 232.61221 234.75439 236.93956 239.20873 241.59191
 244.22608 246.49025 248.50543 250.28360 251.71377 252.84995 253.68512 254.01429
 254.06446 253.85164 253.22481 252.18598 250.80516 248.97933 246.90150 244.74768
 242.55185 240.36902 238.20220 236.05437 233.92754 231.80771 229.84689 228.01706
 226.31323 224.79841 223.44158 222.22675 221.12193 220.09510 219.21227 218.36645
 217.62162 216.81479 215.92597 215.30314 214.76631 214.73466 214.65990 216.15590
 217.60077 218.51813 219.25145 219.75797 220.62750 222.96072 227.24977 230.78946
 233.37514 235.58510 237.98978 241.02621 244.64896 248.47368 252.26869 255.86058
 259.17249 262.25586 265.22632 268.19080 270.99039 273.56232 275.91769 277.85309
 279.21628 280.39499 281.49335 282.81534 283.99829 285.04745 286.00751 286.88254
 287.67831 288.39688 289.02853 289.84521
 366.78100 356.34870 345.79440 334.67410 323.09080 311.29850 299.18220 286.99891
 274.72461 262.63531 250.65801 239.97271 230.10841 221.22611 213.42181 206.43751
 200.28521 195.23691 191.83261 189.88831 188.93902 189.01672 189.86542 191.18712
 192.92582 195.03452 197.31122 199.68392 202.14262 204.63632 206.73802 208.59372
 210.23342 211.39213 211.63483 211.87653 211.82723 211.54593 211.19263 210.83633
 210.46703 210.19073 210.01243 209.89013 209.83183 210.17653 210.57624 210.97894
 211.78564 212.97734 214.24104 216.03774 217.97944 220.03614 222.14484 224.24154
 226.31524 228.41294 230.52364 232.64335 234.78605 236.97175 239.24145 241.62515
 244.25985 246.52455 248.54025 250.31895 251.74965 252.88635 253.72205 254.05175
 254.10246 253.89016 253.26386 252.22556 250.84526 249.01996 246.94266 244.78936
 242.59406 240.41176 238.24546 236.09816 233.97186 231.85257 229.89227 228.06297
 226.35967 224.84537 223.48907 222.27477 221.17047 220.14417 219.26187 218.41657
 217.67227 216.86597 215.97768 215.35538 214.81908 214.75664 214.60915 216.18069
 217.73987 218.68677 219.37784 219.82724 220.66513 222.94548 227.16925 230.64366
 233.18524 235.39066 237.85548 240.97743 244.64574 248.48154 252.26108 255.82184
 259.11847 262.20032 265.17981 268.15231 270.94943 273.51627 275.86166 277.77130
 279.13235 280.32394 281.45541 282.78525 283.97021 285.02020 285.98148 286.85468
 287.65329 288.37155 289.00290 289.81924
 366.78100 356.34902 345.79504 334.67506 323.09208 311.30010 299.18412 287.00114
 274.72716 262.63818 250.66120 239.97621 230.11223 221.23025 213.42627 206.44229
 200.29031 195.24233 191.83835 189.89437 188.94539 189.02341 189.87243 191.19445
 192.93347 195.04249 197.31951 199.69253 202.15155 204.64557 206.74759 208.60361
 210.24362 211.40264 211.64566 211.88768 211.83870 211.55772 211.20474 210.84876
 210.47978 210.20380 210.02582 209.90384 209.84586 210.19088 210.59090 210.99392
 211.80094 212.99296 214.25698 216.05400 217.99602 220.05303 222.16205 224.25907
 226.33309 228.43111 230.54213 232.66215 234.80517 236.99119 239.26121 241.64523
 244.28025 246.54527 248.56129 250.34031 251.77133 252.90835 253.74437 254.07439
 254.12541 253.91343 253.28744 252.24946 250.86948 249.04450 246.96752 244.81454
 242.61956 240.43758 238.27160 236.12462 233.99864 231.87966 229.91968 228.09070
 226.38772 224.87374 223.51776 222.30378 221.19980 220.17382 219.29184 218.44685
 217.70287 216.89689 216.00891 215.38693 214.85095 214.76848 214.57362 216.18982
 217.88042 218.85695 219.51299 219.89854 220.69818 222.92561 227.08339 230.49098
 232.99036 235.19914 237.73038 240.93890 244.65132 248.49471 252.25722 255.78726
 259.06772 262.14676 265.13229 268.10883 270.90112 273.46060 275.78766 277.66763
 279.03214 280.24362 281.41733 282.75235 283.93777 284.98907 285.94955 286.82648
 287.62115 288.34143 288.97269 289.78839
 366.78100 356.34919 345.79538 334.67557 323.09276 311.30095 299.18514 287.00234
 274.72853 262.63972 250.66291 239.97810 230.11429 221.23248 213.42867 206.44486
 200.29305 195.24524 191.84143 189.89762 188.94881 189.02701 189.87620 191.19839
 192.93758 195.04677 197.32396 199.69715 202.15634 204.65053 206.75272 208.60891
 210.24910 211.40829 211.65148 211.89368 211.84487 211.56406 211.21125 210.85544
 210.48663 210.21082 210.03301 209.91120 209.85339 210.19858 210.59877 211.00196
 211.80915 213.00135 214.26554 216.06273 218.00492 220.06211 222.17130 224.26849
 226.34268 228.44087 230.55206 232.67225 234.81544 237.00163 239.27182 241.65602
 244.29121 246.55640 248.57259 250.35178 251.78297 252.92016 253.75635 254.08654
 254.13773 253.92592 253.30011 252.26230 250.88250 249.05769 246.98088 244.82807
 242.63326 240.45145 238.28564 236.13883 234.01302 231.89421 229.93440 228.10559
 226.40278 224.88897 223.53317 222.31936 221.21555 220.18974 219.30793 218.46312
 217.71931 216.91350 216.02569 215.40388 214.86807 214.77167 214.54387 216.18849
 218.02567 219.03125 219.64786 219.96735 220.73021 222.90025 226.98799 230.32957
 232.79265 235.01469 237.61833 240.91364 244.66734 248.51476 252.25714 255.75563
 259.01807 262.09229 265.08411 268.06027 270.84369 273.39313 275.69534 277.54584
 278.91861 280.15668 281.37839 282.71716 283.90128 284.95312 285.91391 286.78998
 287.58896 288.30710 288.93701 289.75455
 366.78100 356.34927 345.79553 334.67580 323.09306 311.30133 299.18559 287.00286
 274.72912 262.64039 250.66365 239.97892 230.11518 221.23345 213.42971 206.44598
 200.29425 195.24651 191.84278 189.89904 188.95031 189.02857 189.87784 191.20010
 192.93937 195.04863 197.32590 199.69916 202.15843 204.65269 206.75496 208.61123
 210.25149 211.41076 211.65402 211.89629 211.84755 211.56682 211.21408 210.85835
 210.48961 210.21388 210.03614 209.91441 209.85667 210.20194 210.60221 211.00547
 211.81274 213.00500 214.26927 216.06653 218.00880 220.06606 222.17533 224.27259
 226.34686 228.44512 230.55639 232.67666 234.81992 237.00619 239.27645 241.66072
 244.29598 246.56125 248.57751 250.35678 251.78804 252.92531 253.76157 254.09184
 254.14310 253.93137 253.30564 252.26790 250.88817 249.06343 246.98670 244.83396
 242.63923 240.45749 238.29176 236.14502 234.01929 231.90055 229.94082 228.11208
 226.40935 224.89562 223.53988 222.32615 221.22241 220.19668 219.31494 218.47021
 217.72647 216.92074 216.03300 215.41127 214.87553 214.76849 214.51558 216.17795
 218.17094 219.20898 219.78313 220.03517 220.75371 222.86627 226.88690 230.16318
 232.59515 234.83858 237.52003 240.90236 244.69423 248.54111 252.25972 255.72546
 258.96777 262.03650 265.03497 268.00665 270.77939 273.31482 275.58572 277.40878
 278.79807 280.07111 281.33539 282.67688 283.86212 284.91251 285.87387 286.74966
 287.55045 288.26892 288.90048 289.71603
 366.78100 356.34926 345.79551 334.67577 323.09302 311.30128 299.18553 287.00279
 274.72904 262.64030 250.66355 239.97881 230.11507 221.23332 213.42958 206.44583
 200.29409 195.24634 191.84260 189.89885 188.95011 189.02836 189.87762 191.19987
 192.93913 195.04839 197.32564 199.69890 202.15815 204.65241 206.75466 208.61092
 210.25117 211.41043 211.65368 211.89594 211.84720 211.56645 211.21371 210.85796
 210.48922 210.21347 210.03573 209.91398 209.85624 210.20149 210.60175 211.00500
 211.81226 213.00452 214.26877 216.06603 218.00828 220.06554 222.17479 224.27205
 226.34630 228.44456 230.55581 232.67607 234.81933 237.00558 239.27584 241.66009
 244.29535 246.56060 248.57686 250.35611 251.78737 252.92462 253.76088 254.09113
 254.14239 253.93065 253.30490 252.26716 250.88741 249.06267 246.98592 244.83318
 242.63843 240.45669 238.29094 236.14420 234.01846 231.89971 229.93997 228.11122
 226.40848 224.89473 223.53899 222.32524 221.22150 220.19575 219.31401 218.46927
 217.72552 216.91978 216.03203 215.41029 214.87454 214.76059 214.49138 216.16200
 218.31049 219.39034 219.90952 220.09763 220.78239 222.82744 226.77216 229.98544
 232.39507 234.67027 237.43596 240.90599 244.73363 248.57559 252.26639 255.69765
 258.91812 261.98196 264.98639 267.94839 270.70624 273.22318 275.45654 277.25668
 278.67068 279.98410 281.28891 282.63297 283.81589 284.86810 285.83066 286.70709
 287.50528 288.22757 288.85803 289.67337
 366.78100 356.34922 345.79543 334.67565 323.09286 311.30108 299.18530 287.00251
 274.72873 262.63994 250.66316 239.97837 230.11459 221.23281 213.42902 206.44524
 200.29345 195.24567 191.84189 189.89810 188.94932 189.02753 189.87675 191.19897
 192.93818 195.04740 197.32461 199.69783 202.15705 204.65126 206.75348 208.60969
 210.24991 211.40912 211.65234 211.89456 211.84577 211.56499 211.21220 210.85642
 210.48764 210.21185 210.03407 209.91228 209.85450 210.19972 210.59993 211.00315
 211.81036 213.00258 214.26680 216.06401 218.00623 220.06344 222.17266 224.26987
 226.34409 228.44231 230.55352 232.67374 234.81695 237.00317 239.27339 241.65760
 244.29282 246.55803 248.57425 250.35347 251.78468 252.92190 253.75811 254.08833
 254.13954 253.92776 253.30198 252.26419 250.88441 249.05962 246.98284 244.83006
 242.63527 240.45349 238.28770 236.14092 234.01514 231.89635 229.93657 228.10778
 226.40500 224.89122 223.53543 222.32165 221.21786 220.19208 219.31029 218.46551
 217.72173 216.91594 216.02816 215.40637 214.87059 214.75226 214.47270 216.15192
 218.43279 219.55858 220.04463 220.16116 220.78732 222.76570 226.65092 229.81039
 232.20581 234.52168 237.37315 240.92844 244.78683 248.61829 252.27614 255.67134
 258.86813 261.92819 264.93823 267.88541 270.62625 273.11783 275.30847 277.08655
 278.52887 279.89038 281.23584 282.58322 283.76730 284.81839 285.78018 286.65817
 287.45822 288.17972 288.81033 289.62817
 366.78100 356.34907 345.79515 334.67522 323.09229 311.30037 299.18444 287.00151
 274.72758 262.63866 250.66173 239.97680 230.11288 221.23095 213.42702 206.44310
 200.29117 195.24324 191.83932 189.89539 188.94646 189.02453 189.87361 191.19568
 192.93475 195.04383 197.32090 199.69397 202.15305 204.64712 206.74919 208.60527
 210.24534 211.40441 211.64748 211.88956 211.84063 211.55970 211.20678 210.85085
 210.48192 210.20600 210.02807 209.90614 209.84822 210.19329 210.59336 210.99643
 211.80351 212.99558 214.25965 216.05673 217.99880 220.05587 222.16495 224.26202
 226.33609 228.43417 230.54524 232.66531 234.80838 236.99446 239.26453 241.64860
 244.28368 246.54875 248.56482 250.34390 251.77497 252.91204 253.74812 254.07819
 254.12926 253.91733 253.29141 252.25348 250.87355 249.04863 246.97170 244.81877
 242.62385 240.44192 238.27599 236.12907 234.00314 231.88421 229.92428 228.09536
 226.39243 224.87850 223.52258 222.30865 221.20472 220.17880 219.29687 218.45194
 217.70802 216.90209 216.01416 215.39223 214.85631 214.74094 214.46837 216.14107
 218.54062 219.70103 220.15317 220.21448 220.80234 222.71567 226.53215 229.64330
 232.03162 234.39325 237.33128 240.96791 244.85268 248.66797 252.28838 255.64529
 258.81863 261.87650 264.89267 267.81906 270.53723 272.99908 275.14816 276.91751
 278.39999 279.80347 281.17548 282.52457 283.70810 284.75897 285.72028 286.59766
 287.39990 288.12244 288.75510 289.56561
 366.78100 356.34882 345.79465 334.67447 323.09130 311.29912 299.18295 286.99977
 274.72559 262.63642 250.65924 239.97407 230.10989 221.22771 213.42354 206.43936
 200.28719 195.23901 191.83484 189.89066 188.94148 189.01931 189.86813 191.18996
 192.92878 195.03761 197.31443 199.68725 202.14608 204.63990 206.74173 208.59755
 210.23737 211.39620 211.63902 211.88085 211.83167 211.55050 211.19732 210.84114
 210.47197 210.19579 210.01762 209.89544 209.83727 210.18209 210.58191 210.98474
 211.79156 212.98339 214.24721 216.04403 217.98586 220.04268 222.15151 224.24833
 226.32216 228.41998 230.53080 232.65063 234.79345 236.97928 239.24910 241.63293
 244.26775 246.53257 248.54840 250.32722 251.75805 252.89487 253.73069 254.06052
 254.11134 253.89917 253.27299 252.23482 250.85464 249.02946 246.95229 244.79911
 242.60394 240.42176 238.25559 236.10841 233.98223 231.86306 229.90288 228.07371
 226.37053 224.85635 223.50018 222.28600 221.18183 220.15565 219.27348 218.42830
 217.68412 216.87795 215.98977 215.36760 214.83142 214.72723 214.48111 216.12140
 218.62709 219.84444 220.25784 220.27666 220.79684 222.62653 226.39745 229.46924
 231.85913 234.27592 237.30444 241.02397 244.93416 248.73003 252.31192 255.63417
 258.78702 261.84372 264.85977 267.75989 270.45041 272.87906 274.98679 276.74686
 278.26248 279.70987 281.10788 282.45633 283.64056 284.69092 285.65234 286.53107
 287.33374 288.05618 288.68982 289.50504
 366.78100 356.34821 345.79343 334.67264 323.08885 311.29607 299.17928 286.99549
 274.72071 262.63092 250.65313 239.96735 230.10256 221.21977 213.41499 206.43020
 200.27741 195.22863 191.82384 189.87905 188.92926 189.00648 189.85469 191.17590
 192.91412 195.02233 197.29854 199.67076 202.12897 204.62218 206.72340 208.57861
 210.21782 211.37604 211.61825 211.85946 211.80968 211.52789 211.17410 210.81732
 210.44753 210.17074 209.99196 209.86917 209.81038 210.15460 210.55381 210.95602
 211.76224 212.95345 214.21666 216.01288 217.95409 220.01030 222.11852 224.21473
 226.28794 228.38516 230.49537 232.61458 234.75679 236.94201 239.21122 241.59443
 244.22865 246.49286 248.50807 250.28629 251.71650 252.85271 253.68793 254.01714
 254.06735 253.85457 253.22778 252.18899 250.80821 248.98242 246.90463 244.75085
 242.55506 240.37227 238.20549 236.05770 233.93091 231.81113 229.85034 228.02055
 226.31677 224.80198 223.44519 222.23041 221.12562 220.09883 219.21605 218.37026
 217.62547 216.81868 215.92990 215.30711 214.77032 214.69606 214.52060 216.11560
 218.66014 219.96774 220.38844 220.25526 220.70261 222.53392 226.27641 229.32178
 231.71875 234.19255 237.31042 241.10661 245.03787 248.81401 252.35773 255.64409
 258.77277 261.82471 264.83649 267.70538 270.36356 272.75497 274.82040 276.57907
 278.13467 279.60974 281.02313 282.37149 283.55475 284.60397 285.56598 286.44492
 287.24854 287.97192 288.60568 289.42178
 366.78100 356.34663 345.79026 334.66789 323.08252 311.28815 299.16978 286.98440
 274.70803 262.61666 250.63729 239.94992 230.08355 221.19918 213.39281 206.40644
 200.25207 195.20170 191.79533 189.84896 188.89758 188.97321 189.81984 191.13947
 192.87610 194.98273 197.25736 199.62799 202.08462 204.57625 206.67588 208.52951
 210.16714 211.32376 211.56439 211.80402 211.75265 211.46928 211.11391 210.75554
 210.38417 210.10580 209.92543 209.80106 209.74069 210.08332 210.48094 210.88157
 211.68620 212.87583 214.13746 215.93209 217.87172 219.92635 222.03298 224.12761
 226.19924 228.29487 230.40350 232.52112 234.66175 236.84538 239.11301 241.49464
 244.12727 246.38990 248.40353 250.18016 251.60879 252.74342 253.57705 253.90468
 253.95330 253.73893 253.11056 252.07019 250.68782 248.86045 246.78108 244.62571
 242.42834 240.24397 238.07560 235.92623 233.79786 231.67648 229.71411 227.88274
 226.17737 224.66100 223.30263 222.08626 220.97989 219.95152 219.06715 218.21978
 217.47341 216.66504 215.77466 215.15029 214.61192 214.60634 214.59314 216.16969
 218.65271 220.00909 220.47287 220.20029 220.57162 222.43681 226.17683 229.21664
 231.63292 234.16637 237.36259 241.22992 245.18054 248.92767 252.42278 255.66643
 258.76465 261.80356 264.79941 267.62360 270.23529 272.57321 274.59702 276.36511
 277.97198 279.49225 280.92392 282.26941 283.45178 284.50021 285.46112 286.33862
 287.14096 287.86533 288.49881 289.31299
 366.78100 356.34505 345.78710 334.66315 323.07620 311.28025 299.16029 286.97334
 274.69539 262.60244 250.62149 239.93254 230.06459 221.17864 213.37069 206.38274
 200.22678 195.17483 191.76688 189.81893 188.86598 188.94003 189.78508 191.10313
 192.83818 194.94323 197.21627 199.58532 202.04037 204.53042 206.62847 208.48052
 210.11657 211.27162 211.51067 211.74872 211.69577 211.41081 211.05386 210.69391
 210.32096 210.04101 209.85906 209.73311 209.67116 210.01221 210.40826 210.80730
 211.61035 212.79840 214.05845 215.85150 217.78955 219.84260 221.94765 224.04070
 226.11075 228.20479 230.31184 232.42789 234.56694 236.74899 239.01504 241.39509
 244.02614 246.28719 248.29924 250.07429 251.50133 252.63438 253.46643 253.79248
 253.83953 253.62358 252.99363 251.95168 250.56773 248.73878 246.65782 244.50087
 242.30192 240.11597 237.94602 235.79507 233.66512 231.54217 229.57822 227.74527
 226.03831 224.52036 223.16041 221.94246 220.83451 219.80456 218.91861 218.06966
 217.32171 216.51176 215.61981 214.99385 214.45390 214.50987 214.64214 216.29884
 218.69031 220.00145 220.47208 220.08836 220.39148 222.30914 226.06677 229.10551
 231.55087 234.16090 237.45088 241.38802 245.36076 249.09198 252.54825 255.75151
 258.80701 261.81268 264.77179 267.53317 270.07135 272.32053 274.28024 276.06296
 277.74280 279.32361 280.77890 282.11768 283.29523 284.34204 285.30142 286.17770
 286.97540 287.69485 288.32404 289.14230
 366.78100 356.34506 345.78711 334.66317 323.07622 311.28028 299.16033 286.97339
 274.69545 262.60250 250.62156 239.93261 230.06467 221.17872 213.37078 206.38284
 200.22689 195.17495 191.76700 189.81906 188.86611 188.94017 189.78523 191.10328
 192.83834 194.94339 197.21645 199.58551 202.04056 204.53062 206.62867 208.48073
 210.11678 211.27184 211.51090 211.74895 211.69601 211.41106 211.05412 210.69417
 210.32123 210.04129 209.85934 209.73340 209.67145 210.01251 210.40856 210.80762
 211.61068 212.79873 214.05879 215.85184 217.78990 219.84295 221.94801 224.04107
 226.11112 228.20518 230.31223 232.42829 234.56734 236.74940 239.01546 241.39551
 244.02657 246.28762 248.29968 250.07473 251.50179 252.63485 253.46690 253.79296
 253.84001 253.62407 252.99413 251.95218 250.56824 248.73929 246.65835 244.50140
 242.30246 240.11652 237.94657 235.79563 233.66568 231.54274 229.57879 227.74585
 226.03891 224.52096 223.16102 221.94307 220.83513 219.80518 218.91924 218.07030
 217.32235 216.51241 215.62046 214.99452 214.45457 214.49780 214.59995 216.42152
 218.86774 220.07843 220.44611 219.94731 220.17781 222.13757 225.91194 228.92744
 231.39630 234.09181 237.49713 241.53862 245.55455 249.26945 252.68355 255.84827
 258.86942 261.85861 264.79922 267.51379 269.99982 272.19696 274.10968 275.89523
 277.56885 279.08026 280.46365 281.72864 282.87296 283.91248 284.86560 285.73700
 286.53561 287.25345 287.88477 288.71423
 366.78100 356.34626 345.78952 334.66678 323.08104 311.28630 299.16756 286.98181
 274.70507 262.61333 250.63359 239.94585 230.07911 221.19437 213.38763 206.40089
 200.24615 195.19541 191.78867 189.84192 188.89018 188.96544 189.81170 191.13096
 192.86722 194.97348 197.24774 199.61800 202.07426 204.56552 206.66478 208.51804
 210.15529 211.31155 211.55181 211.79107 211.73933 211.45559 211.09985 210.74111
 210.36937 210.09063 209.90989 209.78515 209.72441 210.06666 210.46392 210.86418
 211.66844 212.85770 214.11896 215.91322 217.85248 219.90674 222.01300 224.10726
 226.17852 228.27377 230.38203 232.49929 234.63955 236.82281 239.09007 241.47133
 244.10359 246.36585 248.37911 250.15537 251.58363 252.71789 253.55114 253.87840
 253.92666 253.71192 253.08318 252.04244 250.65970 248.83196 246.75222 244.59648
 242.39874 240.21400 238.04525 235.89551 233.76677 231.64503 229.68229 227.85055
 226.14481 224.62807 223.26933 222.05259 220.94585 219.91711 219.03237 218.18462
 217.43788 216.62914 215.73840 215.11366 214.57492 214.55519 214.50861 216.44405
 219.11301 220.29588 220.50858 219.85011 219.97379 221.93825 225.70903 228.68022
 231.17188 233.96140 237.49446 241.63655 245.68234 249.37907 252.76527 255.91736
 258.93350 261.92252 264.87320 267.56415 270.02487 272.21964 274.11655 275.88101
 277.50748 278.91858 280.18372 281.35178 282.45004 283.47849 284.43115 285.30469
 286.10303 286.82590 287.46292 288.30069
 366.78100 356.34711 345.79121 334.66932 323.08442 311.29053 299.17263 286.98774
 274.71184 262.62095 250.64205 239.95516 230.08927 221.20537 213.39948 206.41358
 200.25969 195.20979 191.80390 189.85800 188.90711 188.98321 189.83032 191.15043
 192.88753 194.99464 197.26974 199.64085 202.09795 204.59006 206.69016 208.54427
 210.18237 211.33948 211.58059 211.82069 211.76980 211.48690 211.13201 210.77411
 210.40322 210.12532 209.94543 209.82153 209.76164 210.10475 210.50285 210.90396
 211.70906 212.89917 214.16127 215.95638 217.89648 219.95159 222.05869 224.15380
 226.22591 228.32201 230.43112 232.54922 234.69033 236.87443 239.14254 241.52464
 244.15775 246.42085 248.43496 250.21207 251.64117 252.77628 253.61038 253.93849
 253.98759 253.77370 253.14580 252.10591 250.72401 248.89712 246.81823 244.66333
 242.46644 240.28254 238.11465 235.96575 233.83786 231.71696 229.75507 227.92417
 226.21928 224.70339 223.34549 222.12960 221.02370 219.99581 219.11191 218.26502
 217.51912 216.71123 215.82133 215.19744 214.65955 214.60085 214.46216 216.39244
 219.26184 220.53056 220.67087 219.86787 219.85193 221.76399 225.48486 228.37794
 230.87834 233.75743 237.42654 241.70674 245.82240 249.50569 252.86266 255.99886
 259.00992 262.00330 264.93515 267.59512 270.04071 272.22830 274.10867 275.92700
 277.51746 278.77811 279.95328 280.99185 281.95911 282.95221 283.89999 284.77100
 285.57166 286.30057 286.94644 287.78430
 366.78100 356.34659 345.79019 334.66778 323.08237 311.28797 299.16956 286.98415
 274.70774 262.61634 250.63693 239.94952 230.08312 221.19871 213.39230 206.40590
 200.25149 195.20108 191.79468 189.84827 188.89686 188.97245 189.81905 191.13864
 192.87523 194.98183 197.25642 199.62701 202.08361 204.57520 206.67479 208.52839
 210.16598 211.32257 211.56316 211.80276 211.75135 211.46794 211.11254 210.75413
 210.38272 210.10432 209.92391 209.79950 209.73910 210.08169 210.47928 210.87987
 211.68447 212.87406 214.13565 215.93025 217.86984 219.92443 222.03103 224.12562
 226.19721 228.29280 230.40140 232.51899 234.65958 236.84318 239.11077 241.49236
 244.12496 246.38755 248.40114 250.17774 251.60633 252.74092 253.57451 253.90211
 253.95070 253.73629 253.10789 252.06748 250.68507 248.85767 246.77826 244.62285
 242.42545 240.24104 238.07263 235.92322 233.79482 231.67341 229.71100 227.87960
 226.17419 224.65778 223.29938 222.08297 220.97656 219.94816 219.06375 218.21634
 217.46993 216.66153 215.77112 215.14671 214.60831 214.57744 214.50450 216.34651
 219.25049 220.65764 220.84650 219.98837 219.85506 221.68188 225.32680 228.15276
 230.64848 233.59427 237.36571 241.73441 245.90401 249.56480 252.86790 255.97803
 258.98080 261.99020 264.90421 267.54025 269.96042 272.12115 274.03079 275.93021
 277.47665 278.66299 279.81015 280.81534 281.71936 282.67242 283.61743 284.48669
 285.28790 286.01694 286.66824 287.50842
 366.78100 356.34510 345.78719 334.66329 323.07639 311.28049 299.16058 286.97368
 274.69578 262.60287 250.62197 239.93307 230.06517 221.17926 213.37136 206.38346
 200.22755 195.17565 191.76775 189.81984 188.86694 188.94104 189.78614 191.10423
 192.83933 194.94443 197.21752 199.58662 202.04172 204.53182 206.62991 208.48201
 210.11811 211.27320 211.51230 211.75040 211.69750 211.41259 211.05569 210.69579
 210.32288 210.04298 209.86108 209.73518 209.67327 210.01437 210.41047 210.80956
 211.61266 212.80076 214.06085 215.85395 217.79205 219.84515 221.95024 224.04334
 226.11344 228.20753 230.31463 232.43073 234.56983 236.75192 239.01802 241.39812
 244.02921 246.29031 248.30241 250.07751 251.50460 252.63770 253.46980 253.79589
 253.84299 253.62709 252.99719 251.95528 250.57138 248.74248 246.66157 244.50467
 242.30577 240.11986 237.94996 235.79906 233.66916 231.54625 229.58235 227.74945
 226.04254 224.52464 223.16474 221.94684 220.83893 219.80903 218.92313 218.07422
 217.32632 216.51642 215.62452 214.99861 214.45871 214.50267 214.60652 216.35623
 219.14305 220.65164 220.92764 220.07860 219.89030 221.66460 225.24545 228.02028
 230.52209 233.51288 237.35352 241.78789 245.98695 249.60590 252.85277 255.94327
 258.94415 261.97144 264.88800 267.50974 269.91626 272.03949 274.02191 275.95117
 277.44644 278.56747 279.68216 280.67163 281.57669 282.56342 283.50986 284.38028
 285.18671 285.92026 286.55960 287.38272
 366.78100 356.34410 345.78521 334.66031 323.07242 311.27552 299.15463 286.96673
 274.68783 262.59394 250.61204 239.92215 230.05325 221.16636 213.35746 206.36857
 200.21167 195.15877 191.74988 189.80098 188.84709 188.92019 189.76430 191.08140
 192.81550 194.91961 197.19171 199.55982 202.01392 204.50303 206.60013 208.45124
 210.08634 211.24044 211.47855 211.71565 211.66176 211.37586 211.01797 210.65707
 210.28317 210.00228 209.81938 209.69249 209.62959 209.96970 210.36480 210.76290
 211.56501 212.75211 214.01122 215.80332 217.74043 219.79253 221.89664 223.98874
 226.05784 228.15095 230.25705 232.37216 234.51026 236.69137 238.95647 241.33557
 243.96568 246.22578 248.23689 250.01099 251.43710 252.56920 253.40031 253.72541
 253.77151 253.55462 252.92372 251.88083 250.49593 248.66604 246.58414 244.42624
 242.22635 240.03945 237.86856 235.71666 233.58577 231.46187 229.49697 227.66308
 225.95518 224.43629 223.07539 221.85650 220.74760 219.71671 218.82981 217.97991
 217.23102 216.42012 215.52723 214.90033 214.35944 214.45918 214.69485 216.39507
 219.06320 220.61055 220.90974 220.05258 219.84598 221.61125 225.17133 227.94626
 230.45076 233.47639 237.36682 241.85495 246.06987 249.65387 252.85738 255.92975
 258.94720 261.99625 264.92599 267.54272 269.92365 272.04239 274.06366 275.97220
 277.43179 278.53012 279.63577 280.62366 281.55252 282.39944 283.31436 284.18567
 285.00323 285.74503 286.36786 287.19882
 366.78100 356.34374 345.78448 334.65922 323.07096 311.27370 299.15245 286.96419
 274.68493 262.59067 250.60841 239.91815 230.04889 221.16163 213.35237 206.36311
 200.20585 195.15260 191.74334 189.79408 188.83982 188.91256 189.75630 191.07304
 192.80678 194.91052 197.18226 199.55000 202.00375 204.49249 206.58923 208.43997
 210.07471 211.22845 211.46619 211.70293 211.64867 211.36241 211.00415 210.64289
 210.26864 209.98738 209.80412 209.67686 209.61360 209.95334 210.34808 210.74582
 211.54756 212.73430 213.99304 215.78479 217.72153 219.77327 221.87701 223.96875
 226.03749 228.13023 230.23597 232.35071 234.48845 236.66919 238.93394 241.31268
 243.94242 246.20216 248.21290 249.98664 251.41238 252.54412 253.37486 253.69960
 253.74534 253.52809 252.89683 251.85357 250.46831 248.63805 246.55579 244.39753
 242.19727 240.01001 237.83875 235.68649 233.55524 231.43098 229.46572 227.63146
 225.92320 224.40394 223.04268 221.82342 220.71416 219.68290 218.79564 217.94539
 217.19613 216.38487 215.49161 214.86435 214.32309 214.45389 214.76292 216.41959
 219.01514 220.62552 220.92874 219.99886 219.73419 221.50520 225.03680 227.76025
 230.31866 233.42220 237.40253 241.92947 246.16193 249.71640 252.90741 255.99783
 259.02942 262.08029 264.98871 267.58200 269.92856 272.05460 274.05289 275.89035
 277.30026 278.36749 279.48190 280.47620 281.38455 282.37097 283.32843 284.20984
 285.00635 285.70703 286.32162 287.14774
 366.78100 356.34299 345.78297 334.65696 323.06794 311.26993 299.14792 286.95890
 274.67889 262.58387 250.60086 239.90985 230.03983 221.15182 213.34180 206.35179
 200.19378 195.13976 191.72975 189.77973 188.82472 188.89671 189.73969 191.05568
 192.78867 194.89165 197.16264 199.52962 201.98261 204.47060 206.56658 208.41657
 210.05055 211.20354 211.44053 211.67651 211.62150 211.33448 210.97547 210.61346
 210.23844 209.95643 209.77241 209.64440 209.58039 209.91937 210.31336 210.71034
 211.51133 212.69732 213.95530 215.74629 217.68227 219.73326 221.83625 223.92723
 225.99522 228.08720 230.19219 232.30618 234.44316 236.62315 238.88713 241.26512
 243.89411 246.15309 248.16308 249.93606 251.36105 252.49204 253.32202 253.64601
 253.69100 253.47298 252.84097 251.79695 250.41094 248.57993 246.49691 244.33790
 242.13688 239.94887 237.77686 235.62384 233.49183 231.36681 229.40080 227.56579
 225.85677 224.33676 222.97474 221.75473 220.64472 219.61270 218.72469 217.87367
 217.12366 216.31165 215.41763 214.78962 214.24760 214.42152 214.83241 216.48102
 218.91241 220.59370 220.97351 220.02628 219.68150 221.39078 224.90445 227.67020
 230.20605 233.34952 237.39885 241.98065 246.21481 249.78593 252.98727 256.07944
 259.10159 262.14047 265.01907 267.58014 269.89200 272.01062 273.98941 275.76373
 277.15775 278.27124 279.40384 280.40060 281.28903 282.29288 283.27039 284.13980
 284.81183 285.50290 286.13248 286.98141
 366.78100 356.34467 345.78634 334.66200 323.07467 311.27834 299.15801 286.97067
 274.69234 262.59901 250.61768 239.92834 230.06001 221.17368 213.36535 206.37701
 200.22068 195.16835 191.76002 189.81168 188.85835 188.93202 189.77669 191.09435
 192.82902 194.93369 197.20636 199.57502 202.02969 204.51936 206.61703 208.46869
 210.10436 211.25903 211.49770 211.73536 211.68203 211.39670 211.03937 210.67903
 210.30570 210.02537 209.84304 209.71671 209.65437 209.99504 210.39071 210.78938
 211.59204 212.77971 214.03938 215.83205 217.76971 219.82238 221.92705 224.01972
 226.08938 228.18305 230.28972 232.40539 234.54405 236.72572 238.99139 241.37106
 244.00172 246.26239 248.27406 250.04873 251.47539 252.60806 253.43973 253.76540
 253.81206 253.59573 252.96540 251.92307 250.53873 248.70940 246.62807 244.47074
 242.27140 240.08507 237.91474 235.76341 233.63308 231.50974 229.54541 227.71208
 226.00475 224.48641 223.12608 221.90775 220.79942 219.76908 218.88275 218.03342
 217.28509 216.47475 215.58242 214.95609 214.41576 214.52409 214.78009 216.51996
 219.04831 220.67242 221.01212 219.98364 219.56328 221.29251 224.72238 227.34082
 230.00742 233.30754 237.48575 242.07938 246.29610 249.81918 253.01010 256.13620
 259.19440 262.24161 265.05356 267.53833 269.80463 271.91940 273.89679 275.62329
 277.00400 278.07947 279.24017 280.28098 281.13766 282.13940 283.11066 283.90259
 284.57001 285.25845 285.88626 286.72354
 366.78100 356.34833 345.79366 334.67298 323.08931 311.29664 299.17997 286.99629
 274.72162 262.63195 250.65428 239.96861 230.10393 221.22126 213.41659 206.43192
 200.27925 195.23057 191.82590 189.88123 188.93156 189.00888 189.85721 191.17854
 192.91687 195.02520 197.30152 199.67385 202.13218 204.62551 206.72684 208.58216
 210.22149 211.37982 211.62215 211.86347 211.81380 211.53213 211.17846 210.82179
 210.45211 210.17544 209.99677 209.87410 209.81542 210.15975 210.55908 210.96141
 211.76774 212.95906 214.22239 216.01872 217.96005 220.01638 222.12470 224.22103
 226.29436 228.39169 230.50201 232.62134 234.76367 236.94900 239.21833 241.60165
 244.23598 246.50031 248.51564 250.29397 251.72429 252.86062 253.69595 254.02528
 254.07560 253.86293 253.23626 252.19759 250.81692 248.99124 246.91357 244.75990
 242.56423 240.38156 238.21488 236.06721 233.94054 231.82087 229.86019 228.03052
 226.32685 224.81218 223.45551 222.24083 221.13616 220.10949 219.22682 218.38114
 217.63647 216.82980 215.94113 215.31846 214.78178 214.75784 214.72282 216.37334
 219.20815 220.90161 221.21841 220.00359 219.24590 220.88252 224.37100 227.15938
 229.66461 232.96109 237.33438 242.05469 246.26996 249.86359 253.10838 256.20654
 259.24503 262.25674 265.05014 267.54962 269.79785 271.87439 273.76154 275.51230
 276.90057 278.12241 279.19794 280.13452 281.03403 281.87912 282.68488 283.41757
 284.14407 284.79507 285.36374 286.08847
 366.78100 356.34825 345.79350 334.67276 323.08901 311.29626 299.17951 286.99576
 274.72101 262.63127 250.65352 239.96777 230.10302 221.22027 213.41553 206.43078
 200.27803 195.22928 191.82453 189.87979 188.93004 189.00729 189.85554 191.17679
 192.91504 195.02330 197.29955 199.67180 202.13005 204.62330 206.72456 208.57981
 210.21906 211.37731 211.61956 211.86081 211.81107 211.52932 211.17557 210.81882
 210.44907 210.17233 209.99358 209.87083 209.81208 210.15633 210.55559 210.95784
 211.76409 212.95534 214.21859 216.01484 217.95610 220.01235 222.12060 224.21685
 226.29010 228.38736 230.49761 232.61686 234.75911 236.94436 239.21361 241.59687
 244.23112 246.49537 248.51062 250.28887 251.71913 252.85538 253.69063 254.01988
 254.07013 253.85739 253.23064 252.19189 250.81114 248.98539 246.90764 244.75390
 242.55815 240.37540 238.20865 236.06090 233.93416 231.81441 229.85366 228.02391
 226.32016 224.80541 223.44867 222.23392 221.12917 220.10242 219.21967 218.37393
 217.62918 216.82243 215.93368 215.31093 214.77419 214.81653 215.03270 216.38557
 218.91858 220.70331 221.14507 220.28273 219.89946 221.20905 224.24739 227.09018
 229.63878 233.12401 237.48738 242.04337 246.01932 249.56651 252.97806 256.22714
 259.36133 262.35678 265.12778 267.62137 269.86386 271.88770 273.74103 275.43097
 276.81485 278.13156 279.18198 280.51086 281.66092 282.67841 283.60672 284.44769
 285.20407 285.87762 286.46603 287.21588
 366.78100 356.34146 345.77992 334.65238 323.06184 311.26229 299.13875 286.94821
 274.66667 262.57013 250.58559 239.89305 230.02151 221.13197 213.32043 206.32888
 200.16934 195.11380 191.70226 189.75072 188.79418 188.86464 189.70610 191.02056
 192.75201 194.85347 197.12293 199.48839 201.93985 204.42631 206.52077 208.36923
 210.00169 211.15315 211.38860 211.62306 211.56652 211.27798 210.91744 210.55390
 210.17736 209.89382 209.70828 209.57873 209.51319 209.85065 210.24311 210.63857
 211.43803 212.62249 213.87895 215.66841 217.60287 219.65232 221.75378 223.84324
 225.90970 228.00016 230.10362 232.21608 234.35154 236.53000 238.79245 241.16891
 243.79637 246.05383 248.06229 249.83375 251.25721 252.38667 253.21513 253.53759
 253.58104 253.36150 252.72796 251.68242 250.29488 248.46234 246.37780 244.21726
 242.01472 239.82517 237.65163 235.49709 233.36355 231.23701 229.26947 227.43293
 225.72239 224.20085 222.83730 221.61576 220.50422 219.47068 218.58114 217.72860
 216.97706 216.16352 215.26798 214.63844 214.09489 214.51793 215.47598 216.32710
 218.27480 220.44882 221.40875 220.71933 220.25569 221.38550 224.49750 227.15317
 229.69324 233.17673 237.58650 242.09355 245.95929 249.49043 252.95644 256.27591
 259.46518 262.48831 265.28055 267.83844 270.08630 272.06784 273.78152 275.53442
 276.90939 278.66168 280.35568 281.84311 283.13037 284.26926 285.30832 286.24966
 287.09625 287.85019 288.50879 289.34811
 366.78100 356.33913 345.77526 334.64539 323.05252 311.25065 299.12477 286.93190
 274.64803 262.54916 250.56229 239.86742 229.99355 221.10168 213.28781 206.29394
 200.13207 195.07419 191.66032 189.70645 188.74758 188.81571 189.65484 190.96697
 192.69610 194.79523 197.06236 199.42549 201.87461 204.35874 206.45087 208.29700
 209.92713 211.07626 211.30939 211.54152 211.48265 211.19178 210.82891 210.46303
 210.08416 209.79829 209.61042 209.47855 209.41068 209.74581 210.13594 210.52907
 211.32620 212.50832 213.76245 215.54958 217.48171 219.52884 221.62797 223.71510
 225.77923 227.86736 229.96849 232.07862 234.21174 236.38787 238.64800 241.02213
 243.64726 245.90239 247.90852 249.67765 251.09878 252.22591 253.05204 253.37216
 253.41329 253.19142 252.55555 251.50768 250.11781 248.28294 246.19607 244.03320
 241.82833 239.63646 237.46058 235.30371 233.16784 231.03897 229.06910 227.23023
 225.51736 223.99349 222.62762 221.40375 220.28988 219.25400 218.36213 217.50726
 216.75339 215.93752 215.03965 214.40778 213.86191 214.39682 215.63924 216.49176
 217.88191 219.93202 221.11035 220.74599 220.47275 221.65073 224.43588 227.25514
 229.82056 233.30072 237.66331 242.17479 245.99612 249.41283 252.86203 256.16565
 259.32834 262.35886 265.22040 267.85605 270.20087 272.26331 274.13306 275.82288
 277.31125 278.78531 280.22882 281.56708 282.72522 283.74988 284.68472 285.53162
 286.29330 286.97162 287.56415 288.31927
 366.78100 356.34033 345.77765 334.64898 323.05731 311.25664 299.13196 286.94029
 274.65762 262.55995 250.57427 239.88060 230.00793 221.11726 213.30458 206.31191
 200.15124 195.09456 191.68189 189.72922 188.77155 188.84087 189.68120 190.99453
 192.72486 194.82518 197.09351 199.45784 201.90817 204.39349 206.48682 208.33415
 209.96548 211.11580 211.35013 211.58346 211.52578 211.23611 210.87444 210.50977
 210.13209 209.84742 209.66075 209.53008 209.46340 209.79973 210.19106 210.58539
 211.38371 212.56704 213.82237 215.61069 217.54402 219.59235 221.69268 223.78100
 225.84633 227.93566 230.03799 232.14931 234.28364 236.46097 238.72230 241.09762
 243.72395 245.98028 247.98761 249.75793 251.18026 252.30859 253.13591 253.45724
 253.49957 253.27890 252.64422 251.59755 250.20888 248.37521 246.28953 244.12786
 241.92419 239.73352 237.55884 235.40317 233.26850 231.14082 229.17215 227.33448
 225.62281 224.10013 222.73546 221.51279 220.40012 219.36544 218.47477 217.62110
 216.86843 216.05375 215.15708 214.52641 213.98174 214.47462 215.64012 216.56529
 217.90744 219.84613 221.05109 220.57124 220.21001 221.44536 224.20404 227.09094
 229.77174 233.34004 237.70168 242.12979 245.97578 249.43423 252.91138 256.20535
 259.28043 262.24176 265.04935 267.65018 269.97437 272.06027 273.96616 275.77014
 277.29419 278.63126 279.88733 281.06232 282.11816 283.05231 283.90457 284.67667
 285.37109 285.98947 286.52969 287.21811
 366.78100 356.34097 345.77894 334.65091 323.05988 311.25985 299.13582 286.94479
 274.66276 262.56573 250.58070 239.88767 230.01564 221.12561 213.31358 206.32155
 200.16152 195.10549 191.69346 189.74143 188.78440 188.85437 189.69534 191.00931
 192.74028 194.84126 197.11023 199.47520 201.92617 204.41214 206.50611 208.35408
 209.98605 211.13702 211.37199 211.60596 211.54893 211.25990 210.89887 210.53484
 210.15781 209.87378 209.68775 209.55772 209.49169 209.82866 210.22063 210.61560
 211.41457 212.59854 213.85451 215.64348 217.57745 219.62642 221.72739 223.81636
 225.88233 227.97230 230.07527 232.18724 234.32221 236.50018 238.76215 241.13812
 243.76509 246.02206 248.03003 249.80100 251.22397 252.35294 253.18091 253.50288
 253.54585 253.32582 252.69180 251.64577 250.25774 248.42471 246.33968 244.17865
 241.97562 239.78559 237.61156 235.45653 233.32250 231.19547 229.22744 227.39041
 225.67938 224.15735 222.79332 221.57129 220.45926 219.42523 218.53520 217.68217
 216.93014 216.11611 215.22008 214.59005 214.04602 214.55042 215.72308 216.53001
 217.85194 219.81888 221.19110 220.69434 220.17494 221.30965 224.01683 226.93697
 229.66396 233.32045 237.75508 242.18127 246.01111 249.51630 253.04591 256.41318
 259.48917 262.37784 265.09183 267.61386 269.85663 271.89633 273.80945 275.59271
 277.09622 278.37790 279.53772 280.84003 281.99081 283.00894 283.93784 284.77936
 285.53622 286.21021 286.79898 287.54932
 366.78100 356.34191 345.78083 334.65374 323.06365 311.26457 299.14148 286.95139
 274.67031 262.57422 250.59014 239.89805 230.02696 221.13788 213.32679 206.33570
 200.17662 195.12153 191.71044 189.75936 188.80327 188.87418 189.71610 191.03101
 192.76292 194.86484 197.13475 199.50066 201.95258 204.43949 206.53441 208.38332
 210.01623 211.16815 211.40406 211.63897 211.58289 211.29480 210.93471 210.57163
 210.19554 209.91245 209.72737 209.59828 209.53319 209.87111 210.26402 210.65993
 211.45985 212.64476 213.90168 215.69159 217.62650 219.67642 221.77833 223.86824
 225.93516 228.02607 230.12998 232.24290 234.37881 236.55772 238.82064 241.19755
 243.82546 246.08338 248.09229 249.86420 251.28812 252.41803 253.24695 253.56986
 253.61377 253.39469 252.76160 251.71651 250.32943 248.49734 246.41325 244.25317
 242.05108 239.86199 237.68891 235.53482 233.40173 231.27565 229.30856 227.47247
 225.76239 224.24130 222.87822 221.65713 220.54604 219.51296 218.62387 217.77178
 217.02070 216.20761 215.31252 214.68344 214.14035 214.64287 215.80336 216.57079
 217.72380 219.63799 221.20839 220.80803 220.23169 221.27650 223.93631 226.83795
 229.59604 233.30292 237.81299 242.19449 246.01395 249.57550 253.12416 256.52957
 259.63721 262.50375 265.17953 267.65817 269.88910 271.91400 273.77490 275.45346
 276.89441 278.20093 279.81821 281.27795 282.54123 283.65887 284.67859 285.60239
 286.43323 287.17310 287.81943 288.64310
 366.78100 356.34184 345.78068 334.65352 323.06336 311.26420 299.14104 286.95087
 274.66971 262.57355 250.58939 239.89723 230.02607 221.13691 213.32575 206.33459
 200.17543 195.12027 191.70911 189.75794 188.80178 188.87262 189.71446 191.02930
 192.76114 194.86298 197.13282 199.49866 201.95050 204.43734 206.53218 208.38101
 210.01385 211.16569 211.40153 211.63637 211.58021 211.29205 210.93189 210.56873
 210.19257 209.90941 209.72425 209.59509 209.52992 209.86776 210.26060 210.65644
 211.45628 212.64112 213.89796 215.68780 217.62264 219.67248 221.77432 223.86416
 225.93099 228.02183 230.12567 232.23851 234.37435 236.55319 238.81603 241.19287
 243.82071 246.07855 248.08739 249.85923 251.28307 252.41290 253.24174 253.56458
 253.60842 253.38926 252.75610 251.71094 250.32378 248.49162 246.40746 244.24730
 242.04514 239.85597 237.68281 235.52865 233.39549 231.26933 229.30217 227.46601
 225.75585 224.23469 222.87153 221.65037 220.53921 219.50604 218.61688 217.76472
 217.01356 216.20040 215.30524 214.67608 214.13292 214.67972 215.91835 216.60260
 217.60236 219.47366 221.15152 220.84015 220.23399 221.24011 223.87090 226.81615
 229.61227 233.36348 237.85870 242.18735 246.00294 249.60609 253.16765 256.54788
 259.66006 262.53348 265.22528 267.73636 269.98605 272.00378 273.69678 275.31281
 276.82953 278.62430 280.31097 281.79202 283.07370 284.20770 285.24228 286.17953
 287.02249 287.77316 288.42892 289.26462
 366.78100 356.34070 345.77839 334.65009 323.05879 311.25849 299.13418 286.94288
 274.66058 262.56328 250.57797 239.88467 230.01237 221.12207 213.30976 206.31746
 200.15716 195.10086 191.68855 189.73625 188.77895 188.84864 189.68934 191.00304
 192.73374 194.83443 197.10313 199.46783 201.91853 204.40422 206.49792 208.34562
 209.97732 211.12801 211.36271 211.59641 211.53911 211.24980 210.88850 210.52420
 210.14690 209.86259 209.67629 209.54599 209.47968 209.81638 210.20808 210.60278
 211.40147 212.58517 213.84087 215.62957 217.56326 219.61196 221.71266 223.80136
 225.86705 227.95675 230.05945 232.17115 234.30584 236.48354 238.74524 241.12093
 243.74763 246.00433 248.01203 249.78272 251.20542 252.33412 253.16182 253.48351
 253.52621 253.30591 252.67161 251.62530 250.23700 248.40370 246.31840 244.15709
 241.95379 239.76349 237.58918 235.43388 233.29958 231.17228 229.20397 227.36667
 225.65537 224.13307 222.76876 221.54646 220.43416 219.39986 218.50955 217.65625
 216.90395 216.08965 215.19334 214.56304 214.01874 214.65788 216.06683 216.59691
 217.43922 219.38586 221.12801 220.85295 220.25070 221.22398 223.76709 226.75262
 229.56862 233.38016 237.89957 242.18715 245.99803 249.64839 253.22678 256.58414
 259.68939 262.57300 265.28287 267.81430 270.03290 271.95840 273.63708 275.23578
 276.94662 278.78360 280.42975 281.87515 283.12604 284.23276 285.24246 286.15720
 286.97989 287.71249 288.35248 289.16809
 366.78100 356.34134 345.77969 334.65203 323.06137 311.26172 299.13806 286.94740
 274.66575 262.56909 250.58443 239.89178 230.02012 221.13046 213.31881 206.32715
 200.16749 195.11184 191.70018 189.74852 188.79187 188.86221 189.70355 191.01790
 192.74924 194.85058 197.11993 199.48527 201.93661 204.42296 206.51730 208.36564
 209.99799 211.14933 211.38467 211.61901 211.56236 211.27370 210.91304 210.54939
 210.17273 209.88907 209.70342 209.57376 209.50810 209.84545 210.23779 210.63313
 211.43248 212.61682 213.87316 215.66251 217.59685 219.64619 221.74754 223.83688
 225.90322 227.99357 230.09691 232.20925 234.34460 236.52294 238.78528 241.16163
 243.78897 246.04631 248.05466 249.82600 251.24934 252.37869 253.20703 253.52937
 253.57272 253.35306 252.71940 251.67375 250.28609 248.45343 246.36878 244.20812
 242.00546 239.81581 237.64215 235.48749 233.35384 231.22718 229.25952 227.42287
 225.71221 224.19055 222.82690 221.60524 220.49358 219.45993 218.57027 217.71761
 216.96596 216.15230 215.25664 214.62698 214.08333 214.72005 216.13495 216.63089
 217.26624 219.29158 221.15576 220.84879 220.20169 221.16702 223.64642 226.64864
 229.49341 233.39018 237.95201 242.20392 246.01294 249.70555 253.30862 256.66833
 259.76788 262.64487 265.34113 267.84518 270.01349 271.95633 273.63849 275.16934
 276.91440 278.76373 280.39078 281.81946 283.05585 284.14972 285.14774 286.05185
 286.86502 287.58914 288.22171 289.02786
 366.78100 356.34180 345.78060 334.65340 323.06319 311.26399 299.14079 286.95059
 274.66939 262.57319 250.58899 239.89678 230.02558 221.13638 213.32518 206.33398
 200.17478 195.11958 191.70837 189.75717 188.80097 188.87177 189.71357 191.02837
 192.76017 194.86197 197.13176 199.49756 201.94936 204.43616 206.53096 208.37976
 210.01256 211.16435 211.40015 211.63495 211.57875 211.29055 210.93035 210.56715
 210.19094 209.90774 209.72254 209.59334 209.52814 209.86594 210.25874 210.65453
 211.45433 212.63913 213.89593 215.68573 217.62053 219.67033 221.77212 223.86192
 225.92872 228.01952 230.12332 232.23612 234.37192 236.55071 238.81351 241.19031
 243.81811 246.07591 248.08471 249.85651 251.28031 252.41010 253.23890 253.56170
 253.60550 253.38630 252.75310 251.70790 250.32069 248.48849 246.40429 244.24409
 242.04189 239.85269 237.67949 235.52528 233.39208 231.26588 229.29868 227.46248
 225.75228 224.23108 222.86787 221.64667 220.53547 219.50227 218.61307 217.76087
 217.00967 216.19646 215.30126 214.67206 214.12886 214.77525 216.20988 216.65143
 217.12074 219.15253 221.14261 220.81174 220.10439 221.09854 223.57112 226.58939
 229.48593 233.45213 238.02589 242.24559 246.06026 249.78839 253.40785 256.76709
 259.86932 262.74655 265.43671 267.91321 270.04678 271.92139 273.59521 275.08524
 276.94559 278.83487 280.46973 281.90524 283.14758 284.24670 285.24951 286.15796
 286.97504 287.70264 288.33826 289.14825
 366.78100 356.34053 345.77806 334.64960 323.05813 311.25766 299.13319 286.94172
 274.65926 262.56179 250.57632 239.88285 230.01039 221.11992 213.30745 206.31498
 200.15451 195.09805 191.68558 189.73311 188.77564 188.84517 189.68571 190.99924
 192.72977 194.83030 197.09884 199.46337 201.91390 204.39943 206.49296 208.34050
 209.97203 211.12256 211.35709 211.59062 211.53316 211.24369 210.88222 210.51775
 210.14029 209.85582 209.66935 209.53888 209.47241 209.80895 210.20048 210.59501
 211.39354 212.57707 213.83261 215.62114 217.55467 219.60320 221.70373 223.79227
 225.85780 227.94733 230.04986 232.16140 234.29593 236.47346 238.73499 241.11052
 243.73706 245.99359 248.00112 249.77165 251.19418 252.32272 253.15025 253.47178
 253.51431 253.29385 252.65938 251.61291 250.22444 248.39097 246.30551 244.14404
 241.94057 239.75010 237.57563 235.42017 233.28570 231.15823 229.18976 227.35229
 225.64083 224.11836 222.75389 221.53142 220.41896 219.38449 218.49402 217.64055
 216.88808 216.07362 215.17715 214.54668 214.00221 214.74965 216.35649 216.63684
 216.95697 219.04727 221.16379 220.72639 219.83658 220.93254 223.61130 226.55406
 229.50844 233.54689 238.12326 242.33340 246.14439 249.88028 253.50258 256.86517
 259.95865 262.81592 265.48941 267.94699 270.14389 271.99771 273.61932 275.05670
 277.11176 279.02295 280.67676 282.12894 283.38568 284.49756 285.51199 286.43100
 287.25754 287.99356 288.63657 289.45596
 366.78100 356.34075 345.77851 334.65026 323.05901 311.25876 299.13452 286.94327
 274.66102 262.56377 250.57853 239.88528 230.01303 221.12278 213.31054 206.31829
 200.15804 195.10179 191.68955 189.73730 188.78005 188.84980 189.69056 191.00431
 192.73506 194.83582 197.10457 199.46932 201.92007 204.40583 206.49958 208.34733
 209.97908 211.12984 211.36459 211.59834 211.54109 211.25185 210.89060 210.52635
 210.14910 209.86486 209.67861 209.54836 209.48212 209.81887 210.21062 210.60537
 211.40413 212.58788 213.84363 215.63238 217.56614 219.61489 221.71564 223.80439
 225.87015 227.95990 230.06265 232.17440 234.30916 236.48691 238.74866 241.12441
 243.75117 246.00792 248.01567 249.78643 251.20918 252.33793 253.16568 253.48744
 253.53019 253.30994 252.67569 251.62945 250.24120 248.40795 246.32270 244.16146
 241.95821 239.76796 237.59371 235.43847 233.30422 231.17697 229.20872 227.37148
 225.66023 224.13798 222.77374 221.55149 220.43924 219.40499 218.51475 217.66150
 216.90925 216.09500 215.19876 214.56851 214.02426 214.78772 216.44066 216.70323
 216.69725 218.74524 221.06793 220.55132 219.82414 220.83789 223.60869 226.53854
 229.50125 233.63332 238.24666 242.45091 246.30931 250.07271 253.70433 257.08691
 260.17728 263.02423 265.66006 268.07303 270.16296 271.88809 273.53668 274.96567
 276.19656 277.25165 278.16464 278.96634 279.66010 280.27393 280.83395 281.34128
 281.79758 282.20392 282.55887 283.01123
 366.78100 356.34176 345.78051 334.65327 323.06302 311.26378 299.14053 286.95029
 274.66904 262.57280 250.58855 239.89631 230.02506 221.13582 213.32457 206.33333
 200.17408 195.11884 191.70759 189.75635 188.80011 188.87086 189.71262 191.02737
 192.75913 194.86088 197.13064 199.49639 201.94815 204.43490 206.52966 208.37841
 210.01117 211.16292 211.39868 211.63343 211.57719 211.28894 210.92870 210.56546
 210.18921 209.90597 209.72072 209.59148 209.52623 209.86399 210.25674 210.65250
 211.45225 212.63701 213.89376 215.68352 217.61827 219.66803 221.76978 223.85954
 225.92630 228.01705 230.12081 232.23356 234.36932 236.54807 238.81083 241.18758
 243.81534 246.07309 248.08185 249.85360 251.27736 252.40711 253.23587 253.55862
 253.60238 253.38313 252.74989 251.70465 250.31740 248.48516 246.40091 244.24067
 242.03842 239.84918 237.67593 235.52169 233.38844 231.26220 229.29495 227.45871
 225.74846 224.22722 222.86397 221.64273 220.53148 219.49824 218.60900 217.75675
 217.00551 216.19226 215.29702 214.66777 214.12453 214.85541 216.45865 216.84492
 216.61601 218.32784 220.72862 220.38873 219.71504 220.88966 223.65613 226.52130
 229.48643 233.72768 238.38060 242.55374 246.41960 250.20444 253.86295 257.26871
 260.39685 263.29568 265.95978 268.39154 270.53564 272.30667 273.61917 275.87061
 278.35095 280.47699 282.31671 283.93213 285.33014 286.56702 287.69547 288.71777
 289.63724 290.45602 291.17130 292.08282
 366.78100 356.34192 345.78085 334.65377 323.06370 311.26462 299.14155 286.95147
 274.67039 262.57432 250.59024 239.89817 230.02709 221.13802 213.32694 206.33587
 200.17679 195.12171 191.71064 189.75956 188.80349 188.87441 189.71634 191.03126
 192.76318 194.86511 197.13503 199.50096 201.95288 204.43981 206.53473 208.38365
 210.01658 211.16850 211.40443 211.63935 211.58328 211.29520 210.93512 210.57205
 210.19597 209.91290 209.72782 209.59875 209.53367 209.87160 210.26452 210.66044
 211.46037 212.64529 213.90222 215.69214 217.62707 219.67699 221.77891 223.86884
 225.93576 228.02669 230.13061 232.24354 234.37946 236.55838 238.82131 241.19823
 243.82616 246.08408 248.09301 249.86493 251.28885 252.41878 253.24770 253.57063
 253.61455 253.39548 252.76240 251.71733 250.33025 248.49817 246.41410 244.25402
 242.05195 239.86287 237.68980 235.53572 233.40264 231.27657 229.30949 227.47342
 225.76334 224.24227 222.87919 221.65811 220.54704 219.51396 218.62489 217.77281
 217.02174 216.20866 215.31359 214.68451 214.14143 214.87697 216.47641 216.88023
 216.83516 218.16699 220.19583 220.14563 219.53528 221.08218 223.64854 226.59665
 229.61835 233.75662 238.34024 242.54993 246.43561 250.20937 253.83963 257.18701
 260.26852 263.15625 265.86115 268.33853 270.56232 272.51611 274.17184 275.74020
 277.89310 279.87946 281.59830 283.10760 284.41376 285.56937 286.62369 287.57883
 288.43787 289.20285 289.87112 290.72275
 366.78100 356.34322 345.78343 334.65765 323.06887 311.27108 299.14930 286.96052
 274.68073 262.58595 250.60316 239.91238 230.04260 221.15481 213.34503 206.35525
 200.19746 195.14368 191.73390 189.78411 188.82933 188.90155 189.74476 191.06098
 192.79419 194.89741 197.16863 199.53584 201.98906 204.47728 206.57349 208.42371
 210.05793 211.21114 211.44836 211.68458 211.62979 211.34301 210.98423 210.62244
 210.24766 209.96587 209.78209 209.65431 209.59052 209.92974 210.32396 210.72117
 211.52239 212.70861 213.96682 215.75804 217.69426 219.74547 221.84869 223.93990
 226.00812 228.10034 230.20555 232.31977 234.45699 236.63720 238.90142 241.27964
 243.90885 246.16807 248.17829 249.95150 251.37672 252.50794 253.33815 253.66237
 253.70758 253.48980 252.85802 251.81423 250.42845 248.59767 246.51488 244.35610
 242.15532 239.96753 237.79575 235.64297 233.51118 231.38640 229.42061 227.58583
 225.87705 224.35726 222.99548 221.77570 220.66591 219.63413 218.74635 217.89556
 217.14578 216.33400 215.44021 214.81243 214.27065 214.94913 216.46494 216.91165
 216.81023 218.07735 220.07774 219.99503 219.51753 221.08984 223.53606 226.56241
 229.55368 233.76024 238.40689 242.59836 246.46637 250.25296 253.90083 257.24036
 260.27783 263.08652 265.69318 268.10715 270.31201 272.31384 274.12863 275.64029
 277.47186 279.34088 280.98099 282.42114 283.66745 284.77014 285.77615 286.68753
 287.50723 288.23715 288.87482 289.68744
 366.78100 356.34494 345.78689 334.66283 323.07577 311.27971 299.15966 286.97260
 274.69454 262.60148 250.62043 239.93137 230.06331 221.17725 213.36920 206.38114
 200.22508 195.17302 191.76497 189.81691 188.86385 188.93779 189.78274 191.10068
 192.83562 194.94056 197.21351 199.58245 202.03739 204.52733 206.62528 208.47722
 210.11316 211.26810 211.50705 211.74499 211.69193 211.40687 211.04982 210.68976
 210.31670 210.03664 209.85459 209.72853 209.66647 210.00741 210.40336 210.80230
 211.60524 212.79318 214.05313 215.84607 217.78401 219.83695 221.94190 224.03484
 226.10478 228.19872 230.30567 232.42161 234.56055 236.74249 239.00844 241.38838
 244.01932 246.28026 248.29221 250.06715 251.49409 252.62703 253.45898 253.78492
 253.83186 253.61580 252.98575 251.94369 250.55963 248.73057 246.64952 244.49246
 242.29340 240.10734 237.93729 235.78623 233.65617 231.53311 229.56906 227.73600
 226.02894 224.51088 223.15083 221.93277 220.82471 219.79465 218.90860 218.05954
 217.31148 216.50142 215.60937 214.98331 214.44325 215.04552 216.44785 216.97804
 216.68739 217.90793 219.96909 219.83118 219.26018 220.94284 223.62825 226.58421
 229.65866 233.88330 238.49236 242.71518 246.61639 250.42360 254.09171 257.44214
 260.48560 263.27625 265.83655 268.19318 270.33875 272.27667 274.01755 275.64560
 277.65002 279.60907 281.30429 282.79282 284.08099 285.22070 286.26053 287.20255
 288.04977 288.80423 289.46332 290.30322
 366.78100 356.34474 345.78647 334.66221 323.07495 311.27869 299.15842 286.97116
 274.69290 262.59964 250.61837 239.92911 230.06085 221.17458 213.36632 206.37806
 200.22180 195.16953 191.76127 189.81301 188.85975 188.93348 189.77822 191.09596
 192.83070 194.93543 197.20817 199.57691 202.03164 204.52138 206.61912 208.47086
 210.10659 211.26133 211.50007 211.73781 211.68454 211.39928 211.04202 210.68175
 210.30849 210.02823 209.84597 209.71970 209.65744 209.99818 210.39392 210.79265
 211.59539 212.78313 214.04286 215.83560 217.77334 219.82608 221.93081 224.02355
 226.09329 228.18703 230.29376 232.40950 234.54824 236.72997 238.99571 241.37545
 244.00619 246.26692 248.27866 250.05340 251.48014 252.61287 253.44461 253.77035
 253.81709 253.60082 252.97056 251.92830 250.54403 248.71477 246.63351 244.47625
 242.27698 240.09072 237.92046 235.76920 233.63893 231.51567 229.55141 227.71814
 226.01088 224.49262 223.13236 221.91409 220.80583 219.77557 218.88931 218.04004
 217.29178 216.48152 215.58925 214.96299 214.42273 215.05301 216.49295 216.99738
 216.69466 217.71060 219.61243 219.55585 219.04727 220.82333 223.75278 226.68578
 229.77466 234.01552 238.63651 242.87772 246.78500 250.59900 254.28741 257.65305
 260.70331 263.48648 266.03790 268.39148 270.54218 272.46622 274.09302 275.96140
 278.24197 280.26944 282.02386 283.56436 284.89755 286.07709 287.15323 288.12814
 289.00497 289.78577 290.46790 291.33716
 366.78100 356.34327 345.78354 334.65781 323.06908 311.27135 299.14962 286.96088
 274.68115 262.58642 250.60369 239.91296 230.04323 221.15550 213.34577 206.35604
 200.19831 195.14458 191.73485 189.78512 188.83038 188.90265 189.74592 191.06219
 192.79546 194.89873 197.17000 199.53727 201.99054 204.47881 206.57508 208.42535
 210.05962 211.21289 211.45015 211.68642 211.63169 211.34496 210.98623 210.62450
 210.24977 209.96804 209.78431 209.65658 209.59285 209.93212 210.32639 210.72365
 211.52492 212.71119 213.96946 215.76073 217.69700 219.74827 221.85154 223.94281
 226.01108 228.10335 230.20862 232.32289 234.46015 236.64042 238.90469 241.28296
 243.91223 246.17150 248.18177 249.95504 251.38031 252.51158 253.34185 253.66612
 253.71139 253.49366 252.86192 251.81819 250.43246 248.60173 246.51900 244.36027
 242.15954 239.97181 237.80008 235.64735 233.51562 231.39089 229.42516 227.59042
 225.88169 224.36196 223.00023 221.78050 220.67077 219.63904 218.75131 217.90058
 217.15085 216.33912 215.44539 214.81766 214.27592 214.99408 216.55798 216.96536
 216.89899 217.66475 219.05606 219.09454 218.96681 220.92441 223.78278 226.80872
 229.87550 234.08641 238.71584 242.96033 246.86705 250.67188 254.34708 257.67810
 260.70187 263.49683 266.08386 268.46921 270.65805 272.63303 274.39749 276.23792
 278.31369 280.31802 282.05243 283.57538 284.89337 286.05942 287.12329 288.08710
 288.95392 289.72583 290.40015 291.25949
 366.78100 356.34290 345.78281 334.65671 323.06761 311.26951 299.14742 286.95832
 274.67822 262.58313 250.60003 239.90893 230.03883 221.15074 213.34064 206.35054
 200.19245 195.13835 191.72825 189.77815 188.82306 188.89496 189.73786 191.05377
 192.78667 194.88957 197.16047 199.52738 201.98028 204.46818 206.56409 208.41399
 210.04789 211.20080 211.43770 211.67360 211.61850 211.33141 210.97231 210.61021
 210.23512 209.95302 209.76892 209.64082 209.57673 209.91563 210.30953 210.70644
 211.50734 212.69324 213.95114 215.74205 217.67795 219.72885 221.83176 223.92266
 225.99056 228.08246 230.18737 232.30127 234.43817 236.61808 238.88198 241.25988
 243.88878 246.14769 248.15759 249.93049 251.35540 252.48630 253.31620 253.64010
 253.68501 253.46691 252.83481 251.79072 250.40462 248.57352 246.49042 244.33133
 242.13023 239.94213 237.77004 235.61694 233.48484 231.35975 229.39365 227.55855
 225.84945 224.32936 222.96726 221.74716 220.63707 219.60497 218.71687 217.86577
 217.11568 216.30358 215.40948 214.78139 214.23929 214.98105 216.58278 216.92119
 216.94344 217.77869 218.96100 218.85437 218.83905 220.81374 223.63161 226.76617
 229.87570 234.12660 238.76067 242.99863 246.91530 250.73724 254.41698 257.71945
 260.69458 263.45380 266.02551 268.40125 270.61047 272.63873 274.50519 276.37479
 278.39432 280.40152 282.15210 283.68927 285.01953 286.19647 287.27026 288.24304
 289.11795 289.89706 290.57770 291.44504
 366.78100 356.34469 345.78638 334.66207 323.07476 311.27845 299.15815 286.97084
 274.69253 262.59922 250.61791 239.92860 230.06029 221.17398 213.36567 206.37736
 200.22105 195.16875 191.76044 189.81213 188.85882 188.93251 189.77720 191.09489
 192.82958 194.93427 197.20696 199.57565 202.03035 204.52004 206.61773 208.46942
 210.10511 211.25980 211.49849 211.73618 211.68287 211.39756 211.04025 210.67995
 210.30664 210.02633 209.84402 209.71771 209.65540 209.99609 210.39178 210.79047
 211.59316 212.78085 214.04055 215.83324 217.77093 219.82362 221.92831 224.02100
 226.09069 228.18438 230.29107 232.40676 234.54545 236.72715 238.99284 241.37253
 244.00322 246.26391 248.27560 250.05029 251.47698 252.60967 253.44136 253.76705
 253.81375 253.59744 252.96713 251.92482 250.54051 248.71120 246.62989 244.47258
 242.27327 240.08696 237.91665 235.76535 233.63504 231.51173 229.54742 227.71411
 226.00680 224.48849 223.12818 221.90987 220.80156 219.77125 218.88495 218.03564
 217.28733 216.47702 215.58471 214.95840 214.41809 215.06400 216.50981 216.95766
 216.85210 217.71869 218.98621 218.82289 218.72876 220.70343 223.51038 226.68881
 229.87088 234.19044 238.83238 243.07791 247.02269 250.88277 254.59888 257.89410
 260.84671 263.57550 266.11536 268.46826 270.66235 272.69818 274.67590 276.55576
 278.68082 280.73441 282.51147 284.07184 285.42221 286.61694 287.70694 288.69443
 289.58255 290.37344 291.06433 291.94479
 366.78100 356.34660 345.79021 334.66781 323.08242 311.28802 299.16963 286.98423
 274.70784 262.61644 250.63705 239.94965 230.08326 221.19886 213.39247 206.40607
 200.25168 195.20128 191.79489 189.84849 188.89710 188.97270 189.81931 191.13891
 192.87552 194.98212 197.25673 199.62733 202.08393 204.57554 206.67514 208.52875
 210.16635 211.32296 211.56356 211.80317 211.75177 211.46838 211.11298 210.75459
 210.38319 210.10480 209.92440 209.80001 209.73961 210.08222 210.47982 210.88043
 211.68503 212.87464 214.13624 215.93085 217.87045 219.92506 222.03166 224.12626
 226.19787 228.29347 230.40208 232.51968 234.66029 236.84389 239.11150 241.49310
 244.12571 246.38831 248.40192 250.17852 251.60713 252.74173 253.57534 253.90294
 253.95155 253.73715 253.10876 252.06836 250.68597 248.85857 246.77918 244.62378
 242.42639 240.24199 238.07360 235.92420 233.79580 231.67441 229.71201 227.88062
 226.17522 224.65883 223.30043 222.08404 220.97764 219.94925 219.06485 218.21746
 217.47106 216.66267 215.77227 215.14788 214.60948 215.14442 216.40846 217.06931
 216.91440 217.50414 218.57477 218.60092 218.83334 220.75478 223.46384 226.71658
 229.88658 234.25601 238.94327 243.19400 247.14758 250.99684 254.67430 257.97586
 260.93808 263.67691 266.23550 268.59235 270.80695 272.92435 274.95743 276.84204
 278.71756 280.57855 282.29922 283.81009 285.11761 286.27441 287.32986 288.28598
 289.14594 289.91171 290.58069 291.43323
 366.78100 356.34706 345.79112 334.66918 323.08424 311.29031 299.17237 286.98743
 274.71149 262.62055 250.64161 239.95467 230.08873 221.20479 213.39885 206.41292
 200.25898 195.20904 191.80310 189.85716 188.90622 188.98228 189.82934 191.14940
 192.88647 194.99353 197.26859 199.63965 202.09671 204.58877 206.68883 208.54289
 210.18095 211.33801 211.57908 211.81914 211.76820 211.48526 211.13032 210.77238
 210.40144 210.12350 209.94356 209.81963 209.75969 210.10275 210.50081 210.90187
 211.70693 212.89699 214.15905 215.95411 217.89417 219.94924 222.05630 224.15136
 226.22342 228.31948 230.42854 232.54660 234.68766 236.87172 239.13979 241.52185
 244.15491 246.41797 248.43203 250.20909 251.63815 252.77321 253.60727 253.93533
 253.98440 253.77046 253.14252 252.10258 250.72064 248.89370 246.81476 244.65982
 242.46288 240.27895 238.11101 235.96207 233.83413 231.71319 229.75125 227.92031
 226.21537 224.69943 223.34150 222.12556 221.01962 219.99168 219.10774 218.26080
 217.51486 216.70692 215.81698 215.19304 214.65511 215.16026 216.36041 217.10994
 217.08934 217.44092 218.23019 218.28200 218.71007 220.63528 223.39732 226.64410
 229.88687 234.33301 239.07237 243.31868 247.27779 251.11958 254.78094 258.05359
 260.98260 263.70648 266.26245 268.62500 270.86362 273.05817 275.16342 277.02747
 278.69550 280.36710 281.94516 283.38730 284.63538 285.73956 286.74701 287.65967
 288.48050 289.21146 289.85001 290.66376
 366.78100 356.34649 345.78997 334.66746 323.08195 311.28744 299.16892 286.98341
 274.70690 262.61538 250.63587 239.94836 230.08184 221.19733 213.39082 206.40431
 200.24979 195.19928 191.79277 189.84625 188.89474 188.97023 189.81671 191.13620
 192.87269 194.97918 197.25366 199.62415 202.08064 204.57212 206.67161 208.52510
 210.16258 211.31907 211.55956 211.79905 211.74753 211.46402 211.10851 210.74999
 210.37848 210.09997 209.91945 209.79494 209.73443 210.07692 210.47440 210.87489
 211.67938 212.86886 214.13035 215.92484 217.86433 219.91881 222.02530 224.11979
 226.19127 228.28676 230.39525 232.51273 234.65322 236.83671 239.10420 241.48568
 244.11817 246.38066 248.39414 250.17063 251.59912 252.73360 253.56709 253.89458
 253.94307 253.72855 253.10004 252.05953 250.67701 248.84950 246.76999 244.61447
 242.41696 240.23245 238.06394 235.91442 233.78591 231.66440 229.70188 227.87037
 226.16486 224.64834 223.28983 222.07332 220.96681 219.93829 219.05378 218.20627
 217.45975 216.65124 215.76073 215.13622 214.59770 215.13608 216.37889 217.01228
 217.22002 217.58125 218.18358 218.06691 218.49315 220.44296 223.20184 226.53322
 229.86996 234.39381 239.15031 243.41684 247.40929 251.27417 254.97261 258.26303
 261.16803 263.84531 266.35425 268.66397 270.90851 273.18771 275.33301 277.14725
 278.76950 280.24936 281.80826 283.24841 284.49472 285.59738 286.60339 287.51477
 288.33447 289.06439 289.70206 290.51468
 366.78100 356.34494 345.78688 334.66282 323.07576 311.27970 299.15964 286.97258
 274.69452 262.60146 250.62041 239.93135 230.06329 221.17723 213.36917 206.38111
 200.22505 195.17299 191.76493 189.81687 188.86381 188.93775 189.78269 191.10063
 192.83557 194.94051 197.21345 199.58239 202.03734 204.52728 206.62522 208.47716
 210.11310 211.26804 211.50698 211.74492 211.69186 211.40680 211.04974 210.68968
 210.31662 210.03656 209.85450 209.72844 209.66638 210.00732 210.40326 210.80221
 211.60515 212.79309 214.05303 215.84597 217.78391 219.83685 221.94179 224.03473
 226.10467 228.19861 230.30555 232.42149 234.56043 236.74237 239.00831 241.38825
 244.01919 246.28014 248.29208 250.06702 251.49396 252.62690 253.45884 253.78478
 253.83172 253.61566 252.98560 251.94354 250.55948 248.73042 246.64936 244.49230
 242.29324 240.10718 237.93712 235.78606 233.65601 231.53295 229.56889 227.73583
 226.02877 224.51071 223.15065 221.93259 220.82453 219.79447 218.90841 218.05935
 217.31129 216.50123 215.60917 214.98311 214.44305 215.06915 216.44839 216.86484
 217.31203 217.79413 218.29259 217.94783 218.27487 220.21568 222.92784 226.38661
 229.81711 234.42776 239.18170 243.46503 247.47691 251.36252 255.08791 258.41235
 261.35529 264.04959 266.55847 268.86298 271.08582 273.39276 275.57144 277.35944
 278.87488 280.25348 281.85626 283.30807 284.56448 285.67609 286.69025 287.60901
 288.43533 289.17120 289.81403 290.63321
 366.78100 356.34388 345.78475 334.65963 323.07150 311.27438 299.15325 286.96513
 274.68600 262.59188 250.60975 239.91963 230.05050 221.16338 213.35425 206.36513
 200.20801 195.15488 191.74576 189.79663 188.84251 188.91538 189.75926 191.07613
 192.81001 194.91388 197.18576 199.55363 202.00751 204.49638 206.59326 208.44414
 210.07901 211.23289 211.47076 211.70764 211.65351 211.36739 211.00926 210.64814
 210.27401 209.99289 209.80976 209.68264 209.61951 209.95939 210.35426 210.75214
 211.55402 212.74089 213.99977 215.79164 217.72852 219.78039 221.88427 223.97614
 226.04502 228.13789 230.24377 232.35864 234.49652 236.67739 238.94227 241.32115
 243.95102 246.21090 248.22177 249.99565 251.42152 252.55340 253.38427 253.70915
 253.75502 253.53790 252.90677 251.86365 250.47852 248.64840 246.56628 244.40815
 242.20803 240.02090 237.84978 235.69765 233.56653 231.44240 229.47728 227.64315
 225.93503 224.41590 223.05478 221.83565 220.72653 219.69541 218.80828 217.95816
 217.20903 216.39791 215.50478 214.87766 214.33653 215.01495 216.49820 216.75848
 217.29839 217.99762 218.34293 217.84227 218.10899 220.04100 222.76619 226.23999
 229.86288 234.49075 239.23494 243.50031 247.50233 251.38362 255.07309 258.36978
 261.35815 264.13638 266.69809 269.00259 271.31409 273.74081 275.96512 277.80844
 279.39929 280.65344 281.92719 283.10226 284.11929 285.01913 285.84009 286.58380
 287.25272 287.84836 288.36871 289.03186
 366.78100 356.34556 345.78812 334.66468 323.07824 311.28279 299.16335 286.97691
 274.69947 262.60703 250.62659 239.93815 230.07071 221.18527 213.37783 206.39038
 200.23494 195.18350 191.77606 189.82862 188.87618 188.95074 189.79630 191.11486
 192.85042 194.95597 197.22953 199.59909 202.05465 204.54521 206.64377 208.49633
 210.13289 211.28845 211.52801 211.76656 211.71412 211.42968 211.07324 210.71380
 210.34136 210.06192 209.88048 209.75504 209.69360 210.03515 210.43171 210.83127
 211.63483 212.82339 214.08395 215.87751 217.81607 219.86963 221.97518 224.06874
 226.13930 228.23386 230.34142 232.45798 234.59754 236.78010 239.04666 241.42722
 244.05877 246.32033 248.33289 250.10845 251.53601 252.66957 253.50213 253.82869
 253.87625 253.66081 253.03136 251.98992 250.60648 248.77804 246.69760 244.54116
 242.34272 240.15728 237.98784 235.83740 233.70795 231.58551 229.62207 227.78963
 226.08319 224.56575 223.20631 221.98887 220.88143 219.85199 218.96654 218.11810
 217.37066 216.56122 215.66978 215.04434 214.50490 215.07561 216.39426 216.87636
 217.16031 217.83122 218.14993 217.68684 217.92581 219.90378 222.93083 226.12206
 229.99316 234.52853 239.23721 243.56375 247.57869 251.43161 255.03053 258.24344
 261.18921 263.98257 266.59583 269.04285 271.47592 273.93460 276.20364 278.15845
 279.82214 281.16083 282.14023 282.78766 283.35809 284.03265 284.71307 285.32953
 285.88391 286.37762 286.80893 287.35855
 366.78100 356.34817 345.79333 334.67250 323.08867 311.29584 299.17900 286.99517
 274.72034 262.63051 250.65267 239.96684 230.10201 221.21918 213.41434 206.42951
 200.27668 195.22785 191.82301 189.87818 188.92835 189.00552 189.85368 191.17485
 192.91302 195.02119 197.29735 199.66952 202.12769 204.62086 206.72202 208.57719
 210.21636 211.37453 211.61669 211.85786 211.80803 211.52620 211.17236 210.81553
 210.44570 210.16887 209.99003 209.86720 209.80837 210.15254 210.55170 210.95387
 211.76004 212.95121 214.21437 216.01054 217.95171 220.00788 222.11604 224.21221
 226.28538 228.38255 230.49271 232.61188 234.75405 236.93922 239.20838 241.59155
 244.22572 246.48989 248.50505 250.28322 251.71339 252.84956 253.68472 254.01389
 254.06406 253.85123 253.22439 252.18556 250.80473 248.97890 246.90106 244.74723
 242.55140 240.36857 238.20173 236.05390 233.92707 231.80724 229.84640 228.01657
 226.31274 224.79790 223.44107 222.22624 221.12141 220.09457 219.21174 218.36591
 217.62108 216.81424 215.92541 215.30258 214.76575 215.18736 216.18684 217.08725
 217.32663 217.83737 218.00920 217.32979 217.55966 219.70932 222.93565 225.83618
 230.01129 234.57205 239.33379 243.67755 247.69913 251.55792 255.15939 258.35992
 261.23587 263.93933 266.51956 269.00446 271.50430 274.00458 276.26675 278.19839
 279.82809 281.10596 282.01886 282.61478 282.95776 283.32422 283.84503 284.50595
 285.17651 285.77368 286.29532 286.96011
 366.78100 356.34751 345.79203 334.67054 323.08606 311.29257 299.17509 286.99060
 274.71511 262.62463 250.64614 239.95966 230.09417 221.21069 213.40520 206.41971
 200.26623 195.21674 191.81126 189.86577 188.91528 188.99180 189.83931 191.15983
 192.89734 195.00486 197.28037 199.65188 202.10940 204.60191 206.70243 208.55694
 210.19546 211.35297 211.59448 211.83500 211.78451 211.50203 211.14754 210.79006
 210.41957 210.14208 209.96260 209.83911 209.77963 210.12314 210.52166 210.92317
 211.72868 212.91920 214.18171 215.97723 217.91774 219.97325 222.08077 224.17628
 226.24880 228.34531 230.45483 232.57334 234.71485 236.89937 239.16788 241.55040
 244.18391 246.44743 248.46194 250.23945 251.66897 252.80448 253.63900 253.96751
 254.01703 253.80354 253.17605 252.13657 250.75508 248.92860 246.85011 244.69563
 242.49914 240.31565 238.14817 235.99968 233.87220 231.75171 229.79022 227.95974
 226.25525 224.73977 223.38228 222.16680 221.06131 220.03382 219.15034 218.30385
 217.55837 216.75088 215.86140 215.23791 214.70042 215.15573 216.23087 216.97276
 217.42889 218.02554 218.06868 217.12970 217.26787 219.42757 222.70453 225.85126
 229.99529 234.63861 239.40186 243.76538 247.81625 251.69177 255.31438 258.53915
 261.42175 264.08139 266.58237 269.00137 271.51898 274.10690 276.42194 278.31433
 279.90884 281.15125 281.99475 282.40594 282.62531 282.88672 283.32999 284.09937
 284.84067 285.50079 286.07748 286.81238
 366.78100 356.34516 345.78732 334.66348 323.07664 311.28081 299.16097 286.97413
 274.69629 262.60345 250.62261 239.93377 230.06593 221.18009 213.37225 206.38442
 200.22858 195.17674 191.76890 189.82106 188.86822 188.94238 189.78754 191.10570
 192.84086 194.94603 197.21919 199.58835 202.04351 204.53367 206.63183 208.48399
 210.12015 211.27531 211.51448 211.75264 211.69980 211.41496 211.05812 210.69828
 210.32544 210.04560 209.86376 209.73792 209.67609 210.01725 210.41341 210.81257
 211.61573 212.80389 214.06405 215.85721 217.79537 219.84853 221.95370 224.04686
 226.11702 228.21118 230.31834 232.43450 234.57366 236.75582 239.02198 241.40214
 244.03331 246.29447 248.30663 250.08179 251.50895 252.64211 253.47427 253.80043
 253.84759 253.63176 253.00192 251.96008 250.57624 248.74740 246.66656 244.50972
 242.31088 240.12504 237.95520 235.80437 233.67453 231.55169 229.58785 227.75501
 226.04817 224.53033 223.17049 221.95265 220.84481 219.81498 218.92914 218.08030
 217.33246 216.52262 215.63078 215.00494 214.46510 215.04735 216.39400 216.80727
 217.36513 218.02611 218.10284 217.18178 217.22719 219.24281 222.49086 226.00877
 230.02245 234.70477 239.44482 243.82843 247.90576 251.79080 255.40878 258.64212
 261.54465 264.19849 266.66400 269.03183 271.58194 274.21243 276.55127 278.48480
 280.07596 281.26602 281.99078 282.32227 282.49063 282.78458 283.61740 284.37189
 285.05045 285.65472 286.18259 286.85532
 366.78100 356.34484 345.78667 334.66251 323.07534 311.27918 299.15901 286.97185
 274.69368 262.60052 250.61936 239.93019 230.06203 221.17586 213.36770 206.37953
 200.22337 195.17120 191.76304 189.81488 188.86171 188.93555 189.78038 191.09822
 192.83305 194.93789 197.21072 199.57956 202.03440 204.52423 206.62207 208.47390
 210.10974 211.26457 211.50341 211.74124 211.68808 211.40292 211.04575 210.68559
 210.31242 210.03226 209.85009 209.72393 209.66176 210.00260 210.39844 210.79727
 211.60011 212.78794 214.04778 215.84061 217.77845 219.83128 221.93612 224.02896
 226.09879 228.19263 230.29946 232.41530 234.55413 236.73597 239.00180 241.38164
 244.01248 246.27331 248.28515 250.05998 251.48682 252.61965 253.45149 253.77732
 253.82416 253.60800 252.97783 251.93567 250.55150 248.72234 246.64117 244.48401
 242.28484 240.09868 237.92852 235.77735 233.64719 231.52402 229.55986 227.72669
 226.01953 224.50136 223.14120 221.92304 220.81487 219.78471 218.89854 218.04938
 217.30121 216.49105 215.59889 214.97272 214.43256 215.03159 216.41336 216.83916
 217.31804 217.96513 218.14340 217.22371 217.16251 219.11153 222.36806 226.01698
 230.05475 234.76855 239.50891 243.88924 247.96284 251.83707 255.43608 258.66537
 261.59235 264.26837 266.73462 269.08508 271.60931 274.30884 276.74847 278.67905
 280.31500 281.58008 282.26602 282.34399 282.28485 282.92838 283.72656 284.44968
 285.10007 285.67920 286.18515 286.82990
 366.78100 356.34660 345.79019 334.66779 323.08239 311.28799 299.16958 286.98418
 274.70778 262.61637 250.63697 239.94957 230.08316 221.19876 213.39236 206.40596
 200.25155 195.20115 191.79475 189.84834 188.89694 188.97254 189.81913 191.13873
 192.87533 194.98193 197.25652 199.62712 202.08372 204.57531 206.67491 208.52851
 210.16611 211.32270 211.56330 211.80290 211.75149 211.46809 211.11269 210.75428
 210.38288 210.10448 209.92408 209.79967 209.73927 210.08187 210.47946 210.88006
 211.68466 212.87425 214.13585 215.93045 217.87005 219.92464 222.03124 224.12584
 226.19743 228.29303 230.40163 232.51923 234.65982 236.84342 239.11102 241.49261
 244.12521 246.38781 248.40140 250.17800 251.60660 252.74120 253.57479 253.90239
 253.95099 253.73658 253.10818 252.06778 250.68537 248.85797 246.77857 244.62317
 242.42576 240.24136 238.07296 235.92355 233.79515 231.67375 229.71135 227.87994
 226.17454 224.65814 223.29973 222.08333 220.97693 219.94852 219.06412 218.21672
 217.47032 216.66191 215.77151 215.14711 214.60870 215.10703 216.28197 217.02917
 217.40501 217.78999 218.01881 217.10722 216.97504 218.95555 222.33173 225.91414
 230.08742 234.81421 239.57562 243.94934 248.02473 251.87662 255.45860 258.68375
 261.61505 264.30551 266.77789 269.13052 271.63428 274.39337 276.92712 278.89539
 280.51959 281.70901 282.30298 282.33496 282.20636 282.36447 283.04510 283.85681
 284.59564 285.25357 285.82831 286.56076
 366.78100 356.34735 345.79169 334.67004 323.08538 311.29173 299.17408 286.98942
 274.71377 262.62311 250.64446 239.95781 230.09215 221.20850 213.40284 206.41719
 200.26353 195.21388 191.80823 189.86257 188.91192 188.98826 189.83561 191.15596
 192.89330 195.00065 197.27599 199.64734 202.10469 204.59703 206.69738 208.55172
 210.19007 211.34742 211.58876 211.82911 211.77845 211.49580 211.14115 210.78349
 210.41284 210.13518 209.95553 209.83188 209.77222 210.11557 210.51391 210.91526
 211.72060 212.91095 214.17330 215.96864 217.90899 219.96433 222.07168 224.16703
 226.23937 228.33572 230.44506 232.56341 234.70476 236.88910 239.15745 241.53979
 244.17314 246.43649 248.45083 250.22818 251.65752 252.79287 253.62722 253.95556
 254.00491 253.79125 253.16360 252.12395 250.74229 248.91564 246.83698 244.68233
 242.48567 240.30202 238.13437 235.98571 233.85806 231.73740 229.77575 227.94510
 226.24044 224.72479 223.36713 222.15148 221.04583 220.01817 219.13452 218.28786
 217.54221 216.73456 215.84490 215.22125 214.68359 215.13492 216.20126 217.10547
 217.68794 217.87616 217.87021 216.95355 216.82521 218.74879 222.21298 225.77161
 230.12631 234.87038 239.65308 244.02138 248.10764 251.96153 255.55334 258.78387
 261.71368 264.38458 266.82410 269.16263 271.66833 274.41840 276.96643 278.97943
 280.55447 281.66641 282.21017 282.27362 282.16827 282.17300 282.49088 283.06186
 283.69110 284.35022 284.92996 285.66876
 366.78100 356.34673 345.79045 334.66818 323.08291 311.28864 299.17036 286.98509
 274.70882 262.61755 250.63827 239.95100 230.08473 221.20046 213.39418 206.40791
 200.25364 195.20336 191.79709 189.85082 188.89955 188.97527 189.82200 191.14173
 192.87846 194.98518 197.25991 199.63064 202.08737 204.57909 206.67882 208.53255
 210.17028 211.32700 211.56773 211.80746 211.75618 211.47291 211.11764 210.75937
 210.38809 210.10982 209.92955 209.80528 209.74500 210.08773 210.48546 210.88619
 211.69091 212.88064 214.14237 215.93709 217.87682 219.93155 222.03828 224.13300
 226.20473 228.30046 230.40919 232.52691 234.66764 236.85137 239.11910 241.50082
 244.13355 246.39628 248.41000 250.18673 251.61546 252.75019 253.58391 253.91164
 253.96037 253.74610 253.11782 252.07755 250.69528 248.86801 246.78873 244.63346
 242.43619 240.25192 238.08364 235.93437 233.80610 231.68482 229.72255 227.89128
 226.18601 224.66973 223.31146 222.09519 220.98892 219.96064 219.07637 218.22910
 217.48283 216.67455 215.78428 215.16001 214.62173 215.10277 216.23929 217.07198
 217.78700 218.00890 217.81422 216.78621 216.63312 218.54391 222.07771 225.77003
 230.14587 234.91072 239.70210 244.09512 248.20540 252.08102 255.69350 258.93555
 261.87100 264.52902 266.93460 269.19150 271.58218 274.35019 277.02621 279.06647
 280.63104 281.70419 282.15903 282.10532 281.93295 281.90698 282.17154 282.72882
 283.34409 283.96893 284.54840 285.28683
 354.97500 345.04800 334.58700 324.11500 313.32600 302.53700 291.65000 280.76700
 269.93100 259.19300 248.62200 238.61700 229.08700 220.35500 212.54000 205.53500
 199.46400 194.49300 191.14300 189.19000 188.08900 188.01400 188.72400 189.90600
 191.46900 193.38200 195.40300 197.55600 199.80700 202.06000 204.28800 206.47900
 208.55200 210.37800 212.02500 213.65900 214.99800 216.11800 217.17200 218.25900
 219.49400 220.64500 221.67900 222.61400 223.54500 224.98200 226.57100 228.19000
 229.79700 231.81100 233.86500 235.97200 238.24200 240.55300 242.89900 245.25300
 247.48800 249.53500 251.36600 252.84800 254.09800 255.16700 256.02700 256.25300
 256.09500 255.54300 253.93500 252.56600 251.38400 250.24500 249.05200 247.70100
 246.01600 243.99600 241.78400 239.39300 236.81300 234.22300 231.65800 229.14400
 226.74000 224.47300 222.33500 220.32500 218.44000 216.67700 214.96200 213.47200
 212.20000 211.10800 210.26000 209.63900 209.24400 209.03100 209.05800 209.33300
 209.78400 210.62600 211.33100 212.39100 213.62500 214.84668 217.72949 219.47640
 220.32566 220.86828 220.88710 220.27371 219.43733 218.84250 219.04934 220.86203
 222.60583 225.72206 229.03064 232.61777 236.12270 239.51333 242.70767 245.68587
 248.41061 250.90679 253.19353 254.91714 256.48655 257.94920 259.39966 260.69384
 261.81714 262.77997 263.71679 264.54570 265.26305 265.89772 266.47676 267.00133
 267.47312 267.89325 268.26027 268.72800
