|-------------------------------------------------------------------------|
|   File Name : in_temp.dat
|   Subject   : temperature profiles used for initial guess atmosphere
|   File Type : input of gmtr
|   Data Type : atmospherical data
|   Author/s  : WRF-Chem
|   Date      : Fri Jul 26 15:39:24 2024
|-------------------------------------------------------------------------|

 WRF-Chem temperature
#
 values of T (K)    (8f10.5)
#
 354.97500 345.04800 334.58700 324.11500 313.32600 302.53700 291.65000 280.76700
 269.93100 259.19300 248.62200 238.61700 229.08700 220.35500 212.54000 205.53500
 199.46400 194.49300 191.14300 189.19000 188.08900 188.01400 188.72400 189.90600
 191.46900 193.38200 195.40300 197.55600 199.80700 202.06000 204.28800 206.47900
 208.55200 210.37800 212.02500 213.65900 214.99800 216.11800 217.17200 218.25900
 219.49400 220.64500 221.67900 222.61400 223.54500 224.98200 226.57100 228.19000
 229.79700 231.81100 233.86500 235.97200 238.24200 240.55300 242.89900 245.25300
 247.48800 249.53500 251.36600 252.84800 254.09800 255.16700 256.02700 256.25300
 256.09500 255.54300 253.93500 252.56600 251.38400 250.24500 249.05200 247.70100
 246.01600 243.99600 241.78400 239.39300 236.81300 234.22300 231.65800 229.14400
 226.74000 224.47300 222.33500 220.32500 218.44000 216.67700 214.96200 213.47200
 212.20000 211.10800 210.26000 209.63900 209.24400 209.03100 209.05800 209.33300
 209.78400 210.62600 211.33100 212.39100 213.62500 214.84668 217.72949 219.47640
 220.32566 220.86828 220.88710 220.27371 219.43733 218.84250 219.04934 220.86203
 222.60583 225.72206 229.03064 232.61777 236.12270 239.51333 242.70767 245.68587
 248.41061 250.90679 253.19353 254.91714 256.48655 257.94920 259.39966 260.69384
 261.81714 262.77997 263.71679 264.54570 265.26305 265.89772 266.47676 267.00133
 267.47312 267.89325 268.26027 268.72800
 366.78100 356.33500 345.76700 334.63300 323.03600 311.23000 299.10000 286.90300
 274.61500 262.51200 250.52100 239.82200 229.94400 221.04800 213.23000 206.23200
 200.06600 195.00400 191.58600 189.62800 188.66500 188.72900 189.56400 190.87200
 192.59700 194.69200 196.95500 199.31400 201.75900 204.23900 206.32700 208.16900
 209.79500 210.94000 211.16900 211.39700 211.33400 211.03900 210.67200 210.30200
 209.91900 209.62900 209.43700 209.30100 209.22900 209.56000 209.94600 210.33500
 211.12800 212.30600 213.55600 215.33900 217.26700 219.31000 221.40500 223.48800
 225.54800 227.63200 229.72900 231.83500 233.96400 236.13600 238.39200 240.76200
 243.38300 245.63400 247.63600 249.40100 250.81800 251.94100 252.76300 253.07900
 253.11600 252.89000 252.25000 251.19800 249.80400 247.96500 245.87400 243.70700
 241.49800 239.30200 237.12200 234.96100 232.82100 230.68800 228.71400 226.87100
 225.15400 223.62600 222.25600 221.02800 219.91000 218.87000 217.97400 217.11500
 216.35700 215.53700 214.63500 213.99900 213.44900 212.85855 212.01316 212.61654
 214.26826 216.08686 218.14273 220.53346 223.40855 226.78828 231.49734 235.90155
 239.42278 243.28576 247.23140 251.11907 254.80144 258.23331 261.38913 264.27520
 266.89312 269.26852 271.44504 273.08845 274.58484 275.98591 277.39845 278.65879
 279.75272 280.69038 281.56708 282.34086 283.01050 283.60295 284.14348 284.63317
 285.07358 285.46577 285.80838 286.24500
 381.81900 372.39900 361.20600 349.77600 337.62200 324.85300 311.81000 298.35300
 284.86000 271.32400 258.56100 246.30400 236.08700 226.79600 218.44800 211.29000
 205.52200 200.89400 197.38100 194.84800 193.01500 192.31500 192.25000 192.43100
 192.91200 193.53700 194.13600 194.71200 195.26200 195.83100 196.39300 196.97600
 197.60400 198.14900 198.58400 199.05700 199.69500 200.37800 201.05400 201.70800
 202.31300 202.85700 203.35500 203.86200 204.56900 205.29700 206.02600 206.98700
 208.19300 209.44100 210.96900 212.57600 214.46200 216.51300 218.63000 220.85300
 223.34100 225.96200 228.73900 231.69700 234.70600 237.70600 240.69200 243.65700
 246.73700 249.69900 252.52100 255.06300 257.29000 259.23300 260.63300 261.68000
 262.46100 262.79800 262.69100 262.22400 261.06900 259.52500 257.70700 255.50700
 253.00100 250.30200 247.39800 244.45200 241.65400 239.05400 236.73300 234.59000
 232.59500 230.72500 228.83400 226.82600 224.66600 222.38700 220.10400 217.71500
 215.45900 213.06600 210.54600 208.09300 205.35400 202.08130 196.05959 200.71215
 209.01611 216.90438 223.84126 229.78593 235.00632 240.20838 245.98943 250.68668
 254.32982 257.93487 261.55666 264.96801 268.15192 271.06452 273.76717 276.25691
 278.57680 280.74479 282.77456 284.60533 286.27232 287.81705 289.31715 290.65561
 291.81734 292.81312 293.70701 294.49387 295.17482 295.77730 296.32696 296.82492
 297.27278 297.67160 298.02000 298.46400
 399.33000 389.90700 379.81300 368.66800 357.52200 345.30100 333.07400 320.22700
 307.21600 293.84800 280.37600 267.29600 254.61000 242.98700 232.15100 221.97700
 212.67200 204.28600 197.66900 192.82100 189.48600 187.45200 186.81400 187.08900
 187.78100 189.05400 190.64800 192.54200 194.63000 196.75200 198.67100 200.15800
 201.53500 202.48700 202.97500 203.34000 203.53900 203.49700 203.38500 203.24700
 203.00500 202.78600 202.60300 202.43700 202.42600 202.88800 203.42000 203.95100
 204.89500 205.99200 207.30100 208.95800 210.73800 213.10000 215.56400 218.18000
 220.96600 223.91800 226.96100 230.09200 233.29300 236.55700 239.95500 243.53700
 246.84500 249.39000 251.54200 253.47400 255.19500 256.48400 257.43100 258.05900
 258.21200 258.04000 257.58200 256.64300 255.23900 253.50700 251.40800 249.05600
 246.57600 243.99400 241.38900 238.83000 236.34400 233.98600 231.96900 230.11800
 228.42300 226.89900 225.54800 224.29700 223.10500 221.96500 220.95800 220.11300
 219.49000 218.92000 218.32500 217.88100 217.42300 216.96366 216.35568 216.80261
 217.73415 218.28582 218.64258 219.10077 220.44626 222.53987 226.38451 230.35736
 233.59734 237.39164 241.29814 245.22796 248.98002 252.51130 255.78595 258.80109
 261.54781 264.05210 266.34239 268.04198 269.58951 271.01303 272.35754 273.55718
 274.59842 275.49092 276.28989 276.99307 277.60161 278.14001 278.63122 279.07623
 279.47646 279.83287 280.14422 280.54100
 399.73800 389.78500 379.66200 368.15100 356.64100 344.35000 331.79200 318.88800
 305.72600 292.49300 279.20900 266.73800 254.69600 244.21100 234.45700 225.43300
 217.56900 210.45100 204.30000 199.30600 195.45800 192.57600 191.02700 190.38600
 190.23900 190.53400 191.16600 191.92500 192.79500 193.76600 194.73200 195.31200
 195.80000 196.05200 196.11500 196.11500 196.03900 195.72300 195.34000 194.98900
 194.75100 194.79200 195.13300 195.59800 196.50600 198.13600 199.85800 201.56600
 204.17900 206.82300 209.89300 213.28400 216.82800 220.60500 224.38700 228.20900
 232.03200 235.82500 239.56000 243.25800 246.84500 250.20100 253.70900 257.46800
 261.53000 264.22100 266.60100 268.68100 270.32900 271.74100 272.83600 273.47400
 273.89800 274.00200 273.75700 273.28800 272.37100 271.10000 269.58900 267.77900
 265.81600 263.72100 261.39300 258.91600 256.29800 253.42300 250.33100 247.11400
 243.83700 240.52900 237.24900 233.99900 230.72800 227.51500 224.25400 220.95200
 217.62700 213.65600 210.12100 206.78900 204.01000 201.99491 199.07309 198.76551
 199.40006 200.48994 201.46112 202.31912 203.45100 204.96110 207.47502 210.85391
 213.70530 217.29629 220.99574 224.72316 228.28753 231.64854 234.68024 237.40893
 239.70644 241.60899 243.46854 245.67368 247.68154 249.52395 251.24767 252.78566
 254.12057 255.26479 256.23740 257.09036 257.82852 258.48160 259.07744 259.61723
 260.10271 260.53504 260.91270 261.39400
 399.73800 389.78500 379.66200 368.15100 356.64100 344.35000 331.79200 318.88800
 305.72600 292.49300 279.20900 266.73800 254.69600 244.21100 234.45700 225.43300
 217.56900 210.45100 204.30000 199.30600 195.45800 192.57600 191.02700 190.38600
 190.23900 190.53400 191.16600 191.92500 192.79500 193.76600 194.73200 195.31200
 195.80000 196.05200 196.11500 196.11500 196.03900 195.72300 195.34000 194.98900
 194.75100 194.79200 195.13300 195.59800 196.50600 198.13600 199.85800 201.56600
 204.17900 206.82300 209.89300 213.28400 216.82800 220.60500 224.38700 228.20900
 232.03200 235.82500 239.56000 243.25800 246.84500 250.20100 253.70900 257.46800
 261.53000 264.22100 266.60100 268.68100 270.32900 271.74100 272.83600 273.47400
 273.89800 274.00200 273.75700 273.28800 272.37100 271.10000 269.58900 267.77900
 265.81600 263.72100 261.39300 258.91600 256.29800 253.42300 250.33100 247.11400
 243.83700 240.52900 237.24900 233.99900 230.72800 227.51500 224.25400 220.95200
 217.62700 213.65600 210.12100 206.78900 204.01000 201.99491 199.07309 198.76551
 199.40006 200.48994 201.46112 202.31912 203.45100 204.96110 207.47502 210.85391
 213.70530 217.29629 220.99574 224.72316 228.28753 231.64854 234.68024 237.40893
 239.70644 241.60899 243.46854 245.67368 247.68154 249.52395 251.24767 252.78566
 254.12057 255.26479 256.23740 257.09036 257.82852 258.48160 259.07744 259.61723
 260.10271 260.53504 260.91270 261.39400
 399.33000 389.90700 379.81300 368.66800 357.52200 345.30100 333.07400 320.22700
 307.21600 293.84800 280.37600 267.29600 254.61000 242.98700 232.15100 221.97700
 212.67200 204.28600 197.66900 192.82100 189.48600 187.45200 186.81400 187.08900
 187.78100 189.05400 190.64800 192.54200 194.63000 196.75200 198.67100 200.15800
 201.53500 202.48700 202.97500 203.34000 203.53900 203.49700 203.38500 203.24700
 203.00500 202.78600 202.60300 202.43700 202.42600 202.88800 203.42000 203.95100
 204.89500 205.99200 207.30100 208.95800 210.73800 213.10000 215.56400 218.18000
 220.96600 223.91800 226.96100 230.09200 233.29300 236.55700 239.95500 243.53700
 246.84500 249.39000 251.54200 253.47400 255.19500 256.48400 257.43100 258.05900
 258.21200 258.04000 257.58200 256.64300 255.23900 253.50700 251.40800 249.05600
 246.57600 243.99400 241.38900 238.83000 236.34400 233.98600 231.96900 230.11800
 228.42300 226.89900 225.54800 224.29700 223.10500 221.96500 220.95800 220.11300
 219.49000 218.92000 218.32500 217.88100 217.42300 216.96366 216.35568 216.80261
 217.73415 218.28582 218.64258 219.10077 220.44626 222.53987 226.38451 230.35736
 233.59734 237.39164 241.29814 245.22796 248.98002 252.51130 255.78595 258.80109
 261.54781 264.05210 266.34239 268.04198 269.58951 271.01303 272.35754 273.55718
 274.59842 275.49092 276.28989 276.99307 277.60161 278.14001 278.63122 279.07623
 279.47646 279.83287 280.14422 280.54100
 381.81900 372.39900 361.20600 349.77600 337.62200 324.85300 311.81000 298.35300
 284.86000 271.32400 258.56100 246.30400 236.08700 226.79600 218.44800 211.29000
 205.52200 200.89400 197.38100 194.84800 193.01500 192.31500 192.25000 192.43100
 192.91200 193.53700 194.13600 194.71200 195.26200 195.83100 196.39300 196.97600
 197.60400 198.14900 198.58400 199.05700 199.69500 200.37800 201.05400 201.70800
 202.31300 202.85700 203.35500 203.86200 204.56900 205.29700 206.02600 206.98700
 208.19300 209.44100 210.96900 212.57600 214.46200 216.51300 218.63000 220.85300
 223.34100 225.96200 228.73900 231.69700 234.70600 237.70600 240.69200 243.65700
 246.73700 249.69900 252.52100 255.06300 257.29000 259.23300 260.63300 261.68000
 262.46100 262.79800 262.69100 262.22400 261.06900 259.52500 257.70700 255.50700
 253.00100 250.30200 247.39800 244.45200 241.65400 239.05400 236.73300 234.59000
 232.59500 230.72500 228.83400 226.82600 224.66600 222.38700 220.10400 217.71500
 215.45900 213.06600 210.54600 208.09300 205.35400 202.08130 196.05959 200.71215
 209.01611 216.90438 223.84126 229.78593 235.00632 240.20838 245.98943 250.68668
 254.32982 257.93487 261.55666 264.96801 268.15192 271.06452 273.76717 276.25691
 278.57680 280.74479 282.77456 284.60533 286.27232 287.81705 289.31715 290.65561
 291.81734 292.81312 293.70701 294.49387 295.17482 295.77730 296.32696 296.82492
 297.27278 297.67160 298.02000 298.46400
 366.78100 356.33852 345.77403 334.64355 323.05007 311.24758 299.12110 286.92762
 274.64313 262.54365 250.55617 239.86068 229.98620 221.09372 213.27923 206.28475
 200.12227 195.06378 191.64930 189.69482 188.73533 188.80285 189.64137 190.95288
 192.68140 194.77991 197.04643 199.40895 201.85746 204.34098 206.43250 208.27801
 209.90753 211.05605 211.28856 211.52008 211.46060 211.16911 210.80563 210.43915
 210.05966 209.77318 209.58470 209.45221 209.38373 209.71825 210.10776 210.50028
 211.29680 212.47831 213.73183 215.51835 217.44986 219.49638 221.59490 223.68141
 225.74493 227.83245 229.93296 232.04248 234.17500 236.35051 238.61003 240.98355
 243.60806 245.86258 247.86810 249.63661 251.05713 252.18364 253.00916 253.32868
 253.36919 253.14671 252.51023 251.46174 250.07126 248.23578 246.14829 243.98481
 241.77933 239.58684 237.41036 235.25288 233.11639 230.98691 229.01643 227.17694
 225.46346 223.93898 222.57249 221.34801 220.23353 219.19704 218.30456 217.44908
 216.69459 215.87811 214.97963 214.34714 213.80066 213.17696 211.70616 211.34721
 212.09924 213.96341 215.91499 216.97351 218.87889 222.92726 228.86836 233.90968
 237.73505 241.45134 245.16881 249.00681 252.97913 256.17441 258.74936 261.24597
 264.10132 266.82062 269.18878 271.21637 273.04874 274.79416 276.43063 278.09097
 279.80069 281.43811 282.93170 284.28650 285.46680 286.51376 287.47330 288.34448
 289.13400 289.84247 290.46902 291.30026
 366.78100 356.33609 345.76917 334.63626 323.04035 311.23544 299.10652 286.91061
 274.62370 262.52179 250.53187 239.83396 229.95705 221.06213 213.24522 206.24831
 200.08340 195.02248 191.60557 189.64866 188.68674 188.75183 189.58792 190.89701
 192.62309 194.71918 196.98327 199.34336 201.78944 204.27053 206.35962 208.20270
 209.82979 210.97588 211.20597 211.43505 211.37314 211.07923 210.71332 210.34440
 209.96249 209.67358 209.48266 209.34775 209.27684 209.60893 209.99601 210.38610
 211.18019 212.35927 213.61036 215.39445 217.32354 219.36762 221.46371 223.54780
 225.60889 227.69397 229.79206 231.89915 234.02923 236.20232 238.45941 240.83050
 243.45258 245.70467 247.70776 249.47385 250.89193 252.01602 252.83911 253.15619
 253.19428 252.96937 252.33046 251.27954 249.88663 248.04872 245.95880 243.79289
 241.58498 239.39007 237.21115 235.05124 232.91233 230.78042 228.80750 226.96559
 225.24968 223.72276 222.35385 221.12694 220.01003 218.97111 218.07620 217.21829
 216.46138 215.64246 214.74155 214.10664 213.55772 213.05534 211.87016 211.50974
 212.17133 214.05389 215.95081 217.01527 218.78116 222.83420 228.81274 233.82899
 237.64568 241.37067 245.11435 248.97163 252.94012 256.08936 258.61896 261.12567
 263.96387 266.69449 269.09570 271.12079 272.92865 274.65018 276.29370 277.96710
 279.68521 281.32858 282.82819 284.18271 285.36377 286.41129 287.36993 288.24277
 289.03308 289.74240 290.36810 291.20093
 366.78100 356.33368 345.76436 334.62904 323.03072 311.22340 299.09207 286.89375
 274.60443 262.50011 250.50779 239.80747 229.92815 221.03083 213.21151 206.21219
 200.04487 194.98154 191.56222 189.60290 188.63858 188.70126 189.53494 190.84162
 192.56530 194.65898 196.92066 199.27834 201.72201 204.20069 206.28737 208.12805
 209.75273 210.89641 211.12409 211.35077 211.28645 210.99013 210.62181 210.25048
 209.86616 209.57484 209.38152 209.24420 209.17088 209.50056 209.88524 210.27292
 211.06460 212.24128 213.48995 215.27163 217.19831 219.23999 221.33367 223.41535
 225.47403 227.55671 229.65239 231.75707 233.88475 236.05542 238.31010 240.67878
 243.29846 245.54814 247.54882 249.31250 250.72818 251.84986 252.67054 252.98522
 253.02090 252.79357 252.15225 251.09893 249.70361 247.86329 245.77097 243.60265
 241.39233 239.19501 237.01369 234.85137 232.71004 230.57572 228.60040 226.75608
 225.03776 223.50844 222.13712 220.90780 219.78848 218.74716 217.84984 216.98951
 216.23019 215.40887 214.50555 213.86823 213.31691 212.93448 212.03175 211.64761
 212.26729 214.14751 215.96750 217.06007 218.71857 222.75629 228.76543 233.74960
 237.55531 241.28761 245.05693 248.93188 252.88918 255.99529 258.48831 261.00726
 263.82446 266.56461 268.99921 271.02225 272.80658 274.50684 276.15900 277.84497
 279.57315 281.22134 282.72714 284.08298 285.26511 286.31244 287.27286 288.14545
 288.93533 289.64575 290.27249 291.10587
 366.78100 356.33172 345.76044 334.62316 323.02288 311.21360 299.08032 286.88004
 274.58876 262.48248 250.48820 239.78593 229.90465 221.00537 213.18409 206.18281
 200.01353 194.94825 191.52697 189.56569 188.59941 188.66013 189.49185 190.79657
 192.51829 194.61001 196.86973 199.22545 201.66717 204.14389 206.22861 208.06733
 209.69006 210.83178 211.05750 211.28222 211.21594 210.91766 210.54738 210.17410
 209.78782 209.49454 209.29926 209.15998 209.08470 209.41242 209.79514 210.18086
 210.97058 212.14530 213.39202 215.17174 217.09646 219.13619 221.22791 223.30763
 225.36435 227.44507 229.53879 231.64151 233.76723 235.93595 238.18867 240.55539
 243.17311 245.42083 247.41955 249.18127 250.59499 251.71471 252.53343 252.84615
 252.87987 252.65060 252.00732 250.95204 249.55476 247.71248 245.61820 243.44792
 241.23564 239.03636 236.85308 234.68880 232.54552 230.40924 228.43196 226.58568
 224.86540 223.33412 221.96084 220.72956 219.60828 218.56500 217.66573 216.80345
 216.04217 215.21889 214.31361 213.67433 213.12105 212.83543 212.16095 211.79491
 212.37126 214.23364 215.99640 217.10420 218.67278 222.69533 228.71909 233.66556
 237.45918 241.20242 244.99883 248.88936 252.82947 255.89565 258.36035 260.89075
 263.68326 266.42822 268.89255 270.91467 272.68112 274.36835 276.03091 277.73224
 279.46802 281.11923 282.63135 283.98846 285.16974 286.21826 287.17892 288.05099
 288.84189 289.55478 290.17987 291.01810
 366.78100 356.33015 345.75729 334.61844 323.01659 311.20573 299.07088 286.86903
 274.57617 262.46832 250.47247 239.76862 229.88576 220.98491 213.16206 206.15920
 199.98835 194.92150 191.49864 189.53579 188.56794 188.62708 189.45723 190.76038
 192.48052 194.57067 196.82882 199.18296 201.62311 204.09826 206.18141 208.01855
 209.63970 210.77985 211.00399 211.22714 211.15929 210.85943 210.48758 210.11273
 209.72487 209.43002 209.23317 209.09231 209.01546 209.34161 209.72275 210.10690
 210.89505 212.06820 213.31334 215.09149 217.01464 219.05278 221.14293 223.22108
 225.27622 227.35537 229.44752 231.54866 233.67281 235.83996 238.09110 240.45625
 243.07240 245.31854 247.31569 249.07584 250.48799 251.60613 252.42328 252.73443
 252.76657 252.53572 251.89087 250.83401 249.43516 247.59131 245.49545 243.32360
 241.10975 238.90889 236.72404 234.55819 232.41333 230.27548 228.29663 226.44878
 224.72692 223.19407 221.81922 220.58636 219.46351 218.41866 217.51780 216.65395
 215.89110 215.06624 214.15939 213.51854 212.96368 212.75496 212.26193 211.94896
 212.48294 214.31268 216.03888 217.14847 218.63730 222.65111 228.67059 233.58061
 237.36272 241.11961 244.94328 248.84578 252.76047 255.79103 258.23422 260.77643
 263.53842 266.28214 268.77170 270.79593 272.55292 274.23444 275.90936 277.62805
 279.36752 281.02530 282.54053 283.89944 285.08047 286.12823 287.08963 287.96436
 288.75592 289.46729 290.09384 290.93286
 366.78100 356.32877 345.75454 334.61431 323.01108 311.19884 299.06261 286.85938
 274.56515 262.45592 250.45869 239.75346 229.86923 220.96700 213.14277 206.13853
 199.96630 194.89807 191.47384 189.50961 188.54038 188.59815 189.42692 190.72869
 192.44746 194.53622 196.79299 199.14576 201.58453 204.05830 206.14007 207.97584
 209.59561 210.73438 210.95715 211.17891 211.10968 210.80845 210.43522 210.05899
 209.66976 209.37353 209.17530 209.03307 208.95483 209.27960 209.65937 210.04214
 210.82891 212.00068 213.24445 215.02122 216.94299 218.97976 221.06852 223.14529
 225.19906 227.27683 229.36760 231.46737 233.59014 235.75591 238.00568 240.36945
 242.98421 245.22898 247.22475 248.98352 250.39429 251.51106 252.32683 252.63660
 252.66737 252.43513 251.78890 250.73067 249.33044 247.48521 245.38798 243.21475
 240.99952 238.79729 236.61106 234.44382 232.29759 230.15836 228.17813 226.32890
 224.60567 223.07144 221.69521 220.46098 219.33675 218.29051 217.38828 216.52305
 215.75882 214.93259 214.02436 213.38213 212.82590 212.68401 212.34879 212.10011
 212.60016 214.39174 216.09256 217.18504 218.61517 222.62291 228.62085 233.49916
 237.27176 241.04156 244.88983 248.79950 252.68126 255.68115 258.11038 260.66296
 263.39044 266.12424 268.63434 270.66281 272.42316 274.11050 275.79758 277.52954
 279.27185 280.93665 282.45535 283.81519 284.99539 286.04608 287.00504 287.88223
 288.67267 289.38467 290.01447 290.85019
 366.78100 356.32755 345.75211 334.61066 323.00622 311.19277 299.05533 286.85088
 274.55543 262.44499 250.44654 239.74010 229.85465 220.95121 213.12576 206.12032
 199.94687 194.87742 191.45198 189.48653 188.51609 188.57264 189.40020 190.70075
 192.41830 194.50586 196.76141 199.11297 201.55052 204.02308 206.10363 207.93819
 209.55674 210.69429 210.91585 211.13640 211.06596 210.76351 210.38907 210.01162
 209.62117 209.32373 209.12428 208.98084 208.90139 209.22495 209.60350 209.98506
 210.77061 211.94116 213.18372 214.95927 216.87983 218.91538 221.00294 223.07849
 225.13104 227.20760 229.29715 231.39571 233.51726 235.68182 237.93037 240.29293
 242.90648 245.15003 247.14459 248.90214 250.31170 251.42725 252.24181 252.55036
 252.57991 252.34647 251.69902 250.63958 249.23813 247.39169 245.29324 243.11880
 240.90235 238.69890 236.51146 234.34301 232.19557 230.05512 228.07368 226.22323
 224.49878 222.96334 221.58589 220.35045 219.22500 218.17756 217.27411 216.40767
 215.64222 214.81477 213.90533 213.26188 212.70444 212.62131 212.42484 212.24467
 212.72102 214.47958 216.15352 217.20702 218.61517 222.60808 228.56799 233.42329
 237.18765 240.96864 244.83771 248.74959 252.59073 255.56500 257.99002 260.55231
 263.24026 265.95697 268.47885 270.51254 272.28598 273.99316 275.69821 277.44077
 279.18652 280.85184 282.37482 283.73431 284.91718 285.96591 286.92697 287.80258
 288.59610 289.30774 289.93677 290.77682
 366.78100 356.32654 345.75008 334.60761 323.00215 311.18769 299.04923 286.84376
 274.54730 262.43584 250.43638 239.72891 229.84245 220.93799 213.11153 206.10506
 199.93060 194.86014 191.43368 189.46721 188.49575 188.55129 189.37783 190.67736
 192.39390 194.48044 196.73498 199.08551 201.52205 203.99359 206.07313 207.90666
 209.52420 210.66074 210.88128 211.10081 211.02935 210.72589 210.35043 209.97196
 209.58050 209.28204 209.08158 208.93711 208.85665 209.17919 209.55673 209.93726
 210.72180 211.89134 213.13288 214.90741 216.82695 218.86149 220.94803 223.02256
 225.07410 227.14964 229.23818 231.33571 233.45625 235.61979 237.86733 240.22886
 242.84140 245.08394 247.07748 248.83401 250.24255 251.35709 252.17063 252.47816
 252.50670 252.27224 251.62378 250.56331 249.16085 247.31339 245.21393 243.03846
 240.82100 238.61654 236.42808 234.25861 232.11015 229.96869 227.98623 226.13476
 224.40930 222.87284 221.49438 220.25791 219.13145 218.08299 217.17853 216.31107
 215.54460 214.71614 213.80568 213.16122 212.60275 212.56938 212.49046 212.38017
 212.84662 214.57642 216.21938 217.22311 218.62807 222.60640 228.51917 233.34973
 237.10571 240.89774 244.78673 248.69800 252.48801 255.43962 257.87094 260.44312
 263.09079 265.78241 268.30875 270.34854 272.14471 273.88104 275.60544 277.35687
 279.10468 280.77454 282.30136 283.66272 284.84497 285.89468 286.85663 287.73297
 288.52682 289.23953 289.86880 290.71133
 366.78100 356.32573 345.74846 334.60518 322.99891 311.18364 299.04437 286.83810
 274.54083 262.42855 250.42828 239.72001 229.83274 220.92747 213.10019 206.09292
 199.91765 194.84638 191.41911 189.45184 188.47956 188.53429 189.36002 190.65875
 192.37448 194.46021 196.71393 199.06366 201.49939 203.97012 206.04885 207.88157
 209.49830 210.63403 210.85376 211.07249 211.00022 210.69594 210.31967 209.94040
 209.54813 209.24886 209.04758 208.90231 208.82104 209.14277 209.51950 209.89923
 210.68295 211.85168 213.09241 214.86614 216.78487 218.81859 220.90432 222.97805
 225.02878 227.10351 229.19124 231.28796 233.40769 235.57042 237.81715 240.17788
 242.78960 245.03133 247.02406 248.77979 250.18752 251.30125 252.11397 252.42070
 252.44843 252.21316 251.56389 250.50262 249.09934 247.25107 245.15080 242.97453
 240.75626 238.55098 236.36171 234.19144 232.04217 229.89990 227.91663 226.06435
 224.33808 222.80081 221.42154 220.18427 219.05699 218.00772 217.10245 216.23418
 215.46691 214.63764 213.72636 213.08109 212.52182 212.52946 212.54753 212.50558
 212.97337 214.68890 216.28392 217.23773 218.68634 222.61609 228.46796 233.27493
 237.02513 240.82918 244.73822 248.64618 252.37263 255.30179 257.74866 260.33344
 262.94046 265.60110 268.12692 270.17694 272.00595 273.77689 275.52039 277.27902
 279.02948 280.70215 282.23480 283.59631 284.77982 285.83054 286.79248 287.66995
 288.46277 289.17776 289.80807 290.65271
 366.78100 356.32527 345.74755 334.60382 322.99709 311.18136 299.04164 286.83491
 274.53718 262.42446 250.42373 239.71500 229.82727 220.92155 213.09382 206.08609
 199.91037 194.83864 191.41091 189.44318 188.47046 188.52473 189.35000 190.64828
 192.36355 194.44882 196.70209 199.05137 201.48664 203.95691 206.03519 207.86746
 209.48373 210.61900 210.83828 211.05655 210.98382 210.67910 210.30237 209.92264
 209.52992 209.23019 209.02846 208.88273 208.80101 209.12228 209.49855 209.87783
 210.66110 211.82937 213.06964 214.84292 216.76119 218.79446 220.87974 222.95301
 225.00328 227.07755 229.16483 231.26110 233.38037 235.54265 237.78892 240.14919
 242.76046 245.00174 246.99401 248.74928 250.15656 251.26983 252.08210 252.38837
 252.41565 252.17992 251.53019 250.46847 249.06474 247.21601 245.11528 242.93856
 240.71983 238.51410 236.32438 234.15365 232.00392 229.86119 227.87747 226.02474
 224.29801 222.76029 221.38056 220.14283 219.01510 217.96538 217.05965 216.19092
 215.42320 214.59347 213.68174 213.03601 212.47629 212.50929 212.58725 212.62715
 213.10608 214.79346 216.36888 217.27193 218.72798 222.63368 228.43246 233.20354
 236.94119 240.75725 244.68689 248.59061 252.24301 255.14853 257.61914 260.21902
 262.78809 265.41617 267.93665 270.00378 271.87692 273.68878 275.44604 277.20560
 278.95917 280.63635 282.17328 283.53787 284.72058 285.77054 286.73468 287.61203
 288.40695 289.12314 289.75198 290.60199
 366.78100 356.32491 345.74682 334.60273 322.99564 311.17955 299.03946 286.83237
 274.53428 262.42119 250.42010 239.71101 229.82292 220.91683 213.08874 206.08065
 199.90456 194.83247 191.40437 189.43628 188.46319 188.51710 189.34201 190.63992
 192.35483 194.43974 196.69265 199.04156 201.47647 203.94638 206.02429 207.85620
 209.47211 210.60702 210.82593 211.04384 210.97075 210.66566 210.28857 209.90848
 209.51539 209.21530 209.01321 208.86712 208.78503 209.10594 209.48185 209.86076
 210.64367 211.81158 213.05149 214.82440 216.74231 218.77522 220.86012 222.93303
 224.98294 227.05685 229.14376 231.23967 233.35858 235.52049 237.76640 240.12631
 242.73722 244.97813 246.97004 248.72495 250.13186 251.24477 252.05668 252.36259
 252.38950 252.15341 251.50332 250.44123 249.03714 247.18805 245.08696 242.90987
 240.69078 238.48469 236.29460 234.12351 231.97342 229.83033 227.84624 225.99315
 224.26606 222.72797 221.34787 220.10978 218.98169 217.93160 217.02551 216.15642
 215.38833 214.55824 213.64615 213.00006 212.43997 212.49661 212.63042 212.72299
 213.24893 214.92856 216.42520 217.30826 218.82996 222.65343 228.38190 233.11678
 236.84912 240.68262 244.63672 248.53400 252.10387 254.98352 257.48349 260.10028
 262.63559 265.22943 267.74155 269.83270 271.75967 273.61850 275.38696 277.13809
 278.89032 280.57571 282.11655 283.48029 284.66467 285.71658 286.68112 287.55936
 288.35727 289.06979 289.70111 290.55408
 366.78100 356.32461 345.74623 334.60184 322.99445 311.17807 299.03768 286.83029
 274.53190 262.41852 250.41713 239.70774 229.81936 220.91297 213.08458 206.07620
 199.89981 194.82742 191.39904 189.43065 188.45726 188.51087 189.33549 190.63310
 192.34771 194.43233 196.68494 199.03355 201.46817 203.93778 206.01539 207.84701
 209.46262 210.59723 210.81585 211.03346 210.96007 210.65468 210.27730 209.89691
 209.50352 209.20314 209.00075 208.85436 208.77198 209.09259 209.46820 209.84682
 210.62943 211.79704 213.03665 214.80927 216.72688 218.75949 220.84411 222.91672
 224.96633 227.03995 229.12656 231.22217 233.34079 235.50240 237.74801 240.10762
 242.71824 244.95885 246.95046 248.70508 250.11169 251.22430 252.03592 252.34153
 252.36814 252.13176 251.48137 250.41898 249.01459 247.16521 245.06382 242.88643
 240.66705 238.46066 236.27027 234.09889 231.94850 229.80511 227.82073 225.96734
 224.23995 222.70156 221.32118 220.08279 218.95440 217.90402 216.99763 216.12824
 215.35986 214.52947 213.61708 212.97070 212.41031 212.48956 212.67682 212.81813
 213.35709 215.07011 216.57741 217.32738 218.84479 222.66765 228.34731 233.04250
 236.76614 240.61427 244.58899 248.47333 251.95461 254.80905 257.34473 259.98282
 262.49155 265.04730 267.54675 269.66440 271.64725 273.55750 275.33694 277.07605
 278.82059 280.51895 282.06284 283.42810 284.61197 285.66437 286.62872 287.50851
 288.30579 289.02380 289.65271 290.50717
 366.78100 356.32461 345.74623 334.60184 322.99446 311.17807 299.03769 286.83030
 274.53192 262.41853 250.41715 239.70776 229.81938 220.91299 213.08461 206.07622
 199.89984 194.82745 191.39907 189.43068 188.45730 188.51091 189.33553 190.63314
 192.34776 194.43237 196.68499 199.03360 201.46822 203.93783 206.01545 207.84706
 209.46268 210.59729 210.81591 211.03352 210.96014 210.65475 210.27737 209.89698
 209.50360 209.20321 209.00083 208.85444 208.77206 209.09267 209.46829 209.84690
 210.62952 211.79713 213.03675 214.80936 216.72698 218.75959 220.84421 222.91682
 224.96644 227.04005 229.12667 231.22228 233.34090 235.50251 237.74813 240.10774
 242.71835 244.95897 246.95058 248.70520 250.11181 251.22443 252.03604 252.34166
 252.36827 252.13189 251.48150 250.41912 249.01473 247.16535 245.06396 242.88658
 240.66719 238.46081 236.27042 234.09904 231.94865 229.80527 227.82088 225.96750
 224.24011 222.70173 221.32134 220.08296 218.95457 217.90419 216.99780 216.12842
 215.36003 214.52965 213.61726 212.97088 212.41049 212.49924 212.70888 212.93233
 213.46382 215.13634 216.73293 217.43294 218.90147 222.67775 228.29955 232.95502
 236.66814 240.53394 244.53174 248.40376 251.79756 254.63310 257.21158 259.87283
 262.36029 264.87430 267.35208 269.49423 271.53439 273.49896 275.28827 277.01593
 278.75385 280.46786 282.01260 283.37720 284.56339 285.61661 286.58167 287.46176
 288.25992 288.97659 289.60934 290.46671
 366.78100 356.32485 345.74669 334.60254 322.99538 311.17923 299.03908 286.83192
 274.53377 262.42061 250.41946 239.71031 229.82215 220.91600 213.08785 206.07969
 199.90354 194.83138 191.40323 189.43508 188.46192 188.51577 189.34061 190.63846
 192.35331 194.43815 196.69100 199.03984 201.47469 203.94454 206.02238 207.85423
 209.47007 210.60492 210.82377 211.04161 210.96846 210.66331 210.28615 209.90600
 209.51284 209.21269 209.01054 208.86438 208.78223 209.10307 209.47892 209.85777
 210.64061 211.80846 213.04830 214.82115 216.73900 218.77184 220.85669 222.92953
 224.97938 227.05323 229.14007 231.23592 233.35477 235.51661 237.76246 240.12230
 242.73315 244.97400 246.96584 248.72069 250.12753 251.24038 252.05223 252.35807
 252.38492 252.14876 251.49861 250.43646 249.03230 247.18315 245.08200 242.90484
 240.68569 238.47953 236.28938 234.11823 231.96807 229.82492 227.84076 225.98761
 224.26046 222.72230 221.34215 220.10399 218.97584 217.92569 217.01953 216.15038
 215.38222 214.55207 213.63992 212.99376 212.43361 212.52306 212.73439 213.03845
 213.59187 215.19345 216.84134 217.54675 218.99101 222.68141 228.24699 232.86316
 236.57182 240.46098 244.48322 248.34250 251.64813 254.46039 257.07822 259.75909
 262.22797 264.69879 267.15298 269.32291 271.42441 273.45026 275.25168 276.96744
 278.69559 280.41623 281.96335 283.32883 284.51483 285.56839 286.53439 287.41470
 288.21399 288.93167 289.56473 290.42538
 366.78100 356.32558 345.74815 334.60473 322.99831 311.18288 299.04346 286.83704
 274.53962 262.42719 250.42677 239.71835 229.83092 220.92550 213.09808 206.09065
 199.91523 194.84381 191.41639 189.44896 188.47654 188.53112 189.35669 190.65527
 192.37085 194.45642 196.71000 199.05958 201.49516 203.96573 206.04431 207.87689
 209.49346 210.62904 210.84862 211.06719 210.99477 210.69035 210.31393 209.93450
 209.54208 209.24266 209.04123 208.89581 208.81439 209.13596 209.51254 209.89212
 210.67570 211.84427 213.08485 214.85843 216.77700 218.81058 220.89616 222.96973
 225.02031 227.09489 229.18247 231.27904 233.39862 235.56120 237.80777 240.16835
 242.77993 245.02150 247.01408 248.76966 250.17724 251.29081 252.10339 252.40997
 252.43754 252.20212 251.55270 250.49127 249.08785 247.23943 245.13900 242.96258
 240.74416 238.53874 236.34931 234.17889 232.02947 229.88704 227.90362 226.05120
 224.32477 222.78735 221.40793 220.17051 219.04308 217.99366 217.08824 216.21981
 215.45239 214.62297 213.71154 213.06612 212.50670 212.57561 212.73843 213.12939
 213.75305 215.26100 216.90506 217.64722 219.10115 222.68845 228.20273 232.78468
 236.49252 240.40520 244.44582 248.28297 251.49341 254.27290 256.92599 259.62683
 262.08289 264.51785 266.95129 269.15567 271.32373 273.41351 275.23148 276.93829
 278.64896 280.36453 281.91150 283.27771 284.46387 285.51822 286.48495 287.36530
 288.16666 288.88437 289.51825 290.37997
 366.78100 356.32582 345.74863 334.60545 322.99926 311.18408 299.04489 286.83871
 274.54153 262.42934 250.42916 239.72097 229.83379 220.92860 213.10142 206.09423
 199.91905 194.84787 191.42068 189.45350 188.48131 188.53613 189.36194 190.66076
 192.37658 194.46239 196.71621 199.06602 201.50184 203.97265 206.05147 207.88428
 209.50110 210.63692 210.85673 211.07555 211.00336 210.69918 210.32299 209.94381
 209.55163 209.25244 209.05126 208.90607 208.82489 209.14670 209.52352 209.90333
 210.68715 211.85597 213.09678 214.87060 216.78941 218.82323 220.90904 222.98286
 225.03368 227.10849 229.19631 231.29312 233.41294 235.57575 237.82257 240.18338
 242.79520 245.03702 247.02983 248.78565 250.19346 251.30728 252.12009 252.42691
 252.45473 252.21954 251.57036 250.50917 249.10599 247.25780 245.15762 242.98144
 240.76325 238.55807 236.36888 234.19870 232.04951 229.90733 227.92414 226.07196
 224.34578 222.80859 221.42941 220.19222 219.06504 218.01585 217.11067 216.24249
 215.47530 214.64612 213.73493 213.08975 212.53056 212.60501 212.78088 213.19884
 213.88728 215.34177 216.95551 217.76021 219.22787 222.70216 228.17354 232.73061
 236.43217 240.36041 244.40741 248.21198 251.32330 254.06746 256.75742 259.48218
 261.93430 264.34103 266.75653 268.99759 271.23056 273.37952 275.21216 276.90900
 278.60025 280.31534 281.86270 283.23022 284.41641 285.47110 286.43903 287.31979
 288.11960 288.84042 289.47415 290.33713
 366.78100 356.32589 345.74879 334.60568 322.99958 311.18447 299.04537 286.83926
 274.54216 262.43005 250.42995 239.72184 229.83474 220.92963 213.10253 206.09542
 199.92032 194.84921 191.42211 189.45500 188.48290 188.53779 189.36369 190.66258
 192.37848 194.46437 196.71827 199.06816 201.50406 203.97495 206.05384 207.88674
 209.50363 210.63953 210.85942 211.07832 211.00621 210.70211 210.32600 209.94690
 209.55479 209.25569 209.05458 208.90948 208.82837 209.15027 209.52716 209.90706
 210.69095 211.85985 213.10074 214.87464 216.79353 218.82743 220.91332 222.98722
 225.03811 227.11301 229.20090 231.29779 233.41769 235.58058 237.82748 240.18837
 242.80027 245.04216 247.03506 248.79095 250.19885 251.31274 252.12564 252.43253
 252.46043 252.22532 251.57622 250.51511 249.11201 247.26390 245.16380 242.98769
 240.76959 238.56448 236.37538 234.20527 232.05617 229.91406 227.93096 226.07885
 224.35274 222.81564 221.43653 220.19943 219.07232 218.02322 217.11811 216.25001
 215.48290 214.65380 213.74269 213.09759 212.53848 212.62733 212.83723 213.26680
 214.00655 215.42393 216.99052 217.88556 219.37149 222.72357 228.15564 232.69206
 236.37717 240.31252 244.35643 248.12268 251.13892 253.85139 256.58105 259.33371
 261.78979 264.17468 266.57422 268.85284 271.14374 273.34613 275.18823 276.88058
 278.55930 280.26788 281.81470 283.18182 284.36832 285.42343 286.39090 287.27377
 288.07288 288.79263 289.42871 290.29340
 366.78100 356.32632 345.74965 334.60697 323.00130 311.18662 299.04794 286.84227
 274.54559 262.43391 250.43424 239.72656 229.83989 220.93521 213.10853 206.10186
 199.92718 194.85650 191.42983 189.46315 188.49148 188.54680 189.37312 190.67245
 192.38877 194.47509 196.72942 199.07974 201.51607 203.98739 206.06671 207.90004
 209.51736 210.65368 210.87401 211.09333 211.02166 210.71798 210.34230 209.96363
 209.57195 209.27327 209.07260 208.92792 208.84725 209.16957 209.54689 209.92722
 210.71154 211.88086 213.12219 214.89651 216.81584 218.85016 220.93648 223.01081
 225.06213 227.13745 229.22578 231.32310 233.44343 235.60675 237.85407 240.21540
 242.82772 245.07004 247.06337 248.81969 250.22802 251.34234 252.15566 252.46299
 252.49131 252.25663 251.60796 250.54728 249.14461 247.29693 245.19725 243.02158
 240.80390 238.59922 236.41055 234.24087 232.09220 229.95052 227.96784 226.11617
 224.39049 222.85381 221.47514 220.23846 219.11179 218.06311 217.15843 216.29076
 215.52408 214.69540 213.78473 213.14005 212.58138 212.66901 212.87605 213.33408
 214.13603 215.51567 217.02156 218.01640 219.53171 222.74890 228.14285 232.64841
 236.31288 240.25212 244.28856 248.01309 250.94101 253.62540 256.39532 259.17914
 261.64917 264.02103 266.41174 268.72855 271.07214 273.31799 275.17056 276.85724
 278.53607 280.22214 281.76651 283.13300 284.32092 285.37619 286.34454 287.22678
 288.02771 288.74673 289.38144 290.25168
 366.78100 356.32711 345.75122 334.60934 323.00445 311.19056 299.05267 286.84779
 274.55190 262.44101 250.44212 239.73523 229.84935 220.94546 213.11957 206.11368
 199.93979 194.86991 191.44402 189.47813 188.50724 188.56336 189.39047 190.69058
 192.40769 194.49480 196.74992 199.10103 201.53814 204.01025 206.09037 207.92448
 209.54259 210.67970 210.90081 211.12093 211.05004 210.74715 210.37226 209.99437
 209.60349 209.30560 209.10571 208.96182 208.88194 209.20505 209.58316 209.96427
 210.74938 211.91950 213.16161 214.93672 216.85683 218.89195 220.97906 223.05417
 225.10628 227.18239 229.27151 231.36962 233.49073 235.65484 237.90295 240.26507
 242.87818 245.12129 247.11540 248.87252 250.28163 251.39674 252.21085 252.51896
 252.54808 252.31419 251.66630 250.60641 249.20453 247.35764 245.25875 243.08386
 240.86697 238.66309 236.47520 234.30631 232.15842 230.01753 228.03565 226.18476
 224.45987 222.92398 221.54610 220.31021 219.18432 218.13643 217.23254 216.36566
 215.59977 214.77188 213.86199 213.21811 212.66022 212.73096 212.89812 213.39189
 214.27638 215.62173 217.06718 218.15527 219.70157 222.77420 228.13025 232.59189
 236.23737 240.18184 244.20551 247.88280 250.72850 253.38779 256.19580 259.01279
 261.50687 263.87878 266.26996 268.62912 271.01999 273.30438 275.17072 276.85049
 278.53726 280.17181 281.71246 283.07983 284.26703 285.32272 286.29102 287.17349
 287.97516 288.69537 289.33130 290.19971
 366.78100 356.32805 345.75309 334.61214 323.00818 311.19523 299.05827 286.85432
 274.55936 262.44941 250.45145 239.74550 229.86054 220.95759 213.13263 206.12768
 199.95472 194.88577 191.46081 189.49586 188.52590 188.58295 189.41099 190.71204
 192.43008 194.51813 196.77417 199.12622 201.56426 204.03731 206.11835 207.95340
 209.57244 210.71049 210.93253 211.15358 211.08362 210.78167 210.40771 210.03076
 209.64080 209.34385 209.14489 209.00194 208.92298 209.24703 209.62607 210.00812
 210.79416 211.96521 213.20825 214.98430 216.90534 218.94139 221.02944 223.10548
 225.15853 227.23557 229.32562 231.42466 233.54671 235.71175 237.96080 240.32384
 242.93789 245.18193 247.17698 248.93502 250.34507 251.46111 252.27616 252.58520
 252.61525 252.38229 251.73534 250.67638 249.27543 247.42947 245.33152 243.15756
 240.94161 238.73865 236.55170 234.38374 232.23679 230.09683 228.11588 226.26592
 224.54197 223.00701 221.63006 220.39510 219.27015 218.22319 217.32024 216.45428
 215.68933 214.86237 213.95342 213.31046 212.75351 212.80188 212.91615 213.44081
 214.41559 215.72986 217.13278 218.30884 219.87834 222.80435 228.11777 232.53195
 236.16141 240.10965 244.11206 247.73277 250.50021 253.13846 255.98158 258.83231
 261.35828 263.74478 266.15012 268.55475 270.98444 273.29791 275.17508 276.84576
 278.53140 280.13126 281.67007 283.03888 284.22650 285.28253 286.25067 287.13220
 287.93448 288.65515 289.29190 290.15744
 366.78100 356.32906 345.75513 334.61519 323.01225 311.20032 299.06438 286.86144
 274.56751 262.45857 250.46163 239.75670 229.87276 220.97083 213.14689 206.14295
 199.97102 194.90308 191.47914 189.51521 188.54627 188.60433 189.43340 190.73546
 192.45452 194.54359 196.80065 199.15371 201.59278 204.06684 206.14890 207.98497
 209.60503 210.74409 210.96716 211.18922 211.12028 210.81935 210.44641 210.07048
 209.68154 209.38560 209.18767 209.04573 208.96779 209.29286 209.67292 210.05598
 210.84305 212.01511 213.25917 215.03624 216.95830 218.99536 221.08443 223.16149
 225.21555 227.29362 229.38468 231.48474 233.60781 235.77387 238.02393 240.38800
 243.00306 245.24813 247.24419 249.00325 250.41432 251.53138 252.34744 252.65751
 252.68857 252.45663 251.81070 250.75276 249.35282 247.50789 245.41095 243.23801
 241.02308 238.82114 236.63520 234.46827 232.32233 230.18339 228.20346 226.35452
 224.63159 223.09765 221.72171 220.48778 219.36384 218.31790 217.41597 216.55103
 215.78709 214.96116 214.05322 213.41128 212.85535 212.87810 212.93182 213.48750
 214.54848 215.83006 217.20776 218.47252 220.06470 222.85439 228.10622 232.48415
 236.09711 240.04468 244.00954 247.55812 250.24986 252.87299 255.74867 258.63287
 261.19952 263.61795 266.05136 268.50165 270.96423 273.29755 275.18121 276.84409
 278.51785 280.10812 281.64642 283.01593 284.20706 285.26578 286.23605 287.12466
 287.93613 288.66452 289.30484 290.17325
 366.78100 356.33011 345.75723 334.61834 323.01646 311.20557 299.07069 286.86880
 274.57592 262.46803 250.47215 239.76826 229.88538 220.98449 213.16161 206.15872
 199.98784 194.92095 191.49807 189.53518 188.56730 188.62641 189.45653 190.75964
 192.47976 194.56987 196.82799 199.18210 201.62222 204.09733 206.18045 208.01756
 209.63868 210.77879 211.00291 211.22602 211.15814 210.85825 210.48637 210.11148
 209.72360 209.42871 209.23183 209.09094 209.01406 209.34017 209.72129 210.10540
 210.89352 212.06663 213.31175 215.08986 217.01298 219.05109 221.14121 223.21932
 225.27444 227.35355 229.44567 231.54678 233.67090 235.83801 238.08913 240.45424
 243.07036 245.31647 247.31359 249.07370 250.48582 251.60393 252.42105 252.73216
 252.76428 252.53339 251.88851 250.83162 249.43274 247.58885 245.49297 243.32108
 241.10720 238.90631 236.72143 234.55554 232.41066 230.27277 228.29389 226.44600
 224.72412 223.19123 221.81635 220.58346 219.46058 218.41569 217.51481 216.65092
 215.88804 215.06315 214.15627 213.51538 212.96049 212.95628 212.94635 213.53618
 214.67097 215.92403 217.28357 218.63263 220.26430 222.93347 228.09828 232.45782
 236.04811 239.98651 243.89743 247.35768 249.98038 252.59293 255.49709 258.41391
 261.03052 263.49692 265.97150 268.46854 270.96024 273.30624 275.19852 276.85352
 278.52097 280.08612 281.62436 282.99506 284.18509 285.24429 286.21765 287.10599
 287.91846 288.65036 289.29056 290.15906
 366.78100 356.33116 345.75932 334.62148 323.02064 311.21080 299.07695 286.87611
 274.58427 262.47743 250.48259 239.77975 229.89791 220.99807 213.17623 206.17439
 200.00455 194.93870 191.51686 189.55502 188.58818 188.64834 189.47950 190.78366
 192.50482 194.59598 196.85514 199.21030 201.65146 204.12761 206.21177 208.04993
 209.67209 210.81325 211.03841 211.26257 211.19573 210.89689 210.52605 210.15221
 209.76536 209.47152 209.27568 209.13584 209.06000 209.38716 209.76932 210.15448
 210.94364 212.11780 213.36396 215.14311 217.06727 219.10643 221.19759 223.27675
 225.33291 227.41307 229.50623 231.60839 233.73355 235.90171 238.15386 240.52002
 243.13718 245.38434 247.38250 249.14366 250.55682 251.67598 252.49414 252.80630
 252.83946 252.60961 251.96577 250.90993 249.51209 247.66925 245.57441 243.40357
 241.19073 238.99089 236.80705 234.64221 232.49837 230.36152 228.38368 226.53684
 224.81600 223.28416 221.91032 220.67848 219.55664 218.51280 217.61296 216.75012
 215.98827 215.16443 214.25859 213.61875 213.06491 213.03381 212.96036 213.59590
 214.77740 216.00714 217.36618 218.78281 220.46111 223.03995 228.09564 232.45363
 236.01761 239.93839 243.78014 247.13847 249.69933 252.30214 255.23192 258.18198
 260.85638 263.38516 265.90814 268.45129 270.96490 273.31662 275.21359 276.86398
 278.52774 280.06778 281.60327 282.97427 284.16510 285.22549 286.19730 287.08643
 287.89960 288.63107 289.27325 290.13651
 366.78100 356.33197 345.76094 334.62390 323.02387 311.21484 299.08181 286.88178
 274.59075 262.48471 250.49068 239.78865 229.90762 221.00859 213.18755 206.18652
 200.01749 194.95246 191.53143 189.57039 188.60436 188.66533 189.49730 190.80227
 192.52424 194.61620 196.87617 199.23214 201.67411 204.15108 206.23604 208.07501
 209.69798 210.83995 211.06592 211.29088 211.22485 210.92682 210.55679 210.18376
 209.79773 209.50469 209.30966 209.17063 209.09560 209.42357 209.80653 210.19250
 210.98247 212.15744 213.40441 215.18437 217.10934 219.14931 221.24128 223.32125
 225.37822 227.45918 229.55315 231.65612 233.78209 235.95106 238.20402 240.57099
 243.18896 245.43693 247.43590 249.19786 250.61183 251.73180 252.55077 252.86374
 252.89771 252.66867 252.02564 250.97061 249.57358 247.73155 245.63751 243.46748
 241.25545 239.05642 236.87339 234.70935 232.56632 230.43029 228.45326 226.60723
 224.88720 223.35616 221.98313 220.75210 219.63107 218.58804 217.68900 216.82697
 216.06594 215.24291 214.33788 213.69884 213.14581 213.09848 212.98665 213.65552
 214.87556 216.09633 217.43623 218.91692 220.66077 223.14719 228.10460 232.46703
 236.00310 239.89752 243.66000 246.90636 249.41478 252.01013 254.96146 257.94534
 260.68375 263.28076 265.85562 268.43982 270.97009 273.32156 275.21823 276.86911
 278.53531 280.05344 281.58865 282.95810 284.15054 285.20987 286.18030 287.07004
 287.88342 288.61520 289.25589 290.11780
 366.78100 356.33295 345.76289 334.62684 323.02779 311.21973 299.08768 286.88863
 274.59857 262.49352 250.50047 239.79941 229.91936 221.02131 213.20125 206.20120
 200.03315 194.96909 191.54904 189.58899 188.62393 188.68588 189.51883 190.82477
 192.54772 194.64067 196.90161 199.25856 201.70151 204.17945 206.26540 208.10535
 209.72929 210.87224 211.09919 211.32513 211.26008 210.96303 210.59397 210.22192
 209.83687 209.54481 209.35076 209.21271 209.13865 209.46760 209.85155 210.23849
 211.02944 212.20539 213.45333 215.23428 217.16023 219.20117 221.29412 223.37507
 225.43301 227.51496 229.60991 231.71385 233.84080 236.01075 238.26469 240.63264
 243.25159 245.50053 247.50048 249.26343 250.67837 251.79932 252.61927 252.93321
 252.96816 252.74011 252.09805 251.04400 249.64795 247.80689 245.71384 243.54479
 241.33373 239.13568 236.95363 234.79057 232.64852 230.51347 228.53741 226.69236
 224.97331 223.44325 222.07120 220.84115 219.72109 218.67904 217.78099 216.91993
 216.15988 215.33783 214.43377 213.79572 213.24367 213.16933 212.99367 213.74319
 214.96272 216.17438 217.52560 219.03624 220.82858 223.26088 228.11890 232.47917
 236.00018 239.86716 243.54631 246.67754 249.13779 251.72215 254.68774 257.70163
 260.50641 263.17551 265.80560 268.43130 270.97748 273.32480 275.21957 276.87262
 278.54221 280.03812 281.57227 282.94418 284.13467 285.19312 286.16339 287.05142
 287.86328 288.59653 289.23883 290.09427
 366.78100 356.33406 345.76512 334.63018 323.03224 311.22530 299.09436 286.89642
 274.60748 262.50354 250.51160 239.81166 229.93272 221.03579 213.21685 206.21791
 200.05097 194.98803 191.56909 189.61015 188.64621 188.70927 189.54333 190.85039
 192.57445 194.66851 196.93057 199.28863 201.73269 204.21175 206.29881 208.13987
 209.76493 210.90899 211.13705 211.36411 211.30017 211.00424 210.63630 210.26536
 209.88142 209.59048 209.39754 209.26060 209.18766 209.51772 209.90278 210.29084
 211.08290 212.25996 213.50902 215.29108 217.21814 219.26020 221.35426 223.43632
 225.49538 227.57844 229.67450 231.77956 233.90762 236.07869 238.33375 240.70281
 243.32287 245.57293 247.57399 249.33805 250.75411 251.87617 252.69723 253.01229
 253.04835 252.82141 252.18047 251.12753 249.73259 247.89265 245.80071 243.63277
 241.42283 239.22589 237.04495 234.88301 232.74207 230.60814 228.63320 226.78926
 225.07132 223.54238 222.17144 220.94250 219.82356 218.78262 217.88568 217.02574
 216.26680 215.44586 214.54292 213.90598 213.35504 213.24724 212.99255 213.79518
 215.14720 216.24164 217.51810 219.14351 221.03621 223.36272 228.15634 232.51939
 236.02101 239.85509 243.44336 246.44907 248.85271 251.41985 254.39592 257.43906
 260.31641 263.06821 265.76202 268.43155 270.99188 273.33136 275.21893 276.86978
 278.54099 280.03845 281.55594 282.92136 284.10919 285.16489 286.13443 287.02335
 287.83615 288.56909 289.21289 290.06339
 366.78100 356.33325 345.76350 334.62775 323.02900 311.22125 299.08950 286.89075
 274.60101 262.49626 250.50351 239.80276 229.92301 221.02526 213.20551 206.20576
 200.03801 194.97426 191.55451 189.59476 188.63001 188.69226 189.52551 190.83176
 192.55502 194.64827 196.90952 199.26677 201.71002 204.18827 206.27452 208.11477
 209.73902 210.88227 211.10952 211.33577 211.27102 210.97427 210.60552 210.23377
 209.84903 209.55728 209.36353 209.22578 209.15203 209.48128 209.86553 210.25278
 211.04403 212.22028 213.46853 215.24978 217.17603 219.21728 221.31053 223.39178
 225.45004 227.53229 229.62754 231.73179 233.85904 236.02929 238.28354 240.65179
 243.27104 245.52029 247.52054 249.28379 250.69904 251.82029 252.64054 252.95479
 252.99005 252.76230 252.12055 251.06680 249.67105 247.83030 245.73755 243.56880
 241.35805 239.16030 236.97855 234.81580 232.67405 230.53930 228.56355 226.71880
 225.00006 223.47031 222.09856 220.86881 219.74906 218.70731 217.80956 216.94881
 216.18906 215.36731 214.46356 213.82581 213.27406 213.22446 213.10727 213.81889
 215.17841 216.39601 217.55690 219.20061 221.23459 223.58879 228.21577 232.55064
 236.04240 239.84055 243.32715 246.19534 248.53603 251.09454 254.09148 257.17392
 260.13434 262.97729 265.73505 268.44415 271.01031 273.33188 275.20743 276.85739
 278.52914 280.02396 281.53165 282.89355 284.07855 285.13144 286.09738 286.98367
 287.79694 288.52719 289.16800 290.01270
 366.78100 356.33325 345.76351 334.62776 323.02902 311.22127 299.08953 286.89078
 274.60103 262.49629 250.50354 239.80280 229.92305 221.02531 213.20556 206.20581
 200.03807 194.97432 191.55458 189.59483 188.63009 188.69234 189.52559 190.83185
 192.55510 194.64836 196.90961 199.26687 201.71012 204.18837 206.27463 208.11488
 209.73914 210.88239 211.10965 211.33590 211.27115 210.97441 210.60566 210.23392
 209.84917 209.55743 209.36368 209.22593 209.15219 209.48144 209.86570 210.25295
 211.04421 212.22046 213.46871 215.24997 217.17622 219.21748 221.31073 223.39199
 225.45024 227.53249 229.62775 231.73200 233.85926 236.02951 238.28377 240.65202
 243.27127 245.52053 247.52078 249.28404 250.69929 251.82055 252.64080 252.95505
 252.99031 252.76256 252.12082 251.06707 249.67133 247.83058 245.73783 243.56909
 241.35834 239.16060 236.97885 234.81611 232.67436 230.53961 228.56387 226.71912
 225.00038 223.47063 222.09889 220.86914 219.74939 218.70765 217.80990 216.94916
 216.18941 215.36767 214.46392 213.82618 213.27443 213.24252 213.16714 213.89230
 215.21797 216.50441 217.61269 219.26634 221.40208 223.82562 228.27673 232.56931
 236.05325 239.81444 243.19423 245.92412 248.21211 250.77667 253.80214 256.92975
 259.97391 262.90088 265.71280 268.45331 271.01886 273.32150 275.18408 276.83386
 278.50925 280.08014 281.48087 282.83569 284.02554 285.08136 286.04449 286.92990
 287.74240 288.46692 289.09149 289.91348
 366.78100 356.33415 345.76530 334.63044 323.03259 311.22574 299.09489 286.89703
 274.60818 262.50433 250.51248 239.81263 229.93377 221.03692 213.21807 206.21922
 200.05237 194.98951 191.57066 189.61181 188.64796 188.71110 189.54525 190.85240
 192.57655 194.67070 196.93284 199.29099 201.73514 204.21429 206.30144 208.14258
 209.76773 210.91188 211.14003 211.36717 211.30332 211.00747 210.63962 210.26877
 209.88491 209.59406 209.40121 209.26436 209.19151 209.52165 209.90680 210.29495
 211.08710 212.26424 213.51339 215.29554 217.22269 219.26484 221.35898 223.44113
 225.50028 227.58343 229.67958 231.78472 233.91287 236.08402 238.33917 240.70831
 243.32846 245.57861 247.57976 249.34391 250.76005 251.88220 252.70335 253.01850
 253.05465 252.82779 252.18694 251.13409 249.73924 247.89938 245.80753 243.63968
 241.42983 239.23298 237.05212 234.89027 232.74942 230.61557 228.64071 226.79686
 225.07901 223.55016 222.17931 220.95045 219.83160 218.79075 217.89390 217.03405
 216.27519 215.45434 214.55149 213.91464 213.36378 213.30841 213.17758 213.97833
 215.29332 216.56927 217.69601 219.36067 221.53204 224.02570 228.33075 232.58707
 236.06024 239.78477 243.06096 245.65840 247.89970 250.47739 253.53282 256.70297
 259.82114 262.82019 265.68008 268.45056 271.01703 273.30032 275.14996 276.80200
 278.48184 280.06326 281.44904 282.80551 283.99493 285.05011 286.01474 286.89801
 287.71027 288.43915 289.05441 289.87842
 366.78100 356.33518 345.76736 334.63353 323.03671 311.23089 299.10107 286.90424
 274.61642 262.51360 250.52278 239.82396 229.94613 221.05031 213.23249 206.23467
 200.06885 195.00702 191.58920 189.63138 188.66856 188.73273 189.56791 190.87609
 192.60127 194.69645 196.95962 199.31880 201.76398 204.24416 206.33233 208.17451
 209.80069 210.94587 211.17505 211.40322 211.34040 211.04558 210.67876 210.30893
 209.92611 209.63629 209.44447 209.30865 209.23682 209.56800 209.95418 210.34336
 211.13654 212.31471 213.56489 215.34807 217.27625 219.31942 221.41460 223.49778
 225.55796 227.64214 229.73931 231.84549 233.97467 236.14685 238.40302 240.77320
 243.39438 245.64556 247.64774 249.41291 250.83009 251.95327 252.77545 253.09162
 253.12880 252.90298 252.26316 251.21134 249.81751 247.97869 245.88787 243.72105
 241.51223 239.31640 237.13658 234.97576 232.83594 230.70311 228.72929 226.88647
 225.16965 223.64183 222.27200 221.04418 219.92636 218.88654 217.99071 217.13189
 216.37407 215.55425 214.65243 214.01660 213.46678 213.38391 213.18814 214.05125
 215.39523 216.61240 217.79004 219.47969 221.64229 224.19275 228.37398 232.60202
 236.06720 239.75372 242.92513 245.39781 247.60229 250.19528 253.27864 256.48499
 259.66998 262.73691 265.64517 268.44559 271.01019 273.27112 275.10638 276.76065
 278.44180 280.00900 281.41321 282.77213 283.96176 285.01672 285.97961 286.86346
 287.67584 288.40369 289.02054 289.83276
 366.78100 356.33587 345.76874 334.63562 323.03949 311.23436 299.10523 286.90910
 274.62197 262.51985 250.52972 239.83159 229.95446 221.05933 213.24221 206.24508
 200.07995 195.01882 191.60169 189.64456 188.68244 188.74731 189.58318 190.89205
 192.61792 194.71379 196.97767 199.33754 201.78341 204.26428 206.35315 208.19603
 209.82290 210.96877 211.19864 211.42751 211.36538 211.07126 210.70513 210.33600
 209.95387 209.66474 209.47362 209.33849 209.26736 209.59923 209.98610 210.37597
 211.16985 212.34872 213.59959 215.38346 217.31233 219.35620 221.45208 223.53595
 225.59682 227.68169 229.77956 231.88644 234.01631 236.18918 238.44605 240.81692
 243.43879 245.69067 247.69354 249.45941 250.87728 252.00115 252.82403 253.14090
 253.17877 252.95364 252.31451 251.26338 249.87026 248.03213 245.94200 243.77587
 241.56774 239.37261 237.19349 235.03336 232.89423 230.76210 228.78897 226.94685
 225.23072 223.70359 222.33446 221.10733 219.99020 218.95108 218.05595 217.19782
 216.44069 215.62156 214.72044 214.08531 213.53618 213.44427 213.22716 214.11134
 215.48485 216.66660 217.89220 219.57085 221.71638 224.33832 228.42799 232.63922
 236.08864 239.72749 242.79506 245.14795 247.31801 249.92424 253.02734 256.26477
 259.51468 262.65067 265.60492 268.43161 270.99338 273.23434 275.06485 276.72461
 278.39923 279.95969 281.36673 282.72537 283.91095 284.96490 285.92532 286.80786
 287.61975 288.34827 288.95975 289.76968
 366.78100 356.33577 345.76854 334.63531 323.03908 311.23385 299.10463 286.90840
 274.62117 262.51894 250.52871 239.83048 229.95325 221.05802 213.24079 206.24356
 200.07833 195.01711 191.59988 189.64265 188.68042 188.74519 189.58096 190.88973
 192.61550 194.71127 196.97504 199.33481 201.78059 204.26136 206.35013 208.19290
 209.81967 210.96544 211.19521 211.42398 211.36175 211.06752 210.70130 210.33207
 209.94984 209.66061 209.46938 209.33415 209.26292 209.59469 209.98146 210.37123
 211.16500 212.34378 213.59455 215.37832 217.30709 219.35086 221.44663 223.53040
 225.59117 227.67594 229.77371 231.88048 234.01026 236.18303 238.43980 240.81057
 243.43234 245.68411 247.68688 249.45265 250.87042 251.99419 252.81696 253.13374
 253.17151 252.94628 252.30705 251.25582 249.86259 248.02436 245.93413 243.76790
 241.55967 239.36444 237.18522 235.02499 232.88576 230.75353 228.78030 226.93807
 225.22184 223.69461 222.32538 221.09815 219.98093 218.94170 218.04647 217.18824
 216.43101 215.61178 214.71055 214.07532 213.52609 213.46233 213.31165 214.18442
 215.53966 216.69724 217.95419 219.64723 221.80942 224.49539 228.50667 232.68971
 236.11438 239.69522 242.66162 244.90497 247.04272 249.66403 252.78868 256.06418
 259.38361 262.57358 265.55331 268.39359 270.95074 273.17880 275.02411 276.70358
 278.37320 279.91861 281.31555 282.67026 283.85565 284.90637 285.86615 286.74799
 287.56046 288.28900 288.89951 289.70493
 366.78100 356.33569 345.76837 334.63506 323.03875 311.23344 299.10412 286.90781
 274.62050 262.51819 250.52787 239.82956 229.95225 221.05693 213.23962 206.24231
 200.07700 195.01568 191.59837 189.64106 188.67875 188.74343 189.57912 190.88781
 192.61350 194.70918 196.97287 199.33256 201.77824 204.25893 206.34762 208.19031
 209.81699 210.96268 211.19237 211.42106 211.35874 211.06443 210.69812 210.32880
 209.94649 209.65718 209.46587 209.33055 209.25924 209.59093 209.97762 210.36730
 211.16099 212.33968 213.59037 215.37405 217.30274 219.34643 221.44211 223.52580
 225.58649 227.67118 229.76886 231.87555 234.00524 236.17793 238.43461 240.80530
 243.42699 245.67867 247.68136 249.44705 250.86474 251.98842 252.81111 253.12780
 253.16549 252.94017 252.30086 251.24955 249.85624 248.01792 245.92761 243.76130
 241.55298 239.35767 237.17836 235.01805 232.87873 230.74642 228.77311 226.93080
 225.21448 223.68717 222.31786 221.09054 219.97323 218.93392 218.03861 217.18029
 216.42298 215.60367 214.70236 214.06704 213.51773 213.48132 213.39529 214.24794
 215.62721 216.72282 217.99617 219.76802 221.92128 224.61656 228.56598 232.73143
 236.11562 239.62447 242.48528 244.63580 246.76414 249.41699 252.58295 255.91071
 259.29318 262.51910 265.51315 268.35950 270.90784 273.11469 274.95343 276.63690
 278.30487 279.85071 281.25674 282.61349 283.80042 284.85001 285.80972 286.69318
 287.50952 288.23294 288.84207 289.64307
 366.78100 356.33692 345.77084 334.63876 323.04367 311.23959 299.11151 286.91643
 274.63035 262.52927 250.54019 239.84310 229.96702 221.07294 213.25686 206.26078
 200.09670 195.03662 191.62053 189.66445 188.70337 188.76929 189.60621 190.91613
 192.64304 194.73996 197.00488 199.36580 201.81272 204.29464 206.38456 208.22847
 209.85639 211.00331 211.23423 211.46415 211.40307 211.10999 210.74490 210.37682
 209.99574 209.70766 209.51758 209.38350 209.31342 209.64633 210.03425 210.42517
 211.22009 212.40001 213.65193 215.43685 217.36676 219.41168 221.50860 223.59352
 225.65544 227.74136 229.84028 231.94819 234.07911 236.25303 238.51095 240.88287
 243.50579 245.75871 247.76262 249.52954 250.94846 252.07338 252.89730 253.21522
 253.25413 253.03005 252.39197 251.34189 249.94981 248.11273 246.02365 243.85856
 241.65148 239.45740 237.27932 235.12024 232.98216 230.85108 228.87899 227.03791
 225.32283 223.79675 222.42867 221.20259 220.08651 219.04842 218.15434 217.29726
 216.54118 215.72310 214.82302 214.18894 213.64085 213.57092 213.40573 214.31982
 215.75467 216.77342 218.10280 219.92441 222.01163 224.66833 228.60162 232.73544
 236.07631 239.49861 242.25479 244.34143 246.49422 249.19394 252.40486 255.78883
 259.21976 262.47711 265.48810 268.33783 270.88712 273.08621 274.91498 276.56226
 278.18225 279.70370 281.14227 282.49936 283.68509 284.73660 285.69455 286.57642
 287.38870 288.10999 288.71936 289.51996
 366.78100 356.33737 345.77175 334.64012 323.04550 311.24187 299.11424 286.91962
 274.63399 262.53337 250.54474 239.84811 229.97249 221.07886 213.26324 206.26761
 200.10398 195.04436 191.62873 189.67311 188.71248 188.77885 189.61623 190.92660
 192.65398 194.75135 197.01672 199.37810 201.82547 204.30785 206.39822 208.24259
 209.87097 211.01834 211.24972 211.48009 211.41946 211.12684 210.76221 210.39459
 210.01396 209.72633 209.53671 209.40308 209.33346 209.66683 210.05520 210.44658
 211.24195 212.42233 213.67470 215.46007 217.39045 219.43582 221.53320 223.61857
 225.68094 227.76732 229.86669 231.97507 234.10644 236.28081 238.53919 240.91156
 243.53494 245.78831 247.79268 249.56006 250.97943 252.10481 252.92918 253.24755
 253.28693 253.06330 252.42568 251.37605 249.98443 248.14780 246.05917 243.89455
 241.68792 239.49430 237.31667 235.15804 233.02042 230.88979 228.91817 227.07754
 225.36291 223.83729 222.46966 221.24404 220.12841 219.09078 218.19716 217.34053
 216.58491 215.76728 214.86765 214.23403 213.68640 213.61777 213.45560 214.42719
 215.85127 216.83899 218.22583 220.00719 222.03908 224.69200 228.67136 232.71964
 236.01131 239.34947 242.01822 244.05571 246.22688 248.97510 252.24057 255.68605
 259.16010 262.44519 265.46759 268.32059 270.87775 273.08490 274.91537 276.53543
 278.11438 279.61276 281.00742 282.32358 283.49863 284.54593 285.50296 286.38129
 287.19083 287.91586 288.52362 289.32471
 366.78100 356.33627 345.76954 334.63681 323.04108 311.23635 299.10762 286.91189
 274.62516 262.52343 250.53370 239.83597 229.95923 221.06450 213.24777 206.25104
 200.08631 195.02558 191.60885 189.65212 188.69039 188.75566 189.59193 190.90120
 192.62747 194.72374 196.98801 199.34828 201.79455 204.27582 206.36509 208.20836
 209.83563 210.98190 211.21217 211.44144 211.37970 211.08597 210.72024 210.35151
 209.96978 209.68105 209.49032 209.35559 209.28486 209.61713 210.00440 210.39467
 211.18894 212.36821 213.61948 215.40375 217.33302 219.37729 221.47356 223.55783
 225.61910 227.70437 229.80264 231.90991 234.04017 236.21344 238.47071 240.84198
 243.46425 245.71652 247.71979 249.48606 250.90433 252.02860 252.85187 253.16914
 253.20741 252.98268 252.34395 251.29322 249.90049 248.06276 245.97303 243.80730
 241.59957 239.40484 237.22611 235.06638 232.92764 230.79591 228.82318 226.98145
 225.26572 223.73899 222.37026 221.14353 220.02680 218.98807 218.09334 217.23561
 216.47888 215.66015 214.75942 214.12469 213.57596 213.57761 213.58148 214.54741
 215.91707 216.91968 218.32114 220.06697 222.06847 224.73936 228.76782 232.66904
 235.93567 239.19046 241.78729 243.78523 245.95523 248.75842 252.09254 255.60132
 259.10931 262.41013 265.44272 268.30612 270.87726 273.10114 274.94489 276.55960
 278.09805 279.54556 280.88666 282.12393 283.29306 284.34082 285.29688 286.17697
 286.98856 287.71307 288.32590 289.13123
 366.78100 356.33625 345.76950 334.63675 323.04100 311.23625 299.10750 286.91175
 274.62500 262.52325 250.53350 239.83575 229.95900 221.06425 213.24750 206.25076
 200.08601 195.02526 191.60851 189.65176 188.69001 188.75526 189.59151 190.90076
 192.62701 194.72326 196.98751 199.34776 201.79401 204.27526 206.36451 208.20776
 209.83501 210.98126 211.21151 211.44076 211.37901 211.08526 210.71951 210.35076
 209.96901 209.68026 209.48951 209.35477 209.28402 209.61627 210.00352 210.39377
 211.18802 212.36727 213.61852 215.40277 217.33202 219.37627 221.47252 223.55677
 225.61802 227.70327 229.80152 231.90877 234.03902 236.21227 238.46952 240.84077
 243.46302 245.71527 247.71852 249.48477 250.90302 252.02727 252.85052 253.16778
 253.20603 252.98128 252.34253 251.29178 249.89903 248.06128 245.97153 243.80578
 241.59803 239.40328 237.22453 235.06478 232.92603 230.79428 228.82153 226.97978
 225.26403 223.73728 222.36853 221.14178 220.02503 218.98628 218.09153 217.23378
 216.47703 215.65828 214.75753 214.12279 213.57404 213.59827 213.65555 214.67316
 215.97044 217.06543 218.41101 220.12071 222.10834 224.80132 228.83218 232.53931
 235.82643 239.00095 241.51753 243.48309 245.67842 248.55632 251.97746 255.54221
 259.07693 262.39926 265.43726 268.30618 270.88644 273.11334 274.97021 276.58917
 278.09778 279.50403 280.81107 282.00369 283.11325 284.15164 285.10834 285.98578
 286.79636 287.52820 288.14340 288.94812
 366.78100 356.33799 345.77299 334.64198 323.04797 311.24496 299.11796 286.92395
 274.63894 262.53893 250.55093 239.85492 229.97991 221.08691 213.27190 206.27689
 200.11388 195.05488 191.63987 189.68486 188.72486 188.79185 189.62984 190.94083
 192.66883 194.76682 197.03281 199.39480 201.84280 204.32579 206.41678 208.26178
 209.89077 211.03876 211.27075 211.50175 211.44174 211.14973 210.78572 210.41872
 210.03871 209.75170 209.56270 209.42969 209.36068 209.69467 210.08367 210.47566
 211.27165 212.45265 213.70564 215.49163 217.42262 219.46862 221.56661 223.65260
 225.71559 227.80259 229.90258 232.01157 234.14357 236.31856 238.57755 240.95054
 243.57454 245.82853 247.83352 249.60151 251.02151 252.14750 252.97249 253.29149
 253.33148 253.10847 252.47146 251.42246 250.03145 248.19544 246.10744 243.94343
 241.73742 239.54441 237.36741 235.20940 233.07239 230.94238 228.97138 227.13137
 225.41736 223.89236 222.52535 221.30034 220.18533 219.14833 218.25532 217.39931
 216.64430 215.82730 214.92829 214.29528 213.74828 213.71355 213.63278 214.87860
 215.99841 216.96936 218.51157 220.23714 222.21246 224.89160 228.86821 232.40814
 235.72189 238.78911 241.25043 243.15665 245.37222 248.35530 251.87315 255.51259
 259.08029 262.42703 265.44870 268.27435 270.84930 273.06531 274.94345 276.60455
 278.15060 279.58224 280.87030 282.00452 283.07526 284.11975 285.08109 285.96613
 286.78180 287.52078 288.17615 289.01129
 366.78100 356.33622 345.76945 334.63667 323.04089 311.23611 299.10734 286.91156
 274.62478 262.52300 250.53323 239.83545 229.95867 221.06389 213.24712 206.25034
 200.08556 195.02478 191.60801 189.65123 188.68945 188.75467 189.59090 190.90012
 192.62634 194.72256 196.98679 199.34701 201.79323 204.27445 206.36368 208.20690
 209.83412 210.98035 211.21057 211.43979 211.37801 211.08424 210.71846 210.34968
 209.96790 209.67913 209.48835 209.35357 209.28279 209.61502 210.00224 210.39246
 211.18668 212.36591 213.61713 215.40135 217.33057 219.37480 221.47102 223.55524
 225.61646 227.70169 229.79991 231.90713 234.03736 236.21058 238.46780 240.83902
 243.46125 245.71347 247.71669 249.48291 250.90114 252.02536 252.84858 253.16580
 253.20403 252.97925 252.34047 251.28969 249.89692 248.05914 245.96936 243.80358
 241.59581 239.40103 237.22225 235.06247 232.92370 230.79192 228.81914 226.97736
 225.26159 223.73481 222.36603 221.13926 220.02248 218.98370 218.08892 217.23115
 216.47437 215.65559 214.75481 214.12004 213.57126 213.65584 213.88513 214.95026
 215.89870 216.94168 218.61839 220.29295 222.30768 224.99280 228.88553 232.41803
 235.59895 238.54597 240.94951 242.87004 245.13628 248.19275 251.79193 255.47331
 259.05502 262.40182 265.43814 268.23349 270.76981 273.00589 274.98038 276.77600
 278.38306 279.74326 280.91714 282.07303 283.23868 284.29544 285.26675 286.16431
 287.01614 287.77472 288.43738 289.28189
 366.78100 356.33214 345.76129 334.62443 323.02458 311.21572 299.08287 286.88301
 274.59215 262.48630 250.49244 239.79059 229.90973 221.01087 213.19002 206.18916
 200.02031 194.95545 191.53460 189.57374 188.60788 188.66903 189.50117 190.80632
 192.52846 194.62061 196.88075 199.23689 201.67904 204.15618 206.24133 208.08047
 209.70361 210.84576 211.07190 211.29705 211.23119 210.93334 210.56348 210.19062
 209.80477 209.51191 209.31706 209.17820 209.10335 209.43149 209.81463 210.20078
 210.99092 212.16607 213.41321 215.19336 217.11850 219.15864 221.25079 223.33093
 225.38808 227.46922 229.56336 231.66651 233.79265 235.96180 238.21494 240.58209
 243.20023 245.44837 247.44752 249.20966 250.62381 251.74395 252.56310 252.87624
 252.91038 252.68153 252.03867 250.98382 249.58696 247.74510 245.65125 243.48139
 241.26954 239.07068 236.88783 234.72397 232.58111 230.44526 228.46840 226.62255
 224.90269 223.37184 221.99898 220.76812 219.64727 218.60441 217.70556 216.84370
 216.08284 215.25999 214.35513 213.71628 213.16342 213.49210 214.26781 214.86932
 215.84138 217.21608 218.68484 220.32616 222.43936 225.15982 228.93054 232.49937
 235.46988 238.28957 240.60591 242.59758 244.94200 248.05225 251.68575 255.40903
 258.98840 262.30307 265.35144 268.22699 270.86392 273.22842 275.32083 277.10190
 278.50323 279.64734 280.88284 282.23056 283.44107 284.59735 285.73233 286.76053
 287.68530 288.50879 289.22821 290.14499
 366.78100 356.33168 345.76037 334.62305 323.02274 311.21342 299.08010 286.87979
 274.58847 262.48216 250.48784 239.78553 229.90421 221.00489 213.18358 206.18226
 200.01295 194.94763 191.52631 189.56500 188.59868 188.65937 189.49105 190.79574
 192.51742 194.60910 196.86879 199.22447 201.66616 204.14284 206.22752 208.06621
 209.68889 210.83058 211.05626 211.28095 211.21463 210.91631 210.54600 210.17268
 209.78637 209.49305 209.29773 209.15842 209.08310 209.41079 209.79347 210.17916
 210.96884 212.14352 213.39021 215.16989 217.09458 219.13426 221.22594 223.30563
 225.36231 227.44300 229.53668 231.63937 233.76505 235.93373 238.18642 240.55310
 243.17079 245.41847 247.41715 249.17884 250.59252 251.71221 252.53089 252.84358
 252.87726 252.64794 252.00463 250.94931 249.55200 247.70968 245.61536 243.44505
 241.23273 239.03342 236.85010 234.68579 232.54247 230.40615 228.42884 226.58252
 224.86221 223.33089 221.95757 220.72626 219.60494 218.56163 217.66231 216.80000
 216.03868 215.21536 214.31005 213.67073 213.11742 213.49968 214.38472 214.93318
 216.00456 217.39369 218.78999 220.49847 222.60902 225.28351 228.97272 232.52881
 235.39835 238.07925 240.27133 242.21736 244.59244 247.78687 251.54214 255.33026
 258.95294 262.32724 265.48856 268.45728 271.15460 273.52066 275.50528 277.05814
 278.20123 279.13980 280.43390 281.83200 283.16815 284.49942 285.71402 286.81436
 287.80399 288.68527 289.45511 290.43622
 366.78100 356.33318 345.76336 334.62754 323.02872 311.22090 299.08908 286.89026
 274.60044 262.49562 250.50280 239.80198 229.92216 221.02434 213.20452 206.20470
 200.03688 194.97306 191.55324 189.59342 188.62860 188.69078 189.52396 190.83014
 192.55332 194.64650 196.90768 199.26486 201.70804 204.18622 206.27240 208.11258
 209.73676 210.87994 211.10712 211.33330 211.26848 210.97166 210.60284 210.23102
 209.84620 209.55438 209.36056 209.22274 209.14892 209.47810 209.86228 210.24946
 211.04064 212.21682 213.46500 215.24618 217.17236 219.21354 221.30672 223.38790
 225.44608 227.52826 229.62344 231.72762 233.85480 236.02498 238.27916 240.64734
 243.26652 245.51570 247.51588 249.27906 250.69424 251.81542 252.63560 252.94978
 252.98496 252.75714 252.11532 251.06150 249.66568 247.82486 245.73204 243.56322
 241.35240 239.15458 236.97276 234.80994 232.66812 230.53330 228.55748 226.71266
 224.99384 223.46402 222.09220 220.86238 219.74256 218.70074 217.80292 216.94210
 216.18228 215.36046 214.45664 213.81882 213.26700 213.58907 214.36163 215.11215
 216.06641 217.30273 218.88907 220.68811 222.73447 225.30170 228.95625 232.42628
 235.20166 237.74678 239.86412 241.84227 244.30359 247.62498 251.48239 255.34122
 258.99896 262.41977 265.58133 268.51505 271.14679 273.41516 275.28848 276.75629
 277.84418 278.76028 279.76022 281.09674 282.31952 283.50031 284.72815 285.84045
 286.84088 287.73175 288.51001 289.50180
 366.78100 356.33259 345.76218 334.62577 323.02635 311.21794 299.08553 286.88612
 274.59571 262.49030 250.49689 239.79548 229.91506 221.01665 213.19624 206.19583
 200.02742 194.96301 191.54260 189.58219 188.61677 188.67836 189.51095 190.81654
 192.53913 194.63172 196.89231 199.24890 201.69148 204.16907 206.25466 208.09425
 209.71784 210.86043 211.08702 211.31260 211.24719 210.94978 210.58037 210.20796
 209.82255 209.53014 209.33573 209.19731 209.12290 209.45149 209.83508 210.22167
 211.01226 212.18785 213.43544 215.21602 217.14161 219.18220 221.27479 223.35538
 225.41297 227.49456 229.58914 231.69273 233.81932 235.98891 238.24250 240.61009
 243.22868 245.47727 247.47685 249.23944 250.65403 251.77462 252.59421 252.90780
 252.94239 252.71398 252.07156 251.01715 249.62074 247.77933 245.68592 243.51651
 241.30510 239.10669 236.92427 234.76086 232.61845 230.48304 228.50663 226.66122
 224.94181 223.41139 222.03898 220.80857 219.68816 218.64575 217.74734 216.88593
 216.12552 215.30310 214.39869 213.76028 213.20787 213.57787 214.46121 215.27399
 216.07280 217.26872 218.98434 220.89342 222.89174 225.33057 228.89320 232.35251
 235.03127 237.44162 239.45250 241.46017 244.04887 247.52335 251.51559 255.41248
 259.07123 262.44794 265.55582 268.41074 270.96979 273.17297 274.97037 276.37939
 277.47137 278.45117 279.57458 280.88574 282.09113 283.18387 284.28488 285.35931
 286.32568 287.18622 287.93796 288.89597
 366.78100 356.33185 345.76071 334.62356 323.02341 311.21427 299.08112 286.88098
 274.58983 262.48368 250.48954 239.78739 229.90624 221.00710 213.18595 206.18481
 200.01566 194.95051 191.52937 189.56822 188.60207 188.66293 189.49478 190.79963
 192.52149 194.61334 196.87320 199.22905 201.67090 204.14776 206.23261 208.07146
 209.69432 210.83617 211.06203 211.28688 211.22073 210.92259 210.55244 210.17929
 209.79315 209.50000 209.30485 209.16571 209.09056 209.41842 209.80127 210.18712
 210.97698 212.15183 213.39868 215.17854 217.10339 219.14325 221.23510 223.31495
 225.37181 227.45266 229.54651 231.64937 233.77522 235.94408 238.19693 240.56378
 243.18164 245.42949 247.42834 249.19020 250.60405 251.72390 252.54276 252.85561
 252.88947 252.66032 252.01717 250.96203 249.56488 247.72273 245.62859 243.45844
 241.24630 239.04715 236.86400 234.69986 232.55671 230.42056 228.44342 226.59727
 224.87712 223.34598 221.97283 220.74169 219.62054 218.57739 217.67825 216.81610
 216.05495 215.23181 214.32666 213.68752 213.13437 213.55667 214.56236 215.47319
 216.12567 217.31728 219.15146 221.06073 222.99287 225.34122 228.87383 232.30896
 234.91597 237.18190 239.07115 241.11745 243.87692 247.49162 251.55595 255.46129
 259.09772 262.43500 265.48059 268.26004 270.75644 272.89026 274.62210 275.97394
 277.08115 278.14951 279.35104 280.71436 281.91623 282.99866 284.02127 285.05695
 286.01898 286.87570 287.62408 288.57782
 366.78100 356.33184 345.76068 334.62352 323.02336 311.21420 299.08104 286.88088
 274.58972 262.48356 250.48940 239.78724 229.90608 221.00692 213.18576 206.18459
 200.01543 194.95027 191.52911 189.56795 188.60179 188.66263 189.49447 190.79931
 192.52115 194.61299 196.87283 199.22867 201.67051 204.14735 206.23219 208.07103
 209.69387 210.83571 211.06155 211.28639 211.22023 210.92207 210.55191 210.17875
 209.79259 209.49943 209.30427 209.16510 209.08994 209.41778 209.80062 210.18646
 210.97630 212.15114 213.39798 215.17782 217.10266 219.14250 221.23434 223.31418
 225.37102 227.45186 229.54570 231.64854 233.77438 235.94322 238.19606 240.56290
 243.18074 245.42858 247.42742 249.18926 250.60310 251.72294 252.54178 252.85462
 252.88845 252.65929 252.01613 250.96097 249.56381 247.72165 245.62749 243.45733
 241.24517 239.04601 236.86285 234.69869 232.55553 230.41937 228.44221 226.59605
 224.87589 223.34473 221.97157 220.74041 219.61925 218.57609 217.67693 216.81477
 216.05361 215.23045 214.32529 213.68613 213.13297 213.57819 214.63338 215.50755
 216.45016 217.58086 219.24612 221.05716 222.94917 225.30278 228.76561 232.24599
 234.70085 236.79102 238.62891 240.78122 243.73183 247.45055 251.52859 255.47032
 259.12225 262.41470 265.39377 268.11975 270.55841 272.60907 274.24957 275.56107
 276.70993 277.86429 279.18939 280.54822 281.75305 282.83847 283.85406 284.85522
 285.86002 286.75479 287.53644 288.53256
 366.78100 356.33251 345.76203 334.62554 323.02605 311.21757 299.08508 286.88560
 274.59511 262.48962 250.49614 239.79465 229.91416 221.01568 213.19519 206.19470
 200.02622 194.96173 191.54125 189.58076 188.61527 188.67679 189.50930 190.81481
 192.53733 194.62984 196.89035 199.24687 201.68938 204.16690 206.25241 208.09192
 209.71544 210.85795 211.08446 211.30998 211.24449 210.94700 210.57752 210.20503
 209.81955 209.52706 209.33257 209.19409 209.11960 209.44811 209.83163 210.21814
 211.00865 212.18417 213.43168 215.21220 217.13771 219.17822 221.27074 223.35125
 225.40876 227.49028 229.58479 231.68830 233.81482 235.98433 238.23785 240.60536
 243.22387 245.47239 247.47190 249.23441 250.64893 251.76944 252.58895 252.90247
 252.93698 252.70850 252.06601 251.01152 249.61504 247.77355 245.68006 243.51058
 241.29909 239.10060 236.91812 234.75463 232.61215 230.47666 228.50017 226.65469
 224.93520 223.40471 222.03223 220.80174 219.68125 218.63877 217.74028 216.87880
 216.11831 215.29582 214.39134 213.75285 213.20036 213.65367 214.71774 215.46124
 216.65900 217.76132 219.27654 221.13728 223.08694 225.41203 228.74432 232.21429
 234.46875 236.46356 238.31648 240.61185 243.69936 247.46144 251.49623 255.44093
 259.09473 262.35739 265.26401 267.93079 270.30457 272.28757 273.88760 275.22025
 276.46429 277.74078 279.21082 280.59390 281.82541 283.01230 284.22546 285.32452
 286.31302 287.19324 287.96222 288.94217
 366.78100 356.33370 345.76440 334.62910 323.03081 311.22351 299.09221 286.89391
 274.60461 262.50031 250.50801 239.80772 229.92842 221.03112 213.21182 206.21252
 200.04522 194.98192 191.56262 189.60333 188.63903 188.70173 189.53543 190.84213
 192.56583 194.65953 196.92124 199.27894 201.72264 204.20134 206.28804 208.12874
 209.75344 210.89715 211.12485 211.35155 211.28725 210.99095 210.62265 210.25135
 209.86706 209.57576 209.38246 209.24516 209.17186 209.50156 209.88626 210.27396
 211.06567 212.24237 213.49107 215.27277 217.19947 219.24117 221.33487 223.41658
 225.47528 227.55798 229.65368 231.75838 233.88608 236.05678 238.31149 240.68019
 243.29989 245.54959 247.55029 249.31399 250.72969 251.85139 252.67210 252.98680
 253.02250 252.79520 252.15390 251.10060 249.70530 247.86501 245.77271 243.60441
 241.39411 239.19681 237.01551 234.85321 232.71192 230.57762 228.60232 226.75802
 225.03972 223.51042 222.13912 220.90983 219.79053 218.74923 217.85193 216.99163
 216.23233 215.41103 214.50773 213.87044 213.31914 213.76704 214.80135 215.56989
 216.79646 218.03085 219.59232 221.40749 223.33160 225.53201 228.97888 232.18985
 234.33394 236.19696 238.03252 240.37996 243.55177 247.37392 251.40749 255.32066
 258.91397 262.11060 264.97650 267.62979 269.97821 271.95627 273.53366 274.85156
 276.41656 278.23090 279.97104 281.80542 283.39288 284.79742 286.07883 287.23969
 288.28375 289.21350 290.02573 291.06079
 366.78100 356.33553 345.76807 334.63460 323.03813 311.23266 299.10320 286.90673
 274.61926 262.51679 250.52633 239.82786 229.95039 221.05493 213.23746 206.23999
 200.07452 195.01306 191.59559 189.63812 188.67565 188.74019 189.57572 190.88425
 192.60979 194.70532 196.96885 199.32838 201.77392 204.25445 206.34298 208.18551
 209.81205 210.95758 211.18711 211.41565 211.35318 211.05871 210.69224 210.32278
 209.94031 209.65084 209.45937 209.32391 209.25244 209.58397 209.97051 210.36004
 211.15357 212.33210 213.58264 215.36617 217.29470 219.33823 221.43377 223.51730
 225.57783 227.66237 229.75990 231.86643 233.99596 236.16850 238.42503 240.79556
 243.41710 245.66863 247.67116 249.43669 250.85423 251.97776 252.80029 253.11682
 253.15436 252.92889 252.28942 251.23796 249.84449 248.00602 245.91555 243.74909
 241.54062 239.34515 237.16568 235.00522 232.86575 230.73328 228.75982 226.91735
 225.20088 223.67341 222.30395 221.07648 219.95901 218.91954 218.02408 217.16561
 216.40814 215.58868 214.68721 214.05174 213.50227 213.90076 214.83382 215.68175
 216.89073 218.22665 219.76311 221.54143 223.42671 225.41061 229.12100 232.10329
 234.20743 236.02611 237.84813 240.22964 243.41830 247.22989 251.27571 255.19942
 258.75354 261.92001 264.76721 267.37943 269.66156 271.42542 272.72137 274.72238
 277.06396 279.60956 281.81235 283.74655 285.42044 286.90140 288.25256 289.47662
 290.57751 291.55786 292.41428 293.50571
 366.78100 356.33418 345.76535 334.63053 323.03271 311.22588 299.09506 286.89724
 274.60841 262.50459 250.51277 239.81295 229.93412 221.03730 213.21848 206.21965
 200.05283 194.99001 191.57118 189.61236 188.64854 188.71171 189.54589 190.85307
 192.57724 194.67142 196.93360 199.29177 201.73595 204.21513 206.30231 208.14348
 209.76866 210.91284 211.14101 211.36819 211.30437 211.00854 210.64072 210.26990
 209.88607 209.59525 209.40243 209.26560 209.19278 209.52296 209.90813 210.29631
 211.08849 212.26567 213.51484 215.29702 217.22420 219.26637 221.36055 223.44273
 225.50190 227.58508 229.68126 231.78643 233.91461 236.08579 238.34096 240.71014
 243.33032 245.58049 247.58167 249.34585 250.76203 251.88420 252.70538 253.02056
 253.05673 252.82991 252.18909 251.13626 249.74144 247.90162 245.80979 243.64197
 241.43215 239.23532 237.05450 234.89268 232.75185 230.61803 228.64321 226.79939
 225.08156 223.55274 222.18192 220.95309 219.83427 218.79345 217.89662 217.03680
 216.27798 215.45715 214.55433 213.91751 213.36668 213.87787 215.00790 215.73769
 216.76065 218.24037 219.88838 221.58537 223.41248 225.37889 229.12602 232.07208
 234.09232 235.90479 237.75629 240.14803 243.32970 247.19247 251.25084 255.15427
 258.71689 261.86398 264.67712 267.21759 269.35077 270.93799 272.41672 274.98993
 277.99976 280.57965 282.81210 284.77237 286.46881 287.96973 289.33908 290.57962
 291.69534 292.68890 293.55688 294.66299
 366.78100 356.32942 345.75583 334.61625 323.01367 311.20208 299.06650 286.86392
 274.57033 262.46175 250.46517 239.76058 229.87700 220.97542 213.15183 206.14825
 199.97666 194.90908 191.48550 189.52191 188.55333 188.61175 189.44116 190.74358
 192.46300 194.55241 196.80983 199.16325 201.60266 204.07708 206.15950 207.99591
 209.61633 210.75575 210.97916 211.20158 211.13300 210.83241 210.45983 210.08425
 209.69566 209.40008 209.20250 209.06091 208.98333 209.30874 209.68916 210.07258
 210.85999 212.03241 213.27683 215.05424 216.97666 219.01408 221.10349 223.18091
 225.23533 227.31374 229.40516 231.50558 233.62899 235.79541 238.04583 240.41024
 243.02566 245.27108 247.26749 249.02691 250.43833 251.55574 252.37216 252.68258
 252.71399 252.48241 251.83683 250.77924 249.37966 247.53507 245.43849 243.26591
 241.05132 238.84974 236.66416 234.49757 232.35199 230.21341 228.23382 226.38524
 224.66266 223.12907 221.75349 220.51991 219.39632 218.35074 217.44916 216.58457
 215.82099 214.99541 214.08782 213.44624 212.89066 213.66711 215.29906 215.87854
 216.52815 218.02832 219.83522 221.57597 223.39735 225.46194 229.14174 232.03490
 234.00031 235.83299 237.74614 240.21684 243.50583 247.34541 251.37817 255.28839
 258.81052 261.96924 264.80594 267.33286 269.42780 270.92651 272.69000 275.89014
 279.01346 281.69064 284.00729 286.04147 287.80191 289.35941 290.78043 292.06775
 293.22556 294.25659 295.15729 296.30511
 366.78100 356.32577 345.74854 334.60531 322.99908 311.18385 299.04462 286.83839
 274.54116 262.42893 250.42870 239.72047 229.83323 220.92800 213.10077 206.09354
 199.91831 194.84708 191.41985 189.45262 188.48039 188.53516 189.36093 190.65970
 192.37547 194.46124 196.71501 199.06478 201.50055 203.97132 206.05009 207.88286
 209.49963 210.63540 210.85516 211.07393 211.00170 210.69747 210.32124 209.94201
 209.54978 209.25055 209.04932 208.90409 208.82286 209.14463 209.52140 209.90117
 210.68494 211.85371 213.09448 214.86825 216.78702 218.82079 220.90656 222.98033
 225.03109 227.10586 229.19363 231.29040 233.41017 235.57294 237.81971 240.18048
 242.79225 245.03402 247.02679 248.78256 250.19033 251.30410 252.11687 252.42364
 252.45141 252.21618 251.56695 250.50572 249.10249 247.25426 245.15403 242.97779
 240.75956 238.55433 236.36510 234.19487 232.04564 229.90341 227.92018 226.06795
 224.34172 222.80449 221.42526 220.18803 219.06080 218.01157 217.10634 216.23811
 215.47088 214.64165 213.73042 213.08519 212.52596 213.48674 215.55693 216.17966
 216.46312 217.80475 219.67056 221.44882 223.27666 225.46887 229.08199 231.91420
 233.84766 235.68678 237.66692 240.21101 243.53786 247.41359 251.49040 255.39433
 258.94751 262.18356 265.09671 267.63052 269.70959 271.35025 272.84775 276.05670
 279.20779 281.90878 284.24603 286.29831 288.07437 289.64575 291.07938 292.37814
 293.54623 294.58646 295.49515 296.65317
 366.78100 356.32574 345.74847 334.60521 322.99895 311.18369 299.04442 286.83816
 274.54090 262.42863 250.42837 239.72011 229.83285 220.92758 213.10032 206.09306
 199.91780 194.84653 191.41927 189.45201 188.47974 188.53448 189.36022 190.65896
 192.37469 194.46043 196.71417 199.06390 201.49964 203.97038 206.04912 207.88185
 209.49859 210.63433 210.85406 211.07280 211.00054 210.69628 210.32001 209.94075
 209.54849 209.24923 209.04796 208.90270 208.82144 209.14317 209.51991 209.89965
 210.68339 211.85212 213.09286 214.86660 216.78533 218.81907 220.90481 222.97855
 225.02928 227.10402 229.19176 231.28849 233.40823 235.57097 237.81771 240.17844
 242.79018 245.03192 247.02466 248.78039 250.18813 251.30187 252.11460 252.42134
 252.44908 252.21382 251.56455 250.50329 249.10003 247.25176 245.15150 242.97524
 240.75698 238.55171 236.36245 234.19219 232.04293 229.90066 227.91740 226.06514
 224.33887 222.80161 221.42235 220.18509 219.05782 218.00856 217.10330 216.23503
 215.46777 214.63851 213.72725 213.08198 212.52272 213.45967 215.62175 216.57504
 216.68579 217.81160 219.58980 221.27376 223.10931 225.31552 228.88010 231.62106
 233.51022 235.35017 237.43893 240.09857 243.45865 247.40952 251.53952 255.50851
 259.11664 262.35690 265.29663 267.86600 270.03937 271.83575 273.09805 275.12292
 278.12967 280.79611 283.10345 285.12949 286.88284 288.43411 289.84940 291.13156
 292.28473 293.31161 294.20868 295.35193
 366.78100 356.32770 345.75241 334.61111 323.00681 311.19352 299.05622 286.85192
 274.55663 262.44633 250.44803 239.74174 229.85644 220.95314 213.12785 206.12255
 199.94926 194.87996 191.45466 189.48937 188.51907 188.57577 189.40348 190.70418
 192.42188 194.50959 196.76529 199.11699 201.55470 204.02740 206.10810 207.94281
 209.56151 210.69921 210.92092 211.14162 211.07132 210.76903 210.39473 210.01743
 209.62714 209.32984 209.13054 208.98725 208.90795 209.23166 209.61036 209.99206
 210.77777 211.94847 213.19117 214.96688 216.88758 218.92328 221.01099 223.08669
 225.13939 227.21610 229.30580 231.40450 233.52621 235.69091 237.93961 240.30232
 242.91602 245.15972 247.15443 248.91213 250.32183 251.43754 252.25224 252.56095
 252.59065 252.35735 251.71006 250.65076 249.24946 247.40317 245.30487 243.13057
 240.91428 238.71098 236.52368 234.35539 232.20809 230.06779 228.08650 226.23620
 224.51190 222.97661 221.59931 220.36401 219.23872 218.19142 217.28812 216.42183
 215.65653 214.82923 213.91994 213.27664 212.71935 213.53552 215.50839 216.84273
 217.16446 218.04695 219.66595 221.20370 222.92892 225.21855 228.64493 231.25102
 233.03084 234.84047 237.00789 239.86974 243.42934 247.47203 251.65012 255.67329
 259.36221 262.65820 265.62454 268.24274 270.49942 272.39142 273.91440 275.06693
 276.93188 279.39081 281.66937 283.67014 285.40161 286.93350 288.33115 289.59732
 290.73608 291.75018 292.63605 293.76501
 366.78100 356.33062 345.75823 334.61985 323.01846 311.20808 299.07369 286.87231
 274.57992 262.47254 250.47715 239.77377 229.89138 220.99100 213.16861 206.16623
 199.99584 194.92946 191.50708 189.54469 188.57731 188.63692 189.46754 190.77115
 192.49177 194.58238 196.84100 199.19561 201.63623 204.11184 206.19546 208.03307
 209.65469 210.79530 211.01992 211.24353 211.17615 210.87677 210.50538 210.13100
 209.74361 209.44923 209.25284 209.11246 209.03607 209.36269 209.74430 210.12892
 210.91753 212.09115 213.33676 215.11538 217.03899 219.07761 221.16823 223.24684
 225.30246 227.38207 229.47469 231.57630 233.70092 235.86853 238.12015 240.48576
 243.10238 245.34899 247.34661 249.10722 250.51984 251.63845 252.45607 252.76769
 252.80030 252.56992 251.92553 250.86915 249.47076 247.62738 245.53199 243.36061
 241.14722 238.94684 236.76245 234.59707 232.45268 230.31530 228.33691 226.48953
 224.76815 223.23576 221.86138 220.62899 219.50661 218.46222 217.56184 216.69845
 215.93607 215.11168 214.20530 213.56491 213.01053 213.67076 215.30531 216.97404
 217.56410 218.17393 219.83670 221.41191 222.98672 225.18428 228.27675 230.80240
 232.54123 234.34198 236.53995 239.50716 243.21513 247.37373 251.61490 255.67203
 259.36072 262.68964 265.71088 268.44690 270.84949 272.88376 274.58990 276.01691
 277.19244 278.15045 279.58789 281.07678 282.68497 284.11472 285.41916 286.60089
 287.66373 288.61020 289.43701 290.49069
 366.78100 356.33165 345.76030 334.62295 323.02261 311.21326 299.07991 286.87956
 274.58821 262.48186 250.48752 239.78517 229.90382 221.00447 213.18312 206.18177
 200.01243 194.94708 191.52573 189.56438 188.59803 188.65868 189.49034 190.79499
 192.51664 194.60829 196.86794 199.22359 201.66525 204.14190 206.22655 208.06520
 209.68785 210.82950 211.05516 211.27981 211.21346 210.91511 210.54476 210.17141
 209.78507 209.49172 209.29637 209.15702 209.08167 209.40932 209.79198 210.17763
 210.96728 212.14193 213.38858 215.16823 217.09289 219.13254 221.22419 223.30384
 225.36049 227.44114 229.53480 231.63745 233.76310 235.93175 238.18440 240.55105
 243.16871 245.41636 247.41501 249.17666 250.59031 251.70996 252.52862 252.84127
 252.87492 252.64557 252.00222 250.94687 249.54953 247.70718 245.61283 243.44248
 241.23013 239.03078 236.84744 234.68309 232.53974 230.40339 228.42604 226.57969
 224.85935 223.32800 221.95465 220.72330 219.60195 218.55860 217.65926 216.79691
 216.03556 215.21221 214.30686 213.66751 213.11417 213.72360 215.17522 217.12004
 217.83614 218.27222 220.09892 221.68611 223.09860 225.13208 228.27957 230.34198
 232.17111 233.95078 236.09785 239.12210 242.90625 247.14388 251.40205 255.42476
 259.09766 262.41949 265.45749 268.21631 270.65283 272.73587 274.52570 276.07172
 277.39999 278.57263 279.64847 280.63275 281.54477 282.55112 283.52853 284.44275
 285.32953 286.21075 286.98056 287.96161
 366.78100 356.33090 345.75880 334.62070 323.01960 311.20951 299.07541 286.87431
 274.58221 262.47511 250.48001 239.77691 229.89481 220.99472 213.17262 206.17052
 200.00042 194.93432 191.51222 189.55012 188.58302 188.64293 189.47383 190.77773
 192.49863 194.58953 196.84843 199.20333 201.64423 204.12014 206.20404 208.04194
 209.66384 210.80474 211.02964 211.25354 211.18644 210.88735 210.51625 210.14215
 209.75505 209.46095 209.26485 209.12475 209.04865 209.37556 209.75746 210.14236
 210.93126 212.10516 213.35106 215.12996 217.05386 219.09277 221.18367 223.26257
 225.31847 227.39837 229.49127 231.59317 233.71807 235.88598 238.13788 240.50378
 243.12068 245.36758 247.36548 249.12638 250.53928 251.65819 252.47609 252.78799
 252.82089 252.59079 251.94669 250.89059 249.49249 247.64940 245.55430 243.38320
 241.17010 238.97000 236.78590 234.62080 232.47670 230.33961 228.36151 226.51441
 224.79331 223.26121 221.88711 220.65501 219.53291 218.48881 217.58872 216.72562
 215.96352 215.13942 214.23332 213.59322 213.03912 213.69487 215.24413 217.07858
 217.94122 218.70454 220.36537 221.90599 223.31552 225.29677 228.23007 230.10376
 231.80634 233.64212 235.83600 238.96635 242.81389 247.08832 251.36604 255.39607
 259.04440 262.33826 265.35760 268.11938 270.55573 272.60666 274.34198 275.84921
 277.15338 278.32773 279.41864 280.45581 281.33646 282.20697 283.15189 284.03363
 284.82172 285.53043 286.17352 287.10529
 366.78100 356.33228 345.76156 334.62484 323.02511 311.21639 299.08367 286.88395
 274.59323 262.48751 250.49378 239.79206 229.91134 221.01262 213.19190 206.19118
 200.02246 194.95773 191.53701 189.57629 188.61057 188.67185 189.50413 190.80941
 192.53168 194.62396 196.88424 199.24052 201.68280 204.16008 206.24535 208.08463
 209.70791 210.85019 211.07647 211.30175 211.23603 210.93830 210.56858 210.19586
 209.81014 209.51742 209.32270 209.18398 209.10925 209.43753 209.82081 210.20709
 210.99737 212.17265 213.41992 215.20020 217.12548 219.16576 221.25804 223.33832
 225.39560 227.47687 229.57115 231.67443 233.80071 235.96999 238.22327 240.59055
 243.20882 245.45710 247.45638 249.21866 250.63294 251.75322 252.57249 252.88577
 252.92005 252.69133 252.04861 250.99389 249.59717 247.75544 245.66172 243.49200
 241.28028 239.08156 236.89884 234.73511 232.59239 230.45667 228.47995 226.63423
 224.91451 223.38379 222.01106 220.78034 219.65962 218.61690 217.71818 216.85646
 216.09574 215.27301 214.36829 213.72957 213.17685 213.78230 215.21277 216.97346
 218.12517 219.06459 220.54689 221.99451 223.36685 225.34607 228.16563 229.77087
 231.44925 233.28619 235.54814 238.83521 242.77742 247.09967 251.40834 255.45921
 259.11658 262.41803 265.44101 268.20410 270.63907 272.68561 274.38879 275.84259
 277.09021 278.21786 279.29346 280.37738 281.30981 282.15063 283.08447 283.95111
 284.71677 285.42245 286.06967 287.01324
 366.78100 356.33886 345.77472 334.64458 323.05145 311.24931 299.12317 286.93003
 274.64589 262.54675 250.55962 239.86448 229.99034 221.09820 213.28406 206.28992
 200.12779 195.06965 191.65551 189.70137 188.74223 188.81009 189.64896 190.96082
 192.68968 194.78854 197.05540 199.41826 201.86712 204.35099 206.44285 208.28871
 209.91857 211.06743 211.30029 211.53216 211.47302 211.18188 210.81874 210.45260
 210.07346 209.78733 209.59919 209.46705 209.39891 209.73377 210.12363 210.51649
 211.31336 212.49522 213.74908 215.53594 217.46780 219.51466 221.61353 223.70039
 225.76425 227.85211 229.95297 232.06283 234.19570 236.37156 238.63142 241.00528
 243.63014 245.88500 247.89087 249.65973 251.08059 252.20745 253.03331 253.35317
 253.39403 253.17190 252.53576 251.48762 250.09748 248.26234 246.17520 244.01207
 241.80693 239.61479 237.43865 235.28151 233.14537 231.01624 229.04610 227.20696
 225.49382 223.96968 222.60354 221.37940 220.26527 219.22913 218.33699 217.48185
 216.72771 215.91157 215.01344 214.38130 213.83516 214.14865 214.88930 216.85933
 218.59024 219.42635 220.89790 222.23547 223.44498 225.29367 227.95987 229.26529
 230.91066 232.72951 235.13342 238.63127 242.70656 247.08017 251.41039 255.46465
 259.13416 262.46246 265.52820 268.31546 270.75696 272.80524 274.53043 276.00278
 277.23062 278.31534 279.34515 280.33051 281.23920 282.17896 283.13510 284.00159
 284.78357 285.51019 286.23239 287.18491
 366.78100 356.34380 345.78460 334.65940 323.07120 311.27400 299.15281 286.96461
 274.68541 262.59121 250.60901 239.91881 230.04961 221.16241 213.35321 206.36401
 200.20681 195.15361 191.74442 189.79522 188.84102 188.91382 189.75762 191.07442
 192.80822 194.91202 197.18382 199.55162 202.00542 204.49423 206.59103 208.44183
 210.07663 211.23043 211.46823 211.70503 211.65083 211.36463 211.00643 210.64523
 210.27103 209.98984 209.80664 209.67944 209.61624 209.95604 210.35084 210.74864
 211.55044 212.73724 213.99604 215.78784 217.72464 219.77645 221.88025 223.97205
 226.04085 228.13365 230.23945 232.35425 234.49205 236.67285 238.93765 241.31645
 243.94626 246.20606 248.21686 249.99066 251.41646 252.54826 253.37906 253.70386
 253.74966 253.53246 252.90126 251.85806 250.47287 248.64267 246.56047 244.40227
 242.20207 240.01487 237.84367 235.69147 233.56027 231.43607 229.47087 227.63668
 225.92848 224.40928 223.04808 221.82888 220.71968 219.68848 218.80128 217.95108
 217.20188 216.39068 215.49748 214.87029 214.32909 214.44839 214.76212 216.59317
 218.69374 219.63516 221.50800 222.65440 223.68823 225.37054 227.90663 228.88826
 230.42992 232.15387 234.61145 238.31409 242.52980 246.96065 251.30806 255.34653
 259.01324 262.37360 265.47812 268.26913 270.69769 272.78809 274.60056 276.15271
 277.44763 278.54715 279.50806 280.46213 281.52823 282.57864 283.57495 284.49359
 285.41196 286.24594 286.97446 287.90289
 366.78100 356.33942 345.77584 334.64626 323.05367 311.25209 299.12651 286.93393
 274.65035 262.55177 250.56519 239.87060 229.99702 221.10544 213.29186 206.29828
 200.13670 195.07912 191.66553 189.71195 188.75337 188.82179 189.66121 190.97363
 192.70304 194.80246 197.06988 199.43330 201.88272 204.36714 206.45956 208.30597
 209.93639 211.08581 211.31923 211.55165 211.49307 211.20249 210.83990 210.47432
 210.09574 209.81016 209.62258 209.49100 209.42342 209.75883 210.14925 210.54267
 211.34009 212.52251 213.77693 215.56435 217.49676 219.54418 221.64360 223.73102
 225.79544 227.88386 229.98528 232.09569 234.22911 236.40553 238.66595 241.04037
 243.66579 245.92121 247.92762 249.69704 251.11846 252.24588 253.07230 253.39272
 253.43413 253.21255 252.57697 251.52939 250.13981 248.30523 246.21865 244.05606
 241.85148 239.65990 237.48432 235.32774 233.19216 231.06358 229.09399 227.25541
 225.54283 224.01925 222.65367 221.43009 220.31651 219.28092 218.38934 217.53476
 216.78118 215.96560 215.06802 214.43644 213.89085 214.25291 215.13429 216.45039
 218.23129 219.81747 221.76668 222.83699 223.86792 225.56625 228.09596 228.95811
 230.27231 232.00139 234.44899 238.15367 242.42587 246.85188 251.17165 255.16541
 258.80029 262.17139 265.31885 268.17212 270.67038 272.83090 274.68756 276.25415
 277.54144 278.64508 279.76401 281.01309 282.19113 283.27527 284.30569 285.37537
 286.34097 287.20087 287.95206 288.90933
 366.78100 356.33261 345.76221 334.62582 323.02643 311.21803 299.08564 286.88624
 274.59585 262.49046 250.49706 239.79567 229.91528 221.01688 213.19649 206.19610
 200.02770 194.96331 191.54292 189.58252 188.61713 188.67873 189.51134 190.81695
 192.53955 194.63216 196.89277 199.24937 201.69198 204.16959 206.25519 208.09480
 209.71840 210.86101 211.08762 211.31322 211.24783 210.95044 210.58104 210.20865
 209.82326 209.53086 209.33647 209.19808 209.12368 209.45229 209.83589 210.22250
 211.01311 212.18871 213.43632 215.21693 217.14253 219.18314 221.27575 223.35635
 225.41396 227.49557 229.59017 231.69378 233.82038 235.98999 238.24360 240.61120
 243.22981 245.47842 247.47802 249.24063 250.65524 251.77584 252.59545 252.90905
 252.94366 252.71527 252.07287 251.01848 249.62209 247.78069 245.68730 243.51791
 241.30651 239.10812 236.92573 234.76233 232.61994 230.48454 228.50815 226.66276
 224.94336 223.41297 222.04058 220.81018 219.68979 218.64740 217.74900 216.88761
 216.12721 215.30482 214.40043 213.76203 213.20964 213.90527 215.54115 216.55844
 217.87920 219.86646 221.72830 222.80962 223.88728 225.66405 228.20384 228.94121
 230.23653 231.92749 234.35629 238.08429 242.40836 246.84016 251.16876 255.17108
 258.80481 262.16385 265.29276 268.11160 270.55420 272.65195 274.48331 276.05869
 277.42380 278.74805 280.13382 281.48306 282.67017 283.75534 284.79117 285.79193
 286.69437 287.49802 288.20004 289.09470
 366.78100 356.33138 345.75977 334.62215 323.02154 311.21192 299.07831 286.87769
 274.58607 262.47946 250.48484 239.78223 229.90061 221.00100 213.17938 206.17776
 200.00815 194.94253 191.52092 189.55930 188.59269 188.65307 189.48446 190.78884
 192.51022 194.60161 196.86099 199.21638 201.65776 204.13415 206.21853 208.05691
 209.67930 210.82068 211.04607 211.27045 211.20384 210.90522 210.53460 210.16099
 209.77437 209.48076 209.28514 209.14553 209.06991 209.39729 209.77968 210.16506
 210.95445 212.12883 213.37522 215.15460 217.07899 219.11837 221.20975 223.28914
 225.34552 227.42591 229.51929 231.62168 233.74706 235.91544 238.16783 240.53421
 243.15160 245.39898 247.39737 249.15875 250.57213 251.69152 252.50990 252.82229
 252.85567 252.62606 251.98244 250.92682 249.52921 247.68659 245.59198 243.42136
 241.20875 239.00913 236.82551 234.66090 232.51728 230.38067 228.40305 226.55644
 224.83582 223.30421 221.93059 220.69897 219.57736 218.53374 217.63413 216.77151
 216.00990 215.18628 214.28066 213.64105 213.08743 213.83452 215.59705 216.77190
 217.86133 219.86864 221.78552 222.94293 224.02010 225.74501 228.16187 228.74500
 230.04652 231.65038 234.11890 237.96632 242.36549 246.82387 251.18312 255.21461
 258.85950 262.19904 265.29813 268.08716 270.50211 272.56308 274.35699 275.94305
 277.34839 278.70621 280.08456 281.42859 282.61310 283.68204 284.69009 285.62256
 286.49942 287.28030 287.96246 288.83179
 366.78100 356.33408 345.76515 334.63023 323.03231 311.22539 299.09446 286.89654
 274.60762 262.50370 250.51177 239.81185 229.93293 221.03601 213.21708 206.21816
 200.05124 194.98831 191.56939 189.61047 188.64655 188.70962 189.54370 190.85078
 192.57486 194.66893 196.93101 199.28909 201.73317 204.21224 206.29932 208.14040
 209.76548 210.90955 211.13763 211.36471 211.30078 211.00486 210.63694 210.26602
 209.88209 209.59117 209.39825 209.26133 209.18840 209.51848 209.90356 210.29164
 211.08371 212.26079 213.50987 215.29194 217.21902 219.26110 221.35518 223.43725
 225.49633 227.57941 229.67549 231.78056 233.90864 236.07972 238.33480 240.70387
 243.32395 245.57403 247.57511 249.33918 250.75526 251.87734 252.69841 253.01349
 253.04957 252.82265 252.18172 251.12880 249.73388 247.89396 245.80203 243.63411
 241.42419 239.22727 237.04634 234.88442 232.74350 230.60957 228.63465 226.79073
 225.07281 223.54388 222.17296 220.94404 219.82512 218.78419 217.88727 217.02735
 216.26843 215.44750 214.54458 213.90766 213.35674 213.97290 215.43187 216.87811
 218.15030 219.94150 221.87219 223.15840 224.23199 225.84677 228.06886 228.60344
 229.74780 231.34727 233.95216 237.83771 242.28627 246.76801 251.13989 255.16940
 258.80148 262.12253 265.21960 268.02353 270.47635 272.58182 274.40314 275.99985
 277.42285 278.72064 279.93427 281.13788 282.30081 283.35617 284.33963 285.23468
 286.05515 286.83701 287.51999 288.39041
 366.78100 356.33678 345.77056 334.63834 323.04313 311.23891 299.11069 286.91547
 274.62925 262.52803 250.53881 239.84159 229.96538 221.07116 213.25494 206.25872
 200.09450 195.03428 191.61806 189.66185 188.70063 188.76641 189.60319 190.91297
 192.63975 194.73653 197.00132 199.36210 201.80888 204.29066 206.38044 208.22422
 209.85200 210.99878 211.22957 211.45935 211.39813 211.10491 210.73969 210.37147
 209.99025 209.70204 209.51182 209.37760 209.30738 209.64016 210.02794 210.41872
 211.21351 212.39329 213.64507 215.42985 217.35963 219.40441 221.50119 223.58597
 225.64776 227.73354 229.83232 231.94010 234.07088 236.24466 238.50244 240.87423
 243.49701 245.74979 247.75357 249.52035 250.93913 252.06391 252.88770 253.20548
 253.24426 253.02004 252.38182 251.33160 249.93938 248.10216 246.01295 243.84773
 241.64051 239.44629 237.26807 235.10885 232.97063 230.83942 228.86720 227.02598
 225.31076 223.78454 222.41632 221.19010 220.07389 219.03567 218.14145 217.28423
 216.52801 215.70979 214.80957 214.17535 213.62714 214.12051 215.28726 216.88933
 218.45520 220.09679 221.95822 223.27202 224.32259 225.88365 228.01266 228.49754
 229.47394 231.04433 233.79904 237.76619 242.23793 246.73079 251.09747 255.11310
 258.72461 262.02905 265.12726 267.94272 270.41949 272.56757 274.43491 276.05270
 277.46964 278.75620 279.94342 281.02850 282.13098 283.17825 284.15244 285.03687
 285.83679 286.61588 287.31540 288.20685
 366.78100 356.33795 345.77290 334.64185 323.04781 311.24476 299.11771 286.92366
 274.63861 262.53856 250.55052 239.85447 229.97942 221.08637 213.27132 206.27627
 200.11322 195.05418 191.63913 189.68408 188.72403 188.79098 189.62893 190.93989
 192.66784 194.76579 197.03174 199.39369 201.84164 204.32460 206.41555 208.26050
 209.88945 211.03740 211.26935 211.50030 211.44026 211.14821 210.78416 210.41711
 210.03706 209.75001 209.56097 209.42792 209.35887 209.69282 210.08177 210.47372
 211.26967 212.45063 213.70358 215.48953 217.42048 219.46643 221.56438 223.65034
 225.71329 227.80024 229.90019 232.00914 234.14109 236.31605 238.57500 240.94795
 243.57190 245.82585 247.83080 249.59875 251.01871 252.14466 252.96961 253.28856
 253.32851 253.10546 252.46842 251.41937 250.02832 248.19227 246.10422 243.94017
 241.73412 239.54108 237.36403 235.20598 233.06893 230.93888 228.96783 227.12779
 225.41374 223.88869 222.52164 221.29659 220.18154 219.14449 218.25145 217.39540
 216.64035 215.82330 214.92425 214.29120 213.74416 214.19061 215.24541 216.88306
 218.60838 220.27693 222.07207 223.35519 224.38245 225.90036 227.95058 228.35165
 229.22519 230.80057 233.68108 237.73309 242.21919 246.71498 251.07443 255.08839
 258.69666 261.99362 265.08249 267.88705 270.36118 272.51971 274.40671 276.03973
 277.45706 278.74860 279.94955 281.04028 282.10995 283.14581 284.11612 284.99380
 285.78894 286.55444 287.24860 288.13318
 366.78100 356.33715 345.77130 334.63945 323.04461 311.24076 299.11291 286.91806
 274.63221 262.53136 250.54251 239.84567 229.96982 221.07597 213.26012 206.26427
 200.10042 195.04057 191.62472 189.66888 188.70803 188.77418 189.61133 190.92148
 192.64863 194.74578 197.01094 199.37209 201.81924 204.30139 206.39154 208.23569
 209.86384 211.01100 211.24215 211.47230 211.41145 211.11860 210.75375 210.38590
 210.00506 209.71721 209.52736 209.39351 209.32366 209.65681 210.04496 210.43612
 211.23127 212.41142 213.66357 215.44872 217.37887 219.42402 221.52117 223.60633
 225.66848 227.75463 229.85378 231.96193 234.09308 236.26723 238.52539 240.89754
 243.52069 245.77384 247.77799 249.54514 250.96429 252.08945 252.91360 253.23175
 253.27090 253.04705 252.40920 251.35935 249.96751 248.13066 246.04181 243.87696
 241.67011 239.47626 237.29841 235.13957 233.00172 230.87087 228.89902 227.05817
 225.34332 223.81747 222.44962 221.22378 220.10793 219.07008 218.17623 217.31938
 216.56353 215.74568 214.84584 214.21199 213.66414 214.16110 215.33858 216.83482
 218.62756 220.40944 222.20786 223.44933 224.43248 225.92535 227.86392 228.22301
 229.03085 230.58873 233.57056 237.69978 242.20184 246.69301 251.03766 255.04994
 258.66269 261.96579 265.05109 267.84921 270.32571 272.49081 274.37891 276.01050
 277.42761 278.71997 279.92889 281.05319 282.15350 283.19727 284.16510 285.04544
 285.84879 286.63379 287.31958 288.19351
 366.78100 356.33575 345.76850 334.63526 323.03901 311.23376 299.10451 286.90826
 274.62101 262.51877 250.52852 239.83027 229.95302 221.05777 213.24053 206.24328
 200.07803 195.01678 191.59953 189.64229 188.68004 188.74479 189.58054 190.88929
 192.61504 194.71080 196.97455 199.33430 201.78005 204.26080 206.34956 208.19231
 209.81906 210.96481 211.19456 211.42331 211.36107 211.06682 210.70057 210.33132
 209.94907 209.65983 209.46858 209.33333 209.26208 209.59383 209.98059 210.37034
 211.16409 212.34284 213.59359 215.37734 217.30610 219.34985 221.44560 223.52935
 225.59010 227.67486 229.77261 231.87936 234.00911 236.18186 238.43861 240.80937
 243.43112 245.68287 247.68562 249.45137 250.86913 251.99288 252.81563 253.13238
 253.17013 252.94489 252.30564 251.25439 249.86114 248.02289 245.93264 243.76640
 241.55815 239.36290 237.18365 235.02340 232.88416 230.75191 228.77866 226.93641
 225.22016 223.69291 222.32367 221.09642 219.97917 218.93992 218.04467 217.18643
 216.42918 215.60993 214.70868 214.07343 213.52419 214.10030 215.46658 216.83148
 218.55716 220.42642 222.33270 223.65912 224.66176 225.99689 227.81046 228.11351
 228.84267 230.35194 233.41597 237.65102 242.15169 246.63786 250.95811 254.95331
 258.57080 261.89462 264.99124 267.80103 270.29633 272.48764 274.39749 276.04175
 277.46744 278.75964 279.97403 281.14203 282.27408 283.32166 284.29498 285.18967
 286.03333 286.81100 287.49039 288.35617
 366.78100 356.33596 345.76891 334.63587 323.03983 311.23478 299.10574 286.90970
 274.62265 262.52061 250.53057 239.83252 229.95548 221.06044 213.24339 206.24635
 200.08131 195.02026 191.60322 189.64618 188.68413 188.74909 189.58505 190.89400
 192.61996 194.71592 196.97987 199.33983 201.78579 204.26674 206.35570 208.19866
 209.82561 210.97157 211.20153 211.43048 211.36844 211.07440 210.70835 210.33931
 209.95726 209.66822 209.47718 209.34213 209.27109 209.60305 209.99000 210.37996
 211.17392 212.35287 213.60383 215.38779 217.31674 219.36070 221.45666 223.54061
 225.60157 227.68653 229.78448 231.89144 234.02140 236.19435 238.45131 240.82227
 243.44422 245.69618 247.69914 249.46509 250.88305 252.00701 252.82996 253.14692
 253.18488 252.95983 252.32079 251.26975 249.87670 248.03866 245.94862 243.78257
 241.57453 239.37949 237.20044 235.04040 232.90136 230.76931 228.79627 226.95423
 225.23818 223.71114 222.34210 221.11505 219.99801 218.95897 218.06392 217.20588
 216.44884 215.62979 214.72875 214.09371 213.54466 214.11972 215.48396 216.90834
 218.55739 220.49251 222.45964 223.79266 224.83646 226.08531 227.84027 227.99338
 228.63634 230.12949 233.29666 237.59648 242.08293 246.55618 250.85522 254.83992
 258.46472 261.79932 264.89563 267.70490 270.21185 272.43335 274.37619 276.05463
 277.51672 278.83124 280.05432 281.24808 282.40451 283.45041 284.42230 285.31293
 286.14630 286.91068 287.57840 288.42935
 366.78100 356.33619 345.76938 334.63657 323.04076 311.23595 299.10713 286.91132
 274.62451 262.52270 250.53289 239.83508 229.95827 221.06346 213.24665 206.24984
 200.08502 195.02421 191.60740 189.65059 188.68878 188.75397 189.59016 190.89935
 192.62554 194.72173 196.98591 199.34610 201.79229 204.27348 206.36267 208.20586
 209.83305 210.97924 211.20943 211.43862 211.37680 211.08299 210.71718 210.34837
 209.96656 209.67775 209.48694 209.35213 209.28132 209.61351 210.00069 210.39088
 211.18507 212.36426 213.61545 215.39964 217.32883 219.37302 221.46921 223.55340
 225.61458 227.69977 229.79796 231.90515 234.03534 236.20853 238.46572 240.83691
 243.45910 245.71129 247.71448 249.48066 250.89885 252.02304 252.84623 253.16342
 253.20161 252.97680 252.33799 251.28718 249.89437 248.05655 245.96674 243.80093
 241.59312 239.39831 237.21950 235.05969 232.92088 230.78907 228.81626 226.97444
 225.25863 223.73182 222.36301 221.13620 220.01939 218.98058 218.08577 217.22796
 216.47115 215.65233 214.75152 214.11671 213.56790 214.14612 215.52217 216.94020
 218.57880 220.57091 222.51166 223.81622 224.87607 226.12096 227.86487 227.92659
 228.38741 229.88617 233.18367 237.58946 242.05669 246.51886 250.80685 254.79652
 258.43228 261.76447 264.83679 267.62143 270.11450 272.33923 274.28482 275.96851
 277.46542 278.82635 280.08511 281.34753 282.52383 283.57928 284.55539 285.46640
 286.32471 287.08899 287.75668 288.60757
 366.78100 356.33471 345.76643 334.63214 323.03486 311.22857 299.09828 286.90100
 274.61271 262.50943 250.51814 239.81886 229.94057 221.04428 213.22600 206.22771
 200.06143 194.99914 191.58085 189.62257 188.65928 188.72300 189.55771 190.86542
 192.59014 194.68485 196.94757 199.30628 201.75099 204.23071 206.31842 208.16014
 209.78585 210.93057 211.15928 211.38699 211.32371 211.02842 210.66114 210.29085
 209.90756 209.61728 209.42499 209.28871 209.21642 209.54713 209.93285 210.32156
 211.11428 212.29199 213.54171 215.32442 217.25213 219.29485 221.38956 223.47228
 225.53199 227.61570 229.71242 231.81813 233.94685 236.11856 238.37427 240.74399
 243.36470 245.61542 247.61713 249.38184 250.79856 251.92127 252.74299 253.05870
 253.09542 252.86913 252.22884 251.17656 249.78227 247.94299 245.85170 243.68441
 241.47513 239.27884 237.09856 234.93727 232.79698 230.66370 228.68941 226.84613
 225.12884 223.60056 222.23027 221.00198 219.88370 218.84341 217.94713 217.08784
 216.32955 215.50927 214.60698 213.97070 213.42041 214.08475 215.66136 216.97879
 218.49806 220.51004 222.41814 223.77808 224.89084 226.19121 227.87764 228.03534
 228.26845 229.87437 233.21594 237.60254 242.07271 246.52419 250.80551 254.80423
 258.45496 261.78912 264.84286 267.60544 270.08643 272.30841 274.23895 275.91711
 277.42078 278.80432 280.13467 281.46530 282.65601 283.72702 284.74872 285.71603
 286.58600 287.36072 288.03751 288.89996
 366.78100 356.33532 345.76765 334.63397 323.03729 311.23161 299.10194 286.90526
 274.61758 262.51491 250.52423 239.82555 229.94788 221.05220 213.23452 206.23684
 200.07117 195.00949 191.59181 189.63414 188.67146 188.73578 189.57110 190.87943
 192.60475 194.70007 196.96340 199.32272 201.76804 204.24836 206.33669 208.17901
 209.80533 210.95066 211.17998 211.40830 211.34563 211.05095 210.68427 210.31459
 209.93192 209.64224 209.45056 209.31489 209.24321 209.57453 209.96085 210.35018
 211.14350 212.32182 213.57215 215.35547 217.28379 219.32712 221.42244 223.50576
 225.56608 227.65041 229.74773 231.85405 233.98338 236.15570 238.41202 240.78234
 243.40367 245.65499 247.65731 249.42264 250.83996 251.96328 252.78560 253.10193
 253.13925 252.91357 252.27390 251.22222 249.82854 247.98987 245.89919 243.73251
 241.52383 239.32816 237.14848 234.98780 232.84813 230.71545 228.74177 226.89909
 225.18242 223.65474 222.28506 221.05739 219.93971 218.90003 218.00436 217.14568
 216.38800 215.56832 214.66665 214.03097 213.48129 214.12514 215.66486 217.10332
 218.56067 220.48878 222.35988 223.75058 224.90884 226.26167 227.81882 228.05153
 228.19281 229.83023 233.20120 237.60303 242.07706 246.51543 250.79607 254.81174
 258.48636 261.83408 264.88248 267.63477 270.10837 272.32544 274.25995 275.92496
 277.42679 278.82471 280.21933 281.58545 282.78375 283.86771 284.94250 285.91620
 286.79193 287.57178 288.25302 289.12119
 366.78100 356.33784 345.77268 334.64152 323.04736 311.24420 299.11704 286.92288
 274.63772 262.53756 250.54940 239.85324 229.97808 221.08492 213.26976 206.27460
 200.11145 195.05229 191.63713 189.68197 188.72181 188.78865 189.62649 190.93733
 192.66517 194.76301 197.02885 199.39069 201.83853 204.32137 206.41221 208.25705
 209.88589 211.03373 211.26557 211.49641 211.43625 211.14409 210.77993 210.41277
 210.03261 209.74545 209.55629 209.42313 209.35397 209.68781 210.07665 210.46850
 211.26434 212.44518 213.69802 215.48386 217.41470 219.46054 221.55838 223.64422
 225.70706 227.79390 229.89374 232.00258 234.13442 236.30926 238.56810 240.94094
 243.56478 245.81862 247.82346 249.59130 251.01114 252.13698 252.96182 253.28066
 253.32050 253.09734 252.46018 251.41102 250.01986 248.18370 246.09555 243.93139
 241.72523 239.53207 237.35491 235.19675 233.05959 230.92943 228.95827 227.11811
 225.40395 223.87879 222.51163 221.28647 220.17131 219.13415 218.24099 217.38483
 216.62967 215.81251 214.91335 214.28019 213.73303 214.26849 215.57503 217.15359
 218.75699 220.60155 222.40787 223.77409 224.92807 226.26820 227.70152 227.87405
 228.00887 229.69302 233.14471 237.58170 242.06897 246.50186 250.78186 254.81975
 258.52933 261.90500 264.96393 267.71384 270.18787 272.41147 274.35110 276.00455
 277.49203 278.87289 280.31519 281.68146 282.88559 284.00107 285.06503 286.02893
 286.89584 287.66782 288.34222 289.20166
 366.78100 356.33725 345.77150 334.63975 323.04501 311.24126 299.11351 286.91876
 274.63301 262.53226 250.54352 239.84677 229.97102 221.07727 213.26152 206.26577
 200.10203 195.04228 191.62653 189.67078 188.71003 188.77628 189.61354 190.92379
 192.65104 194.74829 197.01354 199.37479 201.82205 204.30430 206.39455 208.23880
 209.86705 211.01430 211.24556 211.47581 211.41506 211.12231 210.75756 210.38981
 210.00907 209.72132 209.53157 209.39782 209.32807 209.66132 210.04958 210.44083
 211.23608 212.41633 213.66858 215.45383 217.38409 219.42934 221.52659 223.61184
 225.67409 227.76034 229.85960 231.96785 234.09910 236.27335 238.53160 240.90385
 243.52710 245.78036 247.78461 249.55186 250.97111 252.09636 252.92061 253.23887
 253.27812 253.05437 252.41662 251.36687 249.97512 248.13838 246.04963 243.88488
 241.67813 239.48438 237.30663 235.14789 233.01014 230.87939 228.90764 227.06689
 225.35214 223.82640 222.45865 221.23290 220.11715 219.07940 218.18565 217.32891
 216.57316 215.75541 214.85566 214.22191 213.67416 214.25372 215.64857 217.14204
 218.76221 220.62967 222.44151 223.81108 224.97014 226.29118 227.72095 227.70915
 227.83003 229.51854 233.04442 237.54471 242.02574 246.44470 250.72110 254.76942
 258.50595 261.91220 264.99451 267.76996 270.27179 272.53452 274.50909 276.17752
 277.65173 279.03128 280.40234 281.76697 282.96167 284.04419 285.11194 286.09134
 286.97220 287.75662 288.44186 289.31512
 366.78100 356.33493 345.76686 334.63279 323.03572 311.22965 299.09958 286.90251
 274.61444 262.51137 250.52030 239.82123 229.94316 221.04709 213.22902 206.23095
 200.06488 195.00281 191.58473 189.62666 188.66359 188.72752 189.56245 190.87038
 192.59531 194.69024 196.95317 199.31210 201.75703 204.23696 206.32489 208.16682
 209.79275 210.93768 211.16661 211.39454 211.33147 211.03640 210.66933 210.29926
 209.91619 209.62612 209.43405 209.29798 209.22591 209.55684 209.94277 210.33170
 211.12463 212.30256 213.55249 215.33542 217.26334 219.30627 221.40120 223.48413
 225.54406 227.62799 229.72492 231.83085 233.95978 236.13171 238.38764 240.75757
 243.37850 245.62943 247.63136 249.39629 250.81322 251.93615 252.75808 253.07401
 253.11094 252.88487 252.24480 251.19273 249.79866 247.95959 245.86852 243.70145
 241.49238 239.29631 237.11624 234.95517 232.81510 230.68203 228.70795 226.86488
 225.14781 223.61974 222.24967 221.02160 219.90353 218.86346 217.96739 217.10832
 216.35025 215.53018 214.62811 213.99204 213.44197 214.13808 215.79015 217.23410
 218.72774 220.62450 222.48566 223.87640 225.05298 226.37193 227.84908 227.59415
 227.69659 229.31326 232.92183 237.49075 241.93506 246.32773 250.58807 254.62825
 258.36755 261.78528 264.89139 267.70380 270.25711 272.57516 274.60422 276.31921
 277.82556 279.20605 280.49939 281.83609 283.02283 284.08029 285.06418 285.98917
 286.83408 287.58646 288.24371 289.08133
 366.78100 356.33453 345.76607 334.63160 323.03414 311.22767 299.09721 286.89974
 274.61128 262.50781 250.51635 239.81688 229.93842 221.04195 213.22349 206.22502
 200.05855 194.99609 191.57762 189.61916 188.65569 188.71923 189.55376 190.86130
 192.58583 194.68037 196.94290 199.30144 201.74597 204.22551 206.31304 208.15457
 209.78011 210.92464 211.15318 211.38071 211.31725 211.02178 210.65432 210.28385
 209.90039 209.60992 209.41746 209.28099 209.20852 209.53906 209.92459 210.31313
 211.10566 212.28320 213.53273 215.31527 217.24280 219.28534 221.37987 223.46241
 225.52194 227.60548 229.70201 231.80754 233.93608 236.10761 238.36315 240.73268
 243.35322 245.60375 247.60529 249.36982 250.78636 251.90889 252.73043 253.04596
 253.08250 252.85603 252.21556 251.16310 249.76863 247.92917 245.83770 243.67024
 241.46077 239.26431 237.08384 234.92238 232.78191 230.64845 228.67398 226.83052
 225.11305 223.58458 222.21412 220.98565 219.86719 218.82672 217.93026 217.07079
 216.31233 215.49186 214.58940 213.95293 213.40247 214.11748 215.80989 217.37463
 218.76262 220.66068 222.52206 223.91133 225.11281 226.44109 227.87157 227.57855
 227.72382 229.33519 232.89764 237.45909 241.84937 246.21951 250.45956 254.49474
 258.23312 261.65112 264.76135 267.59476 270.18759 272.54758 274.61359 276.37146
 277.91687 279.31647 280.60443 281.87750 283.06232 284.11639 285.08768 285.97293
 286.78055 287.50885 288.14508 288.95587
 366.78100 356.33554 345.76809 334.63463 323.03818 311.23272 299.10327 286.90681
 274.61936 262.51690 250.52645 239.82799 229.95054 221.05508 213.23763 206.24017
 200.07472 195.01326 191.59581 189.63835 188.67590 188.74044 189.57599 190.88453
 192.61007 194.70562 196.96916 199.32871 201.77425 204.25480 206.34334 208.18589
 209.81243 210.95798 211.18752 211.41607 211.35361 211.05916 210.69270 210.32325
 209.94079 209.65134 209.45988 209.32443 209.25297 209.58452 209.97106 210.36061
 211.15415 212.33269 213.58324 215.36678 217.29533 219.33887 221.43442 223.51796
 225.57851 227.66305 229.76060 231.86714 233.99669 236.16923 238.42578 240.79632
 243.41787 245.66941 247.67196 249.43750 250.85505 251.97859 252.80114 253.11768
 253.15522 252.92977 252.29031 251.23886 249.84540 248.00695 245.91649 243.75004
 241.54158 239.34613 237.16667 235.00622 232.86676 230.73431 228.76085 226.91840
 225.20194 223.67449 222.30503 221.07758 219.96012 218.92067 218.02521 217.16676
 216.40930 215.58984 214.68839 214.05293 213.50348 214.17029 215.74571 217.52995
 218.89497 220.71144 222.52197 223.88333 225.09439 226.44432 227.86293 227.61526
 227.73067 229.37706 232.91437 237.43138 241.81030 246.14554 250.36948 254.40633
 258.15152 261.57111 264.67230 267.50717 270.12024 272.51321 274.60486 276.37927
 277.95117 279.38327 280.68658 281.91702 283.07907 284.12958 285.09372 285.96606
 286.74628 287.42685 288.02881 288.79593
 366.78100 356.33639 345.76979 334.63718 323.04158 311.23697 299.10837 286.91276
 274.62615 262.52455 250.53494 239.83734 229.96073 221.06613 213.24952 206.25291
 200.08831 195.02770 191.61110 189.65449 188.69288 188.75828 189.59467 190.90407
 192.63046 194.72686 196.99125 199.35164 201.79804 204.27943 206.36883 208.21222
 209.83962 210.98601 211.21640 211.44580 211.38419 211.09059 210.72498 210.35638
 209.97477 209.68616 209.49556 209.36095 209.29035 209.62274 210.01014 210.40053
 211.19492 212.37432 213.62571 215.41011 217.33950 219.38390 221.48029 223.56468
 225.62608 227.71147 229.80987 231.91726 234.04765 236.22105 238.47844 240.84984
 243.47223 245.72463 247.72802 249.49441 250.91281 252.03720 252.86060 253.17799
 253.21639 252.99178 252.35317 251.30257 249.90996 248.07236 245.98275 243.81715
 241.60954 239.41493 237.23633 235.07672 232.93812 230.80651 228.83391 226.99230
 225.27669 223.75009 222.38148 221.15488 220.03827 218.99966 218.10506 217.24745
 216.49085 215.67224 214.77164 214.13703 213.58842 214.21825 215.70624 217.62642
 219.06279 220.77368 222.50677 223.82481 225.02097 226.39000 227.82086 227.64545
 227.70467 229.38161 232.91734 237.42984 241.79080 246.09015 250.30954 254.34628
 258.09735 261.51776 264.61630 267.44702 270.06195 272.45880 274.53201 276.30588
 277.91183 279.37891 280.70566 281.91364 283.07608 284.12268 285.08276 285.95074
 286.72491 287.40637 288.00885 288.81125
 366.78100 356.33669 345.77038 334.63807 323.04277 311.23846 299.11015 286.91484
 274.62853 262.52722 250.53791 239.84061 229.96430 221.06999 213.25368 206.25737
 200.09306 195.03276 191.61645 189.66014 188.69883 188.76452 189.60121 190.91090
 192.63760 194.73429 196.99898 199.35967 201.80636 204.28805 206.37774 208.22144
 209.84913 210.99582 211.22651 211.45620 211.39489 211.10159 210.73628 210.36797
 209.98666 209.69835 209.50804 209.37373 209.30343 209.63612 210.02381 210.41450
 211.20919 212.38888 213.64057 215.42527 217.35496 219.39965 221.49634 223.58103
 225.64272 227.72841 229.82711 231.93480 234.06549 236.23918 238.49687 240.86856
 243.49126 245.74395 247.74764 249.51433 250.93302 252.05771 252.88140 253.19910
 253.23779 253.01348 252.37517 251.32486 249.93255 248.09524 246.00594 243.84063
 241.63332 239.43901 237.26070 235.10139 232.96308 230.83178 228.85947 227.01816
 225.30285 223.77654 222.40823 221.18193 220.06562 219.02731 218.13300 217.27569
 216.51938 215.70107 214.80077 214.16646 213.61815 214.24083 215.71199 217.65823
 219.20718 220.81088 222.45598 223.74075 224.94913 226.34509 227.79346 227.66846
 227.70868 229.36241 232.91240 237.44620 241.78514 246.05113 250.26314 254.30818
 258.07275 261.49948 264.59302 267.41727 270.03064 272.42474 274.46902 276.21820
 277.83304 279.32187 280.66702 281.89496 283.05878 284.10928 285.07144 285.93961
 286.71301 287.39658 287.99750 288.79297
 366.78100 356.33699 345.77099 334.63898 323.04398 311.23997 299.11197 286.91696
 274.63096 262.52995 250.54095 239.84394 229.96794 221.07393 213.25793 206.26192
 200.09792 195.03791 191.62191 189.66590 188.70490 188.77089 189.60789 190.91788
 192.64488 194.74187 197.00687 199.36786 201.81486 204.29685 206.38684 208.23084
 209.85883 211.00583 211.23682 211.46682 211.40581 211.11281 210.74780 210.37980
 209.99879 209.71079 209.52078 209.38678 209.31677 209.64977 210.03776 210.42876
 211.22375 212.40375 213.65574 215.44074 217.37073 219.41573 221.51272 223.59772
 225.65971 227.74571 229.84470 231.95270 234.08369 236.25768 238.51568 240.88767
 243.51067 245.76366 247.76766 249.53465 250.95365 252.07864 252.90264 253.22063
 253.25963 253.03562 252.39762 251.34761 249.95561 248.11860 246.02960 243.86459
 241.65759 239.46358 237.28558 235.12657 232.98857 230.85756 228.88556 227.04455
 225.32955 223.80354 222.43553 221.20953 220.09352 219.05552 218.16151 217.30451
 216.54850 215.73050 214.83049 214.19649 213.64848 214.26378 215.71747 217.67700
 219.35480 220.85815 222.39085 223.64413 224.85724 226.28647 227.78357 227.72704
 227.74272 229.34824 232.90828 237.46172 241.77910 246.00435 250.20929 254.26059
 258.03876 261.47620 264.57269 267.40198 270.02325 272.42798 274.45944 276.18539
 277.78925 279.28033 280.63773 281.85822 283.01099 284.05188 284.99707 285.86005
 286.65033 287.34479 287.95300 288.75232
 366.78100 356.33793 345.77286 334.64179 323.04772 311.24465 299.11758 286.92351
 274.63844 262.53837 250.55030 239.85423 229.97916 221.08609 213.27102 206.27595
 200.11288 195.05381 191.63874 189.68367 188.72360 188.79053 189.62846 190.93939
 192.66732 194.76525 197.03118 199.39311 201.84104 204.32397 206.41490 208.25983
 209.88876 211.03669 211.26862 211.49955 211.43948 211.14741 210.78334 210.41627
 210.03620 209.74913 209.56006 209.42699 209.35792 209.69185 210.08078 210.47270
 211.26863 212.44956 213.70249 215.48842 217.41935 219.46528 221.56321 223.64914
 225.71207 227.79900 229.89893 232.00786 234.13979 236.31472 238.57365 240.94658
 243.57051 245.82444 247.82937 249.59730 251.01723 252.14316 252.96809 253.28702
 253.32695 253.10388 252.46681 251.41774 250.02667 248.19060 246.10253 243.93846
 241.73239 239.53932 237.36225 235.20418 233.06711 230.93704 228.96597 227.12590
 225.41183 223.88676 222.51969 221.29462 220.17955 219.14248 218.24941 217.39334
 216.63827 215.82120 214.92213 214.28906 213.74199 214.31900 215.68227 217.71843
 219.50000 220.92165 222.33049 223.55626 224.78168 226.23427 227.74854 227.73601
 227.75752 229.34641 232.90471 237.46831 241.76631 245.95479 250.14493 254.20168
 257.99237 261.43958 264.54327 267.38144 270.01645 272.43591 274.46414 276.17487
 277.76157 279.24469 280.60229 281.82236 282.95789 283.99350 284.93970 285.80649
 286.59824 287.30276 287.91266 288.71536
 366.78100 356.33939 345.77579 334.64618 323.05358 311.25197 299.12636 286.93376
 274.65015 262.55154 250.56494 239.87033 229.99673 221.10512 213.29151 206.29791
 200.13630 195.07869 191.66509 189.71148 188.75288 188.82127 189.66066 190.97306
 192.70245 194.80185 197.06924 199.43263 201.88203 204.36642 206.45881 208.30521
 209.93560 211.08500 211.31839 211.55078 211.49218 211.20157 210.83897 210.47336
 210.09475 209.80915 209.62154 209.48993 209.42233 209.75772 210.14812 210.54151
 211.33890 212.52130 213.77569 215.56308 217.49548 219.54287 221.64227 223.72966
 225.79405 227.88245 229.98384 232.09424 234.22763 236.40402 238.66442 241.03881
 243.66420 245.91960 247.92599 249.69539 251.11678 252.24417 253.07057 253.39096
 253.43236 253.21075 252.57514 251.52754 250.13793 248.30332 246.21672 244.05411
 241.84951 239.65790 237.48229 235.32569 233.19008 231.06147 229.09187 227.25326
 225.54066 224.01705 222.65144 221.42784 220.31423 219.27863 218.38702 217.53241
 216.77881 215.96320 215.06559 214.43399 213.88838 214.40210 215.61580 217.76848
 219.64803 220.99156 222.27184 223.47000 224.70117 226.13350 227.70248 227.78513
 227.79857 229.34520 232.90587 237.48302 241.76654 245.91220 250.08792 254.14703
 257.94885 261.40591 264.51758 267.36356 270.00970 272.43994 274.46539 276.16748
 277.73972 279.20978 280.56180 281.78040 282.90335 283.93927 284.88916 285.75827
 286.55328 287.26395 287.87766 288.68143
 366.78100 356.34040 345.77779 334.64919 323.05759 311.25699 299.13238 286.94078
 274.65818 262.56058 250.57497 239.88137 230.00877 221.11816 213.30556 206.31296
 200.15236 195.09575 191.68315 189.73055 188.77294 188.84234 189.68274 190.99614
 192.72653 194.82693 197.09533 199.45973 201.91012 204.39552 206.48892 208.33631
 209.96771 211.11811 211.35251 211.58590 211.52830 211.23870 210.87710 210.51249
 210.13489 209.85029 209.66368 209.53308 209.46648 209.80288 210.19427 210.58867
 211.38707 212.57046 213.82586 215.61426 217.54766 219.59605 221.69645 223.78485
 225.85025 227.93964 230.04204 232.15344 234.28783 236.46523 238.72663 241.10203
 243.72842 245.98482 247.99222 249.76261 251.18501 252.31341 253.14081 253.46220
 253.50460 253.28400 252.64940 251.60279 250.21419 248.38059 246.29498 244.13338
 241.92978 239.73918 237.56457 235.40897 233.27437 231.14677 229.17816 227.34056
 225.62896 224.10635 222.74175 221.51915 220.40655 219.37194 218.48134 217.62774
 216.87513 216.06053 215.16393 214.53333 213.98872 214.46292 215.58327 217.77901
 219.79016 221.08691 222.23988 223.38843 224.60634 226.00148 227.62238 227.82394
 227.85397 229.36047 232.91495 237.50668 241.78186 245.89000 250.03954 254.09877
 257.91058 261.37708 264.49561 267.34943 270.00424 272.44211 274.46365 276.15829
 277.71759 279.17456 280.51831 281.72806 282.85184 283.88885 284.84274 285.71475
 286.51263 287.23236 287.84689 288.65405
 366.78100 356.34039 345.77777 334.64916 323.05754 311.25693 299.13231 286.94070
 274.65808 262.56047 250.57485 239.88124 230.00862 221.11801 213.30539 206.31278
 200.15216 195.09555 191.68293 189.73032 188.77270 188.84209 189.68247 190.99586
 192.72624 194.82663 197.09501 199.45940 201.90979 204.39517 206.48856 208.33594
 209.96733 211.11771 211.35210 211.58548 211.52787 211.23825 210.87664 210.51202
 210.13441 209.84979 209.66318 209.53256 209.46595 209.80233 210.19372 210.58810
 211.38649 212.56987 213.82526 215.61364 217.54703 219.59541 221.69580 223.78419
 225.84957 227.93896 230.04134 232.15273 234.28711 236.46450 238.72588 241.10127
 243.72765 245.98404 247.99142 249.76181 251.18419 252.31258 253.13996 253.46135
 253.50373 253.28312 252.64850 251.60189 250.21327 248.37966 246.29404 244.13243
 241.92881 239.73820 237.56359 235.40797 233.27336 231.14574 229.17713 227.33951
 225.62790 224.10528 222.74067 221.51805 220.40544 219.37082 218.48021 217.62659
 216.87398 216.05936 215.16275 214.53213 213.98752 214.47180 215.61597 217.74254
 219.88438 221.22853 222.27173 223.31677 224.47849 225.83389 227.51280 227.83891
 227.91331 229.39598 232.93269 237.53445 241.80641 245.88097 250.00883 254.05853
 257.87720 261.35217 264.47635 267.33469 269.99719 272.43927 274.45474 276.14197
 277.69135 279.13599 280.47150 281.67279 282.80408 283.84296 284.79938 285.67255
 286.47324 287.19656 287.81158 288.62109
 366.78100 356.34013 345.77725 334.64838 323.05650 311.25563 299.13075 286.93888
 274.65600 262.55813 250.57225 239.87838 230.00550 221.11463 213.30175 206.30888
 200.14800 195.09113 191.67825 189.72538 188.76750 188.83663 189.67675 190.98988
 192.72000 194.82013 197.08825 199.45238 201.90250 204.38763 206.48075 208.32788
 209.95900 211.10913 211.34325 211.57638 211.51850 211.22863 210.86675 210.50188
 210.12400 209.83913 209.65225 209.52138 209.45450 209.79063 210.18175 210.57588
 211.37400 212.55713 213.81225 215.60038 217.53350 219.58163 221.68175 223.76988
 225.83500 227.92413 230.02625 232.13738 234.27150 236.44863 238.70975 241.08488
 243.71100 245.96713 247.97425 249.74438 251.16650 252.29463 253.12175 253.44288
 253.48500 253.26413 252.62925 251.58238 250.19350 248.35963 246.27375 244.11188
 241.90800 239.71713 237.54225 235.38638 233.25150 231.12363 229.15475 227.31688
 225.60500 224.08213 222.71725 221.49438 220.38150 219.34663 218.45575 217.60188
 216.84900 216.03413 215.13725 214.50638 213.96150 214.46628 215.65889 217.71420
 219.93233 221.36549 222.34819 223.26935 224.34285 225.66173 227.39520 227.82092
 227.94824 229.43167 232.95406 237.56738 241.84459 245.88553 249.98122 254.02670
 257.85379 261.33588 264.46033 267.31873 269.98358 272.42163 274.42297 276.10162
 277.64740 279.08585 280.41467 281.61581 282.75885 283.80191 284.75891 285.63596
 286.43417 287.15732 287.77982 288.59650
 366.78100 356.34080 345.77859 334.65039 323.05918 311.25898 299.13478 286.94357
 274.66137 262.56416 250.57896 239.88576 230.01355 221.12335 213.31114 206.31894
 200.15874 195.10253 191.69033 189.73812 188.78092 188.85071 189.69151 191.00531
 192.73610 194.83690 197.10569 199.47049 201.92129 204.40708 206.50088 208.34867
 209.98047 211.13127 211.36606 211.59986 211.54265 211.25345 210.89225 210.52804
 210.15084 209.86663 209.68043 209.55023 209.48402 209.82082 210.21261 210.60741
 211.40621 212.59000 213.84580 215.63459 217.56839 219.61719 221.71798 223.80678
 225.87257 227.96237 230.06517 232.17696 234.31176 236.48955 238.75135 241.12714
 243.75394 246.01074 248.01853 249.78933 251.21212 252.34092 253.16872 253.49051
 253.53331 253.31310 252.67890 251.63270 250.24449 248.41129 246.32608 244.16488
 241.96168 239.77147 237.59727 235.44206 233.30786 231.18066 229.21245 227.37525
 225.66404 224.14184 222.77764 221.55543 220.44323 219.40902 218.51882 217.66562
 216.91341 216.09921 215.20300 214.57280 214.02859 214.50688 215.63690 217.73871
 219.99416 221.42102 222.39755 223.26105 224.25316 225.52513 227.28537 227.77060
 227.94591 229.45346 232.97398 237.60101 241.88846 245.89719 249.96295 254.00201
 257.83502 261.31982 264.44101 267.29767 269.96176 272.38855 274.37003 276.04221
 277.58960 279.02786 280.35275 281.56012 282.71707 283.76410 284.72183 285.60098
 286.39969 287.12613 287.75171 288.56647
 366.78100 356.34233 345.78167 334.65500 323.06534 311.26667 299.14400 286.95434
 274.67367 262.57801 250.59434 239.90267 230.03201 221.14334 213.33268 206.34201
 200.18334 195.12868 191.71801 189.76735 188.81168 188.88301 189.72535 191.04068
 192.77302 194.87535 197.14568 199.51202 201.96435 204.45169 206.54702 208.39636
 210.02969 211.18202 211.41836 211.65369 211.59803 211.31036 210.95069 210.58803
 210.21236 209.92970 209.74503 209.61636 209.55170 209.89003 210.28337 210.67970
 211.48003 212.66537 213.92270 215.71304 217.64837 219.69870 221.80104 223.89137
 225.95871 228.05004 230.15437 232.26771 234.40404 236.58338 238.84671 241.22404
 243.85238 246.11071 248.12005 249.89238 251.31671 252.44705 253.27638 253.59972
 253.64405 253.42538 252.79272 251.74805 250.36139 248.52972 246.44605 244.28639
 242.08472 239.89606 237.72339 235.56972 233.43706 231.31139 229.34473 227.50906
 225.79940 224.27873 222.91606 221.69540 220.58473 219.55207 218.66340 217.81173
 217.06107 216.24840 215.35374 214.72507 214.18240 214.59247 215.56129 217.78807
 220.09697 221.41634 222.39171 223.26604 224.20032 225.41843 227.18732 227.71368
 227.93506 229.47607 232.99817 237.63483 241.93004 245.91525 249.94496 253.97163
 257.80478 261.28687 264.40659 267.26819 269.93723 272.36044 274.33127 275.99521
 277.54126 278.97559 280.29239 281.51614 282.67999 283.72858 284.68945 285.56845
 286.37149 287.09720 287.72900 288.54556
 366.78100 356.34363 345.78427 334.65890 323.07054 311.27317 299.15181 286.96344
 274.68408 262.58971 250.60735 239.91698 230.04762 221.16025 213.35089 206.36152
 200.20416 195.15079 191.74143 189.79206 188.83770 188.91033 189.75397 191.07060
 192.80424 194.90787 197.17951 199.54714 202.00078 204.48941 206.58605 208.43668
 210.07132 211.22495 211.46258 211.69922 211.64485 211.35849 211.00012 210.63876
 210.26439 209.98303 209.79966 209.67230 209.60893 209.94857 210.34320 210.74084
 211.54247 212.72911 213.98774 215.77938 217.71601 219.76765 221.87128 223.96292
 226.03155 228.12419 230.22982 232.34446 234.48209 236.66273 238.92736 241.30600
 243.93563 246.19527 248.20590 249.97953 251.40517 252.53680 253.36744 253.69207
 253.73771 253.52034 252.88898 251.84561 250.46025 248.62988 246.54752 244.38915
 242.18879 240.00142 237.83006 235.67769 233.54633 231.42196 229.45660 227.62223
 225.91387 224.39450 223.03314 221.81377 220.70441 219.67304 218.78568 217.93531
 217.18595 216.37458 215.48122 214.85385 214.31248 214.66774 215.50708 217.80865
 220.18871 221.45303 222.38028 223.23380 224.11133 225.29654 227.09254 227.67902
 227.95555 229.52325 233.03526 237.67752 241.97856 245.93947 249.92628 253.93318
 257.75558 261.22903 264.35049 267.22711 269.91382 272.34995 274.32495 275.98322
 277.51654 278.94049 280.24530 281.48331 282.65158 283.70044 284.66211 285.54303
 286.34470 287.07010 287.70230 288.52280
 366.78100 356.34417 345.78534 334.66051 323.07268 311.27585 299.15501 286.96718
 274.68835 262.59452 250.61269 239.92286 230.05403 221.16720 213.35837 206.36954
 200.21270 195.15987 191.75104 189.80221 188.84838 188.92155 189.76572 191.08289
 192.81706 194.92123 197.19340 199.56156 202.01573 204.50490 206.60207 208.45324
 210.08841 211.24258 211.48075 211.71792 211.66409 211.37826 211.02042 210.65959
 210.28576 210.00493 209.82210 209.69527 209.63244 209.97261 210.36778 210.76595
 211.56811 212.75528 214.01445 215.80662 217.74379 219.79596 221.90013 223.99230
 226.06147 228.15464 230.26081 232.37597 234.51414 236.69531 238.96048 241.33965
 243.96982 246.22999 248.24116 250.01533 251.44150 252.57366 253.40483 253.73000
 253.77617 253.55934 252.92851 251.88568 250.50085 248.67102 246.58919 244.43136
 242.23152 240.04469 237.87386 235.72203 233.59120 231.46737 229.50254 227.66871
 225.96088 224.44205 223.08122 221.86238 220.75355 219.72272 218.83589 217.98606
 217.23723 216.42640 215.53357 214.90674 214.36591 214.70511 215.50650 217.79488
 220.21751 221.57277 222.41997 223.15344 223.95212 225.13193 226.98320 227.65984
 228.01031 229.60454 233.09007 237.72870 242.04276 245.98300 249.92793 253.89784
 257.70013 261.15741 264.27887 267.17352 269.88406 272.33643 274.32037 275.97766
 277.49945 278.91309 280.20850 281.45990 282.63028 283.67902 284.64136 285.52237
 286.32507 287.04935 287.68457 288.50543
 366.78100 356.34431 345.78563 334.66094 323.07326 311.27657 299.15589 286.96820
 274.68951 262.59583 250.61414 239.92446 230.05577 221.16909 213.36040 206.37171
 200.21503 195.16234 191.75366 189.80497 188.85129 188.92460 189.76892 191.08623
 192.82054 194.92486 197.19717 199.56549 202.01980 204.50912 206.60643 208.45774
 210.09306 211.24737 211.48569 211.72300 211.66932 211.38363 211.02594 210.66526
 210.29157 210.01089 209.82820 209.70152 209.63883 209.97914 210.37446 210.77277
 211.57509 212.76240 214.02172 215.81403 217.75134 219.80366 221.90797 224.00029
 226.06960 228.16292 230.26923 232.38454 234.52286 236.70417 238.96949 241.34880
 243.97912 246.23943 248.25075 250.02506 251.45137 252.58369 253.41500 253.74032
 253.78663 253.56995 252.93926 251.89657 250.51189 248.68220 246.60052 244.44283
 242.24315 240.05646 237.88577 235.73409 233.60340 231.47972 229.51503 227.68135
 225.97366 224.45497 223.09429 221.87560 220.76692 219.73623 218.84955 217.99986
 217.25117 216.44049 215.54780 214.92112 214.38043 214.72285 215.53186 217.77072
 220.20663 221.70676 222.51270 223.07489 223.76445 224.94113 226.84431 227.61606
 228.06226 229.70154 233.16075 237.79164 242.13205 246.05971 249.94798 253.87799
 257.65778 261.09366 264.20728 267.11179 269.83871 272.29236 274.27841 275.94452
 277.46710 278.87933 280.16965 281.44989 282.62244 283.67319 284.63733 285.52069
 286.32663 287.05426 287.69492 288.52829
 366.78100 356.34443 345.78585 334.66128 323.07371 311.27713 299.15656 286.96899
 274.69041 262.59684 250.61526 239.92569 230.05712 221.17054 213.36197 206.37340
 200.21682 195.16425 191.75568 189.80710 188.85353 188.92696 189.77138 191.08881
 192.82324 194.92766 197.20009 199.56851 202.02294 204.51237 206.60979 208.46122
 210.09665 211.25107 211.48950 211.72693 211.67335 211.38778 211.03021 210.66963
 210.29606 210.01549 209.83291 209.70634 209.64376 209.98419 210.37962 210.77804
 211.58047 212.76790 214.02732 215.81975 217.75718 219.80960 221.91403 224.00646
 226.07588 228.16931 230.27574 232.39116 234.52959 236.71101 238.97644 241.35587
 243.98629 246.24672 248.25815 250.03257 251.45900 252.59143 253.42285 253.74828
 253.79471 253.57813 252.94756 251.90499 250.52041 248.69084 246.60926 244.45169
 242.25212 240.06554 237.89497 235.74340 233.61282 231.48925 229.52468 227.69110
 225.98353 224.46496 223.10438 221.88581 220.77724 219.74666 218.86009 218.01051
 217.26194 216.45137 215.55879 214.93222 214.39165 214.73878 215.55894 217.74414
 220.20459 221.78709 222.61456 223.03825 223.61896 224.76144 226.67729 227.52293
 228.07747 229.78915 233.23535 237.85994 242.23021 246.15601 250.00269 253.89134
 257.63806 261.04608 264.14236 267.04520 269.77399 272.21069 274.19159 275.87286
 277.41388 278.83444 280.12521 281.45187 282.63483 283.68570 284.65143 285.53543
 286.34299 287.07358 287.71539 288.54984
 366.78100 356.34457 345.78613 334.66170 323.07426 311.27783 299.15739 286.96996
 274.69153 262.59809 250.61666 239.92722 230.05879 221.17235 213.36392 206.37548
 200.21905 195.16662 191.75818 189.80975 188.85631 188.92988 189.77444 191.09201
 192.82658 194.93114 197.20371 199.57227 202.02684 204.51640 206.61397 208.46553
 210.10110 211.25567 211.49423 211.73180 211.67836 211.39293 211.03549 210.67506
 210.30163 210.02119 209.83876 209.71232 209.64989 209.99045 210.38602 210.78458
 211.58715 212.77472 214.03428 215.82685 217.76441 219.81698 221.92154 224.01411
 226.08368 228.17724 230.28381 232.39937 234.53794 236.71950 238.98507 241.36463
 243.99520 246.25577 248.26733 250.04190 251.46846 252.60103 253.43259 253.75816
 253.80473 253.58829 252.95786 251.91542 250.53099 248.70155 246.62012 244.46269
 242.26325 240.07682 237.90638 235.75495 233.62451 231.50108 229.53664 227.70321
 225.99578 224.47734 223.11691 221.89847 220.79004 219.75960 218.87317 218.02374
 217.27530 216.46487 215.57243 214.94600 214.40556 214.75661 215.58595 217.71341
 220.21761 221.81679 222.70036 223.04497 223.52147 224.61220 226.49239 227.37880
 228.05302 229.86394 233.31248 237.93039 242.33231 246.27087 250.07877 253.92259
 257.63043 261.00659 264.08057 266.97522 269.69409 272.10983 274.08450 275.78510
 277.35205 278.78769 280.11597 281.45813 282.64453 283.70120 284.66901 285.55615
 286.36560 287.09689 287.74014 288.57605
 366.78100 356.34473 345.78646 334.66219 323.07492 311.27865 299.15838 286.97112
 274.69285 262.59958 250.61831 239.92904 230.06077 221.17450 213.36623 206.37796
 200.22169 195.16942 191.76115 189.81288 188.85961 188.93335 189.77808 191.09581
 192.83054 194.93527 197.20800 199.57673 202.03146 204.52119 206.61892 208.47065
 210.10638 211.26111 211.49984 211.73758 211.68431 211.39904 211.04177 210.68150
 210.30823 210.02796 209.84569 209.71942 209.65715 209.99788 210.39361 210.79234
 211.59508 212.78281 214.04254 215.83527 217.77300 219.82573 221.93046 224.02319
 226.09292 228.18665 230.29338 232.40911 234.54784 236.72957 238.99531 241.37504
 244.00577 246.26650 248.27823 250.05296 251.47969 252.61242 253.44415 253.76988
 253.81661 253.60034 252.97007 251.92781 250.54354 248.71427 246.63300 244.47573
 242.27646 240.09019 237.91992 235.76865 233.63838 231.51511 229.55084 227.71757
 226.01030 224.49204 223.13177 221.91350 220.80523 219.77496 218.88869 218.03942
 217.29115 216.48088 215.58861 214.96234 214.42207 214.77727 215.61647 217.68365
 220.22350 221.83189 222.75304 223.07198 223.47830 224.47690 226.29076 227.21275
 228.01039 229.93417 233.39626 238.00909 242.43488 246.38271 250.16257 253.96394
 257.62668 260.96762 264.01910 266.90320 269.61148 272.01093 273.97897 275.69659
 277.29126 278.74512 280.12460 281.47610 282.66422 283.72174 284.69235 285.58032
 286.39264 287.12524 287.76910 288.60641
 366.78100 356.34484 345.78668 334.66252 323.07536 311.27920 299.15904 286.97188
 274.69372 262.60056 250.61940 239.93024 230.06208 221.17592 213.36776 206.37960
 200.22344 195.17128 191.76312 189.81496 188.86180 188.93564 189.78048 191.09832
 192.83316 194.93800 197.21084 199.57968 202.03452 204.52436 206.62220 208.47403
 210.10987 211.26471 211.50355 211.74139 211.68823 211.40307 211.04591 210.68575
 210.31259 210.03243 209.85027 209.72411 209.66195 210.00279 210.39863 210.79747
 211.60031 212.78815 214.04799 215.84083 217.77867 219.83151 221.93635 224.02919
 226.09903 228.19287 230.29971 232.41555 234.55439 236.73623 239.00207 241.38191
 244.01275 246.27359 248.28543 250.06027 251.48711 252.61995 253.45179 253.77763
 253.82447 253.60831 252.97815 251.93599 250.55183 248.72267 246.64151 244.48435
 242.28519 240.09903 237.92887 235.77771 233.64755 231.52439 229.56023 227.72707
 226.01991 224.50175 223.14159 221.92342 220.81526 219.78510 218.89894 218.04978
 217.30162 216.49146 215.59930 214.97314 214.43298 214.79649 215.65533 217.65530
 220.20212 221.86365 222.79590 223.07683 223.41710 224.38235 226.10202 227.01898
 227.94757 230.00282 233.48500 238.09395 242.54262 246.50467 250.25859 254.00725
 257.62231 260.92450 263.95157 266.82742 269.52725 271.91318 273.87762 275.61005
 277.23242 278.71622 280.14075 281.49875 282.68857 283.74875 284.71973 285.61163
 286.42435 287.15939 287.80014 288.64346
 366.78100 356.34477 345.78655 334.66232 323.07510 311.27887 299.15864 286.97142
 274.69319 262.59997 250.61874 239.92951 230.06129 221.17506 213.36683 206.37861
 200.22238 195.17016 191.76193 189.81370 188.86048 188.93425 189.77903 191.09680
 192.83157 194.93635 197.20912 199.57790 202.03267 204.52244 206.62022 208.47199
 210.10777 211.26254 211.50131 211.73909 211.68586 211.40063 211.04341 210.68318
 210.30996 210.02973 209.84750 209.72128 209.65905 209.99983 210.39560 210.79437
 211.59715 212.78492 214.04470 215.83747 217.77524 219.82802 221.93279 224.02557
 226.09534 228.18911 230.29589 232.41166 234.55043 236.73221 238.99798 241.37776
 244.00853 246.26930 248.28108 250.05585 251.48263 252.61540 253.44717 253.77295
 253.81972 253.60350 252.97327 251.93104 250.54682 248.71759 246.63637 244.47914
 242.27991 240.09369 237.92346 235.77224 233.64201 231.51878 229.55456 227.72133
 226.01410 224.49588 223.13565 221.91743 220.80920 219.77897 218.89275 218.04352
 217.29530 216.48507 215.59284 214.96662 214.42639 214.80704 215.70636 217.63162
 220.14346 221.89915 222.83896 223.12300 223.39986 224.20699 225.86859 226.86014
 227.91899 230.08873 233.58839 238.18098 242.65205 246.63232 250.36575 254.05704
 257.61694 260.87674 263.88013 266.74945 269.44135 271.81744 273.77643 275.52112
 277.16998 278.65900 280.17160 281.54007 282.72952 283.78815 284.76083 285.65002
 286.46332 287.19751 287.84128 288.67822
 366.78100 356.34457 345.78615 334.66172 323.07429 311.27787 299.15744 286.97002
 274.69159 262.59816 250.61674 239.92731 230.05888 221.17246 213.36403 206.37561
 200.21918 195.16675 191.75833 189.80990 188.85647 188.93005 189.77462 191.09220
 192.82677 194.93134 197.20392 199.57249 202.02706 204.51664 206.61421 208.46579
 210.10136 211.25593 211.49451 211.73208 211.67865 211.39323 211.03580 210.67538
 210.30195 210.02152 209.83910 209.71267 209.65024 209.99082 210.38639 210.78496
 211.58754 212.77511 214.03469 215.82726 217.76483 219.81741 221.92198 224.01455
 226.08413 228.17770 230.28428 232.39985 234.53842 236.72000 238.98557 241.36514
 243.99572 246.25629 248.26787 250.04244 251.46901 252.60159 253.43316 253.75873
 253.80531 253.58888 252.95846 251.91603 250.53160 248.70218 246.62075 244.46332
 242.26390 240.07747 237.90705 235.75562 233.62519 231.50177 229.53734 227.70391
 225.99649 224.47806 223.11763 221.89921 220.79078 219.76036 218.87393 218.02450
 217.27608 216.46565 215.57322 214.94680 214.40637 214.81018 215.76419 217.62068
 220.06302 221.91684 222.87729 223.16194 223.37790 224.01581 225.63208 226.71895
 227.91196 230.19598 233.71133 238.28047 242.76408 246.76614 250.47801 254.11147
 257.61310 260.82993 263.80801 266.66946 269.35510 271.72217 273.67929 275.43726
 277.11664 278.65332 280.18579 281.56149 282.75671 283.81873 284.79230 285.68387
 286.49667 287.23038 287.87106 288.71185
 366.78100 356.34439 345.78579 334.66118 323.07358 311.27697 299.15637 286.96876
 274.69016 262.59655 250.61495 239.92534 230.05674 221.17013 213.36153 206.37292
 200.21632 195.16371 191.75511 189.80650 188.85289 188.92629 189.77068 191.08808
 192.82247 194.92687 197.19926 199.56766 202.02205 204.51145 206.60884 208.46024
 210.09563 211.25003 211.48842 211.72582 211.67221 211.38661 211.02900 210.66839
 210.29479 210.01418 209.83158 209.70497 209.64237 209.98276 210.37816 210.77655
 211.57895 212.76634 214.02574 215.81813 217.75553 219.80792 221.91232 224.00471
 226.07411 228.16750 230.27389 232.38929 234.52768 236.70908 238.97447 241.35387
 243.98426 246.24466 248.25605 250.03045 251.45684 252.58924 253.42063 253.74603
 253.79242 253.57582 252.94521 251.90261 250.51800 248.68839 246.60679 244.44918
 242.24958 240.06297 237.89237 235.74076 233.61016 231.48655 229.52195 227.68834
 225.98074 224.46213 223.10153 221.88292 220.77432 219.74371 218.85711 218.00750
 217.25889 216.44829 215.55568 214.92908 214.38847 214.81387 215.81894 217.62027
 219.97997 221.91043 222.91714 223.18382 223.32953 223.82661 225.40602 226.58266
 227.90929 230.31021 233.84215 238.38618 242.88521 246.91121 250.59584 254.17191
 257.61154 260.78271 263.73621 266.58981 269.26956 271.62671 273.58017 275.35056
 277.06015 278.66559 280.20770 281.58582 282.78296 283.84897 284.82339 285.71622
 286.52716 287.25955 287.89923 288.73813
 366.78100 356.34428 345.78556 334.66084 323.07313 311.27641 299.15569 286.96797
 274.68925 262.59553 250.61381 239.92409 230.05538 221.16866 213.35994 206.37122
 200.21450 195.16178 191.75306 189.80435 188.85063 188.92391 189.76819 191.08547
 192.81975 194.92403 197.19632 199.56460 202.01888 204.50816 206.60544 208.45672
 210.09200 211.24628 211.48457 211.72185 211.66813 211.38241 211.02469 210.66397
 210.29025 210.00954 209.82682 209.70010 209.63738 209.97766 210.37294 210.77122
 211.57351 212.76079 214.02007 215.81235 217.74963 219.80191 221.90619 223.99847
 226.06776 228.16104 230.26732 232.38260 234.52088 236.70216 238.96744 241.34673
 243.97701 246.23729 248.24857 250.02285 251.44913 252.58141 253.41270 253.73798
 253.78426 253.56754 252.93682 251.89410 250.50938 248.67966 246.59795 244.44023
 242.24051 240.05379 237.88307 235.73135 233.60063 231.47692 229.51220 227.67848
 225.97076 224.45204 223.09132 221.87260 220.76389 219.73317 218.84645 217.99673
 217.24801 216.43729 215.54457 214.91785 214.37714 214.82080 215.86897 217.62573
 219.90480 221.87914 222.95174 223.19614 223.26683 223.65004 225.19423 226.44450
 227.89699 230.41705 233.97643 238.49745 243.01224 247.05830 250.71814 254.23691
 257.61526 260.74036 263.66809 266.51382 269.18561 271.53323 273.48776 275.27631
 276.99310 278.69095 280.23737 281.60995 282.80594 283.86951 284.84424 285.73587
 286.54648 287.27722 287.91437 288.75394
 366.78100 356.34421 345.78541 334.66062 323.07283 311.27603 299.15524 286.96745
 274.68865 262.59486 250.61307 239.92327 230.05448 221.16769 213.35889 206.37010
 200.21331 195.16051 191.75172 189.80293 188.84913 188.92234 189.76655 191.08375
 192.81796 194.92216 197.19437 199.56258 202.01678 204.50599 206.60320 208.45440
 210.08961 211.24382 211.48202 211.71923 211.66544 211.37964 211.02185 210.66106
 210.28726 210.00647 209.82368 209.69688 209.63409 209.97430 210.36950 210.76771
 211.56992 212.75712 214.01633 215.80854 217.74574 219.79795 221.90216 223.99436
 226.06357 228.15678 230.26298 232.37819 234.51640 236.69760 238.96281 241.34202
 243.97222 246.23243 248.24364 250.01784 251.44405 252.57626 253.40746 253.73267
 253.77887 253.56208 252.93129 251.88849 250.50370 248.67391 246.59211 244.43432
 242.23453 240.04773 237.87694 235.72515 233.59435 231.47056 229.50577 227.67197
 225.96418 224.44539 223.08459 221.86580 220.75701 219.72621 218.83942 217.98963
 217.24083 216.43004 215.53725 214.91045 214.36966 214.82967 215.91647 217.63467
 219.83800 221.83356 222.97095 223.19223 223.19125 223.48909 225.00098 226.31168
 227.87807 230.51106 234.10950 238.61354 243.13864 247.20660 250.84761 254.31017
 257.63184 260.71161 263.61331 266.44843 269.10736 271.43921 273.38651 275.18466
 276.93842 278.69855 280.25906 281.63586 282.83282 283.89639 284.87122 285.75879
 286.56760 287.29501 287.92953 288.76657
 366.78100 356.34430 345.78560 334.66090 323.07321 311.27651 299.15581 286.96811
 274.68941 262.59571 250.61401 239.92431 230.05562 221.16892 213.36022 206.37152
 200.21482 195.16212 191.75342 189.80473 188.85103 188.92433 189.76863 191.08593
 192.82023 194.92453 197.19684 199.56514 202.01944 204.50874 206.60604 208.45734
 210.09264 211.24694 211.48525 211.72255 211.66885 211.38315 211.02545 210.66475
 210.29105 210.01036 209.82766 209.70096 209.63826 209.97856 210.37386 210.77216
 211.57446 212.76177 214.02107 215.81337 217.75067 219.80297 221.90727 223.99957
 226.06888 228.16218 230.26848 232.38378 234.52208 236.70338 238.96868 241.34799
 243.97829 246.23859 248.24989 250.02419 251.45049 252.58279 253.41409 253.73940
 253.78570 253.56900 252.93830 251.89560 250.51090 248.68120 246.59951 244.44181
 242.24211 240.05541 237.88471 235.73301 233.60231 231.47861 229.51392 227.68022
 225.97252 224.45382 223.09312 221.87442 220.76572 219.73503 218.84833 217.99863
 217.24993 216.43923 215.54653 214.91983 214.37914 214.84964 215.96124 217.63696
 219.77325 221.77498 222.96472 223.16850 223.10576 223.33218 224.81781 226.18068
 227.86032 230.59502 234.24060 238.73708 243.27859 247.36005 250.98468 254.39415
 257.65912 260.69464 263.56659 266.38980 269.03833 271.36063 273.30688 275.11649
 276.90732 278.69077 280.25653 281.63623 282.83633 283.89914 284.87344 285.75931
 286.56577 287.29095 287.92664 288.76175
 366.78100 356.34460 345.78620 334.66180 323.07440 311.27800 299.15760 286.97020
 274.69179 262.59839 250.61699 239.92759 230.05919 221.17279 213.36439 206.37599
 200.21959 195.16719 191.75879 189.81039 188.85699 188.93059 189.77519 191.09279
 192.82738 194.93198 197.20458 199.57318 202.02778 204.51738 206.61498 208.46658
 210.10218 211.25678 211.49538 211.73298 211.67958 211.39418 211.03678 210.67637
 210.30297 210.02257 209.84017 209.71377 209.65137 209.99197 210.38757 210.78617
 211.58877 212.77637 214.03597 215.82857 217.76617 219.81877 221.92337 224.01596
 226.08556 228.17916 230.28576 232.40136 234.53996 236.72156 238.98716 241.36676
 243.99736 246.25796 248.26956 250.04416 251.47076 252.60336 253.43495 253.76055
 253.80715 253.59075 252.96035 251.91795 250.53355 248.70415 246.62275 244.46535
 242.26595 240.07955 237.90915 235.75775 233.62735 231.50395 229.53954 227.70614
 225.99874 224.48034 223.11994 221.90154 220.79314 219.76274 218.87634 218.02694
 217.27854 216.46814 215.57574 214.94934 214.40894 214.88341 216.00441 217.63240
 219.70802 221.70610 222.93033 223.12010 223.01297 223.19144 224.65459 226.06328
 227.84770 230.67278 234.37091 238.86598 243.41328 247.51605 251.12981 254.49054
 257.70761 260.70309 263.54404 266.34702 268.97418 271.26624 273.18921 275.01562
 276.89963 278.69788 280.26398 281.64474 282.84186 283.90359 284.87640 285.76129
 286.56161 287.28271 287.91757 288.74539
 366.78100 356.34474 345.78648 334.66222 323.07495 311.27869 299.15843 286.97117
 274.69291 262.59965 250.61839 239.92912 230.06086 221.17460 213.36634 206.37808
 200.22182 195.16955 191.76129 189.81303 188.85977 188.93351 189.77825 191.09599
 192.83072 194.93546 197.20820 199.57694 202.03168 204.52142 206.61916 208.47089
 210.10663 211.26137 211.50011 211.73785 211.68459 211.39933 211.04206 210.68180
 210.30854 210.02828 209.84602 209.71976 209.65749 209.99823 210.39397 210.79271
 211.59545 212.78319 214.04293 215.83566 217.77340 219.82614 221.93088 224.02362
 226.09336 228.18710 230.29383 232.40957 234.54831 236.73005 238.99579 241.37553
 244.00627 246.26700 248.27874 250.05348 251.48022 252.61296 253.44470 253.77043
 253.81717 253.60091 252.97065 251.92839 250.54413 248.71487 246.63360 244.47634
 242.27708 240.09082 237.92056 235.76930 233.63904 231.51577 229.55151 227.71825
 226.01099 224.49273 223.13247 221.91420 220.80594 219.77568 218.88942 218.04016
 217.29190 216.48164 215.58937 214.96311 214.42285 214.91055 216.06282 217.61638
 219.64407 221.65930 222.89391 223.06148 222.90936 223.05667 224.49057 225.94427
 227.81902 230.74550 234.50758 238.99919 243.54816 247.66240 251.26027 254.59697
 257.76334 260.71432 263.52472 266.30878 268.92072 271.20709 273.15106 275.00238
 276.85486 278.64902 280.21307 281.59000 282.78479 283.84464 284.81360 285.69672
 286.49628 287.21811 287.85303 288.67755
 366.78100 356.34528 345.78755 334.66383 323.07710 311.28138 299.16166 286.97493
 274.69721 262.60448 250.62376 239.93504 230.06731 221.18159 213.37387 206.38614
 200.23042 195.17869 191.77097 189.82325 188.87052 188.94480 189.79007 191.10835
 192.84363 194.94890 197.22218 199.59145 202.04673 204.53701 206.63528 208.48756
 210.12383 211.27911 211.51839 211.75666 211.70394 211.41922 211.06249 210.70277
 210.33004 210.05032 209.86860 209.74287 209.68115 210.02242 210.41870 210.81798
 211.62125 212.80953 214.06980 215.86308 217.80136 219.85463 221.95991 224.05318
 226.12346 228.21774 230.32501 232.44129 234.58056 236.76284 239.02912 241.40939
 244.04067 246.30195 248.31422 250.08950 251.51677 252.65005 253.48233 253.80860
 253.85588 253.64015 253.01043 251.96871 250.58498 248.75626 246.67553 244.51881
 242.32009 240.13436 237.96464 235.81391 233.68419 231.56147 229.59774 227.76502
 226.05830 224.54057 223.18085 221.96312 220.85540 219.82568 218.93995 218.09123
 217.34350 216.53378 215.64206 215.01633 214.47661 214.96078 216.10472 217.59930
 219.57567 221.59900 222.86401 223.00833 222.81230 222.92401 224.31892 225.78864
 227.77084 230.78755 234.62241 239.12308 243.67677 247.81316 251.44670 254.71233
 257.83740 260.75977 263.53180 266.28601 268.85959 271.09464 272.98187 274.83517
 276.90363 278.69846 280.25897 281.63376 282.82712 283.88541 284.85364 285.73798
 286.54352 287.26776 287.90695 288.72668
 366.78100 356.34566 345.78831 334.66497 323.07863 311.28328 299.16394 286.97760
 274.70025 262.60791 250.62757 239.93922 230.07188 221.18654 213.37920 206.39185
 200.23651 195.18517 191.77782 189.83048 188.87814 188.95279 189.79845 191.11711
 192.85276 194.95842 197.23208 199.60173 202.05739 204.54805 206.64670 208.49936
 210.13602 211.29167 211.53133 211.76999 211.71764 211.43330 211.07696 210.71761
 210.34527 210.06593 209.88459 209.75924 209.69790 210.03956 210.43621 210.83587
 211.63953 212.82818 214.08884 215.88250 217.82115 219.87481 221.98047 224.07412
 226.14478 228.23944 230.34709 232.46375 234.60341 236.78606 239.05272 241.43338
 244.06503 246.32669 248.33935 250.11500 251.54266 252.67632 253.50898 253.83563
 253.88329 253.66795 253.03860 251.99726 250.61392 248.78557 246.70523 244.54889
 242.35054 240.16520 237.99586 235.84551 233.71617 231.59383 229.63048 227.79814
 226.09180 224.57445 223.21511 221.99777 220.89042 219.86108 218.97574 218.12740
 217.38005 216.57071 215.67937 215.05402 214.51468 215.00276 216.15591 217.56137
 219.50858 221.53659 222.81053 222.92439 222.69017 222.78278 224.16373 225.68742
 227.75713 230.84264 234.73329 239.23431 243.77794 247.92430 251.47597 254.90155
 258.01303 260.88950 263.61212 266.31885 268.86469 271.07373 272.97046 274.85254
 276.78558 278.53082 280.06110 281.40646 282.57629 283.61499 284.55475 285.45468
 286.27997 286.99664 287.50073 288.14313
 366.78100 356.34477 345.78653 334.66230 323.07506 311.27883 299.15859 286.97136
 274.69312 262.59989 250.61865 239.92942 230.06118 221.17495 213.36671 206.37848
 200.22224 195.17001 191.76177 189.81354 188.86030 188.93407 189.77883 191.09660
 192.83136 194.93613 197.20889 199.57766 202.03242 204.52219 206.61995 208.47172
 210.10748 211.26225 211.50101 211.73878 211.68554 211.40031 211.04307 210.68284
 210.30960 210.02937 209.84713 209.72090 209.65866 209.99943 210.39519 210.79396
 211.59672 212.78449 214.04425 215.83702 217.77478 219.82755 221.93231 224.02508
 226.09484 228.18861 230.29537 232.41114 234.54990 236.73167 238.99743 241.37720
 244.00796 246.26873 248.28049 250.05526 251.48202 252.61479 253.44655 253.77232
 253.81908 253.60285 252.97261 251.93038 250.54615 248.71691 246.63568 244.47844
 242.27921 240.09297 237.92274 235.77150 233.64127 231.51803 229.55380 227.72056
 226.01333 224.49509 223.13486 221.91662 220.80839 219.77815 218.89192 218.04268
 217.29445 216.48421 215.59198 214.96574 214.42551 214.97646 216.27939 217.55760
 219.26363 221.35889 222.76750 222.88831 222.62363 222.62538 223.94719 225.54660
 227.68045 230.84785 234.81682 239.34427 243.91663 248.06995 251.65489 255.06497
 258.13409 260.97156 263.66959 266.31818 268.80396 270.97141 272.89069 274.78888
 276.75858 278.54318 280.10010 281.47266 282.66562 283.73175 284.73050 285.64682
 286.48657 287.24039 287.89890 288.73810
 366.78100 356.34577 345.78854 334.66531 323.07908 311.28385 299.16462 286.97839
 274.70116 262.60893 250.62870 239.94047 230.07324 221.18801 213.38078 206.39355
 200.23832 195.18709 191.77986 189.83263 188.88040 188.95517 189.80094 191.11971
 192.85548 194.96125 197.23502 199.60479 202.06056 204.55133 206.65010 208.50287
 210.13964 211.29541 211.53518 211.77395 211.72172 211.43749 211.08126 210.72203
 210.34980 210.07057 209.88934 209.76411 209.70288 210.04465 210.44142 210.84119
 211.64496 212.83373 214.09450 215.88827 217.82704 219.88081 221.98658 224.08035
 226.15112 228.24589 230.35366 232.47043 234.61020 236.79297 239.05974 241.44051
 244.07228 246.33405 248.34682 250.12259 251.55036 252.68413 253.51690 253.84367
 253.89144 253.67621 253.04698 252.00575 250.62252 248.79429 246.71406 244.55783
 242.35960 240.17437 238.00514 235.85491 233.72568 231.60345 229.64022 227.80799
 226.10176 224.58453 223.22530 222.00807 220.90084 219.87161 218.98638 218.13815
 217.39092 216.58169 215.69046 215.06523 214.52600 215.04091 216.26268 217.66818
 219.12126 221.12253 222.72266 222.87807 222.55905 222.53780 223.80797 225.37585
 227.60477 230.87640 234.92050 239.45831 243.99713 248.16692 251.92445 255.30276
 258.33774 261.12656 263.77429 266.36572 268.78607 270.91141 272.82751 274.78082
 276.71219 278.46048 279.97940 281.32901 282.50711 283.56433 284.53568 285.37262
 285.92761 286.42178 286.85352 287.40369
 366.78100 356.34737 345.79173 334.67010 323.08547 311.29183 299.17420 286.98957
 274.71393 262.62330 250.64467 239.95803 230.09240 221.20877 213.40313 206.41750
 200.26387 195.21423 191.80860 189.86297 188.91233 188.98870 189.83607 191.15643
 192.89380 195.00117 197.27653 199.64790 202.10527 204.59763 206.69800 208.55237
 210.19073 211.34810 211.58947 211.82983 211.77920 211.49657 211.14193 210.78430
 210.41367 210.13603 209.95640 209.83277 209.77313 210.11650 210.51487 210.91623
 211.72160 212.91197 214.17433 215.96970 217.91007 219.96543 222.07280 224.16817
 226.24053 228.33690 230.44627 232.56463 234.70600 236.89037 239.15873 241.54110
 244.17447 246.43783 248.45220 250.22957 251.65893 252.79430 253.62867 253.95703
 254.00640 253.79277 253.16514 252.12550 250.74387 248.91724 246.83860 244.68397
 242.48734 240.30370 238.13607 235.98744 233.85980 231.73917 229.77754 227.94690
 226.24227 224.72664 223.36900 222.15337 221.04774 220.02010 219.13647 218.28984
 217.54420 216.73657 215.84694 215.22330 214.68567 215.14375 216.22601 217.63356
 219.21582 221.18620 222.65277 222.66895 222.34212 222.42838 223.68709 225.24065
 227.58397 230.95563 235.04993 239.57056 244.10870 248.30034 252.10349 255.45897
 258.47720 261.25244 263.85663 266.40378 268.81494 270.92920 272.80331 274.70966
 276.61734 278.35294 279.89050 281.24875 282.42590 283.47717 284.45911 285.33417
 286.13721 286.87479 287.51913 288.34027
 366.78100 356.34532 345.78764 334.66396 323.07728 311.28160 299.16192 286.97524
 274.69756 262.60488 250.62420 239.93552 230.06784 221.18216 213.37448 206.38680
 200.23112 195.17944 191.77176 189.82407 188.87139 188.94571 189.79103 191.10935
 192.84467 194.94999 197.22331 199.59263 202.04795 204.53827 206.63659 208.48891
 210.12523 211.28055 211.51987 211.75819 211.70551 211.42083 211.06415 210.70447
 210.33179 210.05211 209.87043 209.74475 209.68307 210.02439 210.42071 210.82003
 211.62335 212.81167 214.07199 215.86531 217.80363 219.85695 221.96227 224.05558
 226.12590 228.22022 230.32754 232.44386 234.58318 236.76550 239.03182 241.41214
 244.04346 246.30478 248.31710 250.09242 251.51974 252.65306 253.48538 253.81170
 253.85902 253.64334 253.01366 251.97198 250.58830 248.75962 246.67894 244.52226
 242.32358 240.13790 237.96822 235.81754 233.68786 231.56518 229.60150 227.76882
 226.06214 224.54446 223.18478 221.96709 220.85941 219.82973 218.94405 218.09537
 217.34769 216.53801 215.64633 215.02065 214.48097 215.06488 216.44640 217.52661
 219.00395 220.96349 222.55063 222.66216 222.27348 222.23386 223.47139 225.22003
 227.48923 230.96454 235.10547 239.62305 244.12347 248.39285 252.25287 255.66733
 258.69363 261.43164 264.02658 266.52695 268.87064 270.90518 272.75476 274.66257
 276.45856 278.09952 279.53549 280.86929 282.06058 283.12341 284.09717 284.97232
 285.75940 286.46030 287.07260 287.85287
 366.78100 356.34335 345.78371 334.65806 323.06941 311.27177 299.15012 286.96147
 274.68183 262.58718 250.60453 239.91388 230.04424 221.15659 213.34694 206.35730
 200.19965 195.14600 191.73636 189.78671 188.83206 188.90442 189.74777 191.06412
 192.79748 194.90083 197.17218 199.53954 201.99289 204.48124 206.57760 208.42795
 210.06230 211.21565 211.45301 211.68936 211.63471 211.34807 210.98942 210.62777
 210.25313 209.97148 209.78783 209.66019 209.59654 209.93589 210.33025 210.72760
 211.52895 212.71531 213.97366 215.76501 217.70136 219.75272 221.85607 223.94742
 226.01578 228.10813 230.21348 232.32784 234.46519 236.64554 238.90990 241.28825
 243.91760 246.17696 248.18731 249.96066 251.38602 252.51737 253.34772 253.67208
 253.71743 253.49978 252.86813 251.82449 250.43884 248.60819 246.52555 244.36690
 242.16625 239.97861 237.80696 235.65431 233.52267 231.39802 229.43237 227.59773
 225.88908 224.36943 223.00779 221.78814 220.67849 219.64684 218.75920 217.90855
 217.15890 216.34726 215.45361 214.82596 214.28432 214.98145 216.60959 217.51381
 218.84892 220.82092 222.44051 222.69078 222.38675 222.30341 223.47472 225.32562
 227.50230 230.99149 235.16267 239.65483 244.16051 248.43932 252.34236 255.81738
 258.85657 261.58429 264.17767 266.65958 268.98483 271.00232 272.85812 274.65704
 276.41562 277.98679 279.36105 280.67538 281.86044 282.93329 283.91992 284.81375
 285.61765 286.33353 286.95889 287.75586
 366.78100 356.34464 345.78628 334.66192 323.07456 311.27819 299.15783 286.97047
 274.69211 262.59875 250.61739 239.92803 230.05967 221.17331 213.36494 206.37658
 200.22022 195.16786 191.75950 189.81114 188.85778 188.93142 189.77606 191.09369
 192.82833 194.93297 197.20561 199.57425 202.02889 204.51853 206.61617 208.46781
 210.10344 211.25808 211.49672 211.73436 211.68100 211.39564 211.03828 210.67792
 210.30456 210.02419 209.84183 209.71547 209.65311 209.99375 210.38939 210.78803
 211.59067 212.77830 214.03794 215.83058 217.76822 219.82086 221.92550 224.01814
 226.08778 228.18142 230.28805 232.40369 234.54233 236.72397 238.98961 241.36925
 243.99989 246.26053 248.27217 250.04680 251.47344 252.60608 253.43772 253.76336
 253.81000 253.59364 252.96328 251.92092 250.53655 248.70719 246.62583 244.46847
 242.26911 240.08275 237.91239 235.76103 233.63067 231.50730 229.54294 227.70958
 226.00222 224.48386 223.12350 221.90514 220.79678 219.76642 218.88005 218.03069
 217.28233 216.47197 215.57961 214.95325 214.41289 215.05093 216.55547 217.57957
 218.76859 220.59006 222.22995 222.54893 222.27132 222.24031 223.49394 225.22758
 227.44518 231.01102 235.23351 239.69788 244.19592 248.49255 252.41862 255.91119
 258.97040 261.72131 264.31250 266.76593 269.08591 271.14868 272.98459 274.77817
 276.46548 277.98392 279.31406 280.51718 281.63171 282.62897 283.54004 284.36447
 285.10593 285.76620 286.34302 287.07809
 366.78100 356.34625 345.78951 334.66676 323.08101 311.28627 299.16752 286.98178
 274.70503 262.61328 250.63354 239.94579 230.07904 221.19430 213.38755 206.40081
 200.24606 195.19531 191.78857 189.84182 188.89007 188.96533 189.81158 191.13084
 192.86709 194.97334 197.24760 199.61785 202.07410 204.56536 206.66461 208.51787
 210.15512 211.31137 211.55163 211.79088 211.73913 211.45539 211.09964 210.74089
 210.36915 210.09040 209.90966 209.78491 209.72416 210.06642 210.46367 210.86392
 211.66818 212.85743 214.11869 215.91294 217.85219 219.90645 222.01270 224.10695
 226.17821 228.27346 230.38172 232.49897 234.63922 236.82248 239.08973 241.47098
 244.10324 246.36549 248.37875 250.15500 251.58325 252.71751 253.55076 253.87801
 253.92627 253.71152 253.08277 252.04203 250.65928 248.83154 246.75179 244.59604
 242.39830 240.21355 238.04480 235.89506 233.76631 231.64457 229.68182 227.85007
 226.14433 224.62758 223.26883 222.05209 220.94534 219.91660 219.03185 218.18410
 217.43736 216.62861 215.73786 215.11312 214.57437 215.14107 216.48872 217.65630
 218.82399 220.33630 222.12630 222.73407 222.35533 222.09898 223.32069 225.09499
 227.39601 231.05208 235.32910 239.76927 244.22058 248.52663 252.50497 256.07901
 259.15244 261.83380 264.34344 266.74149 269.01349 271.05203 272.93994 274.73083
 276.40109 277.90921 279.20526 280.32867 281.40402 282.43369 283.40939 284.29333
 285.08832 285.79626 286.41470 287.20285
 366.78100 356.34696 345.79092 334.66889 323.08385 311.28981 299.17177 286.98674
 274.71070 262.61966 250.64062 239.95359 230.08755 221.20351 213.39747 206.41144
 200.25740 195.20736 191.80132 189.85529 188.90425 188.98021 189.82717 191.14714
 192.88410 194.99106 197.26602 199.63699 202.09395 204.58591 206.68587 208.53984
 210.17780 211.33476 211.57572 211.81569 211.76465 211.48161 211.12657 210.76854
 210.39750 210.11946 209.93942 209.81539 209.75535 210.09831 210.49627 210.89724
 211.70220 212.89216 214.15412 215.94909 217.88905 219.94401 222.05097 224.14594
 226.21790 228.31386 230.42282 232.54079 234.68175 236.86571 239.13367 241.51564
 244.14860 246.41156 248.42552 250.20249 251.63145 252.76641 253.60037 253.92834
 253.97730 253.76326 253.13522 252.09519 250.71315 248.88611 246.80707 244.65204
 242.45500 240.27096 238.10292 235.95389 233.82585 231.70481 229.74277 227.91174
 226.20670 224.69066 223.33262 222.11659 221.01055 219.98251 219.09847 218.25144
 217.50540 216.69736 215.80732 215.18329 214.64525 215.19392 216.51004 217.67888
 218.89804 220.36684 222.17937 222.91330 222.49971 222.09758 223.13669 224.98909
 227.43620 231.12848 235.42023 239.84695 244.27835 248.57147 252.56236 256.14462
 259.24561 261.98508 264.47415 266.83267 269.03986 271.02365 272.91522 274.71799
 276.32480 277.77673 279.07242 280.47406 281.73984 282.85971 283.88141 284.80701
 285.63947 286.38080 287.02841 287.85370
 366.78100 356.34742 345.79184 334.67027 323.08569 311.29211 299.17453 286.98995
 274.71437 262.62380 250.64522 239.95864 230.09306 221.20948 213.40390 206.41833
 200.26475 195.21517 191.80959 189.86401 188.91344 188.98986 189.83728 191.15770
 192.89512 195.00254 197.27797 199.64939 202.10681 204.59923 206.69965 208.55407
 210.19250 211.34992 211.59134 211.83176 211.78118 211.49861 211.14403 210.78645
 210.41587 210.13829 209.95871 209.83514 209.77556 210.11898 210.51740 210.91882
 211.72425 212.91467 214.17709 215.97251 217.91293 219.96835 222.07578 224.17120
 226.24362 228.34004 230.44946 232.56788 234.70931 236.89373 239.16215 241.54457
 244.17799 246.44142 248.45584 250.23326 251.66268 252.79810 253.63252 253.96095
 254.01037 253.79679 253.16921 252.12963 250.74805 248.92148 246.84290 244.68832
 242.49174 240.30816 238.14059 235.99201 233.86443 231.74385 229.78227 227.95169
 226.24712 224.73154 223.37396 222.15838 221.05280 220.02522 219.14165 218.29507
 217.54949 216.74191 215.85233 215.22876 214.69118 215.23457 216.53625 217.68192
 218.94434 220.43697 222.10854 222.84937 222.34842 221.97493 223.13283 224.80011
 227.34819 231.15855 235.52966 239.97800 244.38928 248.65634 252.61656 256.17093
 259.30527 262.11859 264.67087 267.02277 269.16501 271.11102 272.95596 274.67307
 276.20792 278.01752 279.75052 281.27222 282.58911 283.75424 284.81723 285.78024
 286.64636 287.41763 288.09140 288.95004
 366.78100 356.34777 345.79253 334.67130 323.08706 311.29383 299.17660 286.99236
 274.71713 262.62689 250.64866 239.96243 230.09719 221.21396 213.40872 206.42349
 200.27026 195.22102 191.81579 189.87055 188.92032 188.99709 189.84485 191.16562
 192.90338 195.01115 197.28692 199.65868 202.11645 204.60921 206.70998 208.56475
 210.20351 211.36128 211.60304 211.84381 211.79358 211.51134 211.15711 210.79987
 210.42964 210.15241 209.97317 209.84994 209.79070 210.13447 210.53324 210.93500
 211.74077 212.93153 214.19430 215.99007 217.93083 219.98660 222.09436 224.19013
 226.26290 228.35966 230.46943 232.58819 234.72996 236.91473 239.18349 241.56626
 244.20002 246.46379 248.47856 250.25632 251.68609 252.82185 253.65662 253.98539
 254.03515 253.82192 253.19468 252.15545 250.77422 248.94798 246.86975 244.71551
 242.51928 240.33605 238.16881 236.02058 233.89335 231.77311 229.81188 227.98164
 226.27741 224.76218 223.40494 222.18971 221.08447 220.05724 219.17401 218.32777
 217.58254 216.77530 215.88607 215.26284 214.72560 215.25919 216.53587 217.66264
 218.98801 220.48483 221.87212 222.42343 222.04547 221.83617 223.10945 224.88187
 227.44078 231.28094 235.68945 240.15335 244.56999 248.82658 252.76973 256.30170
 259.47479 262.32095 264.85529 267.16513 269.28018 271.18921 272.97693 274.63504
 276.44022 278.34241 280.13901 281.71652 283.08176 284.28961 285.39160 286.38995
 287.28784 288.08740 288.78592 289.67606
 366.78100 356.34746 345.79192 334.67038 323.08585 311.29231 299.17477 286.99023
 274.71469 262.62415 250.64561 239.95908 230.09354 221.21000 213.40446 206.41892
 200.26538 195.21584 191.81031 189.86477 188.91423 188.99069 189.83815 191.15861
 192.89607 195.00354 197.27900 199.65046 202.10792 204.60038 206.70084 208.55530
 210.19377 211.35123 211.59269 211.83315 211.78261 211.50007 211.14553 210.78800
 210.41746 210.13992 209.96038 209.83684 209.77730 210.12077 210.51923 210.92069
 211.72615 212.91661 214.17907 215.97453 217.91500 219.97046 222.07792 224.17338
 226.24584 228.34230 230.45176 232.57023 234.71169 236.89615 239.16461 241.54707
 244.18053 246.44399 248.45846 250.23592 251.66538 252.80084 253.63530 253.96376
 254.01322 253.79969 253.17215 252.13261 250.75107 248.92453 246.84599 244.69145
 242.49492 240.31138 238.14384 235.99530 233.86776 231.74722 229.78568 227.95515
 226.25061 224.73507 223.37753 222.16199 221.05645 220.02891 219.14538 218.29884
 217.55330 216.74576 215.85622 215.23268 214.69514 215.24887 216.55911 217.62531
 218.96303 220.57091 221.83020 222.10344 221.67671 221.58434 222.98468 224.92314
 227.52631 231.38824 235.81859 240.29642 244.72188 248.98158 252.94882 256.46811
 259.61899 262.42163 264.91370 267.20883 269.33743 271.26562 273.06888 274.75696
 276.60019 278.52112 280.31873 281.89719 283.26318 284.47177 285.57440 286.57330
 287.47171 288.27176 288.97064 289.86133
 366.78100 356.34742 345.79184 334.67026 323.08568 311.29211 299.17453 286.98995
 274.71437 262.62379 250.64521 239.95863 230.09305 221.20948 213.40390 206.41832
 200.26474 195.21516 191.80958 189.86400 188.91342 188.98984 189.83727 191.15769
 192.89511 195.00253 197.27795 199.64937 202.10679 204.59921 206.69963 208.55406
 210.19248 211.34990 211.59132 211.83174 211.78116 211.49858 211.14400 210.78643
 210.41585 210.13827 209.95869 209.83511 209.77553 210.11895 210.51737 210.91879
 211.72422 212.91464 214.17706 215.97248 217.91290 219.96832 222.07574 224.17116
 226.24359 228.34001 230.44943 232.56785 234.70927 236.89369 239.16211 241.54453
 244.17795 246.44138 248.45580 250.23322 251.66264 252.79806 253.63248 253.96090
 254.01032 253.79674 253.16917 252.12959 250.74801 248.92143 246.84285 244.68827
 242.49169 240.30811 238.14054 235.99196 233.86438 231.74380 229.78222 227.95164
 226.24706 224.73148 223.37390 222.15833 221.05275 220.02517 219.14159 218.29501
 217.54943 216.74185 215.85227 215.22870 214.69112 215.25139 216.57219 217.61400
 218.92249 220.59906 221.87065 222.01151 221.44264 221.32826 222.85765 224.91705
 227.58429 231.46291 235.90923 240.40381 244.83801 249.09802 253.07518 256.59128
 259.70667 262.47781 264.95059 267.25061 269.38980 271.34427 273.15247 274.90732
 276.89078 278.90826 280.68823 282.25113 283.60370 284.80038 285.89218 286.88126
 287.77081 288.56299 289.25500 290.13693
 366.78100 356.34729 345.79159 334.66988 323.08518 311.29147 299.17376 286.98906
 274.71335 262.62265 250.64394 239.95723 230.09153 221.20782 213.40212 206.41641
 200.26270 195.21300 191.80729 189.86159 188.91088 188.98718 189.83447 191.15476
 192.89206 194.99935 197.27465 199.64594 202.10323 204.59553 206.69582 208.55012
 210.18841 211.34570 211.58700 211.82729 211.77659 211.49388 211.13917 210.78147
 210.41076 210.13306 209.95335 209.82964 209.76994 210.11323 210.51153 210.91282
 211.71811 212.90841 214.17070 215.96600 217.90629 219.96159 222.06888 224.16417
 226.23647 228.33276 230.44206 232.56035 234.70164 236.88594 239.15423 241.53653
 244.16982 246.43311 248.44741 250.22470 251.65400 252.78929 253.62358 253.95188
 254.00117 253.78747 253.15976 252.12005 250.73835 248.91164 246.83294 244.67823
 242.48152 240.29782 238.13011 235.98141 233.85370 231.73299 229.77129 227.94058
 226.23588 224.72017 223.36247 222.14676 221.04105 220.01335 219.12964 218.28294
 217.53723 216.72952 215.83982 215.21611 214.67841 215.24773 216.58411 217.60590
 218.89178 220.58195 221.85875 221.89052 221.23207 221.14458 222.65828 224.83647
 227.59622 231.53397 236.01146 240.52682 244.96844 249.23854 253.21681 256.74042
 259.84393 262.61002 265.08405 267.37805 269.50888 271.45566 273.27551 275.04028
 277.10614 279.14777 280.92130 282.47858 283.82626 285.01862 286.10648 287.09201
 287.97836 288.76770 289.45721 290.33594
 366.78100 356.34702 345.79104 334.66906 323.08408 311.29010 299.17212 286.98714
 274.71116 262.62018 250.64120 239.95422 230.08824 221.20426 213.39828 206.41230
 200.25832 195.20834 191.80236 189.85638 188.90540 188.98142 189.82844 191.14846
 192.88548 194.99250 197.26752 199.63854 202.09556 204.58758 206.68760 208.54163
 210.17965 211.33667 211.57769 211.81771 211.76673 211.48375 211.12877 210.77079
 210.39981 210.12183 209.94185 209.81787 209.75789 210.10091 210.49893 210.89995
 211.70497 212.89499 214.15701 215.95203 217.89205 219.94707 222.05409 224.14911
 226.22113 228.31715 230.42617 232.54419 234.68521 236.86923 239.13725 241.51927
 244.15229 246.41531 248.42933 250.20635 251.63537 252.77039 253.60441 253.93243
 253.98145 253.76747 253.13949 252.09951 250.71753 248.89055 246.81157 244.65659
 242.45961 240.27563 238.10765 235.95867 233.83069 231.70971 229.74773 227.91675
 226.21177 224.69579 223.33781 222.12183 221.01585 219.98788 219.10390 218.25692
 217.51094 216.70296 215.81298 215.18900 214.65102 215.23547 216.59669 217.60123
 218.87741 220.54184 221.81601 221.77911 221.03673 220.96208 222.43388 224.74028
 227.59734 231.60123 236.10951 240.64322 245.10570 249.38809 253.35840 256.88345
 259.97037 262.71533 265.18219 267.47394 269.60825 271.56662 273.41260 275.18848
 277.29761 279.35687 281.13882 282.70352 284.05762 285.25565 286.34866 287.33887
 288.22946 289.02252 289.71533 290.59824
 366.78100 356.34768 345.79237 334.67105 323.08673 311.29341 299.17610 286.99178
 274.71646 262.62614 250.64783 239.96151 230.09619 221.21287 213.40756 206.42224
 200.26892 195.21960 191.81429 189.86897 188.91865 188.99533 189.84302 191.16370
 192.90138 195.00906 197.28475 199.65643 202.11411 204.60679 206.70748 208.56216
 210.20084 211.35852 211.60021 211.84089 211.79057 211.50825 211.15394 210.79662
 210.42630 210.14898 209.96967 209.84635 209.78703 210.13071 210.52940 210.93108
 211.73676 212.92744 214.19013 215.98581 217.92649 219.98217 222.08986 224.18554
 226.25822 228.35491 230.46459 232.58327 234.72495 236.90964 239.17832 241.56100
 244.19468 246.45837 248.47305 250.25073 251.68041 252.81610 253.65078 253.97946
 254.02914 253.81583 253.18851 252.14919 250.76787 248.94156 246.86324 244.70892
 242.51260 240.32929 238.16197 236.01365 233.88633 231.76602 229.80470 227.97438
 226.27006 224.75475 223.39743 222.18211 221.07679 220.04948 219.16616 218.31984
 217.57452 216.76721 215.87789 215.25457 214.71725 215.26460 216.55782 217.61900
 218.90842 220.48007 221.71593 221.65182 220.89314 220.87216 222.24265 224.64844
 227.59276 231.66484 236.20335 240.75090 245.23070 249.49727 253.39738 256.89569
 259.99985 262.76773 265.26208 267.57120 269.71152 271.67426 273.50027 275.45004
 277.58508 279.63339 281.40582 282.96219 284.30905 285.50070 286.58789 287.57281
 288.45865 289.24750 289.93661 290.81479
 366.78100 356.34779 345.79259 334.67138 323.08717 311.29396 299.17676 286.99255
 274.71734 262.62713 250.64893 239.96272 230.09751 221.21430 213.40910 206.42389
 200.27068 195.22147 191.81627 189.87106 188.92085 188.99764 189.84544 191.16623
 192.90402 195.01181 197.28761 199.65940 202.11719 204.60998 206.71078 208.56557
 210.20436 211.36215 211.60395 211.84474 211.79453 211.51232 211.15812 210.80091
 210.43070 210.15350 209.97429 209.85108 209.79187 210.13567 210.53446 210.93625
 211.74204 212.93284 214.19563 215.99142 217.93221 219.98801 222.09580 224.19159
 226.26438 228.36118 230.47097 232.58976 234.73155 236.91635 239.18514 241.56793
 244.20172 246.46552 248.48031 250.25810 251.68789 252.82369 253.65848 253.98727
 254.03706 253.82386 253.19665 252.15744 250.77623 248.95003 246.87182 244.71761
 242.52140 240.33820 238.17099 236.02278 233.89558 231.77537 229.81416 227.98395
 226.27975 224.76454 223.40733 222.19212 221.08692 220.05971 219.17650 218.33029
 217.58509 216.77788 215.88867 215.26546 214.72826 215.26279 216.53032 217.59311
 218.94429 220.48528 221.55836 221.35667 220.68091 220.85820 222.04147 224.57674
 227.59401 231.73828 236.31804 240.87404 245.35814 249.62163 253.47630 256.91040
 260.00555 262.82117 265.38968 267.74304 269.90619 271.87781 273.70340 275.42676
 277.15726 278.98297 280.66455 282.14111 283.41891 284.54947 285.58093 286.51538
 287.35577 288.10419 288.75797 289.59113
 366.78100 356.34681 345.79062 334.66843 323.08324 311.28905 299.17086 286.98568
 274.70949 262.61830 250.63911 239.95192 230.08573 221.20154 213.39535 206.40916
 200.25497 195.20478 191.79859 189.85241 188.90122 188.97703 189.82384 191.14365
 192.88046 194.98727 197.26208 199.63289 202.08970 204.58151 206.68132 208.53514
 210.17295 211.32976 211.57057 211.81038 211.75919 211.47600 211.12081 210.76262
 210.39143 210.11324 209.93305 209.80886 209.74868 210.09149 210.48930 210.89011
 211.69492 212.88473 214.14654 215.94135 217.88116 219.93597 222.04278 224.13759
 226.20941 228.30522 230.41403 232.53184 234.67265 236.85646 239.12427 241.50608
 244.13889 246.40170 248.41551 250.19232 251.62114 252.75595 253.58976 253.91757
 253.96638 253.75219 253.12400 252.08381 250.70162 248.87443 246.79524 244.64005
 242.44286 240.25868 238.09049 235.94130 233.81311 231.69192 229.72973 227.89854
 226.19335 224.67716 223.31897 222.10278 220.99659 219.96841 219.08422 218.23703
 217.49084 216.68265 215.79246 215.16827 214.63008 215.20520 216.55315 217.53934
 218.86876 220.50856 221.47882 221.09198 220.37895 220.69942 221.89900 224.46268
 227.65312 231.83928 236.43694 240.99753 245.50703 249.79225 253.63972 257.02252
 260.04745 262.85037 265.45593 267.84766 270.03760 272.04501 273.92368 275.65887
 277.08472 278.04959 279.50473 280.97128 282.24048 283.36337 284.38782 285.31592
 286.15067 286.89398 287.54333 288.37085
 366.78100 356.34613 345.78926 334.66638 323.08051 311.28564 299.16677 286.98090
 274.70402 262.61215 250.63228 239.94441 230.07754 221.19266 213.38579 206.39892
 200.24405 195.19318 191.78630 189.83943 188.88756 188.96269 189.80882 191.12794
 192.86407 194.97020 197.24433 199.61446 202.07058 204.56171 206.66084 208.51397
 210.15110 211.30722 211.54735 211.78648 211.73461 211.45074 211.09486 210.73599
 210.36412 210.08525 209.90438 209.77950 209.71863 210.06076 210.45789 210.85802
 211.66214 212.85127 214.11240 215.90653 217.84566 219.89978 222.00591 224.10004
 226.17117 228.26629 230.37442 232.49155 234.63168 236.81481 239.08193 241.46306
 244.09519 246.35732 248.37045 250.14657 251.57470 252.70883 253.54196 253.86909
 253.91721 253.70234 253.07347 252.03260 250.64973 248.82185 246.74198 244.58611
 242.38824 240.20337 238.03449 235.88462 233.75575 231.63388 229.67101 227.83913
 226.13326 224.61639 223.25752 222.04065 220.93377 219.90490 219.02003 218.17216
 217.42529 216.61641 215.72554 215.10067 214.56180 215.15623 216.55475 217.53433
 218.71909 220.40550 221.41203 220.97934 220.13463 220.32741 221.85492 224.34109
 227.77873 231.96005 236.55455 241.13570 245.65230 249.93890 253.78372 257.15347
 260.12003 262.89059 265.49661 267.90424 270.11029 272.14099 274.05188 275.78293
 277.16779 278.13013 278.74533 279.56049 280.77341 281.88104 282.89160 283.80710
 284.63049 285.36371 286.00424 286.82053
 366.78100 356.34604 345.78908 334.66613 323.08017 311.28521 299.16625 286.98029
 274.70334 262.61138 250.63142 239.94346 230.07650 221.19155 213.38459 206.39763
 200.24267 195.19172 191.78476 189.83780 188.88584 188.96088 189.80693 191.12597
 192.86201 194.96805 197.24209 199.61214 202.06818 204.55922 206.65826 208.51130
 210.14835 211.30439 211.54443 211.78347 211.73151 211.44756 211.09160 210.73264
 210.36068 210.08173 209.90077 209.77581 209.71485 210.05689 210.45394 210.85398
 211.65802 212.84706 214.10810 215.90215 217.84119 219.89523 222.00127 224.09531
 226.16636 228.26140 230.36944 232.48648 234.62652 236.80957 239.07661 241.45765
 244.08969 246.35173 248.36478 250.14082 251.56886 252.70290 253.53595 253.86299
 253.91103 253.69607 253.06711 252.02616 250.64320 248.81524 246.73528 244.57932
 242.38137 240.19641 238.02745 235.87749 233.74853 231.62658 229.66362 227.83166
 226.12570 224.60874 223.24979 222.03283 220.92587 219.89691 219.01195 218.16400
 217.41704 216.60808 215.71712 215.09217 214.55321 215.13586 216.51570 217.58614
 218.60350 220.19208 221.32808 220.91786 219.90901 219.88713 221.70457 224.18077
 227.86404 232.06242 236.68330 241.27551 245.78465 250.05989 253.88115 257.22583
 260.18616 262.93750 265.54425 267.95654 270.17142 272.23041 274.14883 275.85675
 277.19089 278.11258 278.72916 279.20367 279.72357 280.61465 281.61118 282.51395
 283.32590 284.04895 284.68057 285.48553
 366.78100 356.34616 345.78933 334.66649 323.08066 311.28582 299.16699 286.98115
 274.70431 262.61248 250.63264 239.94481 230.07797 221.19314 213.38630 206.39946
 200.24463 195.19379 191.78696 189.84012 188.88829 188.96345 189.80961 191.12878
 192.86494 194.97111 197.24527 199.61544 202.07160 204.56276 206.66193 208.51509
 210.15226 211.30842 211.54859 211.78775 211.73591 211.45208 211.09624 210.73741
 210.36557 210.08674 209.90590 209.78106 209.72023 210.06239 210.45956 210.85972
 211.66389 212.85305 214.11421 215.90838 217.84754 219.90171 222.00787 224.10204
 226.17320 228.26836 230.37653 232.49369 234.63386 236.81702 239.08419 241.46535
 244.09752 246.35968 248.37284 250.14901 251.57717 252.71134 253.54450 253.87167
 253.91983 253.70499 253.07616 252.03532 250.65249 248.82465 246.74482 244.58898
 242.39114 240.20631 238.03747 235.88764 233.75880 231.63697 229.67413 227.84229
 226.13646 224.61962 223.26079 222.04395 220.93712 219.90828 219.02344 218.17561
 217.42877 216.61994 215.72910 215.10427 214.56543 215.13263 216.47971 217.64551
 218.58151 219.99466 221.25508 220.97240 219.76128 219.50346 221.43109 224.14583
 227.92197 232.17238 236.81233 241.41391 245.93066 250.19231 253.98953 257.32239
 260.27838 263.00568 265.59891 268.01862 270.23889 272.31342 274.25674 275.96573
 277.24619 278.05234 278.55920 278.98434 279.52319 280.31659 281.30081 282.20987
 283.02747 283.75555 284.39157 285.20212
 366.78100 356.34580 345.78860 334.66541 323.07921 311.28401 299.16481 286.97862
 274.70142 262.60922 250.62902 239.94082 230.07363 221.18843 213.38123 206.39403
 200.23884 195.18764 191.78044 189.83324 188.88104 188.95585 189.80165 191.12045
 192.85625 194.96206 197.23586 199.60566 202.06146 204.55226 206.65107 208.50387
 210.14067 211.29647 211.53627 211.77508 211.72288 211.43868 211.08248 210.72329
 210.35109 210.07189 209.89069 209.76549 209.70430 210.04610 210.44290 210.84270
 211.64651 212.83531 214.09611 215.88991 217.82871 219.88252 221.98832 224.08212
 226.15292 228.24773 230.35553 232.47233 234.61213 236.79493 239.06174 241.44254
 244.07434 246.33614 248.34895 250.12475 251.55255 252.68635 253.51915 253.84596
 253.89376 253.67856 253.04936 252.00817 250.62497 248.79677 246.71657 244.56037
 242.36218 240.17698 238.00778 235.85758 233.72839 231.60619 229.64299 227.81079
 226.10459 224.58740 223.22820 222.01100 220.90380 219.87461 218.98941 218.14121
 217.39401 216.58481 215.69362 215.06842 214.52922 215.10841 216.48239 217.66133
 218.63914 219.88591 221.12827 220.93781 219.59865 219.22084 221.23000 224.14214
 227.99974 232.29599 236.94598 241.55292 246.06647 250.30675 254.07878 257.40717
 260.37799 263.09955 265.67371 268.09256 270.32181 272.40897 274.38092 276.07773
 277.27884 278.01294 278.41788 278.75156 279.30240 280.18237 281.15076 282.04999
 282.85873 283.57895 284.20810 285.00986
 366.78100 356.34541 345.78781 334.66422 323.07763 311.28203 299.16244 286.97585
 274.69825 262.60566 250.62507 239.93647 230.06888 221.18329 213.37569 206.38810
 200.23251 195.18091 191.77332 189.82573 188.87313 188.94754 189.79295 191.11135
 192.84676 194.95217 197.22557 199.59498 202.05039 204.54079 206.63920 208.49161
 210.12801 211.28342 211.52283 211.76123 211.70864 211.42405 211.06745 210.70786
 210.33527 210.05567 209.87408 209.74849 209.68689 210.02830 210.42471 210.82411
 211.62752 212.81593 214.07633 215.86974 217.80815 219.86155 221.96696 224.06037
 226.13078 228.22518 230.33259 232.44900 234.58840 236.77081 239.03722 241.41762
 244.04903 246.31044 248.32284 250.09825 251.52566 252.65906 253.49147 253.81788
 253.86528 253.64969 253.02010 251.97850 250.59491 248.76632 246.68572 244.52913
 242.33054 240.14494 237.97535 235.82476 233.69516 231.57257 229.60898 227.77638
 226.06979 224.55220 223.19260 221.97501 220.86742 219.83782 218.95223 218.10364
 217.35604 216.54645 215.65486 215.02926 214.48967 215.08218 216.48471 217.66270
 218.74724 219.88687 221.00507 220.73491 219.35167 218.97021 221.07756 224.09268
 228.07600 232.41075 237.07945 241.69196 246.20053 250.42630 254.17657 257.49756
 260.48105 263.20703 265.75482 268.15762 270.39352 272.49500 274.48514 276.18192
 277.31140 277.97250 278.33102 278.60449 279.01154 279.78748 280.74350 281.63748
 282.44656 283.16708 283.79648 284.59860
 366.78100 356.34490 345.78681 334.66271 323.07561 311.27952 299.15942 286.97232
 274.69422 262.60113 250.62003 239.93093 230.06284 221.17674 213.36864 206.38055
 200.22445 195.17235 191.76425 189.81616 188.86306 188.93696 189.78187 191.09977
 192.83467 194.93958 197.21248 199.58138 202.03628 204.52619 206.62409 208.47599
 210.11190 211.26680 211.50570 211.74361 211.69051 211.40541 211.04831 210.68822
 210.31512 210.03502 209.85293 209.72683 209.66473 210.00564 210.40154 210.80044
 211.60334 212.79125 214.05115 215.84405 217.78196 219.83486 221.93976 224.03267
 226.10257 228.19647 230.30337 232.41928 234.55818 236.74008 239.00599 241.38589
 244.01679 246.27770 248.28960 250.06450 251.49140 252.62431 253.45621 253.78211
 253.82902 253.61292 252.98282 251.94073 250.55663 248.72753 246.64643 244.48934
 242.29024 240.10414 237.93405 235.78295 233.65285 231.52976 229.56566 227.73256
 226.02546 224.50737 223.14727 221.92917 220.82108 219.79098 218.90488 218.05579
 217.30769 216.49759 215.60549 214.97940 214.43930 215.05112 216.49661 217.63895
 218.82483 220.04991 220.93587 220.39868 219.06978 218.79648 220.96318 224.08351
 228.16826 232.54202 237.22742 241.82660 246.34384 250.56660 254.29686 257.61688
 260.62289 263.36026 265.86765 268.21890 270.43994 272.55688 274.54126 276.19354
 277.28192 277.91269 278.25195 278.52365 278.96024 279.62384 280.51041 281.35571
 282.10291 282.80643 283.42102 284.20422
 354.97500 345.04800 334.58700 324.11500 313.32600 302.53700 291.65000 280.76700
 269.93100 259.19300 248.62200 238.61700 229.08700 220.35500 212.54000 205.53500
 199.46400 194.49300 191.14300 189.19000 188.08900 188.01400 188.72400 189.90600
 191.46900 193.38200 195.40300 197.55600 199.80700 202.06000 204.28800 206.47900
 208.55200 210.37800 212.02500 213.65900 214.99800 216.11800 217.17200 218.25900
 219.49400 220.64500 221.67900 222.61400 223.54500 224.98200 226.57100 228.19000
 229.79700 231.81100 233.86500 235.97200 238.24200 240.55300 242.89900 245.25300
 247.48800 249.53500 251.36600 252.84800 254.09800 255.16700 256.02700 256.25300
 256.09500 255.54300 253.93500 252.56600 251.38400 250.24500 249.05200 247.70100
 246.01600 243.99600 241.78400 239.39300 236.81300 234.22300 231.65800 229.14400
 226.74000 224.47300 222.33500 220.32500 218.44000 216.67700 214.96200 213.47200
 212.20000 211.10800 210.26000 209.63900 209.24400 209.03100 209.05800 209.33300
 209.78400 210.62600 211.33100 212.39100 213.62500 214.84668 217.72949 219.47640
 220.32566 220.86828 220.88710 220.27371 219.43733 218.84250 219.04934 220.86203
 222.60583 225.72206 229.03064 232.61777 236.12270 239.51333 242.70767 245.68587
 248.41061 250.90679 253.19353 254.91714 256.48655 257.94920 259.39966 260.69384
 261.81714 262.77997 263.71679 264.54570 265.26305 265.89772 266.47676 267.00133
 267.47312 267.89325 268.26027 268.72800
