|-------------------------------------------------------------------------|
|   File Name : in_temp.dat
|   Subject   : temperature profiles used for initial guess atmosphere
|   File Type : input of gmtr
|   Data Type : atmospherical data
|   Author/s  : WRF-Chem
|   Date      : Fri Jul 26 15:39:24 2024
|-------------------------------------------------------------------------|

 WRF-Chem temperature
#
 values of T (K)    (8f10.5)
#
 354.97500 345.04800 334.58700 324.11500 313.32600 302.53700 291.65000 280.76700
 269.93100 259.19300 248.62200 238.61700 229.08700 220.35500 212.54000 205.53500
 199.46400 194.49300 191.14300 189.19000 188.08900 188.01400 188.72400 189.90600
 191.46900 193.38200 195.40300 197.55600 199.80700 202.06000 204.28800 206.47900
 208.55200 210.37800 212.02500 213.65900 214.99800 216.11800 217.17200 218.25900
 219.49400 220.64500 221.67900 222.61400 223.54500 224.98200 226.57100 228.19000
 229.79700 231.81100 233.86500 235.97200 238.24200 240.55300 242.89900 245.25300
 247.48800 249.53500 251.36600 252.84800 254.09800 255.16700 256.02700 256.25300
 256.09500 255.54300 253.93500 252.56600 251.38400 250.24500 249.05200 247.70100
 246.01600 243.99600 241.78400 239.39300 236.81300 234.22300 231.65800 229.14400
 226.74000 224.47300 222.33500 220.32500 218.44000 216.67700 214.96200 213.47200
 212.20000 211.10800 210.26000 209.63900 209.24400 209.03100 209.05800 209.33300
 209.78400 210.62600 211.33100 212.39100 213.62500 214.84668 217.72949 219.47640
 220.32566 220.86828 220.88710 220.27371 219.43733 218.84250 219.04934 220.86203
 222.60583 225.72206 229.03064 232.61777 236.12270 239.51333 242.70767 245.68587
 248.41061 250.90679 253.19353 254.91714 256.48655 257.94920 259.39966 260.69384
 261.81714 262.77997 263.71679 264.54570 265.26305 265.89772 266.47676 267.00133
 267.47312 267.89325 268.26027 268.72800
 366.78100 356.33500 345.76700 334.63300 323.03600 311.23000 299.10000 286.90300
 274.61500 262.51200 250.52100 239.82200 229.94400 221.04800 213.23000 206.23200
 200.06600 195.00400 191.58600 189.62800 188.66500 188.72900 189.56400 190.87200
 192.59700 194.69200 196.95500 199.31400 201.75900 204.23900 206.32700 208.16900
 209.79500 210.94000 211.16900 211.39700 211.33400 211.03900 210.67200 210.30200
 209.91900 209.62900 209.43700 209.30100 209.22900 209.56000 209.94600 210.33500
 211.12800 212.30600 213.55600 215.33900 217.26700 219.31000 221.40500 223.48800
 225.54800 227.63200 229.72900 231.83500 233.96400 236.13600 238.39200 240.76200
 243.38300 245.63400 247.63600 249.40100 250.81800 251.94100 252.76300 253.07900
 253.11600 252.89000 252.25000 251.19800 249.80400 247.96500 245.87400 243.70700
 241.49800 239.30200 237.12200 234.96100 232.82100 230.68800 228.71400 226.87100
 225.15400 223.62600 222.25600 221.02800 219.91000 218.87000 217.97400 217.11500
 216.35700 215.53700 214.63500 213.99900 213.44900 212.85855 212.01316 212.61654
 214.26826 216.08686 218.14273 220.53346 223.40855 226.78828 231.49734 235.90155
 239.42278 243.28576 247.23140 251.11907 254.80144 258.23331 261.38913 264.27520
 266.89312 269.26852 271.44504 273.08845 274.58484 275.98591 277.39845 278.65879
 279.75272 280.69038 281.56708 282.34086 283.01050 283.60295 284.14348 284.63317
 285.07358 285.46577 285.80838 286.24500
 381.81900 372.39900 361.20600 349.77600 337.62200 324.85300 311.81000 298.35300
 284.86000 271.32400 258.56100 246.30400 236.08700 226.79600 218.44800 211.29000
 205.52200 200.89400 197.38100 194.84800 193.01500 192.31500 192.25000 192.43100
 192.91200 193.53700 194.13600 194.71200 195.26200 195.83100 196.39300 196.97600
 197.60400 198.14900 198.58400 199.05700 199.69500 200.37800 201.05400 201.70800
 202.31300 202.85700 203.35500 203.86200 204.56900 205.29700 206.02600 206.98700
 208.19300 209.44100 210.96900 212.57600 214.46200 216.51300 218.63000 220.85300
 223.34100 225.96200 228.73900 231.69700 234.70600 237.70600 240.69200 243.65700
 246.73700 249.69900 252.52100 255.06300 257.29000 259.23300 260.63300 261.68000
 262.46100 262.79800 262.69100 262.22400 261.06900 259.52500 257.70700 255.50700
 253.00100 250.30200 247.39800 244.45200 241.65400 239.05400 236.73300 234.59000
 232.59500 230.72500 228.83400 226.82600 224.66600 222.38700 220.10400 217.71500
 215.45900 213.06600 210.54600 208.09300 205.35400 202.08130 196.05959 200.71215
 209.01611 216.90438 223.84126 229.78593 235.00632 240.20838 245.98943 250.68668
 254.32982 257.93487 261.55666 264.96801 268.15192 271.06452 273.76717 276.25691
 278.57680 280.74479 282.77456 284.60533 286.27232 287.81705 289.31715 290.65561
 291.81734 292.81312 293.70701 294.49387 295.17482 295.77730 296.32696 296.82492
 297.27278 297.67160 298.02000 298.46400
 399.33000 389.90700 379.81300 368.66800 357.52200 345.30100 333.07400 320.22700
 307.21600 293.84800 280.37600 267.29600 254.61000 242.98700 232.15100 221.97700
 212.67200 204.28600 197.66900 192.82100 189.48600 187.45200 186.81400 187.08900
 187.78100 189.05400 190.64800 192.54200 194.63000 196.75200 198.67100 200.15800
 201.53500 202.48700 202.97500 203.34000 203.53900 203.49700 203.38500 203.24700
 203.00500 202.78600 202.60300 202.43700 202.42600 202.88800 203.42000 203.95100
 204.89500 205.99200 207.30100 208.95800 210.73800 213.10000 215.56400 218.18000
 220.96600 223.91800 226.96100 230.09200 233.29300 236.55700 239.95500 243.53700
 246.84500 249.39000 251.54200 253.47400 255.19500 256.48400 257.43100 258.05900
 258.21200 258.04000 257.58200 256.64300 255.23900 253.50700 251.40800 249.05600
 246.57600 243.99400 241.38900 238.83000 236.34400 233.98600 231.96900 230.11800
 228.42300 226.89900 225.54800 224.29700 223.10500 221.96500 220.95800 220.11300
 219.49000 218.92000 218.32500 217.88100 217.42300 216.96366 216.35568 216.80261
 217.73415 218.28582 218.64258 219.10077 220.44626 222.53987 226.38451 230.35736
 233.59734 237.39164 241.29814 245.22796 248.98002 252.51130 255.78595 258.80109
 261.54781 264.05210 266.34239 268.04198 269.58951 271.01303 272.35754 273.55718
 274.59842 275.49092 276.28989 276.99307 277.60161 278.14001 278.63122 279.07623
 279.47646 279.83287 280.14422 280.54100
 399.73800 389.78500 379.66200 368.15100 356.64100 344.35000 331.79200 318.88800
 305.72600 292.49300 279.20900 266.73800 254.69600 244.21100 234.45700 225.43300
 217.56900 210.45100 204.30000 199.30600 195.45800 192.57600 191.02700 190.38600
 190.23900 190.53400 191.16600 191.92500 192.79500 193.76600 194.73200 195.31200
 195.80000 196.05200 196.11500 196.11500 196.03900 195.72300 195.34000 194.98900
 194.75100 194.79200 195.13300 195.59800 196.50600 198.13600 199.85800 201.56600
 204.17900 206.82300 209.89300 213.28400 216.82800 220.60500 224.38700 228.20900
 232.03200 235.82500 239.56000 243.25800 246.84500 250.20100 253.70900 257.46800
 261.53000 264.22100 266.60100 268.68100 270.32900 271.74100 272.83600 273.47400
 273.89800 274.00200 273.75700 273.28800 272.37100 271.10000 269.58900 267.77900
 265.81600 263.72100 261.39300 258.91600 256.29800 253.42300 250.33100 247.11400
 243.83700 240.52900 237.24900 233.99900 230.72800 227.51500 224.25400 220.95200
 217.62700 213.65600 210.12100 206.78900 204.01000 201.99491 199.07309 198.76551
 199.40006 200.48994 201.46112 202.31912 203.45100 204.96110 207.47502 210.85391
 213.70530 217.29629 220.99574 224.72316 228.28753 231.64854 234.68024 237.40893
 239.70644 241.60899 243.46854 245.67368 247.68154 249.52395 251.24767 252.78566
 254.12057 255.26479 256.23740 257.09036 257.82852 258.48160 259.07744 259.61723
 260.10271 260.53504 260.91270 261.39400
 399.73800 389.78500 379.66200 368.15100 356.64100 344.35000 331.79200 318.88800
 305.72600 292.49300 279.20900 266.73800 254.69600 244.21100 234.45700 225.43300
 217.56900 210.45100 204.30000 199.30600 195.45800 192.57600 191.02700 190.38600
 190.23900 190.53400 191.16600 191.92500 192.79500 193.76600 194.73200 195.31200
 195.80000 196.05200 196.11500 196.11500 196.03900 195.72300 195.34000 194.98900
 194.75100 194.79200 195.13300 195.59800 196.50600 198.13600 199.85800 201.56600
 204.17900 206.82300 209.89300 213.28400 216.82800 220.60500 224.38700 228.20900
 232.03200 235.82500 239.56000 243.25800 246.84500 250.20100 253.70900 257.46800
 261.53000 264.22100 266.60100 268.68100 270.32900 271.74100 272.83600 273.47400
 273.89800 274.00200 273.75700 273.28800 272.37100 271.10000 269.58900 267.77900
 265.81600 263.72100 261.39300 258.91600 256.29800 253.42300 250.33100 247.11400
 243.83700 240.52900 237.24900 233.99900 230.72800 227.51500 224.25400 220.95200
 217.62700 213.65600 210.12100 206.78900 204.01000 201.99491 199.07309 198.76551
 199.40006 200.48994 201.46112 202.31912 203.45100 204.96110 207.47502 210.85391
 213.70530 217.29629 220.99574 224.72316 228.28753 231.64854 234.68024 237.40893
 239.70644 241.60899 243.46854 245.67368 247.68154 249.52395 251.24767 252.78566
 254.12057 255.26479 256.23740 257.09036 257.82852 258.48160 259.07744 259.61723
 260.10271 260.53504 260.91270 261.39400
 399.33000 389.90700 379.81300 368.66800 357.52200 345.30100 333.07400 320.22700
 307.21600 293.84800 280.37600 267.29600 254.61000 242.98700 232.15100 221.97700
 212.67200 204.28600 197.66900 192.82100 189.48600 187.45200 186.81400 187.08900
 187.78100 189.05400 190.64800 192.54200 194.63000 196.75200 198.67100 200.15800
 201.53500 202.48700 202.97500 203.34000 203.53900 203.49700 203.38500 203.24700
 203.00500 202.78600 202.60300 202.43700 202.42600 202.88800 203.42000 203.95100
 204.89500 205.99200 207.30100 208.95800 210.73800 213.10000 215.56400 218.18000
 220.96600 223.91800 226.96100 230.09200 233.29300 236.55700 239.95500 243.53700
 246.84500 249.39000 251.54200 253.47400 255.19500 256.48400 257.43100 258.05900
 258.21200 258.04000 257.58200 256.64300 255.23900 253.50700 251.40800 249.05600
 246.57600 243.99400 241.38900 238.83000 236.34400 233.98600 231.96900 230.11800
 228.42300 226.89900 225.54800 224.29700 223.10500 221.96500 220.95800 220.11300
 219.49000 218.92000 218.32500 217.88100 217.42300 216.96366 216.35568 216.80261
 217.73415 218.28582 218.64258 219.10077 220.44626 222.53987 226.38451 230.35736
 233.59734 237.39164 241.29814 245.22796 248.98002 252.51130 255.78595 258.80109
 261.54781 264.05210 266.34239 268.04198 269.58951 271.01303 272.35754 273.55718
 274.59842 275.49092 276.28989 276.99307 277.60161 278.14001 278.63122 279.07623
 279.47646 279.83287 280.14422 280.54100
 381.81900 372.39900 361.20600 349.77600 337.62200 324.85300 311.81000 298.35300
 284.86000 271.32400 258.56100 246.30400 236.08700 226.79600 218.44800 211.29000
 205.52200 200.89400 197.38100 194.84800 193.01500 192.31500 192.25000 192.43100
 192.91200 193.53700 194.13600 194.71200 195.26200 195.83100 196.39300 196.97600
 197.60400 198.14900 198.58400 199.05700 199.69500 200.37800 201.05400 201.70800
 202.31300 202.85700 203.35500 203.86200 204.56900 205.29700 206.02600 206.98700
 208.19300 209.44100 210.96900 212.57600 214.46200 216.51300 218.63000 220.85300
 223.34100 225.96200 228.73900 231.69700 234.70600 237.70600 240.69200 243.65700
 246.73700 249.69900 252.52100 255.06300 257.29000 259.23300 260.63300 261.68000
 262.46100 262.79800 262.69100 262.22400 261.06900 259.52500 257.70700 255.50700
 253.00100 250.30200 247.39800 244.45200 241.65400 239.05400 236.73300 234.59000
 232.59500 230.72500 228.83400 226.82600 224.66600 222.38700 220.10400 217.71500
 215.45900 213.06600 210.54600 208.09300 205.35400 202.08130 196.05959 200.71215
 209.01611 216.90438 223.84126 229.78593 235.00632 240.20838 245.98943 250.68668
 254.32982 257.93487 261.55666 264.96801 268.15192 271.06452 273.76717 276.25691
 278.57680 280.74479 282.77456 284.60533 286.27232 287.81705 289.31715 290.65561
 291.81734 292.81312 293.70701 294.49387 295.17482 295.77730 296.32696 296.82492
 297.27278 297.67160 298.02000 298.46400
 366.78100 356.33754 345.77207 334.64061 323.04615 311.24269 299.11522 286.92076
 274.63530 262.53484 250.54637 239.84991 229.97445 221.08098 213.26552 206.27006
 200.10660 195.04713 191.63167 189.67621 188.71575 188.78228 189.61982 190.93036
 192.65789 194.75543 197.02097 199.38251 201.83004 204.31258 206.40312 208.24766
 209.87619 211.02373 211.25527 211.48580 211.42534 211.13288 210.76842 210.40095
 210.02049 209.73303 209.54357 209.41010 209.34064 209.67418 210.06272 210.45425
 211.24979 212.43033 213.68286 215.46840 217.39894 219.44448 221.54201 223.62755
 225.69009 227.77663 229.87616 231.98470 234.11624 236.29077 238.54931 240.92185
 243.54539 245.79892 247.80346 249.57100 250.99054 252.11607 252.94061 253.25915
 253.29868 253.07522 252.43776 251.38830 249.99683 248.16037 246.07191 243.90745
 241.70098 239.50752 237.33006 235.17159 233.03413 230.90367 228.93221 227.09174
 225.37728 223.85182 222.48436 221.25889 220.14343 219.10597 218.21250 217.35604
 216.60058 215.78312 214.88365 214.25019 213.70273 212.83983 210.80894 210.37912
 210.64565 211.49504 213.09457 215.48085 219.12041 223.85718 229.62454 234.76691
 238.66989 242.59320 246.69568 250.83110 254.66052 258.41425 261.24124 262.99933
 265.66122 268.49948 270.95062 272.81778 274.81189 276.81503 278.31207 279.78052
 281.42194 282.96793 284.43576 285.79324 286.97299 288.01880 288.97321 289.84045
 290.62610 291.33096 291.94937 292.77118
 366.78100 356.33782 345.77264 334.64145 323.04727 311.24409 299.11691 286.92273
 274.63754 262.53736 250.54918 239.85300 229.97782 221.08463 213.26945 206.27427
 200.11109 195.05191 191.63672 189.68154 188.72136 188.78818 189.62600 190.93682
 192.66463 194.76245 197.02827 199.39009 201.83791 204.32072 206.41154 208.25636
 209.88518 211.03300 211.26481 211.49563 211.43545 211.14327 210.77909 210.41190
 210.03172 209.74454 209.55536 209.42218 209.35299 209.68681 210.07563 210.46745
 211.26327 212.44408 213.69690 215.48272 217.41354 219.45936 221.55717 223.64299
 225.70581 227.79263 229.89245 232.00126 234.13308 236.30790 238.56672 240.93954
 243.56335 245.81717 247.82199 249.58981 251.00963 252.13545 252.96026 253.27908
 253.31890 253.09572 252.45854 251.40935 250.01817 248.18199 246.09381 243.92963
 241.72344 239.53026 237.35308 235.19490 233.05772 230.92753 228.95635 227.11617
 225.40199 223.87681 222.50962 221.28444 220.16926 219.13208 218.23890 217.38271
 216.62753 215.81035 214.91117 214.27799 213.73080 212.88687 210.90001 210.48676
 210.65182 211.56802 213.15181 215.46080 219.01514 223.77751 229.57608 234.71097
 238.60249 242.51076 246.60844 250.75453 254.60503 258.36261 261.19403 262.96405
 265.62735 268.47198 270.91782 272.73935 274.72214 276.74557 278.23056 279.68030
 281.33093 282.88480 284.35495 285.71292 286.89258 287.93860 288.89349 289.76035
 290.54626 291.25229 291.87088 292.69394
 366.78100 356.33768 345.77235 334.64103 323.04671 311.24338 299.11606 286.92174
 274.63641 262.53609 250.54776 239.85144 229.97612 221.08279 213.26747 206.27215
 200.10882 195.04950 191.63418 189.67885 188.71853 188.78521 189.62288 190.93356
 192.66123 194.75891 197.02459 199.38626 201.83394 204.31662 206.40729 208.25197
 209.88065 211.02832 211.26000 211.49068 211.43035 211.13803 210.77370 210.40638
 210.02606 209.73873 209.54941 209.41609 209.34676 209.68044 210.06912 210.46079
 211.25647 212.43715 213.68982 215.47550 217.40618 219.45185 221.54953 223.63520
 225.69788 227.78456 229.88423 231.99291 234.12459 236.29926 238.55794 240.93062
 243.55429 245.80797 247.81265 249.58032 251.00000 252.12567 252.95035 253.26903
 253.30870 253.08538 252.44806 251.39873 250.00741 248.17109 246.08276 243.91844
 241.71212 239.51879 237.34147 235.18314 233.04582 230.91550 228.94417 227.10385
 225.38953 223.86420 222.49688 221.27156 220.15623 219.11891 218.22559 217.36926
 216.61394 215.79661 214.89729 214.26397 213.71664 212.91257 211.01859 210.57635
 210.67293 211.63399 213.18956 215.44496 218.93378 223.69368 229.52637 234.65193
 238.53256 242.42828 246.52136 250.67879 254.55194 258.31152 261.14597 262.92676
 265.58847 268.43600 270.87994 272.66101 274.63342 276.67685 278.15280 279.58600
 281.24182 282.80319 284.27542 285.63318 286.81430 287.85907 288.81281 289.68222
 290.46725 291.17264 291.79272 292.61847
 366.78100 356.33738 345.77177 334.64015 323.04553 311.24191 299.11430 286.91968
 274.63406 262.53344 250.54483 239.84821 229.97259 221.07898 213.26336 206.26774
 200.10412 195.04451 191.62889 189.67327 188.71265 188.77904 189.61642 190.92680
 192.65419 194.75157 197.01695 199.37833 201.82572 204.30810 206.39848 208.24286
 209.87125 211.01863 211.25001 211.48039 211.41978 211.12716 210.76254 210.39493
 210.01431 209.72669 209.53707 209.40346 209.33384 209.66722 210.05560 210.44699
 211.24237 212.42275 213.67514 215.46052 217.39090 219.43628 221.53367 223.61905
 225.68143 227.76781 229.86720 231.97558 234.10696 236.28135 238.53973 240.91211
 243.53549 245.78888 247.79326 249.56064 250.98002 252.10541 252.92979 253.24817
 253.28756 253.06394 252.42632 251.37670 249.98509 248.14847 246.05985 243.89523
 241.68862 239.49500 237.31738 235.15877 233.02115 230.89053 228.91891 227.07830
 225.36368 223.83806 222.47044 221.24483 220.12921 219.09159 218.19797 217.34136
 216.58574 215.76812 214.86851 214.23489 213.68727 212.92917 211.14258 210.66447
 210.70906 211.68065 213.22162 215.44095 218.86282 223.60884 229.47301 234.58865
 238.46021 242.34610 246.43582 250.60379 254.50136 258.26135 261.09634 262.88745
 265.54303 268.39243 270.83456 272.58298 274.54688 276.60941 278.08167 279.49802
 281.15613 282.72385 284.19757 285.55511 286.73483 287.78082 288.73535 289.60425
 290.38907 291.09521 291.71497 292.54449
 366.78100 356.33706 345.77113 334.63919 323.04426 311.24032 299.11238 286.91745
 274.63151 262.53057 250.54164 239.84470 229.96877 221.07483 213.25889 206.26296
 200.09902 195.03908 191.62315 189.66721 188.70628 188.77234 189.60940 190.91947
 192.64653 194.74360 197.00866 199.36972 201.81679 204.29885 206.38891 208.23298
 209.86104 211.00811 211.23917 211.46923 211.40830 211.11536 210.75042 210.38249
 210.00155 209.71362 209.52368 209.38974 209.31981 209.65287 210.04093 210.43200
 211.22706 212.40713 213.65919 215.44425 217.37432 219.41938 221.51645 223.60151
 225.66357 227.74964 229.84870 231.95676 234.08783 236.26189 238.51996 240.89202
 243.51508 245.76815 247.77221 249.53927 250.95834 252.08340 252.90747 253.22553
 253.26459 253.04066 252.40272 251.35279 249.96085 248.12391 246.03498 243.87004
 241.66310 239.46917 237.29123 235.13230 232.99436 230.86342 228.89149 227.05055
 225.33561 223.80968 222.44174 221.21581 220.09987 219.06193 218.16800 217.31106
 216.55513 215.73719 214.83725 214.20332 213.65538 212.94351 211.26514 210.76080
 210.75494 211.70830 213.25070 215.44756 218.80035 223.52390 229.41805 234.52249
 238.38593 242.26407 246.35078 250.52959 254.45387 258.21393 261.04721 262.84753
 265.49155 268.33881 270.78085 272.50278 274.46008 276.54062 278.01367 279.41681
 281.07486 282.64331 284.12180 285.47858 286.65945 287.70349 288.65857 289.52698
 290.31393 291.02014 291.64291 292.46561
 366.78100 356.33669 345.77039 334.63808 323.04278 311.23847 299.11017 286.91486
 274.62856 262.52725 250.53794 239.84064 229.96433 221.07003 213.25372 206.25742
 200.09311 195.03280 191.61650 189.66019 188.69889 188.76458 189.60128 190.91097
 192.63767 194.73436 196.99905 199.35975 201.80644 204.28814 206.37783 208.22153
 209.84922 210.99591 211.22661 211.45630 211.39500 211.10169 210.73639 210.36808
 209.98678 209.69847 209.50816 209.37386 209.30355 209.63625 210.02394 210.41464
 211.20933 212.38902 213.64072 215.42541 217.35511 219.39980 221.49650 223.58119
 225.64289 227.72858 229.82727 231.93497 234.06566 236.23936 238.49705 240.86875
 243.49144 245.74414 247.74783 249.51452 250.93322 252.05791 252.88161 253.19930
 253.23800 253.01369 252.37538 251.32508 249.93277 248.09547 246.00616 243.84086
 241.63355 239.43925 237.26094 235.10163 232.96333 230.83202 228.85972 227.01841
 225.30311 223.77680 222.40849 221.18219 220.06588 219.02758 218.13327 217.27597
 216.51966 215.70136 214.80105 214.16674 213.61844 212.95412 211.38722 210.86345
 210.80728 211.72888 213.27295 215.45575 218.74751 223.43944 229.35968 234.45499
 238.31093 242.18172 246.26495 250.45454 254.40855 258.16937 261.00021 262.80930
 265.43472 268.27545 270.71692 272.41833 274.37234 276.46820 277.94885 279.34482
 280.99710 282.56494 284.04590 285.40262 286.58224 287.62778 288.58331 289.45099
 290.23657 290.94470 291.56598 292.39273
 366.78100 356.33642 345.76984 334.63726 323.04168 311.23710 299.10852 286.91294
 274.62636 262.52478 250.53520 239.83763 229.96105 221.06647 213.24989 206.25331
 200.08873 195.02815 191.61157 189.65499 188.69341 188.75883 189.59525 190.90467
 192.63109 194.72751 196.99193 199.35235 201.79877 204.28019 206.36961 208.21304
 209.84046 210.98688 211.21730 211.44672 211.38514 211.09156 210.72598 210.35740
 209.97582 209.68724 209.49666 209.36208 209.29150 209.62392 210.01134 210.40176
 211.19618 212.37560 213.62702 215.41145 217.34087 219.38529 221.48171 223.56613
 225.62755 227.71297 229.81139 231.91881 234.04923 236.22265 238.48007 240.85149
 243.47391 245.72633 247.72975 249.49617 250.91459 252.03901 252.86243 253.17985
 253.21828 252.99370 252.35512 251.30454 249.91196 248.07438 245.98480 243.81922
 241.61164 239.41706 237.23848 235.07890 232.94032 230.80874 228.83616 226.99458
 225.27900 223.75242 222.38384 221.15726 220.04069 219.00211 218.10753 217.24995
 216.49337 215.67479 214.77421 214.13963 213.59105 212.96878 211.50063 210.97600
 210.86787 211.73927 213.29521 215.46858 218.69438 223.36143 229.30074 234.38368
 238.23161 242.09547 246.17630 250.37814 254.36592 258.12811 260.95700 262.77618
 265.37524 268.20264 270.64371 272.32956 274.28262 276.39203 277.88614 279.27963
 280.92734 282.49155 283.96948 285.32562 286.50577 287.55112 288.50626 289.37454
 290.16089 290.86786 291.49130 292.32053
 366.78100 356.33595 345.76889 334.63584 323.03979 311.23473 299.10568 286.90963
 274.62257 262.52052 250.53047 239.83241 229.95536 221.06031 213.24325 206.24620
 200.08115 195.02009 191.60304 189.64599 188.68393 188.74888 189.58483 190.89377
 192.61972 194.71567 196.97961 199.33956 201.78551 204.26645 206.35540 208.19835
 209.82529 210.97124 211.20119 211.43013 211.36808 211.07403 210.70797 210.33892
 209.95687 209.66781 209.47676 209.34171 209.27066 209.60260 209.98955 210.37950
 211.17344 212.35239 213.60334 215.38728 217.31623 219.36018 221.45612 223.54007
 225.60102 227.68596 229.78391 231.89086 234.02080 236.19375 238.45070 240.82164
 243.44359 245.69554 247.69848 249.46443 250.88238 252.00632 252.82927 253.14622
 253.18416 252.95911 252.32006 251.26900 249.87595 248.03790 245.94784 243.78179
 241.57374 239.37868 237.19963 235.03958 232.90052 230.76847 228.79542 226.95336
 225.23731 223.71026 222.34120 221.11415 219.99710 218.95804 218.06299 217.20494
 216.44788 215.62883 214.72778 214.09272 213.54367 212.97261 211.62485 211.08577
 210.92844 211.75984 213.30702 215.47687 218.65439 223.28542 229.23532 234.30630
 238.14661 242.00609 246.08588 250.30234 254.32858 258.09189 260.91840 262.75012
 265.31445 268.12143 270.56100 272.23627 274.18973 276.31146 277.82562 279.22430
 280.86084 282.42023 283.89145 285.24774 286.42798 287.47366 288.42883 289.29669
 290.08411 290.79156 291.41547 292.24591
 366.78100 356.33567 345.76834 334.63501 323.03868 311.23335 299.10402 286.90769
 274.62037 262.51804 250.52771 239.82938 229.95205 221.05672 213.23939 206.24206
 200.07673 195.01540 191.59807 189.64074 188.67841 188.74308 189.57875 190.88743
 192.61310 194.70877 196.97244 199.33211 201.77778 204.25845 206.34712 208.18979
 209.81646 210.96213 211.19180 211.42047 211.35814 211.06381 210.69749 210.32816
 209.94583 209.65650 209.46517 209.32984 209.25851 209.59018 209.97685 210.36652
 211.16019 212.33886 213.58953 215.37320 217.30188 219.34555 221.44122 223.52489
 225.58556 227.67023 229.76790 231.87457 234.00424 236.17691 238.43358 240.80425
 243.42592 245.67759 247.68026 249.44594 250.86361 251.98728 252.80995 253.12662
 253.16429 252.93896 252.29963 251.24830 249.85497 248.01664 245.92631 243.75998
 241.55165 239.35632 237.17700 235.01667 232.87734 230.74501 228.77168 226.92935
 225.21302 223.68569 222.31636 221.08903 219.97170 218.93237 218.03704 217.17871
 216.42138 215.60206 214.70073 214.06540 213.51607 212.98462 211.73010 211.22406
 210.99736 211.75648 213.33368 215.48068 218.58731 223.21622 229.17502 234.23100
 238.06183 241.91483 245.99327 250.22481 254.29274 258.05597 260.87781 262.72580
 265.25015 268.03275 270.47418 272.14386 274.09949 276.23264 277.77332 279.18134
 280.80304 282.34967 283.81421 285.16959 286.34964 287.39578 288.35098 289.21976
 290.00821 290.71530 291.33920 292.17096
 366.78100 356.33527 345.76754 334.63382 323.03709 311.23136 299.10163 286.90490
 274.61718 262.51445 250.52372 239.82499 229.94727 221.05154 213.23381 206.23608
 200.07035 195.00863 191.59090 189.63317 188.67044 188.73471 189.56999 190.87826
 192.60353 194.69880 196.96208 199.32135 201.76662 204.24689 206.33516 208.17744
 209.80371 210.94898 211.17825 211.40652 211.34380 211.04907 210.68234 210.31261
 209.92988 209.64016 209.44843 209.31270 209.24097 209.57225 209.95852 210.34779
 211.14106 212.31933 213.56961 215.35288 217.28115 219.32442 221.41969 223.50297
 225.56324 227.64751 229.74478 231.85105 233.98033 236.15260 238.40887 240.77914
 243.40042 245.65169 247.65396 249.41923 250.83650 251.95978 252.78205 253.09832
 253.13559 252.90986 252.27014 251.21841 249.82468 247.98595 245.89523 243.72850
 241.51977 239.32404 237.14431 234.98359 232.84386 230.71113 228.73740 226.89467
 225.17795 223.65022 222.28049 221.05276 219.93503 218.89531 217.99958 217.14085
 216.38312 215.56340 214.66167 214.02594 213.47621 212.98920 211.83931 211.36024
 211.09842 211.76488 213.30318 215.48969 218.56200 223.14897 229.11008 234.13725
 237.95384 241.80318 245.88802 250.14153 254.25842 258.02332 260.84146 262.71405
 265.19162 267.94507 270.38873 272.06012 274.01385 276.15552 277.72824 279.14935
 280.75031 282.28342 283.73590 285.09097 286.27121 287.31821 288.27353 289.14270
 289.92950 290.63950 291.26300 292.09644
 366.78100 356.33496 345.76693 334.63289 323.03585 311.22981 299.09978 286.90274
 274.61470 262.51166 250.52063 239.82159 229.94355 221.04751 213.22948 206.23144
 200.06540 195.00336 191.58533 189.62729 188.66425 188.72821 189.56318 190.87114
 192.59610 194.69106 196.95403 199.31299 201.75795 204.23791 206.32588 208.16784
 209.79380 210.93876 211.16773 211.39569 211.33265 211.03761 210.67058 210.30054
 209.91750 209.62746 209.43543 209.29939 209.22735 209.55831 209.94428 210.33324
 211.12620 212.30416 213.55413 215.33709 217.26505 219.30801 221.40298 223.48594
 225.54590 227.62986 229.72683 231.83279 233.96175 236.13371 238.38968 240.75964
 243.38060 245.63156 247.63353 249.39849 250.81545 251.93841 252.76038 253.07634
 253.11330 252.88726 252.24723 251.19519 249.80115 247.96211 245.87108 243.70404
 241.49500 239.29896 237.11893 234.95789 232.81785 230.68481 228.71078 226.86774
 225.15070 223.62266 222.25263 221.02459 219.90655 218.86651 217.97048 217.11144
 216.35340 215.53336 214.63133 213.99529 213.44525 212.99690 211.93819 211.51433
 211.18182 211.80099 213.35440 215.45122 218.46375 223.05719 229.02867 234.03172
 237.84097 241.69392 245.78835 250.06686 254.23824 258.00513 260.82300 262.72260
 265.14038 267.85486 270.29752 271.97125 273.92279 276.07150 277.67468 279.11371
 280.69833 282.21936 283.65704 285.01318 286.19205 287.23901 288.19626 289.06570
 289.85321 290.56223 291.18762 292.01819
 366.78100 356.33531 345.76762 334.63393 323.03724 311.23155 299.10187 286.90518
 274.61749 262.51480 250.52411 239.82542 229.94773 221.05204 213.23435 206.23666
 200.07097 195.00928 191.59160 189.63391 188.67122 188.73553 189.57084 190.87915
 192.60446 194.69977 196.96308 199.32239 201.76770 204.24802 206.33633 208.17864
 209.80495 210.95026 211.17957 211.40788 211.34519 211.05050 210.68381 210.31412
 209.93143 209.64175 209.45006 209.31437 209.24268 209.57399 209.96030 210.34961
 211.14292 212.32123 213.57154 215.35485 217.28317 219.32648 221.42179 223.50510
 225.56541 227.64972 229.74703 231.85334 233.98265 236.15496 238.41127 240.78158
 243.40290 245.65421 247.65652 249.42183 250.83914 251.96245 252.78476 253.10107
 253.13838 252.91269 252.27300 251.22132 249.82763 247.98894 245.89825 243.73156
 241.52287 239.32718 237.14749 234.98680 232.84711 230.71442 228.74074 226.89805
 225.18136 223.65367 222.28398 221.05629 219.93860 218.89891 218.00322 217.14453
 216.38684 215.56715 214.66547 214.02978 213.48009 213.04147 212.00558 211.60623
 211.40442 211.86139 213.32011 215.36435 218.31696 222.96704 228.96510 233.95398
 237.75945 241.61108 245.70615 250.00418 254.22797 257.99454 260.80466 262.72763
 265.08282 267.75348 270.19159 271.86661 273.82233 275.97723 277.61078 279.07239
 280.64639 282.15494 283.58014 284.93546 286.11584 287.16296 288.12039 288.98871
 289.78036 290.48865 291.11121 291.94556
 366.78100 356.33485 345.76671 334.63256 323.03542 311.22927 299.09913 286.90198
 274.61383 262.51069 250.51954 239.82040 229.94225 221.04611 213.22796 206.22981
 200.06367 195.00152 191.58338 189.62523 188.66209 188.72594 189.56080 190.86865
 192.59350 194.68836 196.95121 199.31007 201.75492 204.23478 206.32263 208.16448
 209.79034 210.93519 211.16405 211.39190 211.32876 211.03361 210.66646 210.29632
 209.91317 209.62303 209.43088 209.29474 209.22259 209.55344 209.93930 210.32815
 211.12101 212.29886 213.54872 215.33157 217.25943 219.30228 221.39713 223.47999
 225.53984 227.62370 229.72055 231.82641 233.95526 236.12711 238.38297 240.75282
 243.37368 245.62453 247.62639 249.39124 250.80809 251.93095 252.75280 253.06866
 253.10551 252.87937 252.23922 251.18707 249.79293 247.95378 245.86264 243.69549
 241.48635 239.29020 237.11006 234.94891 232.80876 230.67562 228.70147 226.85833
 225.14118 223.61304 222.24289 221.01474 219.89660 218.85645 217.96031 217.10116
 216.34302 215.52287 214.62072 213.98458 213.43443 213.04799 212.13507 211.65361
 211.50047 211.96005 213.26724 215.31769 218.29373 222.92574 228.93138 233.89673
 237.68401 241.52875 245.62225 249.93817 254.21411 257.97461 260.76999 262.71487
 265.01550 267.64386 270.07758 271.75949 273.72260 275.88467 277.55048 279.03677
 280.59827 282.09219 283.50586 284.86044 286.04132 287.08908 288.04553 288.91751
 289.70480 290.41394 291.03995 291.87512
 366.78100 356.33418 345.76535 334.63053 323.03271 311.22589 299.09506 286.89724
 274.60842 262.50460 250.51277 239.81295 229.93413 221.03731 213.21848 206.21966
 200.05284 194.99002 191.57119 189.61237 188.64855 188.71173 189.54590 190.85308
 192.57726 194.67144 196.93361 199.29179 201.73597 204.21515 206.30232 208.14350
 209.76868 210.91286 211.14103 211.36821 211.30439 211.00857 210.64074 210.26992
 209.88610 209.59528 209.40245 209.26563 209.19281 209.52299 209.90816 210.29634
 211.08852 212.26570 213.51487 215.29705 217.22423 219.26640 221.36058 223.44276
 225.50194 227.58511 229.68129 231.78647 233.91465 236.08582 238.34100 240.71018
 243.33036 245.58053 247.58171 249.34589 250.76207 251.88424 252.70542 253.02060
 253.05678 252.82995 252.18913 251.13631 249.74149 247.90166 245.80984 243.64202
 241.43220 239.23537 237.05455 234.89273 232.75191 230.61808 228.64326 226.79944
 225.08162 223.55279 222.18197 220.95315 219.83433 218.79350 217.89668 217.03686
 216.27804 215.45721 214.55439 213.91757 213.36674 213.04103 212.27148 211.75357
 211.50883 212.00699 213.26137 215.34714 218.33728 222.87991 228.88644 233.81693
 237.58511 241.42789 245.52696 249.86617 254.19579 257.94589 260.72482 262.69458
 264.94601 267.53384 269.96594 271.66016 273.62964 275.79742 277.49872 279.00873
 280.55640 282.03445 283.43542 284.78909 285.97012 287.01663 287.97519 288.84616
 289.63483 290.34628 290.97073 291.80878
 366.78100 356.33377 345.76455 334.62932 323.03109 311.22387 299.09264 286.89441
 274.60519 262.50096 250.50873 239.80851 229.92928 221.03205 213.21283 206.21360
 200.04637 194.98315 191.56392 189.60469 188.64047 188.70324 189.53701 190.84379
 192.56756 194.66133 196.92311 199.28088 201.72466 204.20343 206.29020 208.13098
 209.75575 210.89952 211.12730 211.35407 211.28984 210.99362 210.62539 210.25416
 209.86994 209.57871 209.38548 209.24826 209.17503 209.50480 209.88958 210.27735
 211.06912 212.24590 213.49467 215.27644 217.20322 219.24499 221.33876 223.42054
 225.47931 227.56208 229.65786 231.76263 233.89040 236.06118 238.31595 240.68472
 243.30450 245.55427 247.55504 249.31882 250.73459 251.85636 252.67714 252.99191
 253.02768 252.80046 252.15923 251.10600 249.71078 247.87055 245.77832 243.61010
 241.39987 239.20265 237.02142 234.85919 232.71797 230.58374 228.60851 226.76429
 225.04606 223.51683 222.14561 220.91638 219.79715 218.75593 217.85870 216.99847
 216.23925 215.41802 214.51479 213.87757 213.32634 213.04745 212.38858 211.87511
 211.50955 212.03464 213.30299 215.39825 218.36761 222.81404 228.82185 233.72485
 237.48064 241.32596 245.43378 249.79703 254.17877 257.91498 260.67688 262.67133
 264.87720 267.42505 269.85660 271.56671 273.54208 275.71411 277.44714 278.98044
 280.51611 281.97595 283.36807 284.72156 285.90182 286.94867 287.90775 288.78082
 289.57007 290.27917 290.90576 291.74478
 366.78100 356.33362 345.76424 334.62887 323.03049 311.22311 299.09173 286.89336
 274.60398 262.49960 250.50722 239.80685 229.92747 221.03009 213.21071 206.21134
 200.04396 194.98058 191.56120 189.60182 188.63745 188.70007 189.53369 190.84031
 192.56394 194.65756 196.91918 199.27680 201.72043 204.19905 206.28567 208.12629
 209.75091 210.89454 211.12216 211.34878 211.28440 210.98803 210.61965 210.24827
 209.86389 209.57252 209.37914 209.24176 209.16838 209.49801 209.88263 210.27025
 211.06187 212.23849 213.48712 215.26874 217.19536 219.23698 221.33061 223.41223
 225.47085 227.55347 229.64910 231.75372 233.88134 236.05196 238.30658 240.67521
 243.29483 245.54445 247.54507 249.30870 250.72432 251.84594 252.66656 252.98119
 253.01681 252.78943 252.14805 251.09468 249.69930 247.85892 245.76654 243.59816
 241.38779 239.19041 237.00903 234.84665 232.70528 230.57090 228.59552 226.75114
 225.03277 223.50339 222.13201 220.90263 219.78325 218.74188 217.84450 216.98412
 216.22474 215.40337 214.49999 213.86261 213.31123 213.06725 212.49078 211.99295
 211.52979 212.05573 213.35959 215.45189 218.37399 222.74944 228.75337 233.63693
 237.38297 241.22958 245.34555 249.73186 254.16168 257.88080 260.62262 262.64011
 264.80560 267.31622 269.74744 271.47586 273.45798 275.63266 277.39438 278.94958
 280.47595 281.92123 283.30502 284.65845 285.83948 286.88599 287.84555 288.71826
 289.50845 290.21790 290.84528 291.68484
 366.78100 356.33366 345.76433 334.62899 323.03066 311.22332 299.09198 286.89365
 274.60431 262.49998 250.50764 239.80730 229.92797 221.03063 213.21130 206.21196
 200.04462 194.98129 191.56195 189.60262 188.63828 188.70094 189.53461 190.84127
 192.56494 194.65860 196.92026 199.27793 201.72159 204.20026 206.28692 208.12758
 209.75225 210.89591 211.12358 211.35024 211.28590 210.98957 210.62123 210.24990
 209.86556 209.57422 209.38089 209.24355 209.17022 209.49988 209.88454 210.27221
 211.06387 212.24054 213.48920 215.27086 217.19753 219.23919 221.33286 223.41452
 225.47318 227.55585 229.65151 231.75618 233.88384 236.05450 238.30917 240.67783
 243.29750 245.54716 247.54782 249.31149 250.72715 251.84882 252.66948 252.98414
 253.01981 252.79247 252.15114 251.09780 249.70246 247.86213 245.76979 243.60146
 241.39112 239.19378 237.01245 234.85011 232.70878 230.57444 228.59910 226.75477
 225.03643 223.50710 222.13576 220.90642 219.78709 218.74575 217.84842 216.98808
 216.22874 215.40741 214.50407 213.86674 213.31540 213.09715 212.58150 212.10556
 211.56956 212.07295 213.41620 215.50508 218.36984 222.69537 228.69096 233.55211
 237.28479 241.13260 245.25891 249.66939 254.14215 257.84045 260.55896 262.59906
 264.73190 267.20840 269.63934 271.38834 273.37802 275.55438 277.34027 278.91602
 280.43741 281.87164 283.24655 284.60019 285.78241 286.83051 287.78745 288.66095
 289.45236 290.16153 290.79095 291.62979
 366.78100 356.33384 345.76468 334.62952 323.03137 311.22421 299.09305 286.89489
 274.60573 262.50157 250.50941 239.80926 229.93010 221.03294 213.21378 206.21462
 200.04746 194.98430 191.56515 189.60599 188.64183 188.70467 189.53851 190.84535
 192.56919 194.66304 196.92488 199.28272 201.72656 204.20540 206.29224 208.13308
 209.75793 210.90177 211.12961 211.35645 211.29229 210.99613 210.62798 210.25682
 209.87266 209.58150 209.38834 209.25118 209.17802 209.50787 209.89271 210.28055
 211.07239 212.24923 213.49807 215.27991 217.20676 219.24860 221.34244 223.42428
 225.48312 227.56596 229.66180 231.76665 233.89449 236.06533 238.32017 240.68901
 243.30885 245.55869 247.55954 249.32338 250.73922 251.86106 252.68190 252.99674
 253.03258 252.80543 252.16427 251.11111 249.71595 247.87579 245.78363 243.61547
 241.40532 239.20816 237.02700 234.86484 232.72368 230.58952 228.61436 226.77021
 225.05205 223.52289 222.15173 220.92257 219.80341 218.76225 217.86510 217.00494
 216.24578 215.42462 214.52146 213.88430 213.33315 213.13411 212.66385 212.21291
 211.62389 212.09090 213.46967 215.55571 218.36635 222.64957 228.63498 233.46565
 237.18208 241.03275 245.17415 249.61064 254.11894 257.79422 260.48685 262.54681
 264.65390 267.10162 269.53369 271.30536 273.30344 275.48074 277.28610 278.87979
 280.39941 281.82449 283.19644 284.55014 285.73148 286.77963 287.73862 288.61264
 289.40341 290.11505 290.74014 291.58423
 366.78100 356.33410 345.76520 334.63030 323.03240 311.22550 299.09460 286.89670
 274.60779 262.50389 250.51199 239.81209 229.93319 221.03629 213.21739 206.21849
 200.05159 194.98869 191.56979 189.61089 188.64699 188.71009 189.54419 190.85128
 192.57538 194.66948 196.93158 199.28968 201.73378 204.21288 206.29998 208.14108
 209.76618 210.91028 211.13838 211.36548 211.30158 211.00568 210.63777 210.26687
 209.88297 209.59207 209.39917 209.26227 209.18937 209.51947 209.90457 210.29267
 211.08477 212.26187 213.51097 215.29307 217.22016 219.26226 221.35636 223.43846
 225.49756 227.58066 229.67676 231.78186 233.90996 236.08106 238.33616 240.70526
 243.32536 245.57546 247.57656 249.34065 250.75675 251.87885 252.69995 253.01505
 253.05115 252.82425 252.18335 251.13045 249.73555 247.89565 245.80375 243.63585
 241.42595 239.22905 237.04814 234.88624 232.74534 230.61144 228.63654 226.79264
 225.07474 223.54584 222.17494 220.94604 219.82714 218.78624 217.88934 217.02944
 216.27054 215.44963 214.54673 213.90983 213.35893 213.17520 212.74110 212.31494
 211.68718 212.11308 213.51956 215.60439 218.37187 222.60860 228.58073 233.37933
 237.07799 240.93446 245.09364 249.55531 254.09201 257.74014 260.40494 262.48026
 264.56992 266.99670 269.42975 271.22623 273.23529 275.41434 277.23331 278.83905
 280.36017 281.77856 283.15286 284.50656 285.68912 286.73672 287.69672 288.57114
 289.36035 290.07193 290.69940 291.54150
 366.78100 356.33445 345.76591 334.63136 323.03381 311.22726 299.09672 286.89917
 274.61062 262.50707 250.51553 239.81598 229.93743 221.04089 213.22234 206.22379
 200.05724 194.99470 191.57615 189.61760 188.65405 188.71751 189.55196 190.85941
 192.58387 194.67832 196.94077 199.29922 201.74368 204.22313 206.31058 208.15203
 209.77749 210.92194 211.15039 211.37785 211.31430 211.01875 210.65120 210.28066
 209.89711 209.60656 209.41401 209.27747 209.20492 209.53537 209.92083 210.30928
 211.10173 212.27918 213.52864 215.31109 217.23854 219.28099 221.37545 223.45790
 225.51735 227.60080 229.69726 231.80271 233.93116 236.10262 238.35807 240.72752
 243.34797 245.59843 247.59988 249.36433 250.78078 251.90324 252.72469 253.04014
 253.07660 252.85005 252.20950 251.15695 249.76241 247.92286 245.83131 243.66376
 241.45422 239.25767 237.07712 234.91558 232.77503 230.64148 228.66693 226.82339
 225.10584 223.57729 222.20674 220.97820 219.85965 218.81910 217.92256 217.06301
 216.30446 215.48391 214.58137 213.94482 213.39427 213.22113 212.81206 212.41342
 211.75836 212.13618 213.56462 215.65608 218.38762 222.57123 228.52446 233.29280
 236.97589 240.83981 245.01830 249.50542 254.06104 257.67838 260.31122 262.39584
 264.47864 266.89270 269.32776 271.15186 273.17441 275.35507 277.18225 278.79681
 280.32123 281.73642 283.11792 284.47351 285.65500 286.70386 287.66382 288.53784
 289.32977 290.03882 290.66724 291.51099
 366.78100 356.33490 345.76680 334.63269 323.03559 311.22949 299.09939 286.90228
 274.61418 262.51108 250.51998 239.82087 229.94277 221.04667 213.22857 206.23046
 200.06436 195.00226 191.58416 189.62606 188.66295 188.72685 189.56175 190.86965
 192.59454 194.68944 196.95234 199.31124 201.75613 204.23603 206.32393 208.16583
 209.79173 210.93662 211.16552 211.39342 211.33032 211.03521 210.66811 210.29801
 209.91491 209.62480 209.43270 209.29660 209.22450 209.55539 209.94129 210.33019
 211.12309 212.30099 213.55088 215.33378 217.26168 219.30458 221.39947 223.48237
 225.54227 227.62617 229.72306 231.82896 233.95786 236.12976 238.38566 240.75555
 243.37645 245.62735 247.62925 249.39414 250.81104 251.93394 252.75584 253.07173
 253.10863 252.88253 252.24243 251.19032 249.79622 247.95712 245.86602 243.69892
 241.48981 239.29371 237.11361 234.95251 232.81240 230.67930 228.70520 226.86210
 225.14499 223.61689 222.24679 221.01869 219.90059 218.86048 217.96438 217.10528
 216.34718 215.52707 214.62497 213.98887 213.43877 213.27173 212.87709 212.50633
 211.83984 212.16362 213.60184 215.71104 218.41237 222.53606 228.46358 233.20604
 236.87885 240.75060 244.95068 249.46136 254.02664 257.60834 260.20419 262.29083
 264.37778 266.78909 269.22540 271.08011 273.12033 275.30356 277.13306 278.75253
 280.28558 281.70300 283.09305 284.44919 285.63168 286.67877 287.63965 288.51416
 289.30576 290.01508 290.64481 291.48795
 366.78100 356.33561 345.76821 334.63482 323.03843 311.23304 299.10364 286.90725
 274.61986 262.51747 250.52707 239.82868 229.95129 221.05590 213.23850 206.24111
 200.07572 195.01432 191.59693 189.63954 188.67715 188.74175 189.57736 190.88597
 192.61158 194.70718 196.97079 199.33040 201.77601 204.25661 206.34522 208.18783
 209.81444 210.96004 211.18965 211.41826 211.35586 211.06147 210.69508 210.32569
 209.94329 209.65390 209.46251 209.32712 209.25572 209.58733 209.97394 210.36355
 211.15715 212.33576 213.58637 215.36997 217.29858 219.34219 221.43780 223.52140
 225.58201 227.66662 229.76423 231.87083 234.00044 236.17305 238.42966 240.80026
 243.42187 245.67348 247.67609 249.44169 250.85930 251.98291 252.80551 253.12212
 253.15973 252.93434 252.29494 251.24355 249.85016 248.01177 245.92137 243.75498
 241.54659 239.35120 237.17180 235.01141 232.87202 230.73962 228.76623 226.92384
 225.20745 223.68005 222.31066 221.08327 219.96588 218.92648 218.03109 217.17270
 216.41531 215.59591 214.69452 214.05913 213.50974 213.33551 212.92387 212.60435
 211.92764 212.18607 213.64046 215.77422 218.43858 222.50362 228.40297 233.11925
 236.78314 240.66483 244.88881 249.42299 253.98836 257.53018 260.08484 262.16733
 264.26981 266.68555 269.12341 271.01096 273.07214 275.25671 277.08386 278.70596
 280.25293 281.68051 283.07919 284.43527 285.61716 286.66571 287.62604 288.50076
 289.29150 290.00275 290.63083 291.47601
 366.78100 356.33631 345.76962 334.63692 323.04123 311.23654 299.10785 286.91216
 274.62546 262.52377 250.53408 239.83639 229.95969 221.06500 213.24831 206.25162
 200.08693 195.02623 191.60954 189.65285 188.69116 188.75647 189.59277 190.90208
 192.62839 194.72470 196.98900 199.34931 201.79562 204.27693 206.36624 208.20954
 209.83685 210.98316 211.21347 211.44278 211.38108 211.08739 210.72170 210.35301
 209.97132 209.68262 209.49193 209.35724 209.28655 209.61885 210.00616 210.39647
 211.19078 212.37009 213.62139 215.40570 217.33501 219.37932 221.47563 223.55993
 225.62124 227.70655 229.80486 231.91217 234.04247 236.21578 238.47309 240.84440
 243.46670 245.71901 247.72232 249.48863 250.90694 252.03124 252.85455 253.17186
 253.21017 252.98548 252.34678 251.29609 249.90340 248.06571 245.97601 243.81032
 241.60263 239.40794 237.22925 235.06955 232.93086 230.79917 228.82648 226.98479
 225.26909 223.74240 222.37371 221.14702 220.03033 218.99163 218.09694 217.23925
 216.48256 215.66386 214.76317 214.12848 213.57979 213.39928 212.97281 212.68240
 212.03224 212.22069 213.68619 215.83406 218.45674 222.46960 228.34174 233.02982
 236.68599 240.58081 244.83340 249.38977 253.94707 257.44592 259.95633 262.02808
 264.15601 266.58234 269.02109 270.94397 273.02963 275.21649 277.03632 278.65765
 280.22415 281.66721 283.07349 284.43082 285.61310 286.66110 287.62167 288.49628
 289.28729 289.99725 290.62674 291.47302
 366.78100 356.33755 345.77210 334.64065 323.04619 311.24274 299.11529 286.92084
 274.63539 262.53494 250.54648 239.85003 229.97458 221.08113 213.26568 206.27023
 200.10677 195.04732 191.63187 189.67642 188.71597 188.78252 189.62007 190.93061
 192.65816 194.75571 197.02126 199.38281 201.83036 204.31290 206.40345 208.24800
 209.87655 211.02410 211.25565 211.48619 211.42574 211.13329 210.76884 210.40139
 210.02094 209.73349 209.54403 209.41058 209.34113 209.67468 210.06323 210.45478
 211.25032 212.43087 213.68342 215.46897 217.39952 219.44507 221.54261 223.62816
 225.69071 227.77726 229.87681 231.98536 234.11691 236.29145 238.55000 240.92255
 243.54610 245.79965 247.80420 249.57174 250.99129 252.11684 252.94139 253.25994
 253.29949 253.07603 252.43858 251.38913 249.99768 248.16123 246.07278 243.90833
 241.70187 239.50842 237.33097 235.17252 233.03507 230.90462 228.93316 227.09271
 225.37826 223.85281 222.48536 221.25991 220.14445 219.10700 218.21355 217.35710
 216.60165 215.78420 214.88475 214.25129 213.70384 213.49022 212.98549 212.77853
 212.14397 212.25897 213.71338 215.90038 218.49707 222.43520 228.27666 232.93930
 236.58885 240.49829 244.78319 249.36084 253.90041 257.35297 259.81567 261.87170
 264.03583 266.47961 268.92053 270.88287 272.99496 275.18369 276.99335 278.61200
 280.20093 281.66183 283.07669 284.43411 285.61728 286.66510 287.62448 288.50052
 289.29181 290.00360 290.63153 291.47876
 366.78100 356.33895 345.77491 334.64486 323.05181 311.24977 299.12372 286.93067
 274.64663 262.54758 250.56053 239.86549 229.99144 221.09939 213.28535 206.29130
 200.12926 195.07121 191.65716 189.70312 188.74407 188.81202 189.65098 190.96293
 192.69188 194.79084 197.05779 199.42074 201.86970 204.35365 206.44560 208.29156
 209.92151 211.07046 211.30342 211.53537 211.47632 211.18528 210.82223 210.45618
 210.07714 209.79109 209.60304 209.47100 209.40295 209.73791 210.12786 210.52081
 211.31777 212.49972 213.75367 215.54063 217.47258 219.51953 221.61849 223.70544
 225.76939 227.85735 229.95830 232.06825 234.20121 236.37716 238.63711 241.01107
 243.63602 245.89097 247.89693 249.66588 251.08683 252.21379 253.03974 253.35970
 253.40065 253.17860 252.54256 251.49451 250.10446 248.26942 246.18237 244.01932
 241.81428 239.62223 237.44618 235.28914 233.15309 231.02404 229.05400 227.21495
 225.50190 223.97786 222.61181 221.38776 220.27372 219.23767 218.34562 217.49058
 216.73653 215.92048 215.02244 214.39039 213.84435 213.59038 212.99036 212.85214
 212.29028 212.29611 213.78401 215.96344 218.48906 222.39996 228.21210 232.84273
 236.48843 240.41464 244.73457 249.33421 253.84683 257.24951 259.66556 261.70383
 263.91495 266.38162 268.82498 270.82968 272.96924 275.15897 276.95593 278.56827
 280.17981 281.66232 283.08691 284.44437 285.62717 286.67490 287.63745 288.51089
 289.30414 290.01392 290.64108 291.48691
 366.78100 356.33971 345.77643 334.64714 323.05486 311.25357 299.12828 286.93600
 274.65271 262.55443 250.56814 239.87386 230.00057 221.10928 213.29600 206.30271
 200.14143 195.08414 191.67085 189.71757 188.75928 188.82800 189.66771 190.98042
 192.71014 194.80985 197.07757 199.44128 201.89099 204.37571 206.46842 208.31514
 209.94585 211.09557 211.32928 211.56199 211.50371 211.21342 210.85114 210.48585
 210.10756 209.82228 209.63499 209.50371 209.43642 209.77213 210.16285 210.55656
 211.35428 212.53699 213.79171 215.57942 217.51213 219.55985 221.65956 223.74728
 225.81199 227.90070 230.00242 232.11313 234.24685 236.42356 238.68427 241.05899
 243.68470 245.94042 247.94713 249.71684 251.13856 252.26627 253.09299 253.41370
 253.45542 253.23413 252.59884 251.55156 250.16227 248.32799 246.24170 244.07941
 241.87513 239.68384 237.50856 235.35227 233.21698 231.08870 229.11941 227.28113
 225.56884 224.04556 222.68027 221.45698 220.34370 219.30841 218.41713 217.56284
 216.80955 215.99427 215.09698 214.46570 213.92041 213.65973 213.04385 212.84065
 212.46611 212.48524 213.77882 215.94901 218.51988 222.33408 228.13750 232.74260
 236.38449 240.33301 244.69119 249.31049 253.78995 257.14459 259.51575 261.53448
 263.79684 266.28891 268.73157 270.78183 272.94775 275.13840 276.91797 278.52249
 280.15939 281.66504 283.10266 284.46091 285.64407 286.69168 287.65216 288.52679
 289.31833 290.02933 290.65671 291.50186
 366.78100 356.34033 345.77765 334.64898 323.05731 311.25664 299.13196 286.94029
 274.65762 262.55994 250.57427 239.88060 230.00793 221.11725 213.30458 206.31191
 200.15124 195.09456 191.68189 189.72922 188.77154 188.84087 189.68120 190.99453
 192.72485 194.82518 197.09351 199.45783 201.90816 204.39349 206.48682 208.33414
 209.96547 211.11580 211.35012 211.58345 211.52578 211.23611 210.87443 210.50976
 210.13209 209.84742 209.66074 209.53007 209.46340 209.79972 210.19105 210.58538
 211.38371 212.56703 213.82236 215.61069 217.54401 219.59234 221.69267 223.78100
 225.84632 227.93565 230.03798 232.14930 234.28363 236.46096 238.72229 241.09761
 243.72394 245.98027 247.98760 249.75792 251.18025 252.30858 253.13590 253.45723
 253.49956 253.27889 252.64421 251.59754 250.20887 248.37519 246.28952 244.12785
 241.92418 239.73350 237.55883 235.40316 233.26848 231.14081 229.17214 227.33447
 225.62279 224.10012 222.73545 221.51278 220.40010 219.36543 218.47476 217.62108
 216.86841 216.05374 215.15707 214.52639 213.98172 213.72205 213.10851 212.84753
 212.55058 212.64632 213.78329 215.98195 218.60429 222.28879 228.06291 232.64499
 236.28659 240.25945 244.65500 249.29057 253.73238 257.04001 259.36734 261.36157
 263.67758 266.19516 268.63715 270.73129 272.92566 275.11490 276.87485 278.47141
 280.13800 281.66656 283.12094 284.48029 285.66241 286.71149 287.67001 288.54669
 289.33737 290.04977 290.67542 291.51822
 366.78100 356.34151 345.78002 334.65252 323.06203 311.26254 299.13905 286.94855
 274.66706 262.57057 250.58608 239.89358 230.02209 221.13260 213.32111 206.32961
 200.17012 195.11463 191.70314 189.75164 188.79515 188.86566 189.70717 191.02168
 192.75318 194.85469 197.12420 199.48971 201.94121 204.42772 206.52223 208.37074
 210.00324 211.15475 211.39026 211.62477 211.56827 211.27978 210.91929 210.55580
 210.17930 209.89581 209.71032 209.58083 209.51534 209.85284 210.24535 210.64086
 211.44037 212.62487 213.88138 215.67089 217.60540 219.65490 221.75641 223.84592
 225.91243 228.00293 230.10644 232.21895 234.35446 236.53296 238.79547 241.17198
 243.79949 246.05700 248.06550 249.83701 251.26052 252.39003 253.21853 253.54104
 253.58455 253.36506 252.73156 251.68607 250.29858 248.46609 246.38159 244.22110
 242.01861 239.82912 237.65562 235.50113 233.36764 231.24115 229.27366 227.43716
 225.72667 224.20518 222.84169 221.62019 220.50870 219.47521 218.58572 217.73322
 216.98173 216.16824 215.27275 214.64325 214.09976 213.81151 213.13051 212.91309
 212.57245 212.76512 213.86035 216.04982 218.67114 222.24974 227.98854 232.54579
 236.19006 240.18944 244.62314 249.27101 253.67021 256.92889 259.21182 261.18161
 263.55460 266.10153 268.54001 270.68015 272.90369 275.09317 276.83112 278.42068
 280.11740 281.66800 283.14160 284.50177 285.68372 286.73102 287.69196 288.56647
 289.35620 290.06720 290.69598 291.53714
 366.78100 356.34269 345.78239 334.65608 323.06677 311.26846 299.14616 286.95685
 274.67654 262.58123 250.59793 239.90662 230.03631 221.14801 213.33770 206.34739
 200.18908 195.13478 191.72447 189.77416 188.81886 188.89055 189.73324 191.04893
 192.78163 194.88432 197.15501 199.52170 201.97440 204.46209 206.55778 208.40748
 210.04117 211.19386 211.43055 211.66625 211.61094 211.32363 210.96433 210.60202
 210.22671 209.94440 209.76010 209.63179 209.56748 209.90617 210.29987 210.69656
 211.49725 212.68295 213.94064 215.73133 217.66702 219.71772 221.82041 223.91110
 225.97880 228.07049 230.17518 232.28887 234.42557 236.60526 238.86895 241.24664
 243.87534 246.13403 248.14372 249.91642 251.34111 252.47180 253.30149 253.62519
 253.66988 253.45157 252.81926 251.77496 250.38865 248.55734 246.47404 244.31473
 242.11342 239.92511 237.75281 235.59950 233.46719 231.34189 229.37558 227.54027
 225.83096 224.31066 222.94835 221.72804 220.61773 219.58543 218.69712 217.84581
 217.09551 216.28320 215.38889 214.76058 214.21828 213.90059 213.15002 212.98029
 212.59601 212.86037 213.98648 216.11732 218.71072 222.20486 227.91130 232.44513
 236.09770 240.12447 244.59477 249.25140 253.60214 256.81158 259.05127 260.99927
 263.43314 266.01001 268.44611 270.63168 272.88565 275.07361 276.79004 278.37119
 280.09732 281.66373 283.16409 284.52496 285.70477 286.75311 287.71225 288.58591
 289.37543 290.08740 290.71326 291.55600
 366.78100 356.34347 345.78394 334.65841 323.06989 311.27236 299.15083 286.96230
 274.68277 262.58824 250.60571 239.91519 230.04566 221.15813 213.34860 206.35907
 200.20154 195.14801 191.73849 189.78896 188.83443 188.90690 189.75037 191.06684
 192.80031 194.90379 197.17526 199.54273 201.99620 204.48467 206.58114 208.43161
 210.06609 211.21956 211.45703 211.69350 211.63897 211.35244 210.99391 210.63239
 210.25786 209.97633 209.79280 209.66527 209.60174 209.94121 210.33569 210.73316
 211.53463 212.72110 213.97957 215.77104 217.70751 219.75899 221.86246 223.95393
 226.02240 228.11487 230.22034 232.33481 234.47229 236.65276 238.91723 241.29570
 243.92517 246.18464 248.19511 249.96859 251.39406 252.52553 253.35600 253.68047
 253.72594 253.50841 252.87689 251.83336 250.44783 248.61730 246.53477 244.37624
 242.17571 239.98819 237.81666 235.66413 233.53260 231.40807 229.44254 227.60801
 225.89949 224.37996 223.01843 221.79890 220.68937 219.65784 218.77031 217.91979
 217.17026 216.35873 215.46520 214.83767 214.29614 213.96858 213.19470 213.01680
 212.64275 212.94806 214.12175 216.18626 218.73669 222.15414 227.83090 232.35013
 236.01270 240.06801 244.57043 249.23045 253.52757 256.68661 258.88641 260.81812
 263.31421 265.92191 268.35660 270.58691 272.86880 275.05600 276.75061 278.32361
 280.07724 281.65744 283.18417 284.54303 285.72437 286.77151 287.73077 288.60330
 289.39511 290.10281 290.72974 291.57263
 366.78100 356.34405 345.78510 334.66015 323.07220 311.27525 299.15430 286.96635
 274.68740 262.59345 250.61150 239.92155 230.05260 221.16565 213.35670 206.36775
 200.21080 195.15785 191.74890 189.79994 188.84599 188.91904 189.76309 191.08014
 192.81419 194.91824 197.19029 199.55834 202.01239 204.50144 206.59849 208.44954
 210.08459 211.23864 211.47669 211.71374 211.65979 211.37384 211.01589 210.65494
 210.28099 210.00004 209.81709 209.69014 209.62719 209.96724 210.36229 210.76034
 211.56239 212.74944 214.00849 215.80054 217.73759 219.78964 221.89369 223.98574
 226.05479 228.14783 230.25388 232.36893 234.50698 236.68803 238.95308 241.33213
 243.96218 246.22223 248.23328 250.00733 251.43338 252.56543 253.39648 253.72153
 253.76758 253.55063 252.91968 251.87673 250.49178 248.66183 246.57988 244.42193
 242.22198 240.03503 237.86408 235.71213 233.58118 231.45723 229.49228 227.65833
 225.95038 224.43143 223.07048 221.85153 220.74258 219.71163 218.82467 217.97472
 217.22577 216.41482 215.52187 214.89492 214.35397 214.02560 213.24979 213.03757
 212.70345 213.03639 214.24745 216.26210 218.75624 222.10739 227.75130 232.25990
 235.93488 240.01738 244.54851 249.20567 253.44424 256.55322 258.71762 260.64139
 263.19974 265.83759 268.27191 270.54575 272.85315 275.03766 276.71112 278.27670
 280.05521 281.65494 283.19632 284.55731 285.73758 286.78558 287.74350 288.61603
 289.40652 290.11615 290.74109 291.58121
 366.78100 356.34469 345.78638 334.66206 323.07475 311.27844 299.15813 286.97082
 274.69250 262.59919 250.61788 239.92857 230.06026 221.17394 213.36563 206.37732
 200.22101 195.16870 191.76038 189.81207 188.85876 188.93245 189.77714 191.09482
 192.82951 194.93420 197.20689 199.57558 202.03026 204.51995 206.61764 208.46933
 210.10502 211.25970 211.49839 211.73608 211.68277 211.39746 211.04014 210.67983
 210.30652 210.02621 209.84390 209.71758 209.65527 209.99596 210.39165 210.79034
 211.59302 212.78071 214.04040 215.83309 217.77078 219.82346 221.92815 224.02084
 226.09053 228.18422 230.29090 232.40659 234.54528 236.72697 238.99266 241.37234
 244.00303 246.26372 248.27541 250.05010 251.47678 252.60947 253.44116 253.76685
 253.81354 253.59722 252.96691 251.92460 250.54029 248.71098 246.62966 244.47235
 242.27304 240.08673 237.91642 235.76510 233.63479 231.51148 229.54717 227.71386
 226.00654 224.48823 223.12792 221.90961 220.80130 219.77098 218.88467 218.03536
 217.28705 216.47674 215.58442 214.95811 214.41780 214.08447 213.29695 213.06212
 212.76974 213.12367 214.36613 216.34175 218.76363 222.06558 227.67819 232.17270
 235.86072 239.97084 244.52689 249.17430 253.35158 256.41061 258.54736 260.47208
 263.09070 265.75800 268.19293 270.50848 272.83810 275.01968 276.67218 278.23175
 280.03030 281.65427 283.19891 284.56128 285.74258 286.78979 287.74786 288.62082
 289.41220 290.11951 290.74612 291.58609
 366.78100 356.34541 345.78781 334.66422 323.07762 311.28203 299.16244 286.97584
 274.69825 262.60566 250.62506 239.93647 230.06887 221.18328 213.37569 206.38809
 200.23250 195.18091 191.77331 189.82572 188.87312 188.94753 189.79294 191.11134
 192.84675 194.95216 197.22556 199.59497 202.05037 204.54078 206.63919 208.49159
 210.12800 211.28341 211.52281 211.76122 211.70862 211.42403 211.06744 210.70784
 210.33525 210.05566 209.87406 209.74847 209.68687 210.02828 210.42469 210.82409
 211.62750 212.81591 214.07631 215.86972 217.80812 219.86153 221.96694 224.06034
 226.13075 228.22516 230.33256 232.44897 234.58837 236.77078 239.03719 241.41759
 244.04900 246.31041 248.32281 250.09822 251.52562 252.65903 253.49144 253.81784
 253.86525 253.64966 253.02006 251.97847 250.59487 248.76628 246.68569 244.52909
 242.33050 240.14491 237.97531 235.82472 233.69512 231.57253 229.60894 227.77634
 226.06975 224.55216 223.19256 221.97497 220.86737 219.83778 218.95219 218.10359
 217.35600 216.54641 215.65481 215.02922 214.48962 214.14600 213.33415 213.09050
 212.84290 213.21080 214.47798 216.41626 218.76503 222.02736 227.60791 232.08644
 235.79027 239.92906 244.50436 249.13544 253.24860 256.26071 258.37799 260.31409
 262.98767 265.68161 268.12173 270.47504 272.82361 275.00290 276.63806 278.19104
 280.00391 281.64856 283.19388 284.55585 285.73767 286.78616 287.74371 288.61530
 289.40527 290.11557 290.74106 291.58090
 366.78100 356.34616 345.78932 334.66648 323.08063 311.28579 299.16695 286.98111
 274.70427 262.61243 250.63258 239.94474 230.07790 221.19306 213.38622 206.39938
 200.24454 195.19369 191.78685 189.84001 188.88817 188.96333 189.80949 191.12865
 192.86480 194.97096 197.24512 199.61528 202.07144 204.56260 206.66175 208.51491
 210.15207 211.30823 211.54839 211.78755 211.73571 211.45186 211.09602 210.73718
 210.36534 210.08650 209.90566 209.78082 209.71997 210.06213 210.45929 210.85945
 211.66361 212.85277 214.11392 215.90808 217.84724 219.90140 222.00756 224.10172
 226.17288 228.26803 230.37619 232.49335 234.63351 236.81667 239.08383 241.46499
 244.09714 246.35930 248.37246 250.14862 251.57678 252.71094 253.54409 253.87125
 253.91941 253.70457 253.07573 252.03489 250.65205 248.82420 246.74436 244.58852
 242.39068 240.20584 238.03700 235.88716 233.75831 231.63647 229.67363 227.84179
 226.13595 224.61911 223.26026 222.04342 220.93658 219.90774 219.02290 218.17506
 217.42822 216.61937 215.72853 215.10369 214.56485 214.20781 213.36426 213.12167
 212.92670 213.29155 214.58321 216.48643 218.76279 221.99396 227.53792 231.99948
 235.72324 239.89183 244.48123 249.08739 253.13553 256.10330 258.20987 260.16858
 262.89307 265.61188 268.05869 270.44534 272.81046 274.98801 276.60944 278.15533
 279.97443 281.63309 283.17804 284.53995 285.72290 286.76962 287.72781 288.60037
 289.39066 290.09967 290.72336 291.56644
 366.78100 356.34686 345.79073 334.66859 323.08346 311.28932 299.17119 286.98605
 274.70992 262.61878 250.63965 239.95251 230.08638 221.20224 213.39611 206.40997
 200.25584 195.20570 191.79957 189.85343 188.90230 188.97816 189.82503 191.14489
 192.88176 194.98862 197.26349 199.63435 202.09122 204.58308 206.68294 208.53681
 210.17467 211.33154 211.57240 211.81227 211.76113 211.47800 211.12286 210.76473
 210.39359 210.11546 209.93532 209.81119 209.75105 210.09392 210.49178 210.89265
 211.69751 212.88738 214.14924 215.94411 217.88397 219.93884 222.04570 224.14057
 226.21243 228.30830 230.41716 232.53502 234.67589 236.85975 239.12762 241.50948
 244.14235 246.40521 248.41908 250.19594 251.62481 252.75967 253.59354 253.92140
 253.97027 253.75613 253.12800 252.08786 250.70573 248.87859 246.79946 244.64432
 242.44719 240.26305 238.09492 235.94578 233.81765 231.69651 229.73438 227.90324
 226.19810 224.68197 223.32383 222.10770 221.00156 219.97343 219.08929 218.24216
 217.49602 216.68789 215.79775 215.17362 214.63548 214.26576 213.39226 213.15468
 213.01761 213.37112 214.67917 216.55038 218.76425 221.96017 227.46136 231.91380
 235.66426 239.86230 244.45770 249.03088 253.01195 255.93663 258.03992 260.03439
 262.80426 265.54758 268.00681 270.42270 272.80240 274.97919 276.58841 278.12399
 279.94174 281.60745 283.15182 284.51443 285.69479 286.74408 287.70084 288.57458
 289.36310 290.07385 290.69711 291.53418
 366.78100 356.34758 345.79217 334.67075 323.08634 311.29292 299.17551 286.99109
 274.71568 262.62526 250.64685 239.96043 230.09502 221.21160 213.40618 206.42077
 200.26735 195.21794 191.81252 189.86711 188.91669 188.99328 189.84086 191.16145
 192.89903 195.00661 197.28220 199.65378 202.11137 204.60395 206.70454 208.55912
 210.19771 211.35529 211.59688 211.83746 211.78705 211.50463 211.15021 210.79280
 210.42238 210.14497 209.96555 209.84214 209.78272 210.12631 210.52489 210.92648
 211.73206 212.92264 214.18523 215.98081 217.92140 219.97698 222.08457 224.18015
 226.25274 228.34932 230.45891 232.57749 234.71908 236.90366 239.17224 241.55483
 244.18841 246.45200 248.46658 250.24417 251.67375 252.80934 253.64392 253.97251
 254.02209 253.80867 253.18126 252.14184 250.76043 248.93401 246.85560 244.70118
 242.50477 240.32135 238.15394 236.00552 233.87811 231.75769 229.79627 227.96586
 226.26144 224.74603 223.38861 222.17320 221.06778 220.04037 219.15695 218.31054
 217.56512 216.75770 215.86829 215.24487 214.70746 214.32283 213.41411 213.19588
 213.11420 213.44443 214.77396 216.60487 218.74820 221.92667 227.39053 231.83438
 235.61307 239.83971 244.43335 248.96381 252.87535 255.75723 257.86560 259.90948
 262.72235 265.48972 267.96585 270.40860 272.80115 274.97882 276.57587 278.09695
 279.90372 281.57120 283.11511 284.47772 285.65918 286.70660 287.66415 288.53711
 289.32736 290.03601 290.66086 291.49893
 366.78100 356.34818 345.79336 334.67254 323.08872 311.29589 299.17907 286.99525
 274.72043 262.63061 250.65279 239.96697 230.10215 221.21933 213.41450 206.42968
 200.27686 195.22804 191.82322 189.87840 188.92858 189.00576 189.85394 191.17512
 192.91329 195.02147 197.29765 199.66983 202.12801 204.62119 206.72237 208.57755
 210.21673 211.37490 211.61708 211.85826 211.80844 211.52662 211.17280 210.81598
 210.44616 210.16934 209.99051 209.86769 209.80887 210.15305 210.55223 210.95441
 211.76059 212.95177 214.21495 216.01112 217.95230 220.00848 222.11666 224.21284
 226.28602 228.38320 230.49338 232.61256 234.75473 236.93991 239.20909 241.59227
 244.22645 246.49063 248.50581 250.28399 251.71417 252.85035 253.68552 254.01470
 254.06488 253.85206 253.22524 252.18642 250.80560 248.97978 246.90196 244.74813
 242.55231 240.36949 238.20267 236.05485 233.92803 231.80821 229.84739 228.01757
 226.31374 224.79892 223.44210 222.22728 221.12246 220.09564 219.21282 218.36700
 217.62218 216.81535 215.92653 215.30371 214.76689 214.37244 213.44051 213.23529
 213.22490 213.50920 214.85031 216.65385 218.75102 221.89497 227.30804 231.75446
 235.56837 239.82338 244.40762 248.88737 252.73036 255.57121 257.69199 259.79532
 262.64603 265.43643 267.93390 270.39935 272.80341 274.98325 276.56882 278.07172
 279.86044 281.52475 283.06824 284.43045 285.61319 286.66095 287.61880 288.49023
 289.28119 289.98990 290.61496 291.45197
 366.78100 356.34902 345.79503 334.67505 323.09207 311.30009 299.18410 287.00112
 274.72714 262.63816 250.66117 239.97619 230.11221 221.23023 213.42624 206.44226
 200.29028 195.24230 191.83831 189.89433 188.94535 189.02337 189.87238 191.19440
 192.93342 195.04243 197.31945 199.69247 202.15149 204.64550 206.74752 208.60354
 210.24356 211.40257 211.64559 211.88761 211.83863 211.55764 211.20466 210.84868
 210.47970 210.20371 210.02573 209.90375 209.84576 210.19078 210.59080 210.99382
 211.80083 212.99285 214.25687 216.05389 217.99590 220.05292 222.16194 224.25896
 226.33297 228.43099 230.54201 232.66203 234.80504 236.99106 239.26108 241.64510
 244.28011 246.54513 248.56115 250.34016 251.77118 252.90820 253.74422 254.07423
 254.12525 253.91327 253.28729 252.24930 250.86932 249.04434 246.96736 244.81437
 242.61939 240.43741 238.27143 236.12444 233.99846 231.87948 229.91950 228.09051
 226.38753 224.87355 223.51756 222.30358 221.19960 220.17362 219.29163 218.44665
 217.70267 216.89669 216.00870 215.38672 214.85074 214.43285 213.44551 213.30461
 213.31796 213.58003 214.93565 216.69699 218.72427 221.85223 227.23943 231.69315
 235.53680 239.81586 244.38176 248.80188 252.57378 255.37245 257.51141 259.68695
 262.57278 265.38538 267.90945 270.39648 272.81134 274.99451 276.57413 278.05463
 279.81738 281.47018 283.01303 284.37558 285.55817 286.60556 287.56421 288.43661
 289.22684 289.93640 290.56061 291.39404
 366.78100 356.34958 345.79616 334.67675 323.09433 311.30291 299.18749 287.00507
 274.73166 262.64324 250.66682 239.98240 230.11898 221.23757 213.43415 206.45073
 200.29931 195.25189 191.84848 189.90506 188.95664 189.03522 189.88480 191.20739
 192.94697 195.05655 197.33413 199.70771 202.16729 204.66188 206.76446 208.62104
 210.26162 211.42120 211.66479 211.90737 211.85895 211.57853 211.22611 210.87070
 210.50228 210.22686 210.04944 209.92802 209.87061 210.21619 210.61677 211.02035
 211.82793 213.02052 214.28510 216.08268 218.02526 220.08284 222.19243 224.29001
 226.36459 228.46317 230.57475 232.69534 234.83892 237.02550 239.29608 241.68066
 244.31625 246.58183 248.59841 250.37799 251.80957 252.94716 253.78374 254.11432
 254.16590 253.95448 253.32907 252.29165 250.91223 249.08781 247.01139 244.85897
 242.66456 240.48314 238.31772 236.17130 234.04588 231.92747 229.96805 228.13963
 226.43721 224.92379 223.56838 222.35496 221.25154 220.22612 219.34470 218.50029
 217.75687 216.95145 216.06403 215.44261 214.90720 214.47925 213.46815 213.33798
 213.46141 213.64154 215.01247 216.72900 218.71199 221.82384 227.15417 231.61856
 235.50198 239.80566 244.34660 248.69939 252.39952 255.15915 257.32791 259.58856
 262.50775 265.34531 267.90076 270.40616 272.83151 275.02332 276.60306 278.05579
 279.77820 281.40976 282.95071 284.31442 285.49585 286.54349 287.50293 288.37573
 289.16595 289.87354 290.49930 291.33990
 366.78100 356.34915 345.79530 334.67546 323.09261 311.30076 299.18491 287.00207
 274.72822 262.63937 250.66252 239.97768 230.11383 221.23198 213.42813 206.44429
 200.29244 195.24459 191.84074 189.89690 188.94805 189.02620 189.87535 191.19751
 192.93666 195.04581 197.32296 199.69612 202.15527 204.64942 206.75157 208.60773
 210.24788 211.40703 211.65018 211.89233 211.84349 211.56264 211.20979 210.85394
 210.48510 210.20925 210.03140 209.90955 209.85171 210.19686 210.59701 211.00016
 211.80732 212.99947 214.26362 216.06077 218.00293 220.06008 222.16923 224.26638
 226.34054 228.43869 230.54984 232.66999 234.81315 236.99930 239.26945 241.65360
 244.28876 246.55391 248.57006 250.34921 251.78036 252.91752 253.75367 254.08382
 254.13497 253.92313 253.29728 252.25943 250.87958 249.05474 246.97789 244.82504
 242.63019 240.44835 238.28250 236.13565 234.00980 231.89096 229.93111 228.10226
 226.39941 224.88557 223.52972 222.31587 221.21202 220.18618 219.30433 218.45948
 217.71563 216.90979 216.02194 215.40009 214.86424 214.47461 213.55405 213.32570
 213.58887 213.72046 215.04651 216.81750 218.71800 221.74493 227.06105 231.54922
 235.47285 239.79979 244.31021 248.59196 252.22647 254.95465 257.16122 259.50861
 262.45413 265.31436 267.90317 270.42276 272.85693 275.05811 276.64157 278.06656
 279.74194 281.34680 282.88562 284.24881 285.43152 286.47943 287.43774 288.31259
 289.10022 289.81058 290.43536 291.27258
 366.78100 356.34891 345.79483 334.67474 323.09165 311.29957 299.18348 287.00039
 274.72630 262.63722 250.66013 239.97504 230.11096 221.22887 213.42478 206.44070
 200.28861 195.24052 191.83643 189.89235 188.94326 189.02117 189.87009 191.19200
 192.93091 195.03983 197.31674 199.68965 202.14856 204.64248 206.74439 208.60030
 210.24022 211.39913 211.64204 211.88396 211.83487 211.55378 211.20069 210.84461
 210.47552 210.19943 210.02135 209.89926 209.84117 210.18609 210.58600 210.98891
 211.79582 212.98774 214.25165 216.04856 217.99048 220.04739 222.15630 224.25322
 226.32713 228.42504 230.53595 232.65587 234.79878 236.98469 239.25461 241.63852
 244.27343 246.53835 248.55426 250.33317 251.76409 252.90100 253.73691 254.06682
 254.11774 253.90565 253.27956 252.24148 250.86139 249.03630 246.95922 244.80613
 242.61104 240.42895 238.26287 236.11578 233.98969 231.87061 229.91052 228.08143
 226.37835 224.86426 223.50817 222.29408 221.19000 220.16391 219.28182 218.43674
 217.69265 216.88656 215.99848 215.37639 214.84030 214.47687 213.61823 213.35895
 213.68103 213.80258 215.04329 216.88083 218.74176 221.67050 226.97736 231.49924
 235.45963 239.80467 244.27774 248.48628 252.05858 254.75734 257.00168 259.43655
 262.40204 265.28152 267.90305 270.43469 272.87747 275.08658 276.67410 278.07639
 279.70740 281.28348 282.81827 284.18265 285.36484 286.41360 287.37207 288.24539
 289.03717 289.74371 290.37079 291.20767
 366.78100 356.34909 345.79518 334.67527 323.09236 311.30045 299.18454 287.00163
 274.72772 262.63881 250.66190 239.97699 230.11308 221.23117 213.42726 206.44335
 200.29144 195.24353 191.83962 189.89571 188.94680 189.02489 189.87398 191.19607
 192.93516 195.04425 197.32134 199.69443 202.15352 204.64761 206.74970 208.60579
 210.24588 211.40497 211.64806 211.89015 211.84124 211.56033 211.20742 210.85151
 210.48260 210.20669 210.02878 209.90687 209.84896 210.19405 210.59414 210.99723
 211.80432 212.99641 214.26050 216.05759 217.99968 220.05677 222.16586 224.26295
 226.33704 228.43513 230.54622 232.66631 234.80940 236.99549 239.26558 241.64967
 244.28476 246.54985 248.56594 250.34503 251.77612 252.91321 253.74930 254.07939
 254.13048 253.91857 253.29266 252.25475 250.87484 249.04993 246.97302 244.82011
 242.62520 240.44329 238.27738 236.13047 234.00456 231.88565 229.92574 228.09683
 226.39392 224.88001 223.52410 222.31019 221.20628 220.18037 219.29846 218.45355
 217.70964 216.90373 216.01582 215.39391 214.85800 214.49792 213.64720 213.43777
 213.74437 213.88243 215.03946 216.92433 218.76395 221.60817 226.90773 231.46698
 235.45888 239.81596 244.24487 248.37556 251.88591 254.55373 256.83704 259.36276
 262.34595 265.24295 267.89685 270.44156 272.89328 275.11099 276.70297 278.08734
 279.67587 281.22125 282.75290 284.11688 285.29822 286.34897 287.30701 288.18076
 288.97107 289.67868 290.30414 291.14331
 366.78100 356.34926 345.79553 334.67579 323.09305 311.30132 299.18558 287.00284
 274.72910 262.64037 250.66363 239.97889 230.11516 221.23342 213.42968 206.44595
 200.29421 195.24647 191.84273 189.89900 188.95026 189.02852 189.87779 191.20005
 192.93931 195.04858 197.32584 199.69910 202.15837 204.65263 206.75489 208.61115
 210.25142 211.41068 211.65394 211.89621 211.84747 211.56673 211.21400 210.85826
 210.48952 210.21379 210.03605 209.91431 209.85657 210.20184 210.60210 211.00536
 211.81263 213.00489 214.26915 216.06642 218.00868 220.06594 222.17520 224.27247
 226.34673 228.44499 230.55626 232.67652 234.81978 237.00605 239.27631 241.66057
 244.29584 246.56110 248.57736 250.35662 251.78789 252.92515 253.76141 254.09168
 254.14294 253.93120 253.30547 252.26773 250.88799 249.06325 246.98652 244.83378
 242.63904 240.45731 238.29157 236.14483 234.01910 231.90036 229.94062 228.11189
 226.40915 224.89541 223.53967 222.32594 221.22220 220.19646 219.31473 218.46999
 217.72625 216.92052 216.03278 215.41104 214.87531 214.51726 213.67134 213.52760
 213.80031 213.95848 215.05721 216.95723 218.76042 221.55283 226.85132 231.44382
 235.46191 239.82701 244.20639 248.25545 251.70393 254.34247 256.66891 259.28854
 262.28824 265.20178 267.88937 270.44675 272.90778 275.13593 276.73502 278.10452
 279.65118 281.16327 282.68954 284.05392 285.23624 286.28470 287.24442 288.11838
 288.90894 289.61981 290.24301 291.07693
 366.78100 356.34924 345.79549 334.67573 323.09298 311.30122 299.18546 287.00271
 274.72895 262.64020 250.66344 239.97869 230.11493 221.23317 213.42942 206.44566
 200.29391 195.24615 191.84239 189.89864 188.94988 189.02813 189.87737 191.19962
 192.93886 195.04810 197.32535 199.69859 202.15784 204.65208 206.75432 208.61057
 210.25081 211.41006 211.65330 211.89554 211.84679 211.56603 211.21328 210.85752
 210.48877 210.21301 210.03525 209.91350 209.85574 210.20099 210.60123 211.00447
 211.81172 213.00396 214.26821 216.06545 218.00769 220.06494 222.17418 224.27143
 226.34567 228.44392 230.55516 232.67540 234.81865 237.00489 239.27514 241.65938
 244.29462 246.55987 248.57611 250.35536 251.78660 252.92385 253.76009 254.09033
 254.14158 253.92982 253.30407 252.26631 250.88655 249.06180 246.98504 244.83229
 242.63753 240.45577 238.29002 236.14326 234.01751 231.89875 229.93900 228.11024
 226.40748 224.89373 223.53797 222.32422 221.22046 220.19470 219.31295 218.46819
 217.72444 216.91868 216.03092 215.40917 214.87341 214.52577 213.70441 213.60941
 213.86461 214.02884 215.09244 216.98203 218.73581 221.50684 226.80434 231.42316
 235.46506 239.83360 244.15915 248.12625 251.51454 254.12811 256.50241 259.21527
 262.23016 265.15894 267.87970 270.44943 272.92084 275.16016 276.76843 278.12790
 279.63431 281.11520 282.63159 283.99539 285.17792 286.22610 287.18604 288.05991
 288.85184 289.56021 290.18488 291.01773
 366.78100 356.34911 345.79522 334.67532 323.09243 311.30054 299.18465 287.00176
 274.72786 262.63897 250.66208 239.97719 230.11330 221.23140 213.42751 206.44362
 200.29173 195.24384 191.83994 189.89605 188.94716 189.02527 189.87438 191.19648
 192.93559 195.04470 197.32181 199.69492 202.15402 204.64813 206.75024 208.60635
 210.24646 211.40556 211.64867 211.89078 211.84189 211.56100 211.20810 210.85221
 210.48332 210.20743 210.02954 209.90764 209.84975 210.19486 210.59497 210.99808
 211.80519 212.99729 214.26140 216.05851 218.00062 220.05773 222.16683 224.26394
 226.33805 228.43616 230.54727 232.66737 234.81048 236.99659 239.26670 241.65081
 244.28591 246.55102 248.56713 250.34624 251.77735 252.91445 253.75056 254.08067
 254.13178 253.91989 253.29399 252.25610 250.87621 249.05132 246.97443 244.82153
 242.62664 240.44475 238.27886 236.13197 234.00607 231.88718 229.92729 228.09840
 226.39551 224.88161 223.52572 222.31183 221.20794 220.18205 219.30015 218.45526
 217.71137 216.90548 216.01759 215.39569 214.85980 214.52711 213.74110 213.68474
 213.93794 214.09662 215.13470 217.00014 218.70576 221.47171 226.76064 231.40205
 235.46608 239.83475 244.10439 247.98930 251.32199 253.91518 256.34015 259.14279
 262.17014 265.11273 267.86389 270.44598 272.92899 275.17938 276.79852 278.15161
 279.62469 281.07608 282.57959 283.94318 285.12656 286.17377 287.13394 288.00739
 288.79807 289.50601 290.13297 290.96609
 366.78100 356.34896 345.79493 334.67489 323.09185 311.29981 299.18378 287.00074
 274.72670 262.63767 250.66063 239.97559 230.11155 221.22952 213.42548 206.44144
 200.28941 195.24137 191.83733 189.89330 188.94426 189.02222 189.87118 191.19315
 192.93211 195.04107 197.31804 199.69100 202.14996 204.64392 206.74589 208.60185
 210.24181 211.40078 211.64374 211.88570 211.83666 211.55563 211.20259 210.84655
 210.47752 210.20148 210.02344 209.90141 209.84337 210.18833 210.58829 210.99126
 211.79822 212.99018 214.25415 216.05111 217.99307 220.05003 222.15900 224.25596
 226.32992 228.42789 230.53885 232.65881 234.80177 236.98774 239.25770 241.64166
 244.27663 246.54159 248.55755 250.33652 251.76748 252.90444 253.74040 254.07037
 254.12133 253.90929 253.28326 252.24522 250.86518 249.04014 246.96311 244.81007
 242.61503 240.43300 238.26696 236.11992 233.99388 231.87485 229.91481 228.08577
 226.38274 224.86870 223.51266 222.29862 221.19459 220.16855 219.28651 218.44148
 217.69744 216.89140 216.00337 215.38133 214.84529 214.52705 213.77521 213.75703
 214.02124 214.17165 215.17241 217.01071 218.68434 221.44705 226.71761 231.38211
 235.46579 239.82982 244.04144 247.84653 251.12648 253.70454 256.18274 259.06918
 262.10843 265.06290 267.84094 270.43570 272.92987 275.19098 276.81995 278.17303
 279.61807 281.04602 282.53690 283.89923 285.08209 286.12982 287.08899 287.96411
 288.75461 289.46237 290.08664 290.92206
 366.78100 356.34881 345.79462 334.67443 323.09124 311.29906 299.18287 286.99968
 274.72549 262.63630 250.65911 239.97392 230.10973 221.22755 213.42336 206.43917
 200.28698 195.23879 191.83460 189.89041 188.94122 189.01904 189.86785 191.18966
 192.92847 195.03728 197.31409 199.68690 202.14571 204.63953 206.74134 208.59715
 210.23696 211.39577 211.63858 211.88039 211.83120 211.55002 211.19683 210.84064
 210.47145 210.19526 210.01707 209.89488 209.83669 210.18151 210.58132 210.98413
 211.79094 212.98275 214.24656 216.04337 217.98518 220.04200 222.15081 224.24762
 226.32143 228.41924 230.53005 232.64986 234.79267 236.97849 239.24830 241.63211
 244.26692 246.53173 248.54754 250.32635 251.75716 252.89398 253.72979 254.05960
 254.11041 253.89822 253.27203 252.23384 250.85365 249.02847 246.95128 244.79809
 242.60290 240.42071 238.25452 236.10733 233.98114 231.86196 229.90177 228.07258
 226.36939 224.85520 223.49901 222.28482 221.18063 220.15445 219.27226 218.42707
 217.68288 216.87669 215.98850 215.36631 214.83012 214.52534 213.80530 213.82964
 214.10568 214.25365 215.22014 217.02332 218.66588 221.42383 226.67221 231.36287
 235.46335 239.81660 243.96776 247.69551 250.92851 253.49829 256.03226 258.99564
 262.04507 265.01010 267.81110 270.41791 272.92303 275.19382 276.83264 278.18948
 279.61655 281.02838 282.50104 283.86288 285.04504 286.09189 287.05219 287.92429
 288.71350 289.42307 290.05029 290.88101
 366.78100 356.34867 345.79434 334.67401 323.09068 311.29836 299.18203 286.99870
 274.72437 262.63504 250.65771 239.97238 230.10805 221.22573 213.42140 206.43707
 200.28474 195.23641 191.83208 189.88775 188.93842 189.01609 189.86477 191.18644
 192.92511 195.03378 197.31045 199.68312 202.14179 204.63546 206.73713 208.59281
 210.23248 211.39115 211.63382 211.87549 211.82616 211.54483 211.19150 210.83518
 210.46585 210.18952 210.01119 209.88886 209.83053 210.17520 210.57487 210.97754
 211.78422 212.97589 214.23956 216.03623 217.97790 220.03457 222.14324 224.23991
 226.31359 228.41126 230.52193 232.64160 234.78427 236.96994 239.23961 241.62328
 244.25795 246.52263 248.53830 250.31697 251.74764 252.88431 253.71998 254.04965
 254.10032 253.88799 253.26167 252.22334 250.84301 249.01768 246.94035 244.78702
 242.59169 240.40936 238.24304 236.09571 233.96938 231.85005 229.88972 228.06039
 226.35706 224.84273 223.48640 222.27208 221.16775 220.14142 219.25909 218.41376
 217.66943 216.86310 215.97477 215.35245 214.81612 214.52304 213.83060 213.90054
 214.19511 214.34360 215.27406 217.04010 218.65598 221.39882 226.62512 231.34502
 235.45952 239.79503 243.88293 247.53734 250.72791 253.29807 255.89003 258.92136
 261.98062 264.95404 267.77264 270.39072 272.90732 275.18646 276.83319 278.19696
 279.61591 281.01599 282.48282 283.84491 285.02695 286.07559 287.03534 287.91196
 288.70969 289.42514 290.05515 290.89206
 366.78100 356.34862 345.79423 334.67385 323.09046 311.29808 299.18169 286.99831
 274.72392 262.63454 250.65715 239.97177 230.10739 221.22500 213.42062 206.43623
 200.28385 195.23546 191.83108 189.88669 188.93731 189.01492 189.86354 191.18516
 192.92377 195.03239 197.30900 199.68162 202.14023 204.63385 206.73546 208.59108
 210.23069 211.38931 211.63193 211.87354 211.82416 211.54277 211.18939 210.83300
 210.46362 210.18723 210.00885 209.88647 209.82808 210.17270 210.57231 210.97493
 211.78154 212.97316 214.23677 216.03339 217.97500 220.03162 222.14024 224.23685
 226.31047 228.40808 230.51870 232.63831 234.78093 236.96654 239.23616 241.61977
 244.25439 246.51901 248.53462 250.31324 251.74385 252.88047 253.71608 254.04570
 254.09631 253.88393 253.25754 252.21916 250.83878 249.01339 246.93601 244.78262
 242.58724 240.40485 238.23847 236.09108 233.96470 231.84531 229.88493 228.05555
 226.35216 224.83778 223.48139 222.26701 221.16262 220.13624 219.25385 218.40847
 217.66409 216.85770 215.96932 215.34693 214.81055 214.52440 213.84837 213.96834
 214.29411 214.43457 215.33612 217.06215 218.64447 221.37987 226.58636 231.33234
 235.45477 239.76544 243.78766 247.36993 250.52217 253.10033 255.75275 258.84457
 261.91275 264.89288 267.72415 270.35471 272.88330 275.16983 276.82278 278.19995
 279.61798 281.01370 282.47742 283.83890 285.02170 286.07098 287.03159 287.91019
 288.70642 289.42685 290.05890 290.89471
 366.78100 356.34863 345.79426 334.67390 323.09053 311.29816 299.18179 286.99842
 274.72405 262.63469 250.65732 239.97195 230.10758 221.22521 213.42085 206.43648
 200.28411 195.23574 191.83137 189.88700 188.93764 189.01527 189.86390 191.18553
 192.92416 195.03279 197.30943 199.68206 202.14069 204.63432 206.73595 208.59159
 210.23122 211.38985 211.63248 211.87411 211.82474 211.54338 211.19001 210.83364
 210.46427 210.18790 210.00954 209.88717 209.82880 210.17343 210.57306 210.97569
 211.78233 212.97396 214.23759 216.03422 217.97585 220.03249 222.14112 224.23775
 226.31138 228.40901 230.51964 232.63928 234.78191 236.96754 239.23717 241.62080
 244.25543 246.52007 248.53570 250.31433 251.74496 252.88159 253.71723 254.04686
 254.09749 253.88512 253.25875 252.22038 250.84002 249.01465 246.93728 244.78391
 242.58854 240.40618 238.23981 236.09244 233.96607 231.84670 229.88633 228.05697
 226.35360 224.83923 223.48286 222.26849 221.16413 220.13776 219.25539 218.41002
 217.66565 216.85928 215.97092 215.34855 214.81218 214.52998 213.86325 214.02672
 214.40489 214.53336 215.38737 217.09134 218.65433 221.36664 226.54913 231.32091
 235.44646 239.72610 243.68063 247.19511 250.31372 252.90836 255.62308 258.76630
 261.84229 264.82730 267.66653 270.31058 272.85126 275.14072 276.80087 278.19513
 279.62067 281.01715 282.48154 283.84256 285.02560 286.07446 287.03360 287.91281
 288.71088 289.43124 290.06470 290.89944
 366.78100 356.34882 345.79465 334.67447 323.09129 311.29911 299.18294 286.99976
 274.72558 262.63641 250.65923 239.97405 230.10987 221.22770 213.42352 206.43934
 200.28717 195.23899 191.83481 189.89063 188.94146 189.01928 189.86810 191.18993
 192.92875 195.03757 197.31439 199.68722 202.14604 204.63986 206.74169 208.59751
 210.23733 211.39615 211.63898 211.88080 211.83162 211.55044 211.19727 210.84109
 210.47191 210.19574 210.01756 209.89538 209.83720 210.18203 210.58185 210.98467
 211.79150 212.98332 214.24714 216.04396 217.98579 220.04261 222.15143 224.24826
 226.32208 228.41990 230.53072 232.65055 234.79337 236.97919 239.24902 241.63284
 244.26766 246.53248 248.54831 250.32713 251.75795 252.89478 253.73060 254.06042
 254.11124 253.89907 253.27289 252.23471 250.85454 249.02936 246.95218 244.79900
 242.60383 240.42165 238.25547 236.10830 233.98212 231.86294 229.90276 228.07359
 226.37041 224.85623 223.50006 222.28588 221.18170 220.15552 219.27335 218.42817
 217.68399 216.87782 215.98964 215.36746 214.83128 214.54463 213.86739 214.08684
 214.50272 214.64050 215.46701 217.12558 218.64607 221.35579 226.52266 231.31526
 235.43848 239.68134 243.56697 247.01526 250.10452 252.72244 255.49969 258.68564
 261.76913 264.75583 267.59958 270.25647 272.81042 275.09576 276.76517 278.18085
 279.62466 281.02872 282.49274 283.85172 285.03445 286.08292 287.04233 287.91858
 288.72061 289.43839 290.07275 290.90640
 366.78100 356.34888 345.79476 334.67464 323.09153 311.29941 299.18329 287.00017
 274.72605 262.63693 250.65981 239.97470 230.11058 221.22846 213.42434 206.44022
 200.28810 195.23998 191.83587 189.89175 188.94263 189.02051 189.86939 191.19127
 192.93015 195.03904 197.31592 199.68880 202.14768 204.64156 206.74344 208.59932
 210.23921 211.39809 211.64097 211.88285 211.83373 211.55261 211.19949 210.84338
 210.47426 210.19814 210.02002 209.89790 209.83978 210.18466 210.58455 210.98743
 211.79431 212.98619 214.25007 216.04695 217.98883 220.04572 222.15460 224.25148
 226.32536 228.42324 230.53412 232.65400 234.79689 236.98277 239.25265 241.63653
 244.27141 246.53629 248.55217 250.33106 251.76194 252.89882 253.73470 254.06458
 254.11546 253.90334 253.27723 252.23911 250.85899 249.03387 246.95675 244.80363
 242.60851 240.42640 238.26028 236.11316 233.98704 231.86792 229.90780 228.07868
 226.37557 224.86145 223.50533 222.29121 221.18709 220.16097 219.27885 218.43374
 217.68962 216.88350 215.99538 215.37326 214.83714 214.55260 213.88031 214.12244
 214.61955 214.74977 215.52939 217.18690 218.67889 221.35876 226.49556 231.30779
 235.42366 239.62260 243.43568 246.82042 249.88406 252.53552 255.37964 258.60294
 261.69434 264.68283 267.53067 270.20169 272.76654 275.04779 276.72693 278.16782
 279.62866 281.04349 282.50864 283.86755 285.04810 286.09674 287.05542 287.93167
 288.73090 289.45511 290.08774 290.91882
 366.78100 356.34863 345.79426 334.67388 323.09051 311.29814 299.18177 286.99839
 274.72402 262.63465 250.65728 239.97190 230.10753 221.22516 213.42079 206.43642
 200.28404 195.23567 191.83130 189.88693 188.93755 189.01518 189.86381 191.18544
 192.92406 195.03269 197.30932 199.68195 202.14057 204.63420 206.73583 208.59146
 210.23109 211.38971 211.63234 211.87397 211.82460 211.54322 211.18985 210.83348
 210.46411 210.18773 210.00936 209.88699 209.82862 210.17325 210.57287 210.97550
 211.78213 212.97376 214.23738 216.03401 217.97564 220.03227 222.14089 224.23752
 226.31115 228.40878 230.51941 232.63903 234.78166 236.96729 239.23692 241.62054
 244.25517 246.51980 248.53543 250.31405 251.74468 252.88131 253.71694 254.04656
 254.09719 253.88482 253.25845 252.22008 250.83970 249.01433 246.93696 244.78359
 242.58821 240.40584 238.23947 236.09210 233.96572 231.84635 229.88598 228.05661
 226.35324 224.83886 223.48249 222.26812 221.16375 220.13737 219.25500 218.40963
 217.66526 216.85888 215.97051 215.34814 214.81177 214.54367 213.91025 214.13094
 214.72073 214.90968 215.64481 217.22786 218.68365 221.34286 226.46747 231.29477
 235.40019 239.54936 243.29030 246.61836 249.66714 252.36430 255.27457 258.52936
 261.62970 264.61923 267.46909 270.15271 272.72626 275.00177 276.69562 278.16245
 279.64053 281.06754 282.52563 283.88391 285.06421 286.11127 287.06873 287.94568
 288.74585 289.46814 290.10452 290.93292
 366.78100 356.34851 345.79402 334.67353 323.09004 311.29755 299.18106 286.99757
 274.72308 262.63359 250.65610 239.97061 230.10612 221.22363 213.41914 206.43466
 200.28217 195.23368 191.82919 189.88470 188.93521 189.01272 189.86123 191.18274
 192.92125 195.02976 197.30627 199.67878 202.13729 204.63080 206.73231 208.58782
 210.22733 211.38584 211.62835 211.86986 211.82037 211.53888 211.18539 210.82890
 210.45941 210.18292 210.00443 209.88194 209.82345 210.16797 210.56748 210.96999
 211.77650 212.96801 214.23152 216.02803 217.96954 220.02605 222.13456 224.23107
 226.30458 228.40209 230.51260 232.63211 234.77462 236.96013 239.22964 241.61315
 244.24766 246.51217 248.52768 250.30619 251.73670 252.87321 253.70872 254.03823
 254.08874 253.87625 253.24976 252.21128 250.83079 249.00530 246.92781 244.77432
 242.57883 240.39634 238.22985 236.08236 233.95587 231.83638 229.87589 228.04640
 226.34291 224.82842 223.47193 222.25744 221.15295 220.12646 219.24397 218.39848
 217.65399 216.84750 215.95901 215.33652 214.80003 214.53952 213.92404 214.15953
 214.78787 215.05742 215.77370 217.27911 218.67395 221.32639 226.44078 231.28099
 235.37292 239.47086 243.14572 246.42656 249.47128 252.22131 255.19324 258.47223
 261.58005 264.56796 267.41333 270.10599 272.68161 274.94540 276.64951 278.14584
 279.64261 281.08942 282.54004 283.89557 285.07556 286.11957 287.07486 287.94940
 288.74731 289.46753 290.08997 290.90411
 366.78100 356.34866 345.79431 334.67397 323.09062 311.29828 299.18194 286.99859
 274.72425 262.63490 250.65756 239.97221 230.10787 221.22553 213.42118 206.43684
 200.28449 195.23615 191.83181 189.88746 188.93812 189.01577 189.86443 191.18609
 192.92474 195.03340 197.31005 199.68271 202.14137 204.63502 206.73668 208.59233
 210.23199 211.39064 211.63330 211.87496 211.82561 211.54427 211.19092 210.83458
 210.46524 210.18889 210.01055 209.88820 209.82986 210.17452 210.57417 210.97683
 211.78348 212.97514 214.23880 216.03545 217.97711 220.03376 222.14242 224.23907
 226.31273 228.41039 230.52104 232.64070 234.78335 236.96901 239.23867 241.62232
 244.25698 246.52163 248.53729 250.31595 251.74660 252.88326 253.71891 254.04857
 254.09923 253.88688 253.26054 252.22219 250.84185 249.01650 246.93916 244.78582
 242.59047 240.40813 238.24178 236.09444 233.96810 231.84875 229.88841 228.05906
 226.35572 224.84138 223.48503 222.27069 221.16634 220.14000 219.25766 218.41231
 217.66797 216.86162 215.97328 215.35093 214.81459 214.54645 213.91295 214.21477
 214.84198 215.17166 215.90010 217.33592 218.67192 221.32224 226.42033 231.27119
 235.34851 239.39563 243.00873 246.25003 249.29741 252.10175 255.12601 258.41901
 261.53036 264.51178 267.35144 270.05042 272.62640 274.87323 276.58774 278.11465
 279.63846 281.10626 282.54843 283.89941 285.07468 286.11777 287.07108 287.94089
 288.73883 289.45810 290.07156 290.88083
 366.78100 356.34887 345.79473 334.67460 323.09147 311.29933 299.18320 287.00007
 274.72594 262.63680 250.65967 239.97454 230.11040 221.22827 213.42414 206.44000
 200.28787 195.23974 191.83560 189.89147 188.94234 189.02021 189.86907 191.19094
 192.92981 195.03867 197.31554 199.68841 202.14727 204.64114 206.74301 208.59887
 210.23874 211.39761 211.64048 211.88234 211.83321 211.55208 211.19894 210.84281
 210.47368 210.19754 210.01941 209.89728 209.83915 210.18401 210.58388 210.98675
 211.79361 212.98548 214.24935 216.04621 217.98808 220.04495 222.15381 224.25068
 226.32455 228.42242 230.53328 232.65315 234.79602 236.98188 239.25175 241.63562
 244.27048 246.53535 248.55122 250.33008 251.76095 252.89782 253.73369 254.06355
 254.11442 253.90229 253.27615 252.23802 250.85789 249.03275 246.95562 244.80249
 242.60735 240.42522 238.25909 236.11196 233.98582 231.86669 229.90656 228.07742
 226.37429 224.86016 223.50402 222.28989 221.18576 220.15962 219.27749 218.43236
 217.68823 216.88209 215.99396 215.37183 214.83569 214.55473 213.89095 214.27811
 214.91544 215.26239 216.00650 217.37714 218.67519 221.32874 226.40950 231.26811
 235.32840 239.32706 242.88335 246.08740 249.14032 251.99846 255.06715 258.36929
 261.48190 264.45370 267.28241 269.98715 272.55673 274.78201 276.51123 278.08069
 279.63666 281.12341 282.55972 283.89389 285.06421 286.10400 287.05316 287.92197
 288.72003 289.43991 290.04996 290.85593
 366.78100 356.34879 345.79459 334.67438 323.09118 311.29897 299.18277 286.99956
 274.72536 262.63615 250.65895 239.97374 230.10954 221.22733 213.42313 206.43892
 200.28672 195.23851 191.83431 189.89010 188.94090 189.01869 189.86749 191.18928
 192.92808 195.03687 197.31367 199.68646 202.14526 204.63905 206.74085 208.59664
 210.23644 211.39523 211.63803 211.87982 211.83062 211.54941 211.19621 210.84000
 210.47080 210.19459 210.01639 209.89418 209.83598 210.18077 210.58057 210.98336
 211.79016 212.98195 214.24575 216.04254 217.98434 220.04113 222.14993 224.24672
 226.32052 228.41831 230.52910 232.64890 234.79169 236.97749 239.24728 241.63108
 244.26587 246.53067 248.54646 250.32526 251.75605 252.89285 253.72864 254.05844
 254.10923 253.89703 253.27082 252.23262 250.85241 249.02721 246.95000 244.79680
 242.60159 240.41939 238.25318 236.10598 233.97977 231.86057 229.90036 228.07116
 226.36795 224.85375 223.49754 222.28334 221.17913 220.15293 219.27072 218.42552
 217.68131 216.87511 215.98690 215.36470 214.82849 214.54544 213.87669 214.34143
 215.01469 215.36153 216.09714 217.40318 218.67465 221.32916 226.39513 231.25877
 235.29691 239.24110 242.74208 245.92041 248.98576 251.90132 255.01791 258.32678
 261.44025 264.40259 267.22415 269.93262 272.49512 274.70285 276.44113 278.03943
 279.61441 281.12680 282.55679 283.88028 285.04630 286.08487 287.03183 287.90060
 288.69864 289.41873 290.02689 290.82947
 366.78100 356.34802 345.79304 334.67207 323.08809 311.29511 299.17813 286.99416
 274.71918 262.62920 250.65122 239.96525 230.10027 221.21729 213.41231 206.42734
 200.27436 195.22538 191.82040 189.87542 188.92545 189.00247 189.85049 191.17151
 192.90954 195.01756 197.29358 199.66560 202.12363 204.61665 206.71767 208.57269
 210.21172 211.36974 211.61176 211.85278 211.80280 211.52083 211.16685 210.80987
 210.43989 210.16292 209.98394 209.86096 209.80198 210.14601 210.54503 210.94705
 211.75307 212.94410 214.20712 216.00314 217.94416 220.00019 222.10821 224.20423
 226.27725 228.37427 230.48430 232.60332 234.74534 236.93036 239.19939 241.58241
 244.21643 246.48045 248.49548 250.27350 251.70352 252.83954 253.67457 254.00359
 254.05361 253.84063 253.21365 252.17468 250.79370 248.96772 246.88974 244.73577
 242.53979 240.35681 238.18983 236.04186 233.91488 231.79490 229.83392 228.00395
 226.29997 224.78499 223.42801 222.21303 221.10806 220.08108 219.19810 218.35212
 217.60715 216.80017 215.91119 215.28821 214.75124 214.49765 213.89853 214.40755
 215.09631 215.45741 216.17795 217.42984 218.68619 221.33514 226.38492 231.25047
 235.26552 239.15666 242.60454 245.75542 248.84346 251.81926 254.96751 258.27814
 261.39056 264.34369 267.15430 269.86588 272.41727 274.61237 276.37793 278.01624
 279.63437 281.13718 282.55975 283.86456 285.01199 286.04523 286.98911 287.85657
 288.65607 289.36981 289.97888 290.78458
 366.78100 356.34756 345.79213 334.67069 323.08626 311.29282 299.17539 286.99095
 274.71552 262.62508 250.64665 239.96021 230.09478 221.21134 213.40591 206.42047
 200.26704 195.21760 191.81217 189.86673 188.91629 188.99286 189.84042 191.16099
 192.89855 195.00612 197.28168 199.65325 202.11081 204.60338 206.70394 208.55851
 210.19707 211.35464 211.59620 211.83677 211.78633 211.50390 211.14946 210.79203
 210.42159 210.14415 209.96472 209.84128 209.78185 210.12541 210.52398 210.92554
 211.73111 212.92167 214.18424 215.97980 217.92037 219.97593 222.08350 224.17906
 226.25163 228.34819 230.45776 232.57632 234.71788 236.90245 239.17101 241.55358
 244.18714 246.45071 248.46527 250.24284 251.67240 252.80797 253.64253 253.97110
 254.02066 253.80723 253.17979 252.14036 250.75892 248.93249 246.85405 244.69962
 242.50318 240.31974 238.15231 236.00387 233.87644 231.75600 229.79457 227.96413
 226.25970 224.74426 223.38683 222.17139 221.06596 220.03852 219.15509 218.30865
 217.56322 216.75578 215.86635 215.24291 214.70547 214.46465 213.89566 214.48007
 215.20700 215.57497 216.25922 217.44582 218.68820 221.33273 226.36705 231.23071
 235.21278 239.04800 242.45903 245.61372 248.71927 251.74796 254.94386 258.25504
 261.36395 264.30164 267.10495 269.80713 272.33163 274.47485 276.22714 277.91367
 279.54135 281.10922 282.52966 283.83060 284.97916 286.00482 286.94186 287.81293
 288.61603 289.32245 289.93106 290.73141
 366.78100 356.34630 345.78959 334.66689 323.08119 311.28649 299.16778 286.98208
 274.70538 262.61367 250.63397 239.94627 230.07957 221.19486 213.38816 206.40146
 200.24676 195.19605 191.78935 189.84265 188.89094 188.96624 189.81254 191.13184
 192.86813 194.97443 197.24873 199.61902 202.07532 204.56662 206.66592 208.51921
 210.15651 211.31281 211.55310 211.79240 211.74070 211.45700 211.10129 210.74259
 210.37089 210.09219 209.91148 209.78678 209.72608 210.06837 210.46567 210.86597
 211.67027 212.85956 214.12086 215.91516 217.85445 219.90875 222.01505 224.10935
 226.18064 228.27594 230.38424 232.50153 234.64183 236.82513 239.09243 241.47372
 244.10602 246.36832 248.38162 250.15791 251.58621 252.72051 253.55380 253.88110
 253.92940 253.71470 253.08599 252.04529 250.66259 248.83488 246.75518 244.59948
 242.40178 240.21707 238.04837 235.89867 233.76996 231.64826 229.68556 227.85386
 226.14815 224.63145 223.27275 222.05605 220.94934 219.92064 219.03594 218.18823
 217.44153 216.63283 215.74213 215.11742 214.57872 214.39120 213.94818 214.50868
 215.26833 215.69258 216.36658 217.50221 218.72211 221.35419 226.36363 231.21707
 235.16600 238.93788 242.28754 245.40807 248.56572 251.67706 254.87730 258.16980
 261.27151 264.20938 267.00299 269.71835 272.23822 274.40863 276.25653 277.95718
 279.60190 281.04968 282.45959 283.74225 284.87067 285.86707 286.77167 287.63928
 288.45300 289.15591 289.76575 290.56693
 366.78100 356.34320 345.78341 334.65761 323.06881 311.27102 299.14922 286.96042
 274.68063 262.58583 250.60303 239.91223 230.04244 221.15464 213.34484 206.35505
 200.19725 195.14345 191.73366 189.78386 188.82906 188.90127 189.74447 191.06067
 192.79388 194.89708 197.16828 199.53549 201.98869 204.47689 206.57310 208.42330
 210.05750 211.21070 211.44791 211.68411 211.62931 211.34252 210.98372 210.62192
 210.24713 209.96533 209.78153 209.65374 209.58994 209.92914 210.32335 210.72055
 211.52175 212.70796 213.96616 215.75736 217.69357 219.74477 221.84797 223.93917
 226.00738 228.09958 230.20478 232.31899 234.45619 236.63639 238.90060 241.27880
 243.90800 246.16721 248.17741 249.95061 251.37582 252.50702 253.33722 253.66143
 253.70663 253.48883 252.85704 251.81324 250.42744 248.59664 246.51385 244.35505
 242.15425 239.96646 237.79466 235.64186 233.51007 231.38527 229.41947 227.58468
 225.87588 224.35608 222.99429 221.77449 220.66469 219.63290 218.74510 217.89430
 217.14450 216.33271 215.43891 214.81111 214.26932 214.21986 214.10304 214.64867
 215.24870 215.64346 216.34874 217.49855 218.73251 221.38707 226.38548 231.24620
 235.17996 238.94797 242.31990 245.48012 248.59810 251.66603 254.89966 258.19321
 261.28238 264.17819 266.97687 269.67322 272.14856 274.24518 276.05359 277.77872
 279.48557 281.16089 282.53207 283.77744 284.87967 285.85281 286.75510 287.62097
 288.42194 289.11581 289.72028 290.51617
 366.78100 356.34215 345.78129 334.65444 323.06458 311.26573 299.14288 286.95302
 274.67217 262.57631 250.59246 239.90060 230.02975 221.14090 213.33004 206.33919
 200.18033 195.12548 191.71463 189.76377 188.80792 188.87906 189.72121 191.03636
 192.76850 194.87065 197.14079 199.50694 201.95909 204.44623 206.54138 208.39052
 210.02367 211.17581 211.41196 211.64711 211.59125 211.30340 210.94354 210.58069
 210.20484 209.92198 209.73713 209.60827 209.54342 209.88157 210.27471 210.67086
 211.47100 212.65615 213.91329 215.70344 217.63859 219.68873 221.79088 223.88102
 225.94817 228.03932 230.14346 232.25661 234.39275 236.57190 238.83505 241.21219
 243.84034 246.09848 248.10763 249.87977 251.30392 252.43407 253.26321 253.58636
 253.63050 253.41165 252.77880 251.73394 250.34709 248.51523 246.43138 244.27153
 242.06967 239.88082 237.70796 235.55411 233.42126 231.29540 229.32855 227.49269
 225.78284 224.26198 222.89913 221.67828 220.56742 219.53457 218.64571 217.79386
 217.04301 216.23015 215.33530 214.70644 214.16359 214.16193 214.16086 214.79593
 215.45798 215.73784 216.27505 217.30484 218.45184 221.16110 226.25081 231.16736
 235.06328 238.75500 242.07227 245.27394 248.72624 252.08362 255.19077 258.37268
 261.44418 264.32837 267.00577 269.60641 271.99673 274.03888 275.94507 277.90173
 279.26569 280.56396 281.90579 283.05795 284.05762 285.02411 285.96817 286.84818
 287.66577 288.39874 289.03604 289.84821
 366.78100 356.34522 345.78744 334.66367 323.07689 311.28111 299.16133 286.97456
 274.69678 262.60400 250.62322 239.93445 230.06667 221.18089 213.37311 206.38534
 200.22956 195.17778 191.77000 189.82223 188.86945 188.94367 189.78889 191.10711
 192.84234 194.94756 197.22078 199.59000 202.04523 204.53545 206.63367 208.48589
 210.12212 211.27734 211.51656 211.75478 211.70201 211.41723 211.06045 210.70067
 210.32789 210.04812 209.86634 209.74056 209.67878 210.02001 210.41623 210.81545
 211.61867 212.80690 214.06712 215.86034 217.79856 219.85179 221.95701 224.05023
 226.12045 228.21468 230.32190 232.43812 234.57734 236.75956 239.02579 241.40601
 244.03723 246.29845 248.31068 250.08590 251.51312 252.64634 253.47857 253.80479
 253.85201 253.63623 253.00646 251.96468 250.58090 248.75212 246.67135 244.51457
 242.31579 240.13001 237.96023 235.80946 233.67968 231.55690 229.59312 227.76035
 226.05357 224.53579 223.17601 221.95824 220.85046 219.82068 218.93490 218.08613
 217.33835 216.52857 215.63679 215.01101 214.47124 214.32191 214.02209 214.79987
 215.67769 215.89383 216.35320 217.23128 218.49361 221.22346 226.17183 231.05182
 234.78799 238.39616 241.70644 245.03461 248.59207 252.07021 255.28276 258.37183
 261.38687 264.23331 266.90735 269.43771 271.74594 273.89438 276.11423 277.75385
 279.06714 280.35922 281.58264 282.70264 283.72882 284.74338 285.57797 286.25870
 286.87094 287.41614 287.89243 288.49936
 366.78100 356.34859 345.79418 334.67377 323.09036 311.29795 299.18154 286.99814
 274.72373 262.63432 250.65691 239.97150 230.10709 221.22468 213.42027 206.43586
 200.28345 195.23504 191.83063 189.88622 188.93681 189.01441 189.86300 191.18459
 192.92318 195.03177 197.30836 199.68095 202.13954 204.63313 206.73472 208.59031
 210.22990 211.38849 211.63109 211.87268 211.82327 211.54186 211.18845 210.83204
 210.46263 210.18622 210.00781 209.88540 209.82699 210.17158 210.57117 210.97377
 211.78036 212.97195 214.23554 216.03213 217.97372 220.03031 222.13890 224.23549
 226.30908 228.40667 230.51726 232.63685 234.77944 236.96504 239.23463 241.61822
 244.25281 246.51740 248.53299 250.31158 251.74217 252.87876 253.71435 254.04394
 254.09453 253.88212 253.25572 252.21731 250.83690 249.01149 246.93408 244.78067
 242.58526 240.40285 238.23644 236.08903 233.96262 231.84321 229.88280 228.05340
 226.34999 224.83558 223.47917 222.26476 221.16035 220.13394 219.25153 218.40612
 217.66171 216.85530 215.96689 215.34448 214.80807 214.48944 213.80319 214.75668
 215.94078 216.16476 216.57172 217.36861 218.55518 221.23311 226.16452 231.02855
 234.74136 238.30321 241.59370 244.92905 248.55130 252.10805 255.28931 258.30963
 261.28116 264.13327 266.84421 269.43393 271.81628 273.74118 275.96970 277.68747
 279.21057 280.57440 281.76541 282.82556 283.77066 284.59802 285.41098 286.09021
 286.70111 287.24512 287.72037 288.32599
 366.78100 356.34987 345.79674 334.67762 323.09549 311.30436 299.18923 287.00710
 274.73398 262.64585 250.66972 239.98559 230.12246 221.24134 213.43821 206.45508
 200.30395 195.25682 191.85370 189.91057 188.96244 189.04131 189.89118 191.21406
 192.95393 195.06380 197.34167 199.71554 202.17542 204.67029 206.77316 208.63003
 210.27090 211.43078 211.67465 211.91752 211.86939 211.58927 211.23714 210.88201
 210.51388 210.23875 210.06163 209.94050 209.88337 210.22924 210.63011 211.03399
 211.84186 213.03473 214.29960 216.09747 218.04035 220.09822 222.20809 224.30596
 226.38083 228.47971 230.59158 232.71245 234.85632 237.04319 239.31407 241.69894
 244.33481 246.60068 248.61755 250.39743 251.82930 252.96717 253.80404 254.13491
 254.18679 253.97566 253.35053 252.31340 250.93427 249.11015 247.03402 244.88189
 242.68776 240.50663 238.34151 236.19538 234.07025 231.95212 229.99299 228.16487
 226.46274 224.94961 223.59448 222.38135 221.27823 220.25310 219.37197 218.52784
 217.78471 216.97959 216.09246 215.47133 214.93620 214.55344 213.67668 214.75835
 216.24777 216.50819 216.75604 217.47414 218.49565 221.13992 226.14320 230.96570
 234.68822 238.17932 241.44810 244.79305 248.41533 251.94348 255.08708 258.10419
 261.08490 263.96985 266.74603 269.40613 271.82880 273.85452 275.79675 277.71613
 279.29654 280.76279 282.01886 283.10165 284.04401 284.89413 285.77753 286.64343
 287.50107 288.30753 289.01202 289.90985
 366.78100 356.35047 345.79793 334.67940 323.09787 311.30734 299.19280 287.01127
 274.73874 262.65120 250.67567 239.99214 230.12961 221.24907 213.44654 206.46401
 200.31347 195.26694 191.86441 189.92188 188.97434 189.05381 189.90428 191.22774
 192.96821 195.07868 197.35715 199.73161 202.19208 204.68755 206.79101 208.64848
 210.28995 211.45042 211.69488 211.93835 211.89082 211.61128 211.25975 210.90522
 210.53768 210.26315 210.08662 209.96609 209.90955 210.25602 210.65749 211.06195
 211.87042 213.06389 214.32936 216.12782 218.07129 220.12976 222.24022 224.33869
 226.41416 228.51363 230.62609 232.74756 234.89203 237.07949 239.35096 241.73643
 244.37290 246.63936 248.65683 250.43730 251.86976 253.00823 253.84570 254.17717
 254.22963 254.01910 253.39457 252.35803 250.97950 249.15597 247.08044 244.92890
 242.73537 240.55484 238.39030 236.24477 234.12024 232.00271 230.04417 228.21664
 226.51511 225.00257 223.64804 222.43551 221.33298 220.30844 219.42791 218.58438
 217.84184 217.03731 216.15078 215.53025 214.99571 214.58450 213.61296 214.75565
 216.45285 216.84694 217.03844 217.58344 218.43269 221.08490 226.11650 230.87044
 234.55298 237.94427 241.19908 244.59148 248.23206 251.82722 254.95563 257.99219
 261.00592 263.88602 266.64389 269.29190 271.68134 273.79352 275.86115 277.61432
 279.16370 280.57382 281.87024 282.97031 283.92142 284.78296 285.64182 286.49078
 287.24011 287.75845 288.11456 288.56839
 366.78100 356.35027 345.79755 334.67882 323.09710 311.30637 299.19165 287.00992
 274.73719 262.64947 250.67374 239.99002 230.12729 221.24657 213.44384 206.46111
 200.31039 195.26366 191.86094 189.91821 188.97049 189.04976 189.90003 191.22331
 192.96358 195.07386 197.35213 199.72640 202.18668 204.68195 206.78523 208.64250
 210.28378 211.44405 211.68832 211.93160 211.88387 211.60415 211.25242 210.89770
 210.52997 210.25524 210.07852 209.95779 209.90107 210.24734 210.64862 211.05289
 211.86116 213.05444 214.31971 216.11799 218.06126 220.11954 222.22981 224.32808
 226.40336 228.50263 230.61491 232.73618 234.88046 237.06773 239.33900 241.72428
 244.36055 246.62683 248.64410 250.42437 251.85665 252.99492 253.83220 254.16347
 254.21575 254.00502 253.38029 252.34357 250.96484 249.14112 247.06539 244.91367
 242.71994 240.53921 238.37449 236.22876 234.10404 231.98631 230.02759 228.19986
 226.49813 224.98541 223.63068 222.41796 221.31523 220.29051 219.40978 218.56605
 217.82333 217.01860 216.13188 215.51115 214.97643 214.57472 213.62569 214.72415
 216.53812 217.10735 217.34131 217.70793 218.45796 221.11848 226.13007 230.80110
 234.39856 237.73309 241.00481 244.46146 248.14046 251.77940 254.93294 257.95926
 260.97534 263.84058 266.58435 269.23337 271.59454 273.67746 275.90219 277.58426
 279.06363 280.44720 281.72418 282.78397 283.69397 284.53940 285.37186 286.14560
 286.77725 287.20392 287.40839 287.55527
 366.78100 356.34965 345.79630 334.67695 323.09460 311.30325 299.18790 287.00555
 274.73220 262.64385 250.66750 239.98315 230.11980 221.23845 213.43510 206.45175
 200.30040 195.25305 191.84970 189.90635 188.95800 189.03665 189.88630 191.20895
 192.94860 195.05825 197.33590 199.70955 202.16920 204.66385 206.76650 208.62315
 210.26380 211.42345 211.66710 211.90975 211.86140 211.58105 211.22870 210.87335
 210.50500 210.22965 210.05230 209.93095 209.87360 210.21925 210.61990 211.02355
 211.83120 213.02385 214.28850 216.08615 218.02880 220.08645 222.19610 224.29375
 226.36840 228.46705 230.57870 232.69935 234.84300 237.02965 239.30030 241.68495
 244.32060 246.58625 248.60290 250.38255 251.81420 252.95185 253.78850 254.11915
 254.17080 253.95945 253.33410 252.29675 250.91740 249.09305 247.01670 244.86435
 242.67000 240.48865 238.32330 236.17695 234.05160 231.93325 229.97390 228.14555
 226.44320 224.92985 223.57450 222.36115 221.25780 220.23245 219.35110 218.50675
 217.76340 216.95805 216.07070 215.44935 214.91400 214.54257 213.66501 214.70059
 216.56561 217.24333 217.51730 217.79105 218.47778 221.11946 226.13379 230.75917
 234.29718 237.57120 240.84314 244.35335 248.04773 251.76569 254.93658 257.95041
 260.95990 263.81445 266.55716 269.22552 271.61884 273.60922 275.77960 277.48361
 279.04105 280.44772 281.67920 282.69492 283.54050 284.33047 285.14087 285.87531
 286.43832 286.79990 286.92636 286.92365
 366.78100 356.34937 345.79573 334.67610 323.09346 311.30183 299.18619 287.00356
 274.72992 262.64129 250.66465 239.98002 230.11638 221.23475 213.43111 206.44748
 200.29584 195.24821 191.84457 189.90094 188.95230 189.03067 189.88003 191.20240
 192.94176 195.05113 197.32849 199.70186 202.16122 204.65559 206.75795 208.61432
 210.25468 211.41405 211.65741 211.89978 211.85114 211.57051 211.21788 210.86224
 210.49361 210.21797 210.04034 209.91870 209.86107 210.20643 210.60680 211.01016
 211.81753 213.00989 214.27426 216.07162 218.01399 220.07135 222.18072 224.27808
 226.35245 228.45081 230.56218 232.68254 234.82591 237.01227 239.28264 241.66700
 244.30237 246.56773 248.58410 250.36346 251.79483 252.93219 253.76856 254.09892
 254.15029 253.93865 253.31302 252.27538 250.89575 249.07112 246.99448 244.84185
 242.64721 240.46558 238.29994 236.15331 234.02767 231.90904 229.94940 228.12077
 226.41813 224.90450 223.54886 222.33523 221.23159 220.20596 219.32432 218.47969
 217.73605 216.93042 216.04278 215.42115 214.88551 214.52797 213.68324 214.68008
 216.58459 217.34894 217.65680 217.84782 218.50394 221.14552 226.14432 230.72096
 234.20590 237.43187 240.70445 244.26779 247.98244 251.78101 254.95285 257.97491
 260.95105 263.77859 266.50836 269.19876 271.60825 273.58676 275.66107 277.43793
 278.99301 280.38217 281.57025 282.53143 283.33191 284.10431 284.90268 285.61545
 286.17389 286.54349 286.69232 286.73212
 366.78100 356.34936 345.79571 334.67607 323.09343 311.30178 299.18614 287.00349
 274.72985 262.64121 250.66456 239.97992 230.11628 221.23463 213.43099 206.44734
 200.29570 195.24806 191.84441 189.90077 188.95213 189.03048 189.87984 191.20219
 192.94155 195.05091 197.32826 199.70162 202.16098 204.65533 206.75769 208.61404
 210.25440 211.41376 211.65711 211.89947 211.85083 211.57018 211.21754 210.86190
 210.49325 210.21761 210.03996 209.91832 209.86068 210.20603 210.60639 211.00975
 211.81710 213.00946 214.27381 216.07117 218.01353 220.07088 222.18024 224.27760
 226.35195 228.45031 230.56166 232.68202 234.82538 237.01173 239.28209 241.66645
 244.30180 246.56716 248.58351 250.36287 251.79423 252.93158 253.76794 254.09830
 254.14965 253.93801 253.31236 252.27472 250.89508 249.07043 246.99379 244.84115
 242.64650 240.46486 238.29922 236.15257 234.02693 231.90828 229.94864 228.12000
 226.41735 224.90371 223.54807 222.33442 221.23078 220.20513 219.32349 218.47885
 217.73520 216.92956 216.04192 215.42027 214.88463 214.53023 213.69293 214.68896
 216.63820 217.46805 217.78566 217.89519 218.53020 221.16983 226.14038 230.65170
 234.07913 237.27396 240.57394 244.20703 247.95049 251.81660 254.96443 257.99780
 260.92508 263.71912 266.47083 269.19043 271.60733 273.57120 275.63046 277.38333
 278.90982 280.26172 281.39761 282.29800 283.05966 283.80673 284.57971 285.26443
 285.79773 286.14639 286.36301 286.53925
 366.78100 356.34923 345.79547 334.67570 323.09294 311.30117 299.18540 287.00264
 274.72887 262.64011 250.66334 239.97857 230.11481 221.23304 213.42927 206.44551
 200.29374 195.24598 191.84221 189.89844 188.94968 189.02791 189.87715 191.19938
 192.93861 195.04785 197.32508 199.69832 202.15755 204.65178 206.75402 208.61025
 210.25049 211.40972 211.65295 211.89519 211.84642 211.56565 211.21289 210.85712
 210.48836 210.21259 210.03482 209.91306 209.85529 210.20053 210.60076 211.00399
 211.81123 213.00346 214.26770 216.06493 218.00716 220.06440 222.17363 224.27086
 226.34510 228.44333 230.55457 232.67480 234.81803 237.00427 239.27450 241.65874
 244.29397 246.55920 248.57544 250.35467 251.78591 252.92314 253.75937 254.08961
 254.14084 253.92908 253.30331 252.26554 250.88578 249.06101 246.98424 244.83148
 242.63671 240.45495 238.28918 236.14241 234.01665 231.89788 229.93812 228.10935
 226.40658 224.89282 223.53705 222.32329 221.21952 220.19375 219.31199 218.46722
 217.72346 216.91769 216.02992 215.40816 214.87239 214.52261 213.69621 214.73399
 216.74127 217.61137 217.90717 217.93388 218.53732 221.16862 226.11150 230.55046
 233.91371 237.07430 240.41701 244.12662 247.92232 251.82307 254.97574 257.97418
 260.87408 263.68240 266.48425 269.17889 271.42963 273.53738 275.56586 277.30200
 278.77789 280.11365 281.21613 282.09561 282.81686 283.48453 284.20984 284.87854
 285.41013 285.74353 285.95087 286.02478
 366.78100 356.34894 345.79488 334.67482 323.09177 311.29971 299.18365 287.00059
 274.72653 262.63747 250.66041 239.97536 230.11130 221.22924 213.42518 206.44112
 200.28906 195.24100 191.83695 189.89289 188.94383 189.02177 189.87071 191.19265
 192.93159 195.04053 197.31748 199.69042 202.14936 204.64330 206.74524 208.60118
 210.24112 211.40007 211.64301 211.88495 211.83589 211.55483 211.20177 210.84571
 210.47666 210.20060 210.02254 209.90048 209.84242 210.18736 210.58730 210.99025
 211.79719 212.98913 214.25307 216.05001 217.99195 220.04889 222.15784 224.25478
 226.32872 228.42666 230.53760 232.65754 234.80048 236.98643 239.25637 241.64031
 244.27525 246.54019 248.55613 250.33507 251.76601 252.90296 253.73890 254.06884
 254.11978 253.90772 253.28166 252.24360 250.86355 249.03849 246.96143 244.80837
 242.61331 240.43125 238.26519 236.11814 233.99208 231.87302 229.91296 228.08390
 226.38084 224.86678 223.51073 222.29667 221.19261 220.16655 219.28449 218.43943
 217.69537 216.88932 216.00126 215.37920 214.84314 214.50714 213.71332 214.76106
 216.82950 217.75636 218.03793 217.99010 218.54634 221.16086 226.07646 230.44347
 233.73697 236.84531 240.21568 243.97777 247.90750 251.87822 255.07797 257.99814
 260.88101 263.73138 266.48541 269.05536 271.23047 273.56305 275.48514 277.15714
 278.61948 279.95819 281.05316 281.92798 282.63165 283.24854 283.92596 284.57971
 285.10580 285.44406 285.60458 285.75485
 366.78100 356.34844 345.79388 334.67332 323.08976 311.29720 299.18064 286.99707
 274.72251 262.63295 250.65539 239.96983 230.10527 221.22271 213.41815 206.43359
 200.28103 195.23247 191.82791 189.88335 188.93378 189.01122 189.85966 191.18110
 192.91954 195.02798 197.30442 199.67686 202.13530 204.62874 206.73018 208.58562
 210.22506 211.38349 211.62593 211.86737 211.81781 211.53625 211.18269 210.82613
 210.45657 210.18001 210.00145 209.87889 209.82033 210.16477 210.56420 210.96664
 211.77308 212.96452 214.22796 216.02440 217.96584 220.02228 222.13072 224.22716
 226.30060 228.39804 230.50848 232.62791 234.77035 236.95579 239.22523 241.60867
 244.24311 246.50755 248.52299 250.30143 251.73187 252.86831 253.70375 254.03319
 254.08362 253.87106 253.24450 252.20594 250.82538 248.99982 246.92226 244.76870
 242.57314 240.39058 238.22402 236.07646 233.94990 231.83033 229.86977 228.04021
 226.33665 224.82209 223.46553 222.25097 221.14641 220.11985 219.23729 218.39173
 217.64717 216.84061 215.95204 215.32948 214.79292 214.48428 213.75508 214.76778
 216.87057 217.88359 218.18016 218.08382 218.59201 221.17538 226.05647 230.35988
 233.59494 236.66273 240.04544 243.83577 247.93929 251.88263 255.07396 257.95975
 260.84561 263.71744 266.47147 268.95746 271.32437 273.60175 275.43732 277.01993
 278.51846 279.85599 280.94412 281.81482 282.50568 283.09177 283.72482 284.33878
 284.85553 285.19254 285.34854 285.65915
 366.78100 356.34818 345.79336 334.67254 323.08872 311.29590 299.17908 286.99526
 274.72044 262.63062 250.65280 239.96698 230.10216 221.21934 213.41452 206.42970
 200.27687 195.22805 191.82323 189.87841 188.92859 189.00577 189.85395 191.17513
 192.91331 195.02149 197.29767 199.66985 202.12803 204.62121 206.72239 208.57757
 210.21675 211.37493 211.61711 211.85829 211.80847 211.52665 211.17283 210.81601
 210.44619 210.16937 209.99055 209.86773 209.80891 210.15309 210.55227 210.95444
 211.76062 212.95180 214.21498 216.01116 217.95234 220.00852 222.11670 224.21288
 226.28606 228.38324 230.49342 232.61260 234.75478 236.93996 239.20914 241.59232
 244.22650 246.49068 248.50586 250.28404 251.71422 252.85040 253.68558 254.01476
 254.06494 253.85212 253.22530 252.18648 250.80566 248.97984 246.90201 244.74819
 242.55237 240.36955 238.20273 236.05491 233.92809 231.80827 229.84745 228.01763
 226.31381 224.79899 223.44217 222.22735 221.12253 220.09571 219.21289 218.36707
 217.62225 216.81543 215.92661 215.30379 214.76697 214.47275 213.77763 214.77470
 216.90974 217.98445 218.29709 218.16586 218.63071 221.18649 226.04216 230.29526
 233.48497 236.52225 239.92021 243.74686 247.97340 251.87561 255.09195 257.86154
 260.73642 263.63202 266.44241 268.98444 271.24359 273.50430 275.35992 277.01593
 278.50769 279.82486 280.89740 281.75015 282.42361 282.99313 283.59760 284.19278
 284.69870 285.00720 285.14426 285.42294
 366.78100 356.34851 345.79402 334.67353 323.09004 311.29755 299.18105 286.99756
 274.72307 262.63358 250.65609 239.97060 230.10611 221.22362 213.41913 206.43464
 200.28215 195.23365 191.82916 189.88467 188.93518 189.01269 189.86120 191.18271
 192.92122 195.02973 197.30624 199.67875 202.13726 204.63076 206.73227 208.58778
 210.22729 211.38580 211.62831 211.86982 211.82033 211.53884 211.18535 210.82886
 210.45936 210.18287 210.00438 209.88189 209.82340 210.16791 210.56742 210.96993
 211.77644 212.96795 214.23146 216.02796 217.96947 220.02598 222.13449 224.23100
 226.30451 228.40202 230.51253 232.63204 234.77455 236.96006 239.22957 241.61307
 244.24758 246.51209 248.52760 250.30611 251.73662 252.87313 253.70864 254.03815
 254.08866 253.87617 253.24967 252.21118 250.83069 249.00520 246.92771 244.77422
 242.57873 240.39624 238.22975 236.08226 233.95577 231.83627 229.87578 228.04629
 226.34280 224.82831 223.47182 222.25733 221.15284 220.12635 219.24386 218.39837
 217.65388 216.84738 215.95889 215.33640 214.79991 214.49873 213.78714 214.76857
 216.98033 218.10275 218.39775 218.20998 218.63008 221.16885 226.00920 230.21078
 233.36234 236.38300 239.81007 243.69240 247.99188 251.86247 255.08214 257.79272
 260.66382 263.56036 266.37750 269.00110 271.29407 273.49359 275.35565 277.02145
 278.48013 279.76840 280.82074 281.66736 282.34677 282.93585 283.53610 284.14230
 284.67859 284.96896 285.13208 285.38925
 366.78100 356.34846 345.79392 334.67338 323.08985 311.29731 299.18077 286.99723
 274.72269 262.63315 250.65562 239.97008 230.10554 221.22300 213.41846 206.43392
 200.28138 195.23285 191.82831 189.88377 188.93423 189.01169 189.86015 191.18161
 192.92008 195.02854 197.30500 199.67746 202.13592 204.62938 206.73085 208.58631
 210.22577 211.38423 211.62669 211.86815 211.81861 211.53708 211.18354 210.82700
 210.45746 210.18092 210.00238 209.87984 209.82131 210.16577 210.56523 210.96769
 211.77415 212.96561 214.22908 216.02554 217.96700 220.02346 222.13192 224.22838
 226.30184 228.39931 230.50977 232.62923 234.77169 236.95715 239.22661 241.61007
 244.24454 246.50900 248.52446 250.30292 251.73338 252.86984 253.70531 254.03477
 254.08523 253.87269 253.24615 252.20761 250.82707 249.00154 246.92400 244.77046
 242.57492 240.39238 238.22584 236.07831 233.95177 231.83223 229.87169 228.04215
 226.33861 224.82407 223.46754 222.25300 221.14846 220.12192 219.23938 218.39384
 217.64930 216.84277 215.95423 215.33169 214.79515 214.50948 213.83453 214.73952
 217.00154 218.21613 218.53023 218.28688 218.64545 221.15149 225.96530 230.10205
 233.20503 236.21286 239.69060 243.65128 248.00209 251.84523 255.04518 257.73828
 260.60284 263.48834 266.33115 268.95251 271.26248 273.48019 275.33899 276.98862
 278.40918 279.67548 280.71677 281.56494 282.25574 282.87366 283.50143 284.11548
 284.63400 284.89169 285.11020 285.40900
 366.78100 356.34695 345.79090 334.66886 323.08381 311.28976 299.17171 286.98666
 274.71062 262.61957 250.64052 239.95347 230.08743 221.20338 213.39733 206.41128
 200.25723 195.20719 191.80114 189.85509 188.90404 188.97999 189.82695 191.14690
 192.88385 194.99080 197.26575 199.63671 202.09366 204.58561 206.68556 208.53952
 210.17747 211.33442 211.57537 211.81532 211.76428 211.48123 211.12618 210.76813
 210.39708 210.11904 209.93899 209.81494 209.75489 210.09784 210.49580 210.89675
 211.70170 212.89165 214.15361 215.94856 217.88851 219.94346 222.05041 224.14537
 226.21732 228.31327 230.42222 232.54017 234.68113 236.86508 239.13303 241.51498
 244.14793 246.41089 248.42484 250.20179 251.63074 252.76570 253.59965 253.92760
 253.97655 253.76250 253.13446 252.09441 250.71236 248.88531 246.80626 244.65122
 242.45417 240.27012 238.10207 235.95302 233.82498 231.70393 229.74188 227.91083
 226.20579 224.68974 223.33169 222.11564 221.00959 219.98155 219.09750 218.25045
 217.50440 216.69635 215.80631 215.18226 214.64421 214.43959 213.95616 214.73221
 216.92860 218.24860 218.62030 218.37709 218.71321 221.18011 225.95189 230.02614
 233.07091 236.06369 239.58751 243.63858 248.02010 251.84366 255.03598 257.66293
 260.53775 263.45383 266.33661 268.84473 271.19232 273.46127 275.32825 276.95712
 278.34906 279.58188 280.60822 281.44809 282.13406 282.74069 283.35712 284.00647
 284.51443 284.74390 284.98752 285.30267
 366.78100 356.34514 345.78729 334.66343 323.07657 311.28072 299.16086 286.97401
 274.69615 262.60329 250.62244 239.93358 230.06572 221.17987 213.37201 206.38415
 200.22830 195.17644 191.76859 189.82073 188.86787 188.94202 189.78716 191.10530
 192.84045 194.94559 197.21873 199.58788 202.04302 204.53317 206.63131 208.48345
 210.11960 211.27474 211.51388 211.75203 211.69917 211.41431 211.05746 210.69760
 210.32475 210.04489 209.86303 209.73718 209.67532 210.01646 210.41261 210.81175
 211.61489 212.80304 214.06318 215.85633 217.79447 219.84761 221.95276 224.04590
 226.11604 228.21019 230.31733 232.43347 234.57262 236.75476 239.02091 241.40105
 244.03219 246.29334 248.30548 250.08062 251.50777 252.64091 253.47305 253.79920
 253.84634 253.63049 253.00063 251.95877 250.57492 248.74606 246.66520 244.50835
 242.30949 240.12363 237.95378 235.80292 233.67307 231.55021 229.58635 227.75350
 226.04664 224.52878 223.16893 221.95107 220.84321 219.81336 218.92750 218.07865
 217.33079 216.52093 215.62908 215.00322 214.46336 214.34938 214.08008 214.78806
 216.84935 218.22255 218.65919 218.42093 218.75186 221.21606 225.96030 229.98962
 232.98611 235.96768 239.52440 243.64780 248.02734 251.79892 254.96652 257.75769
 260.55368 263.49222 266.33966 268.72949 271.13071 273.41284 275.26657 276.88901
 278.28726 279.45230 280.46585 281.29300 281.96759 282.58963 283.26834 283.85141
 284.23779 284.56760 284.98083 285.52637
 366.78100 356.34387 345.78475 334.65962 323.07150 311.27437 299.15325 286.96512
 274.68600 262.59187 250.60974 239.91962 230.05049 221.16337 213.35424 206.36512
 200.20799 195.15486 191.74574 189.79661 188.84249 188.91536 189.75924 191.07611
 192.80999 194.91386 197.18573 199.55361 202.00748 204.49636 206.59323 208.44411
 210.07898 211.23286 211.47073 211.70760 211.65348 211.36735 211.00923 210.64810
 210.27398 209.99285 209.80973 209.68260 209.61947 209.95935 210.35422 210.75210
 211.55397 212.74085 213.99972 215.79159 217.72847 219.78034 221.88422 223.97609
 226.04497 228.13784 230.24372 232.35859 234.49646 236.67734 238.94221 241.32109
 243.95096 246.21084 248.22171 249.99559 251.42146 252.55333 253.38421 253.70908
 253.75496 253.53783 252.90671 251.86358 250.47846 248.64833 246.56620 244.40808
 242.20795 240.02083 237.84970 235.69758 233.56645 231.44232 229.47720 227.64307
 225.93495 224.41582 223.05470 221.83557 220.72645 219.69532 218.80819 217.95807
 217.20894 216.39782 215.50469 214.87757 214.33644 214.28725 214.17102 214.85925
 216.82146 218.20219 218.64684 218.41966 218.75359 221.22688 225.96289 229.95894
 232.92795 235.91229 239.49048 243.66975 248.04089 251.75270 254.90921 257.82593
 260.55212 263.46906 266.27216 268.69916 271.16791 273.28741 275.13403 276.79428
 278.22150 279.36905 280.37631 281.19690 281.85559 282.46857 283.17419 283.73129
 284.04190 284.41519 284.93265 285.62973
 366.78100 356.34311 345.78321 334.65732 323.06842 311.27053 299.14864 286.95974
 274.67985 262.58495 250.60206 239.91117 230.04127 221.15338 213.34348 206.35359
 200.19570 195.14180 191.73191 189.78201 188.82712 188.89923 189.74233 191.05844
 192.79154 194.89465 197.16576 199.53286 201.98597 204.47407 206.57018 208.42029
 210.05439 211.20750 211.44460 211.68071 211.62582 211.33892 210.98003 210.61813
 210.24324 209.96135 209.77745 209.64956 209.58566 209.92477 210.31887 210.71598
 211.51709 212.70319 213.96130 215.75240 217.68851 219.73962 221.84272 223.93383
 226.00193 228.09404 230.19915 232.31325 234.45036 236.63046 238.89457 241.27268
 243.90178 246.16089 248.17099 249.94410 251.36921 252.50031 253.33042 253.65452
 253.69963 253.48174 252.84984 251.80595 250.42005 248.58916 246.50627 244.34737
 242.14648 239.95858 237.78669 235.63380 233.50190 231.37701 229.41111 227.57622
 225.86733 224.34743 222.98554 221.76564 220.65575 219.62386 218.73596 217.88507
 217.13517 216.32328 215.42939 214.80149 214.25960 214.25058 214.22928 214.95068
 216.81737 218.21793 218.67575 218.41547 218.74063 221.22607 225.94164 229.88599
 232.83565 235.84308 239.45743 243.69177 248.04106 251.71609 254.88606 257.81503
 260.56943 263.45721 266.26477 268.77560 271.10892 273.24792 275.11337 276.78568
 278.22559 279.36237 280.36441 281.18961 281.84238 282.42871 283.13968 283.77307
 284.05624 284.35687 284.78024 285.46707
 366.78100 356.34234 345.78168 334.65502 323.06536 311.26670 299.14404 286.95438
 274.67372 262.57805 250.59439 239.90273 230.03207 221.14341 213.33275 206.34209
 200.18343 195.12877 191.71811 189.76745 188.81179 188.88313 189.72547 191.04081
 192.77315 194.87548 197.14582 199.51216 201.96450 204.45184 206.54718 208.39652
 210.02986 211.18220 211.41854 211.65388 211.59822 211.31056 210.95090 210.58824
 210.21258 209.92991 209.74525 209.61659 209.55193 209.89027 210.28361 210.67995
 211.48029 212.66563 213.92297 215.71331 217.64865 219.69899 221.80133 223.89167
 225.95901 228.05034 230.15468 232.26802 234.40436 236.58370 238.84704 241.22438
 243.85272 246.11106 248.12040 249.89274 251.31708 252.44742 253.27676 253.60010
 253.64444 253.42577 252.79311 251.74845 250.36179 248.53013 246.44647 244.28681
 242.08515 239.89649 237.72383 235.57017 233.43751 231.31185 229.34519 227.50953
 225.79987 224.27920 222.91654 221.69588 220.58522 219.55256 218.66390 217.81224
 217.06158 216.24892 215.35426 214.72560 214.18294 214.21786 214.30040 215.02065
 216.82036 218.26010 218.72610 218.41014 218.71625 221.20537 225.89120 229.77281
 232.69215 235.72105 239.37531 243.70058 248.03896 251.69383 254.86676 257.78403
 260.58908 263.44174 266.24036 268.79797 271.11871 273.23895 275.11691 276.78027
 278.20856 279.35764 280.34985 281.18567 281.85138 282.43546 283.23462 283.90280
 284.14975 284.44421 284.77191 285.44159
 366.78100 356.34215 345.78131 334.65446 323.06461 311.26577 299.14292 286.95307
 274.67223 262.57638 250.59254 239.90069 230.02984 221.14100 213.33015 206.33930
 200.18046 195.12561 191.71476 189.76392 188.80807 188.87922 189.72138 191.03653
 192.76868 194.87084 197.14099 199.50715 201.95930 204.44645 206.54161 208.39076
 210.02391 211.17607 211.41222 211.64737 211.59153 211.30368 210.94383 210.58099
 210.20514 209.92229 209.73745 209.60860 209.54376 209.88191 210.27506 210.67122
 211.47137 212.65652 213.91368 215.70383 217.63898 219.68914 221.79129 223.88144
 225.94860 228.03975 230.14390 232.25706 234.39321 236.57236 238.83552 241.21267
 243.84083 246.09898 248.10813 249.88029 251.30444 252.43459 253.26375 253.58690
 253.63105 253.41221 252.77936 251.73451 250.34767 248.51582 246.43197 244.27213
 242.07028 239.88144 237.70859 235.55474 233.42190 231.29605 229.32920 227.49336
 225.78351 224.26266 222.89982 221.67897 220.56812 219.53528 218.64643 217.79458
 217.04374 216.23089 215.33605 214.70720 214.16435 214.22087 214.35439 215.07988
 216.82408 218.29085 218.76962 218.38338 218.66727 221.18002 225.85210 229.67918
 232.57930 235.61874 239.33658 243.73575 248.05666 251.69235 254.86220 257.77603
 260.59280 263.41470 266.17053 268.74344 271.12186 273.24417 275.10855 276.75970
 278.15723 279.30988 280.28104 281.10547 281.76221 282.40134 283.23352 283.80066
 284.19101 284.68204 285.27811 286.15582
 366.78100 356.34319 345.78338 334.65757 323.06876 311.27095 299.14914 286.96034
 274.68053 262.58572 250.60291 239.91210 230.04229 221.15448 213.34467 206.35486
 200.19705 195.14324 191.73343 189.78363 188.82882 188.90101 189.74420 191.06039
 192.79358 194.89677 197.16796 199.53515 201.98834 204.47653 206.57272 208.42292
 210.05711 211.21030 211.44749 211.68368 211.62887 211.34206 210.98325 210.62144
 210.24663 209.96482 209.78101 209.65321 209.58940 209.92859 210.32278 210.71997
 211.52116 212.70735 213.96554 215.75673 217.69292 219.74411 221.84730 223.93849
 226.00669 228.09888 230.20407 232.31826 234.45545 236.63564 238.89983 241.27802
 243.90721 246.16640 248.17659 249.94978 251.37498 252.50617 253.33636 253.66055
 253.70574 253.48793 252.85612 251.81231 250.42650 248.59569 246.51288 244.35407
 242.15327 239.96546 237.79365 235.64084 233.50903 231.38422 229.41841 227.58360
 225.87479 224.35498 222.99317 221.77336 220.66356 219.63175 218.74394 217.89313
 217.14332 216.33151 215.43770 214.80989 214.26808 214.29512 214.35899 215.13072
 216.87697 218.30133 218.72946 218.25078 218.51945 221.09808 225.80180 229.61739
 232.48840 235.53276 239.32799 243.79134 248.09512 251.68756 254.85094 257.78122
 260.61581 263.42856 266.14703 268.70569 271.10767 273.24686 275.09781 276.77734
 278.16513 279.31003 280.25693 281.05255 281.68289 282.36551 283.18155 283.74622
 284.16470 284.59015 285.08612 285.81287
 366.78100 356.34424 345.78547 334.66071 323.07294 311.27618 299.15541 286.96765
 274.68888 262.59512 250.61335 239.92359 230.05482 221.16806 213.35929 206.37053
 200.21376 195.16100 191.75223 189.80347 188.84970 188.92294 189.76717 191.08441
 192.81864 194.92288 197.19511 199.56335 202.01758 204.50682 206.60405 208.45529
 210.09052 211.24476 211.48299 211.72023 211.66646 211.38070 211.02293 210.66217
 210.28841 210.00764 209.82488 209.69811 209.63535 209.97558 210.37082 210.76905
 211.57129 212.75852 214.01776 215.80999 217.74723 219.79946 221.90370 223.99593
 226.06517 228.15840 230.26464 232.37987 234.51811 236.69934 238.96458 241.34381
 243.97405 246.23428 248.24552 250.01975 251.44599 252.57822 253.40946 253.73469
 253.78093 253.56416 252.93340 251.89063 250.50587 248.67610 246.59434 244.43658
 242.23681 240.05005 237.87928 235.72752 233.59675 231.47299 229.50822 227.67446
 225.96669 224.44793 223.08716 221.86840 220.75963 219.72887 218.84210 217.99234
 217.24357 216.43281 215.54004 214.91328 214.37251 214.37576 214.38344 215.12503
 216.91696 218.31920 218.66695 218.06363 218.31090 220.97325 225.73044 229.56139
 232.40092 235.46069 239.32695 243.85132 248.14351 251.67532 254.83679 257.78503
 260.65610 263.46490 266.16440 268.71033 271.09167 273.21683 275.06351 276.76767
 278.19012 279.34451 280.29462 281.08295 281.72632 282.41818 283.27036 283.76166
 284.06750 284.54922 285.11340 285.83240
 366.78100 356.34358 345.78415 334.65873 323.07031 311.27289 299.15146 286.96304
 274.68362 262.58919 250.60677 239.91635 230.04692 221.15950 213.35008 206.36066
 200.20323 195.14981 191.74039 189.79096 188.83654 188.90912 189.75269 191.06927
 192.80285 194.90643 197.17800 199.54558 201.99916 204.48773 206.58431 208.43489
 210.06946 211.22304 211.46062 211.69720 211.64277 211.35635 210.99793 210.63650
 210.26208 209.98066 209.79723 209.66981 209.60639 209.94597 210.34054 210.73812
 211.53970 212.72627 213.98485 215.77643 217.71300 219.76458 221.86816 223.95974
 226.02831 228.12089 230.22647 232.34104 234.47862 236.65920 238.92378 241.30235
 243.93193 246.19151 248.20208 249.97566 251.40124 252.53281 253.36339 253.68797
 253.73355 253.51612 252.88470 251.84128 250.45585 248.62543 246.54301 244.38458
 242.18416 239.99674 237.82532 235.67289 233.54147 231.41705 229.45162 227.61720
 225.90878 224.38935 223.02793 221.80851 220.69909 219.66766 218.78024 217.92982
 217.18039 216.36897 215.47555 214.84812 214.30670 214.36032 214.48700 215.17377
 216.81296 218.27339 218.65796 218.01262 218.25757 220.95473 225.71513 229.51149
 232.34778 235.46564 239.38019 243.90532 248.15157 251.65044 254.81734 257.79865
 260.68176 263.49658 266.18912 268.71494 271.06296 273.15167 274.96167 276.72409
 278.17780 279.34076 280.29797 281.08432 281.71582 282.41522 283.26166 283.65091
 284.00690 284.54990 285.12885 285.86664
 366.78100 356.34175 345.78050 334.65326 323.06301 311.26376 299.14051 286.95027
 274.66902 262.57277 250.58852 239.89628 230.02503 221.13578 213.32453 206.33329
 200.17404 195.11879 191.70754 189.75630 188.80005 188.87080 189.71255 191.02730
 192.75906 194.86081 197.13056 199.49631 201.94807 204.43482 206.52957 208.37832
 210.01108 211.16283 211.39858 211.63333 211.57709 211.28884 210.92859 210.56534
 210.18909 209.90585 209.72060 209.59135 209.52610 209.86386 210.25661 210.65236
 211.45211 212.63687 213.89362 215.68337 217.61812 219.66788 221.76963 223.85938
 225.92613 228.01689 230.12064 232.23339 234.36914 236.54789 238.81065 241.18740
 243.81515 246.07290 248.08166 249.85341 251.27716 252.40691 253.23567 253.55842
 253.60217 253.38292 252.74968 251.70443 250.31718 248.48493 246.40068 244.24044
 242.03819 239.84894 237.67569 235.52145 233.38820 231.26195 229.29470 227.45846
 225.74821 224.22696 222.86371 221.64247 220.53122 219.49797 218.60872 217.75648
 217.00523 216.19198 215.29673 214.66748 214.12424 214.27966 214.64687 215.25638
 216.68127 218.20609 218.65862 218.01358 218.26758 220.96754 225.69284 229.42461
 232.27853 235.44427 239.40355 243.91168 248.09521 251.59061 254.78090 257.80057
 260.69107 263.51431 266.20029 268.69684 271.01044 273.08521 274.84854 276.65027
 278.09543 279.24396 280.19727 281.03534 281.79184 282.50797 283.14301 283.60452
 283.99353 284.53540 285.11166 285.84604
 366.78100 356.34116 345.77932 334.65149 323.06065 311.26081 299.13697 286.94613
 274.66430 262.56746 250.58262 239.88978 230.01794 221.12811 213.31627 206.32443
 200.16459 195.10875 191.69692 189.74508 188.78824 188.85840 189.69956 191.01373
 192.74489 194.84605 197.11521 199.48037 201.93154 204.41770 206.51186 208.36002
 209.99218 211.14335 211.37851 211.61267 211.55583 211.26699 210.90616 210.54232
 210.16548 209.88164 209.69580 209.56597 209.50013 209.83729 210.22945 210.62461
 211.42378 212.60794 213.86410 215.65326 217.58742 219.63659 221.73775 223.82691
 225.89307 227.98323 230.08640 232.19856 234.33372 236.51188 238.77404 241.15021
 243.77737 246.03453 248.04269 249.81385 251.23702 252.36618 253.19434 253.51650
 253.55966 253.33983 252.70599 251.66015 250.27231 248.43947 246.35464 244.19380
 241.99096 239.80112 237.62728 235.47245 233.33861 231.21177 229.24393 227.40709
 225.69626 224.17442 222.81058 221.58874 220.47690 219.44307 218.55323 217.70039
 216.94855 216.13471 215.23888 214.60904 214.06520 214.27472 214.76987 215.21132
 216.64716 218.24609 218.65919 217.90594 218.10030 220.86090 225.61630 229.33232
 232.12189 235.33963 239.36682 243.91217 248.04970 251.52750 254.74014 257.80774
 260.72687 263.54385 266.21149 268.67700 270.96249 273.01260 274.84348 276.60687
 278.06064 279.19409 280.10901 280.93051 281.72061 282.43625 283.04935 283.51471
 284.08514 284.76840 285.36523 286.12589
 366.78100 356.34205 345.78110 334.65415 323.06420 311.26525 299.14229 286.95234
 274.67139 262.57544 250.59149 239.89954 230.02859 221.13964 213.32869 206.33774
 200.17879 195.12384 191.71288 189.76193 188.80598 188.87703 189.71908 191.03413
 192.76618 194.86823 197.13828 199.50433 201.95638 204.44343 206.53847 208.38752
 210.02057 211.17262 211.40867 211.64372 211.58777 211.29982 210.93987 210.57692
 210.20097 209.91802 209.73306 209.60411 209.53916 209.87721 210.27026 210.66631
 211.46636 212.65141 213.90846 215.69851 217.63356 219.68361 221.78565 223.87570
 225.94275 228.03380 230.13785 232.25090 234.38695 236.56600 238.82905 241.20610
 243.83415 246.09220 248.10124 249.87329 251.29734 252.42739 253.25644 253.57949
 253.62354 253.40459 252.77164 251.72669 250.33974 248.50778 246.42383 244.26388
 242.06193 239.87298 237.70003 235.54608 233.41313 231.28718 229.32023 227.48428
 225.77433 224.25337 222.89042 221.66947 220.55852 219.52557 218.63662 217.78467
 217.03372 216.22077 215.32582 214.69687 214.15392 214.35643 214.83580 215.26898
 216.54422 217.93773 218.38493 217.86633 218.21832 220.87955 225.47299 229.30405
 232.06232 235.39149 239.42838 243.89195 247.98492 251.50467 254.74197 257.83096
 260.77451 263.58356 266.22137 268.65073 270.92496 272.93134 274.76303 276.51575
 277.98663 279.10995 280.00119 280.77734 281.55737 282.29163 283.17984 284.04974
 284.83215 285.52887 286.13751 286.91318
 366.78100 356.34327 345.78354 334.65781 323.06908 311.27135 299.14962 286.96089
 274.68116 262.58643 250.60370 239.91298 230.04325 221.15552 213.34579 206.35606
 200.19833 195.14460 191.73487 189.78514 188.83041 188.90268 189.74595 191.06222
 192.79549 194.89876 197.17003 199.53730 201.99057 204.47884 206.57511 208.42538
 210.05965 211.21293 211.45020 211.68647 211.63174 211.34501 210.98628 210.62455
 210.24982 209.96809 209.78436 209.65663 209.59290 209.93217 210.32644 210.72371
 211.52498 212.71125 213.96952 215.76079 217.69706 219.74833 221.85161 223.94288
 226.01115 228.10342 230.20869 232.32296 234.46023 236.64050 238.90477 241.28304
 243.91231 246.17158 248.18185 249.95512 251.38039 252.51166 253.34193 253.66620
 253.71147 253.49374 252.86201 251.81829 250.43256 248.60183 246.51910 244.36037
 242.15964 239.97191 237.80018 235.64745 233.51572 231.39099 229.42526 227.59053
 225.88180 224.36207 223.00034 221.78061 220.67088 219.63915 218.75142 217.90069
 217.15096 216.33924 215.44551 214.81778 214.27605 214.45476 214.88843 215.42311
 216.54814 217.75816 218.28152 218.03528 218.60126 221.12608 225.53621 229.25676
 232.05772 235.40303 239.49445 243.95346 247.99286 251.48505 254.73651 257.84729
 260.80051 263.60098 266.21811 268.64227 270.85712 272.77618 274.51886 276.27426
 277.75711 278.76801 279.66650 280.94293 282.16895 283.25366 284.24332 285.13986
 285.94620 286.66425 287.29153 288.09091
 366.78100 356.34161 345.78022 334.65283 323.06244 311.26304 299.13965 286.94926
 274.66787 262.57148 250.58709 239.89470 230.02331 221.13391 213.32252 206.33113
 200.17174 195.11635 191.70496 189.75357 188.79718 188.86778 189.70939 191.02400
 192.75561 194.85722 197.12683 199.49244 201.94405 204.43065 206.52526 208.37387
 210.00648 211.15809 211.39370 211.62831 211.57192 211.28353 210.92313 210.55974
 210.18335 209.89996 209.71457 209.58518 209.51979 209.85740 210.25000 210.64561
 211.44522 212.62983 213.88644 215.67605 217.61066 219.66027 221.76187 223.85148
 225.91809 228.00870 230.11231 232.22492 234.36053 236.53914 238.80174 241.17835
 243.80596 246.06357 248.07218 249.84379 251.26740 252.39701 253.22561 253.54822
 253.59183 253.37244 252.73905 251.69366 250.30627 248.47388 246.38949 244.22909
 242.02670 239.83731 237.66392 235.50953 233.37614 231.24975 229.28236 227.44596
 225.73557 224.21418 222.85079 221.62940 220.51801 219.48462 218.59523 217.74283
 216.99144 216.17805 215.28266 214.65327 214.10988 214.41193 215.07639 215.44997
 216.40266 217.69292 218.39380 218.22502 218.72911 221.19951 225.67282 229.24042
 232.04021 235.37393 239.47356 243.90816 247.92020 251.42958 254.69899 257.82028
 260.78549 263.60721 266.23532 268.65012 270.77823 272.58630 274.13489 275.92917
 277.33145 278.84607 280.51276 281.97620 283.24271 284.36322 285.38553 286.31168
 287.14465 287.88641 288.53439 289.36017
 366.78100 356.33809 345.77318 334.64227 323.04836 311.24545 299.11854 286.92463
 274.63972 262.53981 250.55190 239.85599 229.98108 221.08817 213.27326 206.27835
 200.11544 195.05653 191.64162 189.68671 188.72680 188.79389 189.63198 190.94307
 192.67116 194.76925 197.03534 199.39743 201.84552 204.32861 206.41970 208.26479
 209.89388 211.04197 211.27406 211.50515 211.44524 211.15333 210.78942 210.42251
 210.04260 209.75569 209.56678 209.43387 209.36496 209.69905 210.08814 210.48023
 211.27632 212.45741 213.71050 215.49659 217.42768 219.47377 221.57186 223.65795
 225.72104 227.80813 229.90822 232.01731 234.14940 236.32449 238.58358 240.95667
 243.58076 245.83485 247.83994 249.60803 251.02812 252.15421 252.97930 253.29839
 253.33848 253.11557 252.47866 251.42975 250.03884 248.20293 246.11502 243.95111
 241.74520 239.55229 237.37538 235.21747 233.08056 230.95065 228.97974 227.13983
 225.42592 223.90101 222.53410 221.30919 220.19428 219.15737 218.26446 217.40855
 216.65364 215.83673 214.93782 214.30491 213.75800 214.28874 215.32942 215.41469
 216.17964 217.68057 218.55243 218.37508 218.76831 221.03087 225.59641 229.13069
 231.92116 235.30794 239.45753 243.87416 247.86589 251.38116 254.67833 257.82458
 260.82007 263.65768 266.28534 268.64838 270.74670 272.51031 274.22269 275.85010
 277.91629 279.81866 281.46490 282.91040 284.16135 285.26810 286.27786 287.19266
 288.01538 288.74805 289.38806 290.20370
 366.78100 356.33706 345.77112 334.63918 323.04423 311.24029 299.11235 286.91741
 274.63147 262.53053 250.54159 239.84464 229.96870 221.07476 213.25882 206.26288
 200.09894 195.03900 191.62306 189.66711 188.70617 188.77223 189.60929 190.91935
 192.64641 194.74347 197.00852 199.36958 201.81664 204.29870 206.38876 208.23282
 209.86088 211.00793 211.23899 211.46905 211.40811 211.11517 210.75023 210.38229
 210.00134 209.71340 209.52346 209.38952 209.31958 209.65264 210.04070 210.43175
 211.22681 212.40687 213.65893 215.44399 217.37405 219.41911 221.51617 223.60122
 225.66328 227.74934 229.84840 231.95646 234.08752 236.26158 238.51963 240.89169
 243.51475 245.76781 247.77187 249.53893 250.95799 252.08304 252.90710 253.22516
 253.26422 253.04028 252.40234 251.35240 249.96045 248.12351 246.03457 243.86963
 241.66269 239.46875 237.29081 235.13187 232.99392 230.86298 228.89104 227.05010
 225.33516 223.80922 222.44128 221.21533 220.09939 219.06145 218.16751 217.31057
 216.55463 215.73669 214.83674 214.20280 213.65486 214.27798 215.46815 215.43536
 215.90349 217.49831 218.52049 218.45767 218.97409 221.24355 225.59010 229.11162
 231.85056 235.20065 239.43344 243.89331 247.87041 251.41621 254.73930 257.91028
 260.93896 263.79300 266.42764 268.78113 270.80023 272.57123 274.24619 275.92560
 277.58286 279.00339 280.23260 281.31198 282.24606 283.07248 283.82648 284.50955
 285.12390 285.67096 286.14886 286.75793
 366.78100 356.33729 345.77158 334.63986 323.04515 311.24144 299.11373 286.91902
 274.63331 262.53259 250.54388 239.84717 229.97146 221.07775 213.26204 206.26632
 200.10261 195.04290 191.62719 189.67148 188.71077 188.77705 189.61434 190.92463
 192.65192 194.74921 197.01449 199.37578 201.82307 204.30536 206.39565 208.23994
 209.86822 211.01551 211.24680 211.47709 211.41638 211.12367 210.75895 210.39124
 210.01053 209.72282 209.53311 209.39940 209.32968 209.66297 210.05126 210.44255
 211.23784 212.41812 213.67041 215.45570 217.38599 219.43128 221.52857 223.61385
 225.67614 227.76243 229.86172 231.97001 234.10130 236.27558 238.53387 240.90616
 243.52945 245.78274 247.78703 249.55431 250.97360 252.09889 252.92318 253.24147
 253.28075 253.05704 252.41933 251.36962 249.97791 248.14120 246.05248 243.88777
 241.68106 239.48735 237.30964 235.15093 233.01321 230.88250 228.91079 227.07008
 225.35537 223.82966 222.46194 221.23623 220.12052 219.08281 218.18910 217.33238
 216.57667 215.75896 214.85925 214.22554 213.67783 214.31310 215.55128 215.49335
 215.77657 217.30457 218.38147 218.37225 218.96649 221.29251 225.64224 229.14365
 231.88054 235.25737 239.49908 243.96758 247.93753 251.46736 254.78944 257.96472
 260.98380 263.83038 266.47180 268.83600 270.91440 272.72977 274.17664 276.37766
 278.82248 280.91806 282.73145 284.32373 285.70172 286.92090 288.03320 289.04086
 289.94714 290.75421 291.45923 292.35770
 366.78100 356.33656 345.77013 334.63769 323.04226 311.23782 299.10939 286.91395
 274.62752 262.52608 250.53665 239.83921 229.96278 221.06834 213.25191 206.25547
 200.09104 195.03060 191.61416 189.65773 188.69629 188.76186 189.59842 190.90799
 192.63455 194.73112 196.99568 199.35625 201.80281 204.28438 206.37394 208.21751
 209.84507 210.99163 211.22220 211.45176 211.39033 211.09689 210.73146 210.36302
 209.98159 209.69315 209.50272 209.36828 209.29785 209.63041 210.01798 210.40854
 211.20310 212.38267 213.63423 215.41880 217.34836 219.39293 221.48949 223.57406
 225.63562 227.72119 229.81975 231.92732 234.05788 236.23145 238.48901 240.86058
 243.48314 245.73570 247.73927 249.50583 250.92440 252.04896 252.87253 253.19009
 253.22866 253.00422 252.36579 251.31535 249.92292 248.08548 245.99605 243.83061
 241.62317 239.42874 237.25030 235.09087 232.95243 230.82100 228.84856 227.00713
 225.29169 223.76526 222.39682 221.17039 220.05395 219.01552 218.12108 217.26365
 216.50721 215.68877 214.78834 214.15390 213.60547 214.30324 215.67279 215.52742
 215.59099 217.19064 218.23930 218.24849 218.92975 221.33791 225.62503 229.09377
 231.81505 235.22333 239.52333 243.98344 247.95863 251.50261 254.84013 258.02737
 261.02676 263.84302 266.44397 268.75452 270.80695 272.62897 274.19760 276.69028
 279.18500 281.32336 283.17377 284.79855 286.20465 287.44870 288.58371 289.61194
 290.53671 291.36026 292.07965 292.99649
 366.78100 356.33772 345.77244 334.64115 323.04687 311.24359 299.11631 286.92203
 274.63675 262.53646 250.54818 239.85190 229.97662 221.08334 213.26806 206.27277
 200.10949 195.05021 191.63493 189.67965 188.71937 188.78608 189.62380 190.93452
 192.66224 194.75996 197.02567 199.38739 201.83511 204.31783 206.40855 208.25327
 209.88198 211.02970 211.26142 211.49214 211.43186 211.13958 210.77529 210.40801
 210.02773 209.74045 209.55117 209.41788 209.34860 209.68232 210.07104 210.46276
 211.25848 212.43919 213.69191 215.47763 217.40835 219.45407 221.55179 223.63750
 225.70022 227.78694 229.88666 231.99538 234.12710 236.30181 238.56053 240.93325
 243.55697 245.81069 247.81540 249.58312 251.00284 252.12856 252.95328 253.27200
 253.31171 253.08843 252.45115 251.40187 250.01059 248.17431 246.08602 243.92174
 241.71546 239.52218 237.34490 235.18661 233.04933 230.91905 228.94777 227.10749
 225.39321 223.86792 222.50064 221.27536 220.16008 219.12280 218.22952 217.37323
 216.61795 215.80067 214.90139 214.26811 213.72083 214.37477 215.73099 215.66817
 215.30620 216.79617 218.01027 218.18318 218.95972 221.45474 225.72565 229.15462
 231.83592 235.28067 239.56787 244.02060 248.01910 251.60312 254.97095 258.16718
 261.15289 263.95447 266.54327 268.81366 270.83487 272.58447 274.25055 277.03561
 279.49866 281.60986 283.43677 285.04089 286.42914 287.65741 288.77798 289.79315
 290.70621 291.51929 292.22955 293.13470
 366.78100 356.33910 345.77520 334.64530 323.05240 311.25050 299.12460 286.93170
 274.64779 262.54889 250.56199 239.86709 229.99319 221.10129 213.28739 206.29349
 200.13159 195.07369 191.65979 189.70589 188.74699 188.81509 189.65419 190.96628
 192.69538 194.79448 197.06158 199.42468 201.87378 204.35788 206.44998 208.29608
 209.92618 211.07528 211.30838 211.54048 211.48158 211.19068 210.82777 210.46187
 210.08297 209.79707 209.60917 209.47727 209.40937 209.74447 210.13457 210.52767
 211.32477 212.50687 213.76097 215.54807 217.48016 219.52726 221.62636 223.71346
 225.77756 227.86566 229.96676 232.07686 234.20996 236.38606 238.64616 241.02026
 243.64536 245.90046 247.90656 249.67565 251.09675 252.22385 253.04995 253.37005
 253.41115 253.18925 252.55335 251.50545 250.11555 248.28065 246.19375 244.03085
 241.82595 239.63405 237.45814 235.30124 233.16534 231.03644 229.06654 227.22764
 225.51474 223.99084 222.62494 221.40104 220.28714 219.25124 218.35934 217.50444
 216.75054 215.93463 215.03673 214.40483 213.85893 214.45793 215.74774 215.84610
 215.27887 216.44504 217.81335 218.07787 218.97044 221.52692 225.81996 229.22728
 231.89307 235.31627 239.59796 244.05566 248.06453 251.65405 255.02293 258.22385
 261.21017 264.01556 266.61691 268.90686 270.96140 272.79828 274.49701 277.31903
 279.93018 282.16830 284.10504 285.80566 287.27737 288.57947 289.76746 290.84366
 291.81161 292.67355 293.42654 294.38614
 366.78100 356.33864 345.77429 334.64393 323.05058 311.24822 299.12187 286.92851
 274.64416 262.54480 250.55745 239.86209 229.98774 221.09538 213.28103 206.28667
 200.12432 195.06596 191.65161 189.69725 188.73790 188.80554 189.64418 190.95583
 192.68447 194.78312 197.04976 199.41241 201.86105 204.34470 206.43634 208.28199
 209.91163 211.06028 211.29292 211.52457 211.46521 211.17386 210.81050 210.44415
 210.06479 209.77844 209.59008 209.45772 209.38937 209.72401 210.11366 210.50630
 211.30295 212.48459 213.73824 215.52488 217.45653 219.50317 221.60182 223.68846
 225.75211 227.83975 229.94040 232.05004 234.18269 236.35833 238.61798 240.99162
 243.61626 245.87091 247.87655 249.64520 251.06584 252.19249 253.01813 253.33778
 253.37842 253.15607 252.51971 251.47136 250.08100 248.24565 246.15829 243.99494
 241.78958 239.59723 237.42087 235.26352 233.12716 230.99781 229.02745 227.18809
 225.47474 223.95038 222.58403 221.35967 220.24532 219.20896 218.31661 217.46125
 216.70690 215.89054 214.99219 214.35983 213.81348 214.46645 215.83176 215.87393
 215.30118 216.36386 217.75580 217.95992 218.86711 221.50853 225.80406 229.17091
 231.83417 235.30118 239.58301 244.04457 248.03645 251.61552 254.99043 258.19147
 261.17438 263.99094 266.59351 268.86057 270.90976 272.78491 274.61606 277.37848
 280.03110 282.30478 284.27228 285.99988 287.49500 288.81778 290.02460 291.11792
 292.10123 292.97687 293.74182 294.71664
 366.78100 356.33971 345.77642 334.64712 323.05483 311.25354 299.12825 286.93595
 274.65266 262.55437 250.56808 239.87379 230.00049 221.10920 213.29591 206.30262
 200.14133 195.08403 191.67074 189.71745 188.75916 188.82786 189.66757 190.98028
 192.70999 194.80970 197.07740 199.44111 201.89082 204.37553 206.46824 208.31494
 209.94565 211.09536 211.32907 211.56177 211.50348 211.21319 210.85090 210.48561
 210.10731 209.82202 209.63473 209.50344 209.43615 209.77185 210.16256 210.55627
 211.35398 212.53668 213.79139 215.57910 217.51181 219.55952 221.65922 223.74693
 225.81164 227.90035 230.00206 232.11276 234.24647 236.42318 238.68389 241.05859
 243.68430 245.94001 247.94672 249.71643 251.13813 252.26584 253.09255 253.41326
 253.45496 253.23367 252.59838 251.55109 250.16180 248.32750 246.24121 244.07892
 241.87463 239.68334 237.50804 235.35175 233.21646 231.08817 229.11887 227.28058
 225.56829 224.04500 222.67971 221.45641 220.34312 219.30783 218.41654 217.56225
 216.80895 215.99366 215.09637 214.46508 213.91978 214.54674 215.88129 215.90703
 215.12415 216.13850 217.63690 217.92751 218.82437 221.45309 225.75003 229.10913
 231.74840 235.25874 239.60445 244.05334 248.09337 251.73347 255.15088 258.37772
 261.35184 264.12866 266.70834 268.97015 271.00140 272.83133 274.86716 277.90775
 280.63791 282.97806 285.00305 286.78116 288.31998 289.68140 290.92352 292.04880
 293.06085 293.96210 294.74939 295.75272
 366.78100 356.34238 345.78176 334.65514 323.06552 311.26690 299.14428 286.95466
 274.67404 262.57842 250.59480 239.90318 230.03257 221.14395 213.33333 206.34271
 200.18409 195.12947 191.71885 189.76823 188.81261 188.88399 189.72637 191.04175
 192.77413 194.87651 197.14689 199.51327 201.96565 204.45303 206.54841 208.39779
 210.03117 211.18355 211.41993 211.65531 211.59970 211.31208 210.95246 210.58984
 210.21422 209.93160 209.74698 209.61836 209.55374 209.89212 210.28550 210.68188
 211.48226 212.66764 213.92502 215.71540 217.65078 219.70116 221.80354 223.89392
 225.96130 228.05268 230.15706 232.27044 234.40683 236.58621 238.84959 241.22697
 243.85535 246.11373 248.12311 249.89549 251.31987 252.45025 253.27963 253.60301
 253.64739 253.42877 252.79615 251.75153 250.36491 248.53329 246.44967 244.29005
 242.08843 239.89981 237.72719 235.57358 233.44096 231.31534 229.34872 227.51310
 225.80348 224.28286 222.92024 221.69962 220.58900 219.55638 218.66776 217.81614
 217.06552 216.25290 215.35828 214.72966 214.18704 214.68715 215.85396 216.04971
 215.12959 215.85498 217.38283 217.74135 218.74509 221.53014 225.79971 229.17709
 231.86198 235.39018 239.71242 244.18254 248.22176 251.85124 255.27133 258.49924
 261.49689 264.30972 266.91449 269.20462 271.28467 273.24631 275.18317 277.55167
 280.04324 282.17889 284.02695 285.64966 287.05399 288.29648 289.43002 290.45697
 291.38058 292.20306 292.92157 293.83722
 366.78100 356.34161 345.78022 334.65283 323.06244 311.26305 299.13966 286.94927
 274.66788 262.57150 250.58711 239.89472 230.02333 221.13394 213.32255 206.33116
 200.17177 195.11638 191.70499 189.75360 188.79721 188.86782 189.70943 191.02404
 192.75565 194.85727 197.12688 199.49249 201.94410 204.43071 206.52532 208.37393
 210.00654 211.15815 211.39376 211.62837 211.57198 211.28359 210.92320 210.55981
 210.18342 209.90004 209.71465 209.58526 209.51987 209.85748 210.25009 210.64570
 211.44531 212.62992 213.88653 215.67614 217.61075 219.66036 221.76197 223.85158
 225.91819 228.00881 230.11242 232.22503 234.36064 236.53925 238.80186 241.17847
 243.80608 246.06369 248.07230 249.84391 251.26752 252.39713 253.22574 253.54835
 253.59196 253.37258 252.73919 251.69380 250.30641 248.47402 246.38963 244.22924
 242.02685 239.83746 237.66407 235.50968 233.37629 231.24990 229.28251 227.44612
 225.73573 224.21434 222.85096 221.62957 220.51818 219.48479 218.59540 217.74301
 216.99162 216.17823 215.28284 214.65345 214.11006 214.66231 215.92422 216.19843
 215.29242 215.55983 216.75911 217.47626 218.82445 221.75516 225.72983 229.31917
 231.99055 235.48502 239.74225 244.14359 248.16905 251.79161 255.15970 258.34445
 261.32568 264.11490 266.71823 269.10934 271.32483 273.46149 275.47763 277.33597
 279.06650 280.70114 282.24643 283.62213 284.81265 285.86600 286.82700 287.69760
 288.48062 289.17789 289.78702 290.56326
 366.78100 356.34009 345.77718 334.64827 323.05637 311.25546 299.13055 286.93864
 274.65573 262.55782 250.57191 239.87801 230.00510 221.11419 213.30128 206.30837
 200.14746 195.09055 191.67765 189.72474 188.76683 188.83592 189.67601 190.98910
 192.71919 194.81929 197.08738 199.45147 201.90156 204.38665 206.47974 208.32683
 209.95793 211.10802 211.34211 211.57520 211.51729 211.22738 210.86548 210.50057
 210.12266 209.83775 209.65084 209.51993 209.45302 209.78912 210.18021 210.57430
 211.37239 212.55548 213.81057 215.59866 217.53176 219.57985 221.67994 223.76803
 225.83312 227.92221 230.02430 232.13540 234.26949 236.44658 238.70767 241.08276
 243.70885 245.96494 247.97204 249.74213 251.16422 252.29231 253.11940 253.44049
 253.48258 253.26168 252.62677 251.57986 250.19095 248.35704 246.27113 244.10922
 241.90532 239.71441 237.53950 235.38359 233.24868 231.12077 229.15186 227.31396
 225.60205 224.07914 222.71423 221.49132 220.37841 219.34350 218.45260 217.59869
 216.84578 216.03087 215.13396 214.50305 213.95815 214.60632 216.06326 216.24736
 215.22652 215.46169 216.59021 217.30417 218.73979 221.71089 225.69389 229.25485
 231.93707 235.46622 239.76366 244.19904 248.21405 251.82198 255.18938 258.36914
 261.31866 264.05460 266.59528 268.92529 271.14169 273.31598 275.40848 277.24609
 278.78839 280.16238 281.54553 283.00430 284.26950 285.38885 286.41013 287.33530
 288.16739 288.90839 289.55569 290.38062
 366.78100 356.34020 345.77740 334.64859 323.05679 311.25599 299.13119 286.93939
 274.65658 262.55878 250.57298 239.87918 230.00638 221.11558 213.30277 206.30997
 200.14917 195.09237 191.67957 189.72676 188.76896 188.83816 189.67836 190.99156
 192.72175 194.82195 197.09015 199.45435 201.90455 204.38975 206.48294 208.33014
 209.96134 211.11154 211.34574 211.57893 211.52113 211.23133 210.86953 210.50473
 210.12692 209.84212 209.65532 209.52452 209.45772 209.79391 210.18511 210.57931
 211.37751 212.56071 213.81591 215.60410 217.53730 219.58550 221.68570 223.77390
 225.83909 227.92829 230.03049 232.14169 234.27589 236.45308 238.71428 241.08948
 243.71568 245.97188 247.97908 249.74927 251.17147 252.29967 253.12687 253.44807
 253.49026 253.26946 252.63466 251.58786 250.19906 248.36525 246.27945 244.11765
 241.91385 239.72305 237.54825 235.39244 233.25764 231.12984 229.16104 227.32324
 225.61143 224.08863 222.72383 221.50103 220.38823 219.35342 218.46262 217.60882
 216.85602 216.04122 215.14441 214.51361 213.96881 214.63579 216.12495 216.25623
 215.14479 215.36752 216.45261 217.11993 218.66516 221.70509 225.75204 229.23830
 231.96866 235.53795 239.84322 244.26509 248.32864 251.99844 255.41516 258.60809
 261.54172 264.25089 266.75467 269.04572 271.21158 273.35629 275.40607 277.14981
 278.48892 279.96411 281.64423 283.15146 284.45584 285.60989 286.66278 287.61661
 288.47449 289.23843 289.90579 290.75629
 366.78100 356.34141 345.77981 334.65222 323.06162 311.26203 299.13843 286.94784
 274.66624 262.56965 250.58505 239.89246 230.02086 221.13127 213.31968 206.32808
 200.16849 195.11289 191.70130 189.74970 188.79311 188.86351 189.70492 191.01932
 192.75073 194.85213 197.12154 199.48695 201.93835 204.42476 206.51916 208.36757
 209.99997 211.15138 211.38678 211.62119 211.56459 211.27600 210.91540 210.55181
 210.17522 209.89162 209.70603 209.57643 209.51084 209.84824 210.24065 210.63605
 211.43546 212.61986 213.87627 215.66567 217.60008 219.64949 221.75089 223.84030
 225.90670 227.99711 230.10051 232.21292 234.34832 236.52673 238.78913 241.16554
 243.79294 246.05035 248.05876 249.83016 251.25357 252.38297 253.21138 253.53378
 253.57719 253.35759 252.72400 251.67840 250.29081 248.45821 246.37362 244.21303
 242.01043 239.82084 237.64724 235.49265 233.35905 231.23246 229.26486 227.42827
 225.71767 224.19608 222.83248 221.61089 220.49930 219.46570 218.57611 217.72351
 216.97192 216.15832 215.26273 214.63313 214.08954 214.71382 216.12636 216.32944
 215.19769 215.26796 216.21060 216.75970 218.45569 221.61783 225.79854 229.21655
 232.04034 235.66266 239.94969 244.36397 248.45778 252.16817 255.61005 258.81454
 261.74359 264.44232 266.94858 269.22760 271.38330 273.47552 275.48080 277.06693
 278.40649 280.30121 282.10620 283.69113 285.06271 286.27625 287.38339 288.38638
 289.28848 290.09180 290.79358 291.68787
 366.78100 356.34224 345.78148 334.65471 323.06495 311.26619 299.14343 286.95366
 274.67290 262.57714 250.59338 239.90162 230.03085 221.14209 213.33133 206.34057
 200.18180 195.12704 191.71628 189.76552 188.80976 188.88099 189.72323 191.03847
 192.77071 194.87294 197.14318 199.50942 201.96166 204.44889 206.54413 208.39337
 210.02661 211.17885 211.41508 211.65032 211.59456 211.30680 210.94703 210.58427
 210.20851 209.92575 209.74099 209.61222 209.54746 209.88570 210.27894 210.67517
 211.47541 212.66065 213.91789 215.70813 217.64336 219.69360 221.79584 223.88608
 225.95331 228.04455 230.14879 232.26203 234.39827 236.57750 238.84074 241.21798
 243.84622 246.10445 248.11369 249.88593 251.31017 252.44040 253.26964 253.59288
 253.63712 253.41836 252.78559 251.74083 250.35407 248.52231 246.43854 244.27878
 242.07702 239.88826 237.71550 235.56173 233.42897 231.30321 229.33645 227.50068
 225.79092 224.27016 222.90740 221.68664 220.57587 219.54311 218.65435 217.80259
 217.05182 216.23906 215.34430 214.71554 214.17278 214.77359 216.13707 216.37337
 215.32809 215.28281 216.03754 216.40590 218.17592 221.44389 225.69653 229.09610
 232.00154 235.70457 240.01500 244.43236 248.52762 252.25253 255.71515 258.92599
 261.85928 264.57626 267.11533 269.42822 271.58618 273.66339 275.59970 277.10202
 278.86209 280.93597 282.77567 284.39108 285.78906 287.02591 288.15436 289.17667
 290.09610 290.91489 291.63013 292.54166
 366.78100 356.34246 345.78192 334.65538 323.06584 311.26730 299.14476 286.95522
 274.67468 262.57914 250.59560 239.90406 230.03352 221.14498 213.33444 206.34390
 200.18536 195.13082 191.72028 189.76974 188.81420 188.88566 189.72811 191.04357
 192.77603 194.87849 197.14895 199.51541 201.96787 204.45533 206.55079 208.40025
 210.03371 211.18617 211.42263 211.65809 211.60255 211.31501 210.95547 210.59293
 210.21739 209.93485 209.75031 209.62177 209.55723 209.89569 210.28915 210.68561
 211.48607 212.67153 213.92899 215.71945 217.65491 219.70537 221.80783 223.89829
 225.96575 228.05721 230.16167 232.27513 234.41159 236.59105 238.85451 241.23197
 243.86043 246.11888 248.12834 249.90080 251.32526 252.45572 253.28518 253.60864
 253.65310 253.43456 252.80202 251.75748 250.37094 248.53940 246.45586 244.29632
 242.09478 239.90624 237.73370 235.58016 233.44762 231.32208 229.35554 227.52000
 225.81046 224.28992 222.92738 221.70684 220.59630 219.56376 218.67522 217.82368
 217.07314 216.26060 215.36606 214.73752 214.19498 214.79968 216.15813 216.38916
 215.42601 215.28735 215.94582 216.21657 218.02580 221.35544 225.61113 229.02097
 231.96315 235.72208 240.06148 244.47946 248.56628 252.29044 255.75346 258.95197
 261.88831 264.64136 267.24048 269.60608 271.78802 273.87982 275.79297 277.44495
 279.40613 281.53925 283.44467 285.11774 286.56564 287.84668 289.01544 290.07425
 291.02652 291.87454 292.61533 293.55939
 366.78100 356.34319 345.78337 334.65756 323.06875 311.27093 299.14912 286.96031
 274.68049 262.58568 250.60287 239.91205 230.04224 221.15443 213.34461 206.35480
 200.19698 195.14317 191.73336 189.78354 188.82873 188.90092 189.74410 191.06029
 192.79348 194.89666 197.16785 199.53504 201.98822 204.47641 206.57260 208.42278
 210.05697 211.21016 211.44734 211.68353 211.62872 211.34190 210.98309 210.62128
 210.24646 209.96465 209.78083 209.65302 209.58921 209.92839 210.32258 210.71977
 211.52095 212.70714 213.96533 215.75651 217.69270 219.74389 221.84707 223.93826
 226.00645 228.09863 230.20382 232.31801 234.45519 236.63538 238.89957 241.27775
 243.90694 246.16613 248.17631 249.94950 251.37469 252.50587 253.33606 253.66024
 253.70543 253.48762 252.85580 251.81199 250.42618 248.59536 246.51255 244.35374
 242.15292 239.96511 237.79330 235.64048 233.50867 231.38386 229.41804 227.58323
 225.87442 224.35460 222.99279 221.77298 220.66316 219.63135 218.74354 217.89272
 217.14291 216.33109 215.43728 214.80947 214.26765 214.84358 216.14610 216.44328
 215.55754 215.23917 215.77727 216.11765 217.94380 221.30643 225.51686 228.95056
 231.91418 235.72314 240.09763 244.52304 248.61154 252.33792 255.80083 258.98636
 261.90384 264.66296 267.29196 269.68372 271.88571 273.96725 275.84900 277.64285
 279.61844 281.60788 283.45020 285.06790 286.46786 287.70648 288.83652 289.86029
 290.78104 291.60095 292.31723 293.23004
 366.78100 356.34450 345.78600 334.66149 323.07399 311.27749 299.15699 286.96948
 274.69098 262.59748 250.61598 239.92648 230.05797 221.17147 213.36297 206.37447
 200.21796 195.16546 191.75696 189.80846 188.85495 188.92845 189.77295 191.09045
 192.82495 194.92944 197.20194 199.57044 202.02494 204.51443 206.61193 208.46343
 210.09893 211.25343 211.49192 211.72942 211.67592 211.39042 211.03291 210.67241
 210.29891 210.01841 209.83590 209.70940 209.64690 209.98740 210.38290 210.78139
 211.58389 212.77139 214.03089 215.82338 217.76088 219.81338 221.91788 224.01038
 226.07987 228.17337 230.27987 232.39537 234.53386 236.71536 238.98086 241.36036
 243.99085 246.25135 248.26285 250.03735 251.46385 252.59634 253.42784 253.75334
 253.79984 253.58333 252.95283 251.91033 250.52583 248.69633 246.61482 244.45732
 242.25782 240.07132 237.90081 235.74931 233.61881 231.49531 229.53080 227.69730
 225.98980 224.47130 223.11080 221.89229 220.78379 219.75329 218.86679 218.01728
 217.26878 216.45828 215.56578 214.93928 214.39877 214.91702 216.10268 216.47256
 215.73274 215.30255 215.66054 215.86310 217.74878 221.16643 225.40897 228.85016
 231.84378 235.71481 240.13570 244.58093 248.68675 252.44092 255.92776 259.11520
 262.01236 264.75797 267.38522 269.78101 271.97626 274.01843 275.77081 277.59634
 279.53531 281.45108 283.20102 284.73758 286.06735 287.24384 288.31723 289.28964
 290.16422 290.94302 291.62338 292.49042
 366.78100 356.34535 345.78771 334.66406 323.07741 311.28177 299.16212 286.97547
 274.69783 262.60518 250.62453 239.93588 230.06824 221.18259 213.37494 206.38730
 200.23165 195.18000 191.77236 189.82471 188.87206 188.94642 189.79177 191.11012
 192.84548 194.95083 197.22418 199.59353 202.04889 204.53924 206.63759 208.48995
 210.12630 211.28165 211.52101 211.75936 211.70671 211.42207 211.06542 210.70577
 210.33313 210.05348 209.87183 209.74619 209.68454 210.02589 210.42224 210.82160
 211.62495 212.81330 214.07366 215.86701 217.80536 219.85872 221.96407 224.05742
 226.12778 228.22213 230.32948 232.44584 234.58519 236.76754 239.03389 241.41425
 244.04560 246.30695 248.31931 250.09466 251.52201 252.65537 253.48772 253.81407
 253.86143 253.64578 253.01613 251.97449 250.59084 248.76219 246.68154 244.52490
 242.32625 240.14060 237.97096 235.82031 233.69066 231.56802 229.60437 227.77172
 226.06508 224.54743 223.18778 221.97014 220.86249 219.83284 218.94720 218.09855
 217.35090 216.54125 215.64961 215.02396 214.48431 214.97217 216.07726 216.42615
 215.86154 215.45007 215.65488 215.63255 217.54796 221.00307 225.29131 228.73221
 231.76877 235.70149 240.17064 244.64182 248.76408 252.54031 256.04324 259.22104
 262.10666 264.84933 267.48685 269.90582 272.12729 274.15958 275.84491 277.53784
 279.54996 281.57462 283.37289 284.95193 286.31848 287.52750 288.63055 289.62982
 290.52859 291.32892 292.02808 292.91910
 366.78100 356.34510 345.78720 334.66329 323.07639 311.28049 299.16059 286.97368
 274.69578 262.60288 250.62198 239.93307 230.06517 221.17927 213.37137 206.38346
 200.22756 195.17566 191.76776 189.81985 188.86695 188.94105 189.78615 191.10424
 192.83934 194.94444 197.21754 199.58663 202.04173 204.53183 206.62993 208.48202
 210.11812 211.27322 211.51232 211.75041 211.69751 211.41261 211.05571 210.69580
 210.32290 210.04300 209.86110 209.73519 209.67329 210.01439 210.41049 210.80959
 211.61268 212.80078 214.06088 215.85398 217.79207 219.84517 221.95027 224.04337
 226.11346 228.20756 230.31466 232.43076 234.56985 236.75195 239.01805 241.39815
 244.02924 246.29034 248.30244 250.07754 251.50463 252.63773 253.46983 253.79593
 253.84302 253.62712 252.99722 251.95532 250.57141 248.74251 246.66161 244.50471
 242.30580 240.11990 237.95000 235.79910 233.66919 231.54629 229.58239 227.74949
 226.04258 224.52468 223.16478 221.94688 220.83898 219.80907 218.92317 218.07427
 217.32637 216.51646 215.62456 214.99866 214.45876 214.96628 216.09126 216.35359
 215.90651 215.58986 215.68175 215.56682 217.44588 220.92763 225.19370 228.64455
 231.69148 235.68552 240.21227 244.70610 248.83170 252.58989 256.05710 259.21332
 262.08823 264.85309 267.53177 270.01578 272.31790 274.40118 276.02017 277.61050
 279.60703 281.54788 283.32352 284.88266 286.23196 287.42575 288.51492 289.50162
 290.38904 291.17929 291.86963 292.74939
 366.78100 356.34539 345.78778 334.66417 323.07757 311.28196 299.16235 286.97574
 274.69813 262.60552 250.62492 239.93631 230.06870 221.18309 213.37548 206.38787
 200.23227 195.18066 191.77305 189.82544 188.87283 188.94722 189.79262 191.11101
 192.84640 194.95179 197.22518 199.59457 202.04996 204.54036 206.63875 208.49114
 210.12753 211.28292 211.52231 211.76071 211.70810 211.42349 211.06688 210.70727
 210.33466 210.05506 209.87345 209.74784 209.68623 210.02762 210.42401 210.82340
 211.62680 212.81519 214.07558 215.86897 217.80736 219.86075 221.96615 224.05954
 226.12993 228.22432 230.33171 232.44810 234.58750 236.76989 239.03628 241.41667
 244.04806 246.30945 248.32185 250.09724 251.52463 252.65802 253.49041 253.81680
 253.86419 253.64859 253.01898 251.97737 250.59376 248.76515 246.68454 244.52794
 242.32933 240.14372 237.97411 235.82350 233.69389 231.57129 229.60768 227.77507
 226.06846 224.55085 223.19124 221.97363 220.86603 219.83642 218.95081 218.10220
 217.35459 216.54498 215.65338 215.02777 214.48816 214.97134 216.06589 216.38153
 215.94202 215.60435 215.56361 215.57727 217.38739 220.87834 225.06142 228.57675
 231.59578 235.67180 240.27397 244.78951 248.90842 252.61748 256.02151 259.13904
 262.02829 264.82156 267.55984 270.11688 272.46094 274.53836 276.18787 277.56039
 279.19995 280.89096 282.52188 284.03815 285.35031 286.51126 287.57043 288.52997
 289.39297 290.16150 290.83286 291.68842
 366.78100 356.34576 345.78852 334.66527 323.07903 311.28379 299.16455 286.97830
 274.70106 262.60882 250.62858 239.94033 230.07309 221.18785 213.38061 206.39336
 200.23812 195.18688 191.77964 189.83240 188.88015 188.95491 189.80067 191.11943
 192.85518 194.96094 197.23470 199.60446 202.06021 204.55097 206.64973 208.50249
 210.13924 211.29500 211.53476 211.77352 211.72128 211.43703 211.08079 210.72155
 210.34931 210.07006 209.88882 209.76358 209.70234 210.04409 210.44085 210.84061
 211.64437 212.83312 214.09388 215.88764 217.82640 219.88016 221.98591 224.07967
 226.15043 228.24519 230.35294 232.46970 234.60946 236.79222 239.05897 241.43973
 244.07149 246.33325 248.34600 250.12176 251.54952 252.68328 253.51604 253.84279
 253.89055 253.67531 253.04607 252.00482 250.62158 248.79334 246.71310 244.55685
 242.35861 240.17337 238.00413 235.85388 233.72464 231.60240 229.63916 227.80692
 226.10067 224.58343 223.22419 222.00695 220.89970 219.87046 218.98522 218.13698
 217.38973 216.58049 215.68925 215.06401 214.52477 214.98019 216.02539 216.40425
 216.05594 215.61665 215.42258 215.45528 217.22098 220.75807 224.94875 228.48853
 231.60739 235.71965 240.34192 244.88969 249.02214 252.69582 256.04932 259.12885
 262.00757 264.81860 267.58478 270.19373 272.57782 274.66699 276.33957 277.62717
 278.88382 280.11703 281.53519 282.98154 284.27435 285.41812 286.46167 287.40704
 288.25732 289.01447 289.67590 290.51883
 366.78100 356.34551 345.78801 334.66452 323.07802 311.28253 299.16303 286.97654
 274.69904 262.60655 250.62605 239.93756 230.07006 221.18457 213.37707 206.38958
 200.23408 195.18259 191.77509 189.82760 188.87511 188.94961 189.79512 191.11362
 192.84913 194.95463 197.22814 199.59764 202.05315 204.54365 206.64216 208.49466
 210.13117 211.28667 211.52618 211.76468 211.71219 211.42769 211.07120 210.71171
 210.33921 210.05972 209.87822 209.75273 209.69123 210.03274 210.42924 210.82875
 211.63225 212.82076 214.08126 215.87477 217.81327 219.86678 221.97228 224.06579
 226.13630 228.23080 230.33831 232.45481 234.59432 236.77682 239.04333 241.42383
 244.05534 246.31684 248.32935 250.10485 251.53236 252.66586 253.49837 253.82487
 253.87238 253.65688 253.02739 251.98590 250.60240 248.77391 246.69341 244.53692
 242.33842 240.15293 237.98343 235.83294 233.70344 231.58095 229.61745 227.78496
 226.07846 224.56097 223.20147 221.98398 220.87648 219.84699 218.96150 218.11300
 217.36551 216.55601 215.66452 215.03902 214.49953 214.96501 216.02397 216.35234
 216.13057 215.73753 215.43227 215.33624 217.06654 220.62869 224.81323 228.36127
 231.54123 235.73351 240.39809 244.96806 249.11015 252.79005 256.12869 259.19730
 262.05057 264.84906 267.62823 270.27414 272.68805 274.75952 276.40680 277.68951
 278.84521 279.89304 281.05502 282.49182 283.81082 284.97778 286.04245 287.00699
 287.87445 288.64697 289.32181 290.18179
 366.78100 356.34668 345.79037 334.66805 323.08273 311.28842 299.17010 286.98479
 274.70847 262.61715 250.63784 239.95052 230.08420 221.19989 213.39357 206.40726
 200.25294 195.20262 191.79631 189.84999 188.89867 188.97436 189.82104 191.14073
 192.87741 194.98409 197.25878 199.62946 202.08614 204.57783 206.67751 208.53119
 210.16888 211.32556 211.56625 211.80593 211.75461 211.47130 211.11598 210.75766
 210.38635 210.10803 209.92772 209.80340 209.74308 210.08577 210.48345 210.88413
 211.68882 212.87850 214.14019 215.93487 217.87455 219.92924 222.03592 224.13060
 226.20229 228.29797 230.40665 232.52434 234.66502 236.84871 239.11639 241.49807
 244.13076 246.39344 248.40712 250.18381 251.61249 252.74718 253.58086 253.90854
 253.95723 253.74291 253.11459 252.07428 250.69196 248.86465 246.78533 244.63001
 242.43270 240.24838 238.08006 235.93075 233.80243 231.68112 229.71880 227.88748
 226.18217 224.66585 223.30753 222.09122 220.98490 219.95658 219.07227 218.22495
 217.47864 216.67032 215.78000 215.15569 214.61737 215.01521 215.94281 216.39696
 216.15421 215.77701 215.44231 215.27016 216.96318 220.53548 224.71487 228.26682
 231.49841 235.76360 240.46156 245.05721 249.19994 252.86583 256.17426 259.22952
 262.08588 264.88992 267.68710 270.36304 272.79968 274.86102 276.48779 277.75708
 278.85794 279.83939 280.92914 282.35144 283.69000 284.87430 285.95477 286.93362
 287.81400 288.59796 289.28284 290.15561
 366.78100 356.34822 345.79343 334.67265 323.08887 311.29609 299.17930 286.99552
 274.72074 262.63096 250.65317 239.96739 230.10261 221.21983 213.41504 206.43026
 200.27748 195.22870 191.82391 189.87913 188.92935 189.00656 189.85478 191.17600
 192.91422 195.02243 197.29865 199.67087 202.12909 204.62230 206.72352 208.57874
 210.21796 211.37617 211.61839 211.85961 211.80983 211.52804 211.17426 210.81748
 210.44769 210.17091 209.99213 209.86935 209.81056 210.15478 210.55400 210.95622
 211.76243 212.95365 214.21687 216.01309 217.95430 220.01052 222.11874 224.21496
 226.28817 228.38539 230.49561 232.61482 234.75704 236.94226 239.21148 241.59469
 244.22891 246.49313 248.50835 250.28656 251.71678 252.85300 253.68822 254.01743
 254.06765 253.85487 253.22809 252.18930 250.80852 248.98274 246.90495 244.75117
 242.55539 240.37261 238.20582 236.05804 233.93126 231.81148 229.85069 228.02091
 226.31713 224.80235 223.44556 222.23078 221.12600 220.09922 219.21643 218.37065
 217.62587 216.81908 215.93030 215.30752 214.77074 215.08382 215.84007 216.43347
 216.27470 215.79619 215.36145 215.14798 216.85701 220.44991 224.62654 228.18935
 231.47261 235.79593 240.53117 245.14925 249.29904 252.95732 256.24167 259.27194
 262.10037 264.89346 267.70926 270.42426 272.88992 274.92648 276.48959 277.71277
 278.79117 279.73840 280.89462 282.31235 283.64331 284.82089 285.89523 286.86853
 287.74390 288.52341 289.20438 290.07220
 366.78100 356.34691 345.79081 334.66872 323.08363 311.28953 299.17144 286.98635
 274.71026 262.61916 250.64007 239.95298 230.08688 221.20279 213.39670 206.41060
 200.25651 195.20642 191.80032 189.85423 188.90314 188.97905 189.82595 191.14586
 192.88277 194.98967 197.26458 199.63549 202.09239 204.58430 206.68421 208.53812
 210.17602 211.33293 211.57384 211.81374 211.76265 211.47956 211.12446 210.76637
 210.39528 210.11718 209.93709 209.81300 209.75291 210.09581 210.49372 210.89463
 211.69953 212.88944 214.15135 215.94625 217.88616 219.94107 222.04797 224.14288
 226.21479 228.31070 230.41960 232.53751 234.67842 236.86232 239.13023 241.51214
 244.14504 246.40795 248.42186 250.19877 251.62767 252.76258 253.59649 253.92439
 253.97330 253.75921 253.13111 252.09102 250.70893 248.88183 246.80274 244.64765
 242.45056 240.26646 238.09837 235.94928 233.82118 231.70009 229.73800 227.90690
 226.20181 224.68572 223.32762 222.11153 221.00544 219.97735 219.09325 218.24616
 217.50007 216.69197 215.80188 215.17779 214.63969 215.02438 215.90042 216.26247
 216.37898 215.98758 215.42557 215.08836 216.76196 220.32643 224.45569 228.03491
 231.36836 235.79172 240.57964 245.22719 249.36871 253.01530 256.30142 259.33484
 262.16629 264.95178 267.75711 270.48788 272.97949 275.08206 276.67532 277.84848
 278.87726 279.76993 281.08038 282.57452 283.91821 285.10699 286.19162 287.17419
 288.05792 288.84488 289.53235 290.40845
 366.78100 356.34480 345.78659 334.66239 323.07519 311.27898 299.15878 286.97158
 274.69337 262.60017 250.61897 239.92976 230.06156 221.17536 213.36716 206.37895
 200.22275 195.17055 191.76234 189.81414 188.86094 188.93473 189.77953 191.09733
 192.83212 194.93692 197.20972 199.57851 202.03331 204.52311 206.62090 208.47270
 210.10850 211.26329 211.50209 211.73989 211.68668 211.40148 211.04428 210.68408
 210.31087 210.03067 209.84847 209.72226 209.66006 210.00086 210.39665 210.79545
 211.59825 212.78604 214.04584 215.83864 217.77643 219.82923 221.93403 224.02682
 226.09662 228.19042 230.29721 232.41301 234.55181 236.73361 238.99940 241.37920
 244.01000 246.27079 248.28259 250.05739 251.48418 252.61698 253.44878 253.77457
 253.82137 253.60517 252.97496 251.93276 250.54856 248.71935 246.63815 244.48095
 242.28174 240.09554 237.92534 235.77413 233.64393 231.52073 229.55653 227.72332
 226.01612 224.49792 223.13771 221.91951 220.81131 219.78110 218.89490 218.04570
 217.29749 216.48729 215.59509 214.96888 214.42868 214.91435 215.99715 216.10846
 216.28995 216.15674 215.53969 215.13319 216.65932 220.21051 224.35406 227.91422
 231.37621 235.80183 240.61034 245.22510 249.33543 252.95934 256.22717 259.25772
 262.11087 264.93457 267.79541 270.59082 273.18591 275.39017 277.01544 278.23523
 279.28625 280.23810 281.21237 282.50009 283.76602 284.92780 285.98773 286.94797
 287.81161 288.58066 289.25250 290.10870
 366.78100 356.34559 345.78818 334.66477 323.07836 311.28295 299.16354 286.97712
 274.69971 262.60730 250.62689 239.93848 230.07107 221.18566 213.37825 206.39084
 200.23543 195.18402 191.77661 189.82919 188.87678 188.95137 189.79696 191.11555
 192.85114 194.95673 197.23032 199.59991 202.05550 204.54609 206.64468 208.49726
 210.13385 211.28944 211.52903 211.76762 211.71521 211.43080 211.07439 210.71498
 210.34257 210.06316 209.88175 209.75634 209.69492 210.03651 210.43310 210.83269
 211.63628 212.82487 214.08546 215.87905 217.81764 219.87123 221.97682 224.07041
 226.14099 228.23558 230.34317 232.45976 234.59935 236.78194 239.04853 241.42912
 244.06071 246.32230 248.33489 250.11048 251.53807 252.67165 253.50424 253.83083
 253.87842 253.66301 253.03360 251.99219 250.60878 248.78037 246.69996 244.54355
 242.34514 240.15972 237.99031 235.83990 233.71049 231.58808 229.62467 227.79226
 226.08585 224.56844 223.20903 221.99162 220.88421 219.85479 218.96938 218.12097
 217.37356 216.56415 215.67274 215.04733 214.50792 214.93138 215.91621 216.23534
 216.20598 216.05045 215.45145 215.02943 216.46242 220.06850 224.35764 227.76898
 231.38477 235.79533 240.61984 245.20328 249.28770 252.89128 256.14819 259.16763
 262.03897 264.88696 267.75986 270.56342 273.15607 275.35464 277.04587 278.34772
 279.46094 280.45352 281.36032 282.27402 283.26410 284.23193 285.19632 286.09229
 286.89810 287.61566 288.24252 289.04141
 366.78100 356.34743 345.79186 334.67030 323.08573 311.29216 299.17459 286.99003
 274.71446 262.62389 250.64532 239.95875 230.09319 221.20962 213.40405 206.41848
 200.26491 195.21535 191.80978 189.86421 188.91364 188.99008 189.83751 191.15794
 192.89537 195.00280 197.27824 199.64967 202.10710 204.59953 206.69996 208.55440
 210.19283 211.35026 211.59169 211.83213 211.78156 211.49899 211.14442 210.78685
 210.41629 210.13872 209.95915 209.83558 209.77601 210.11945 210.51788 210.91931
 211.72474 212.91518 214.17761 215.97304 217.91347 219.96890 222.07634 224.17177
 226.24420 228.34063 230.45006 232.56850 234.70993 236.89436 239.16279 241.54523
 244.17866 246.44209 248.45652 250.23395 251.66339 252.79882 253.63325 253.96168
 254.01111 253.79755 253.16998 252.13041 250.74884 248.92228 246.84371 244.68914
 242.49257 240.30900 238.14144 235.99287 233.86530 231.74473 229.78316 227.95260
 226.24803 224.73246 223.37489 222.15933 221.05376 220.02619 219.14262 218.29605
 217.55049 216.74292 215.85335 215.22978 214.69221 215.01091 215.76562 216.35593
 216.33945 216.12720 215.47195 214.91966 216.31598 219.95410 224.25258 227.59239
 231.31773 235.79814 240.66026 245.24783 249.32652 252.93980 256.21014 259.22748
 262.08212 264.90161 267.75195 270.55188 273.16461 275.40195 277.07721 278.35251
 279.48578 280.51022 281.39133 282.17233 282.93185 283.66748 284.43912 285.31195
 286.11014 286.82095 287.44189 288.23322
 366.78100 356.34786 345.79273 334.67159 323.08746 311.29432 299.17719 286.99305
 274.71792 262.62778 250.64965 239.96351 230.09838 221.21524 213.41011 206.42497
 200.27184 195.22270 191.81757 189.87243 188.92229 188.99916 189.84702 191.16789
 192.90575 195.01362 197.28948 199.66135 202.11921 204.61208 206.71294 208.56781
 210.20667 211.36454 211.60640 211.84727 211.79713 211.51500 211.16086 210.80372
 210.43359 210.15645 209.97732 209.85418 209.79505 210.13891 210.53778 210.93964
 211.74551 212.93637 214.19924 215.99510 217.93597 219.99183 222.09970 224.19556
 226.26843 228.36529 230.47515 232.59402 234.73588 236.92075 239.18961 241.57248
 244.20634 246.47021 248.48507 250.26294 251.69280 252.82867 253.66353 253.99240
 254.04226 253.82913 253.20199 252.16286 250.78172 248.95558 246.87745 244.72331
 242.52718 240.34404 238.17691 236.02877 233.90164 231.78150 229.82037 227.99023
 226.28610 224.77096 223.41383 222.19869 221.09356 220.06642 219.18329 218.33715
 217.59201 216.78488 215.89574 215.27261 214.73547 215.02596 215.71497 216.35277
 216.36548 216.15923 215.55730 214.91043 216.25433 219.89418 224.18044 227.47728
 231.27512 235.81874 240.71553 245.30861 249.38643 253.00244 256.27722 259.28552
 262.11261 264.89886 267.72437 270.52240 273.17502 275.48001 277.17749 278.45169
 279.62155 280.67700 281.54956 282.23541 282.81229 283.41357 284.07040 284.85739
 285.63678 286.33084 286.93716 287.70984
 366.78100 356.34764 345.79229 334.67093 323.08658 311.29322 299.17587 286.99151
 274.71616 262.62580 250.64745 239.96109 230.09574 221.21238 213.40703 206.42167
 200.26832 195.21896 191.81361 189.86825 188.91790 188.99454 189.84219 191.16283
 192.90048 195.00812 197.28377 199.65541 202.11306 204.60570 206.70635 208.56099
 210.19964 211.35728 211.59893 211.83957 211.78921 211.50686 211.15250 210.79515
 210.42479 210.14744 209.96808 209.84473 209.78537 210.12902 210.52766 210.92931
 211.73495 212.92560 214.18824 215.98389 217.92453 219.98018 222.08782 224.18347
 226.25611 228.35276 230.46240 232.58105 234.72269 236.90734 239.17598 241.55863
 244.19227 246.45592 248.47056 250.24821 251.67785 252.81350 253.64814 253.97678
 254.02643 253.81307 253.18572 252.14636 250.76501 248.93865 246.86030 244.70594
 242.50959 240.32623 238.15888 236.01052 233.88317 231.76281 229.80146 227.97110
 226.26675 224.75139 223.39404 222.17868 221.07333 220.04597 219.16262 218.31626
 217.57091 216.76355 215.87420 215.25084 214.71349 215.00821 215.70488 216.33696
 216.48055 216.21111 215.57213 214.80742 216.15370 219.85709 224.11990 227.34294
 231.23528 235.83244 240.76503 245.35892 249.42879 253.03149 256.29929 259.29462
 262.09412 264.84720 267.65054 270.45071 273.14230 275.50797 277.26999 278.57581
 279.76614 280.82529 281.67050 282.26929 282.77008 283.31049 283.96039 284.54480
 285.23160 285.88077 286.44785 287.17056
 366.78100 356.34711 345.79122 334.66933 323.08444 311.29055 299.17265 286.98776
 274.71187 262.62098 250.64209 239.95520 230.08931 221.20542 213.39953 206.41364
 200.25975 195.20986 191.80396 189.85807 188.90718 188.98329 189.83040 191.15051
 192.88762 194.99473 197.26984 199.64095 202.09806 204.59016 206.69027 208.54438
 210.18249 211.33960 211.58071 211.82082 211.76993 211.48704 211.13215 210.77426
 210.40336 210.12547 209.94558 209.82169 209.76180 210.10491 210.50302 210.90413
 211.70924 212.89935 214.16146 215.95657 217.89667 219.95178 222.05889 224.15400
 226.22611 228.32222 230.43133 232.54944 234.69055 236.87466 239.14277 241.52487
 244.15798 246.42109 248.43520 250.21231 251.64142 252.77653 253.61064 253.93875
 253.98786 253.77397 253.14607 252.10618 250.72429 248.89740 246.81851 244.66362
 242.46673 240.28284 238.11495 235.96606 233.83817 231.71728 229.75538 227.92449
 226.21960 224.70371 223.34582 222.12993 221.02404 219.99615 219.11226 218.26537
 217.51948 216.71158 215.82169 215.19780 214.65991 214.97806 215.72972 216.26962
 216.57974 216.30783 215.59247 214.76524 216.08499 219.74556 223.99579 227.23344
 231.19373 235.84137 240.79961 245.39282 249.45883 253.06113 256.33923 259.34006
 262.11966 264.81964 267.56595 270.35526 273.08929 275.53827 277.35995 278.68930
 279.88791 280.95233 281.75748 282.26907 282.68362 283.21234 283.88507 284.35117
 284.95435 285.58939 286.14413 286.85114
 366.78100 356.34642 345.78984 334.66726 323.08168 311.28710 299.16851 286.98293
 274.70635 262.61477 250.63519 239.94761 230.08103 221.19645 213.38987 206.40329
 200.24871 195.19813 191.79154 189.84496 188.89338 188.96880 189.81522 191.13464
 192.87106 194.97748 197.25190 199.62232 202.07874 204.57015 206.66957 208.52299
 210.16041 211.31683 211.55725 211.79667 211.74509 211.46151 211.10593 210.74735
 210.37576 210.09718 209.91660 209.79202 209.73144 210.07386 210.47128 210.87170
 211.67612 212.86554 214.12696 215.92138 217.86079 219.91521 222.02163 224.11605
 226.18747 228.28289 230.39131 232.50873 234.64915 236.83257 239.09999 241.48140
 244.11382 246.37624 248.38966 250.16608 251.59450 252.72892 253.56234 253.88976
 253.93818 253.72360 253.09501 252.05443 250.67185 248.84427 246.76469 244.60911
 242.41153 240.22695 238.05837 235.90879 233.78021 231.65863 229.69604 227.86446
 226.15888 224.64230 223.28372 222.06714 220.96056 219.93198 219.04740 218.19982
 217.45324 216.64465 215.75407 215.12949 214.59091 214.94055 215.76659 216.22356
 216.59290 216.36954 215.64259 214.77147 216.07704 219.64236 223.87772 227.16255
 231.16438 235.85529 240.83179 245.42212 249.48660 253.09917 256.39441 259.40482
 262.17261 264.82489 267.49783 270.24432 273.01617 275.56781 277.45578 278.81296
 280.02490 281.09668 281.84872 282.27933 282.62701 283.09448 283.74280 284.28571
 284.81830 285.41287 285.94684 286.62729
 366.78100 356.34610 345.78919 334.66629 323.08039 311.28549 299.16658 286.98068
 274.70378 262.61188 250.63197 239.94407 230.07717 221.19227 213.38536 206.39846
 200.24356 195.19265 191.78575 189.83885 188.88695 188.96204 189.80814 191.12724
 192.86334 194.96943 197.24353 199.61363 202.06972 204.56082 206.65992 208.51302
 210.15011 211.30621 211.54631 211.78541 211.73350 211.44960 211.09370 210.73480
 210.36289 210.08399 209.90309 209.77818 209.71728 210.05938 210.45648 210.85657
 211.66067 212.84977 214.11087 215.90496 217.84406 219.89816 222.00425 224.09835
 226.16945 228.26455 230.37264 232.48974 234.62984 236.81294 239.08003 241.46113
 244.09323 246.35533 248.36842 250.14452 251.57262 252.70671 253.53981 253.86691
 253.91501 253.70010 253.07120 252.03030 250.64740 248.81949 246.73959 244.58369
 242.38578 240.20088 238.03198 235.88208 233.75317 231.63127 229.66837 227.83647
 226.13056 224.61366 223.25476 222.03786 220.93095 219.90205 219.01715 218.16924
 217.42234 216.61344 215.72254 215.09763 214.55873 214.92145 215.77838 216.23067
 216.59833 216.39395 215.66833 214.79295 216.07588 219.54205 223.76416 227.13785
 231.14357 235.86748 240.86064 245.44145 249.50214 253.13159 256.44949 259.46899
 262.22766 264.82791 267.41702 270.12085 272.93124 275.58218 277.53119 278.91403
 280.15424 281.23386 281.97363 282.35153 282.65244 283.06781 283.65298 284.23389
 284.74106 285.28009 285.78854 286.43655
 366.78100 356.34564 345.78828 334.66493 323.07857 311.28321 299.16385 286.97749
 274.70014 262.60778 250.62742 239.93906 230.07170 221.18635 213.37899 206.39163
 200.23627 195.18491 191.77756 189.83020 188.87784 188.95248 189.79812 191.11677
 192.85241 194.95805 197.23169 199.60133 202.05698 204.54762 206.64626 208.49890
 210.13554 211.29119 211.53083 211.76947 211.71711 211.43275 211.07640 210.71704
 210.34468 210.06532 209.88396 209.75861 209.69725 210.03889 210.43553 210.83517
 211.63882 212.82746 214.08810 215.88174 217.82038 219.87403 221.97967 224.07331
 226.14395 228.23859 230.34624 232.46288 234.60252 236.78516 239.05180 241.43245
 244.06409 246.32573 248.33837 250.11401 251.54166 252.67530 253.50794 253.83458
 253.88222 253.66687 253.03751 251.99615 250.61279 248.78443 246.70408 244.54772
 242.34936 240.16400 237.99464 235.84429 233.71493 231.59257 229.62921 227.79685
 226.09049 224.57314 223.21378 221.99642 220.88906 219.85970 218.97435 218.12599
 217.37863 216.56927 215.67791 215.05256 214.51320 214.89754 215.80560 216.23621
 216.59845 216.39508 215.67863 214.79471 216.05222 219.44257 223.62978 227.10678
 231.13127 235.88576 240.87375 245.43889 249.50012 253.16066 256.51334 259.54861
 262.31030 264.86838 267.35934 269.97156 272.80219 275.56674 277.56799 278.97906
 280.27197 281.36295 282.08289 282.39450 282.66403 283.05966 283.58960 284.15015
 284.64511 285.12051 285.58957 286.18735
 366.78100 356.34511 345.78721 334.66332 323.07643 311.28053 299.16064 286.97374
 274.69585 262.60296 250.62206 239.93317 230.06528 221.17938 213.37149 206.38360
 200.22770 195.17581 191.76792 189.82002 188.86713 188.94123 189.78634 191.10445
 192.83955 194.94466 197.21777 199.58687 202.04198 204.53209 206.63019 208.48230
 210.11840 211.27351 211.51262 211.75072 211.69783 211.41294 211.05604 210.69615
 210.32326 210.04336 209.86147 209.73558 209.67368 210.01479 210.41089 210.81000
 211.61311 212.80121 214.06132 215.85443 217.79253 219.84564 221.95075 224.04385
 226.11396 228.20807 230.31517 232.43128 234.57038 236.75249 239.01860 241.39870
 244.02981 246.29092 248.30302 250.07813 251.50524 252.63834 253.47045 253.79655
 253.84366 253.62777 252.99787 251.95598 250.57209 248.74319 246.66230 244.50541
 242.30651 240.12062 237.95073 235.79983 233.66994 231.54704 229.58315 227.75026
 226.04336 224.52547 223.16558 221.94768 220.83979 219.80990 218.92400 218.07511
 217.32721 216.51732 215.62543 214.99953 214.45964 214.86993 215.83928 216.26399
 216.58798 216.33144 215.62720 214.75887 216.00594 219.36765 223.54601 227.07802
 231.12387 235.89803 240.89656 245.45720 249.52771 253.21761 256.59958 259.64551
 262.40286 264.92978 267.34909 269.87967 272.69199 275.51578 277.55109 278.98160
 280.29355 281.37686 282.06985 282.37405 282.64886 283.02182 283.51361 284.07553
 284.60098 285.10330 285.58200 286.19205
 366.78100 356.34503 345.78705 334.66308 323.07611 311.28013 299.16016 286.97318
 274.69521 262.60224 250.62126 239.93229 230.06432 221.17834 213.37037 206.38239
 200.22642 195.17445 191.76647 189.81850 188.86553 188.93955 189.78458 191.10260
 192.83763 194.94266 197.21568 199.58471 202.03974 204.52976 206.62779 208.47982
 210.11584 211.27087 211.50989 211.74792 211.69495 211.40997 211.05300 210.69303
 210.32005 210.04008 209.85810 209.73213 209.67016 210.01118 210.40721 210.80624
 211.60926 212.79729 214.05731 215.85034 217.78837 219.84139 221.94642 224.03945
 226.10947 228.20350 230.31053 232.42655 234.56558 236.74760 239.01363 241.39366
 244.02468 246.28571 248.29774 250.07276 251.49979 252.63281 253.46484 253.79087
 253.83789 253.62192 252.99195 251.94997 250.56600 248.73702 246.65605 244.49908
 242.30010 240.11413 237.94416 235.79318 233.66321 231.54024 229.57626 227.74329
 226.03631 224.51834 223.15837 221.94039 220.83242 219.80245 218.91647 218.06750
 217.31952 216.50955 215.61758 214.99160 214.45163 214.86668 215.84731 216.32231
 216.60316 216.20409 215.49994 214.72145 215.99916 219.32214 223.42264 227.08240
 231.13934 235.92812 240.90533 245.45203 249.53485 253.27655 256.71939 259.80533
 262.57886 265.05264 267.34186 269.71973 272.50415 275.42102 277.50726 278.98141
 280.36685 281.45480 282.01190 282.15689 282.39682 282.79300 283.30997 283.87805
 284.40222 284.87933 285.33319 285.91159
 354.97500 345.04800 334.58700 324.11500 313.32600 302.53700 291.65000 280.76700
 269.93100 259.19300 248.62200 238.61700 229.08700 220.35500 212.54000 205.53500
 199.46400 194.49300 191.14300 189.19000 188.08900 188.01400 188.72400 189.90600
 191.46900 193.38200 195.40300 197.55600 199.80700 202.06000 204.28800 206.47900
 208.55200 210.37800 212.02500 213.65900 214.99800 216.11800 217.17200 218.25900
 219.49400 220.64500 221.67900 222.61400 223.54500 224.98200 226.57100 228.19000
 229.79700 231.81100 233.86500 235.97200 238.24200 240.55300 242.89900 245.25300
 247.48800 249.53500 251.36600 252.84800 254.09800 255.16700 256.02700 256.25300
 256.09500 255.54300 253.93500 252.56600 251.38400 250.24500 249.05200 247.70100
 246.01600 243.99600 241.78400 239.39300 236.81300 234.22300 231.65800 229.14400
 226.74000 224.47300 222.33500 220.32500 218.44000 216.67700 214.96200 213.47200
 212.20000 211.10800 210.26000 209.63900 209.24400 209.03100 209.05800 209.33300
 209.78400 210.62600 211.33100 212.39100 213.62500 214.84668 217.72949 219.47640
 220.32566 220.86828 220.88710 220.27371 219.43733 218.84250 219.04934 220.86203
 222.60583 225.72206 229.03064 232.61777 236.12270 239.51333 242.70767 245.68587
 248.41061 250.90679 253.19353 254.91714 256.48655 257.94920 259.39966 260.69384
 261.81714 262.77997 263.71679 264.54570 265.26305 265.89772 266.47676 267.00133
 267.47312 267.89325 268.26027 268.72800
