|-------------------------------------------------------------------------|
|   File Name : in_temp.dat
|   Subject   : temperature profiles used for initial guess atmosphere
|   File Type : input of gmtr
|   Data Type : atmospherical data
|   Author/s  : WRF-Chem
|   Date      : Fri Jul 26 15:39:24 2024
|-------------------------------------------------------------------------|

 WRF-Chem temperature
#
 values of T (K)    (8f10.5)
#
 354.97500 345.04800 334.58700 324.11500 313.32600 302.53700 291.65000 280.76700
 269.93100 259.19300 248.62200 238.61700 229.08700 220.35500 212.54000 205.53500
 199.46400 194.49300 191.14300 189.19000 188.08900 188.01400 188.72400 189.90600
 191.46900 193.38200 195.40300 197.55600 199.80700 202.06000 204.28800 206.47900
 208.55200 210.37800 212.02500 213.65900 214.99800 216.11800 217.17200 218.25900
 219.49400 220.64500 221.67900 222.61400 223.54500 224.98200 226.57100 228.19000
 229.79700 231.81100 233.86500 235.97200 238.24200 240.55300 242.89900 245.25300
 247.48800 249.53500 251.36600 252.84800 254.09800 255.16700 256.02700 256.25300
 256.09500 255.54300 253.93500 252.56600 251.38400 250.24500 249.05200 247.70100
 246.01600 243.99600 241.78400 239.39300 236.81300 234.22300 231.65800 229.14400
 226.74000 224.47300 222.33500 220.32500 218.44000 216.67700 214.96200 213.47200
 212.20000 211.10800 210.26000 209.63900 209.24400 209.03100 209.05800 209.33300
 209.78400 210.62600 211.33100 212.39100 213.62500 214.84668 217.72949 219.47640
 220.32566 220.86828 220.88710 220.27371 219.43733 218.84250 219.04934 220.86203
 222.60583 225.72206 229.03064 232.61777 236.12270 239.51333 242.70767 245.68587
 248.41061 250.90679 253.19353 254.91714 256.48655 257.94920 259.39966 260.69384
 261.81714 262.77997 263.71679 264.54570 265.26305 265.89772 266.47676 267.00133
 267.47312 267.89325 268.26027 268.72800
 366.78100 356.33500 345.76700 334.63300 323.03600 311.23000 299.10000 286.90300
 274.61500 262.51200 250.52100 239.82200 229.94400 221.04800 213.23000 206.23200
 200.06600 195.00400 191.58600 189.62800 188.66500 188.72900 189.56400 190.87200
 192.59700 194.69200 196.95500 199.31400 201.75900 204.23900 206.32700 208.16900
 209.79500 210.94000 211.16900 211.39700 211.33400 211.03900 210.67200 210.30200
 209.91900 209.62900 209.43700 209.30100 209.22900 209.56000 209.94600 210.33500
 211.12800 212.30600 213.55600 215.33900 217.26700 219.31000 221.40500 223.48800
 225.54800 227.63200 229.72900 231.83500 233.96400 236.13600 238.39200 240.76200
 243.38300 245.63400 247.63600 249.40100 250.81800 251.94100 252.76300 253.07900
 253.11600 252.89000 252.25000 251.19800 249.80400 247.96500 245.87400 243.70700
 241.49800 239.30200 237.12200 234.96100 232.82100 230.68800 228.71400 226.87100
 225.15400 223.62600 222.25600 221.02800 219.91000 218.87000 217.97400 217.11500
 216.35700 215.53700 214.63500 213.99900 213.44900 212.85855 212.01316 212.61654
 214.26826 216.08686 218.14273 220.53346 223.40855 226.78828 231.49734 235.90155
 239.42278 243.28576 247.23140 251.11907 254.80144 258.23331 261.38913 264.27520
 266.89312 269.26852 271.44504 273.08845 274.58484 275.98591 277.39845 278.65879
 279.75272 280.69038 281.56708 282.34086 283.01050 283.60295 284.14348 284.63317
 285.07358 285.46577 285.80838 286.24500
 381.81900 372.39900 361.20600 349.77600 337.62200 324.85300 311.81000 298.35300
 284.86000 271.32400 258.56100 246.30400 236.08700 226.79600 218.44800 211.29000
 205.52200 200.89400 197.38100 194.84800 193.01500 192.31500 192.25000 192.43100
 192.91200 193.53700 194.13600 194.71200 195.26200 195.83100 196.39300 196.97600
 197.60400 198.14900 198.58400 199.05700 199.69500 200.37800 201.05400 201.70800
 202.31300 202.85700 203.35500 203.86200 204.56900 205.29700 206.02600 206.98700
 208.19300 209.44100 210.96900 212.57600 214.46200 216.51300 218.63000 220.85300
 223.34100 225.96200 228.73900 231.69700 234.70600 237.70600 240.69200 243.65700
 246.73700 249.69900 252.52100 255.06300 257.29000 259.23300 260.63300 261.68000
 262.46100 262.79800 262.69100 262.22400 261.06900 259.52500 257.70700 255.50700
 253.00100 250.30200 247.39800 244.45200 241.65400 239.05400 236.73300 234.59000
 232.59500 230.72500 228.83400 226.82600 224.66600 222.38700 220.10400 217.71500
 215.45900 213.06600 210.54600 208.09300 205.35400 202.08130 196.05959 200.71215
 209.01611 216.90438 223.84126 229.78593 235.00632 240.20838 245.98943 250.68668
 254.32982 257.93487 261.55666 264.96801 268.15192 271.06452 273.76717 276.25691
 278.57680 280.74479 282.77456 284.60533 286.27232 287.81705 289.31715 290.65561
 291.81734 292.81312 293.70701 294.49387 295.17482 295.77730 296.32696 296.82492
 297.27278 297.67160 298.02000 298.46400
 399.33000 389.90700 379.81300 368.66800 357.52200 345.30100 333.07400 320.22700
 307.21600 293.84800 280.37600 267.29600 254.61000 242.98700 232.15100 221.97700
 212.67200 204.28600 197.66900 192.82100 189.48600 187.45200 186.81400 187.08900
 187.78100 189.05400 190.64800 192.54200 194.63000 196.75200 198.67100 200.15800
 201.53500 202.48700 202.97500 203.34000 203.53900 203.49700 203.38500 203.24700
 203.00500 202.78600 202.60300 202.43700 202.42600 202.88800 203.42000 203.95100
 204.89500 205.99200 207.30100 208.95800 210.73800 213.10000 215.56400 218.18000
 220.96600 223.91800 226.96100 230.09200 233.29300 236.55700 239.95500 243.53700
 246.84500 249.39000 251.54200 253.47400 255.19500 256.48400 257.43100 258.05900
 258.21200 258.04000 257.58200 256.64300 255.23900 253.50700 251.40800 249.05600
 246.57600 243.99400 241.38900 238.83000 236.34400 233.98600 231.96900 230.11800
 228.42300 226.89900 225.54800 224.29700 223.10500 221.96500 220.95800 220.11300
 219.49000 218.92000 218.32500 217.88100 217.42300 216.96366 216.35568 216.80261
 217.73415 218.28582 218.64258 219.10077 220.44626 222.53987 226.38451 230.35736
 233.59734 237.39164 241.29814 245.22796 248.98002 252.51130 255.78595 258.80109
 261.54781 264.05210 266.34239 268.04198 269.58951 271.01303 272.35754 273.55718
 274.59842 275.49092 276.28989 276.99307 277.60161 278.14001 278.63122 279.07623
 279.47646 279.83287 280.14422 280.54100
 399.73800 389.78500 379.66200 368.15100 356.64100 344.35000 331.79200 318.88800
 305.72600 292.49300 279.20900 266.73800 254.69600 244.21100 234.45700 225.43300
 217.56900 210.45100 204.30000 199.30600 195.45800 192.57600 191.02700 190.38600
 190.23900 190.53400 191.16600 191.92500 192.79500 193.76600 194.73200 195.31200
 195.80000 196.05200 196.11500 196.11500 196.03900 195.72300 195.34000 194.98900
 194.75100 194.79200 195.13300 195.59800 196.50600 198.13600 199.85800 201.56600
 204.17900 206.82300 209.89300 213.28400 216.82800 220.60500 224.38700 228.20900
 232.03200 235.82500 239.56000 243.25800 246.84500 250.20100 253.70900 257.46800
 261.53000 264.22100 266.60100 268.68100 270.32900 271.74100 272.83600 273.47400
 273.89800 274.00200 273.75700 273.28800 272.37100 271.10000 269.58900 267.77900
 265.81600 263.72100 261.39300 258.91600 256.29800 253.42300 250.33100 247.11400
 243.83700 240.52900 237.24900 233.99900 230.72800 227.51500 224.25400 220.95200
 217.62700 213.65600 210.12100 206.78900 204.01000 201.99491 199.07309 198.76551
 199.40006 200.48994 201.46112 202.31912 203.45100 204.96110 207.47502 210.85391
 213.70530 217.29629 220.99574 224.72316 228.28753 231.64854 234.68024 237.40893
 239.70644 241.60899 243.46854 245.67368 247.68154 249.52395 251.24767 252.78566
 254.12057 255.26479 256.23740 257.09036 257.82852 258.48160 259.07744 259.61723
 260.10271 260.53504 260.91270 261.39400
 399.73800 389.78500 379.66200 368.15100 356.64100 344.35000 331.79200 318.88800
 305.72600 292.49300 279.20900 266.73800 254.69600 244.21100 234.45700 225.43300
 217.56900 210.45100 204.30000 199.30600 195.45800 192.57600 191.02700 190.38600
 190.23900 190.53400 191.16600 191.92500 192.79500 193.76600 194.73200 195.31200
 195.80000 196.05200 196.11500 196.11500 196.03900 195.72300 195.34000 194.98900
 194.75100 194.79200 195.13300 195.59800 196.50600 198.13600 199.85800 201.56600
 204.17900 206.82300 209.89300 213.28400 216.82800 220.60500 224.38700 228.20900
 232.03200 235.82500 239.56000 243.25800 246.84500 250.20100 253.70900 257.46800
 261.53000 264.22100 266.60100 268.68100 270.32900 271.74100 272.83600 273.47400
 273.89800 274.00200 273.75700 273.28800 272.37100 271.10000 269.58900 267.77900
 265.81600 263.72100 261.39300 258.91600 256.29800 253.42300 250.33100 247.11400
 243.83700 240.52900 237.24900 233.99900 230.72800 227.51500 224.25400 220.95200
 217.62700 213.65600 210.12100 206.78900 204.01000 201.99491 199.07309 198.76551
 199.40006 200.48994 201.46112 202.31912 203.45100 204.96110 207.47502 210.85391
 213.70530 217.29629 220.99574 224.72316 228.28753 231.64854 234.68024 237.40893
 239.70644 241.60899 243.46854 245.67368 247.68154 249.52395 251.24767 252.78566
 254.12057 255.26479 256.23740 257.09036 257.82852 258.48160 259.07744 259.61723
 260.10271 260.53504 260.91270 261.39400
 399.33000 389.90700 379.81300 368.66800 357.52200 345.30100 333.07400 320.22700
 307.21600 293.84800 280.37600 267.29600 254.61000 242.98700 232.15100 221.97700
 212.67200 204.28600 197.66900 192.82100 189.48600 187.45200 186.81400 187.08900
 187.78100 189.05400 190.64800 192.54200 194.63000 196.75200 198.67100 200.15800
 201.53500 202.48700 202.97500 203.34000 203.53900 203.49700 203.38500 203.24700
 203.00500 202.78600 202.60300 202.43700 202.42600 202.88800 203.42000 203.95100
 204.89500 205.99200 207.30100 208.95800 210.73800 213.10000 215.56400 218.18000
 220.96600 223.91800 226.96100 230.09200 233.29300 236.55700 239.95500 243.53700
 246.84500 249.39000 251.54200 253.47400 255.19500 256.48400 257.43100 258.05900
 258.21200 258.04000 257.58200 256.64300 255.23900 253.50700 251.40800 249.05600
 246.57600 243.99400 241.38900 238.83000 236.34400 233.98600 231.96900 230.11800
 228.42300 226.89900 225.54800 224.29700 223.10500 221.96500 220.95800 220.11300
 219.49000 218.92000 218.32500 217.88100 217.42300 216.96366 216.35568 216.80261
 217.73415 218.28582 218.64258 219.10077 220.44626 222.53987 226.38451 230.35736
 233.59734 237.39164 241.29814 245.22796 248.98002 252.51130 255.78595 258.80109
 261.54781 264.05210 266.34239 268.04198 269.58951 271.01303 272.35754 273.55718
 274.59842 275.49092 276.28989 276.99307 277.60161 278.14001 278.63122 279.07623
 279.47646 279.83287 280.14422 280.54100
 381.81900 372.39900 361.20600 349.77600 337.62200 324.85300 311.81000 298.35300
 284.86000 271.32400 258.56100 246.30400 236.08700 226.79600 218.44800 211.29000
 205.52200 200.89400 197.38100 194.84800 193.01500 192.31500 192.25000 192.43100
 192.91200 193.53700 194.13600 194.71200 195.26200 195.83100 196.39300 196.97600
 197.60400 198.14900 198.58400 199.05700 199.69500 200.37800 201.05400 201.70800
 202.31300 202.85700 203.35500 203.86200 204.56900 205.29700 206.02600 206.98700
 208.19300 209.44100 210.96900 212.57600 214.46200 216.51300 218.63000 220.85300
 223.34100 225.96200 228.73900 231.69700 234.70600 237.70600 240.69200 243.65700
 246.73700 249.69900 252.52100 255.06300 257.29000 259.23300 260.63300 261.68000
 262.46100 262.79800 262.69100 262.22400 261.06900 259.52500 257.70700 255.50700
 253.00100 250.30200 247.39800 244.45200 241.65400 239.05400 236.73300 234.59000
 232.59500 230.72500 228.83400 226.82600 224.66600 222.38700 220.10400 217.71500
 215.45900 213.06600 210.54600 208.09300 205.35400 202.08130 196.05959 200.71215
 209.01611 216.90438 223.84126 229.78593 235.00632 240.20838 245.98943 250.68668
 254.32982 257.93487 261.55666 264.96801 268.15192 271.06452 273.76717 276.25691
 278.57680 280.74479 282.77456 284.60533 286.27232 287.81705 289.31715 290.65561
 291.81734 292.81312 293.70701 294.49387 295.17482 295.77730 296.32696 296.82492
 297.27278 297.67160 298.02000 298.46400
 366.78100 356.34204 345.78109 334.65413 323.06417 311.26522 299.14226 286.95231
 274.67135 262.57539 250.59144 239.89948 230.02852 221.13957 213.32861 206.33765
 200.17870 195.12374 191.71279 189.76183 188.80587 188.87692 189.71896 191.03400
 192.76605 194.86809 197.13814 199.50418 201.95622 204.44327 206.53831 208.38735
 210.02040 211.17244 211.40848 211.64353 211.58757 211.29962 210.93966 210.57670
 210.20075 209.91779 209.73283 209.60388 209.53892 209.87696 210.27001 210.66605
 211.46610 212.65114 213.90818 215.69823 217.63327 219.68331 221.78536 223.87540
 225.94245 228.03349 230.13753 232.25058 234.38662 236.56566 238.82871 241.20575
 243.83379 246.09184 248.10088 249.87293 251.29697 252.42701 253.25606 253.57910
 253.62314 253.40419 252.77123 251.72627 250.33932 248.50736 246.42341 244.26345
 242.06149 239.87254 237.69958 235.54562 233.41267 231.28671 229.31975 227.48380
 225.77384 224.25289 222.88993 221.66897 220.55802 219.52506 218.63610 217.78415
 217.03319 216.22024 215.32528 214.69632 214.15337 213.13745 210.74564 209.91998
 210.38104 210.92014 212.36319 215.27455 219.39818 224.12773 229.82259 234.90996
 238.80518 242.79591 247.01762 251.20244 254.99664 258.77609 261.64700 263.48151
 266.08847 268.83743 271.33209 273.51288 275.48553 277.25049 278.77164 280.34998
 282.07547 283.69031 285.22995 286.59048 287.76852 288.81296 289.76733 290.63202
 291.41223 292.10757 292.71848 293.52045
 366.78100 356.34187 345.78074 334.65361 323.06348 311.26435 299.14122 286.95109
 274.66996 262.57383 250.58970 239.89757 230.02644 221.13731 213.32618 206.33505
 200.17592 195.12079 191.70966 189.75853 188.80240 188.87327 189.71514 191.03001
 192.76188 194.86375 197.13362 199.49949 201.95136 204.43823 206.53310 208.38197
 210.01484 211.16671 211.40258 211.63745 211.58132 211.29319 210.93306 210.56993
 210.19380 209.91067 209.72554 209.59641 209.53128 209.86915 210.26202 210.65789
 211.45776 212.64263 213.89950 215.68937 217.62424 219.67411 221.77598 223.86585
 225.93272 228.02359 230.12746 232.24033 234.37620 236.55507 238.81794 241.19481
 243.82268 246.08055 248.08942 249.86129 251.28516 252.41503 253.24390 253.56677
 253.61064 253.39151 252.75838 251.71325 250.32612 248.49399 246.40986 244.24973
 242.04760 239.85847 237.68534 235.53121 233.39808 231.27195 229.30482 227.46869
 225.75856 224.23743 222.87430 221.65317 220.54204 219.50891 218.61978 217.76765
 217.01652 216.20339 215.30826 214.67913 214.13600 213.15694 210.85114 210.02933
 210.38538 210.98041 212.42337 215.21870 219.29416 224.05243 229.74019 234.82199
 238.70918 242.69308 246.92793 251.13254 254.93489 258.72562 261.61102 263.46033
 266.08423 268.83688 271.31229 273.44562 275.43466 277.24280 278.73340 280.27405
 281.98984 283.59485 285.12900 286.48892 287.66806 288.71246 289.66629 290.53107
 291.31384 292.00937 292.62280 293.42697
 366.78100 356.34162 345.78023 334.65285 323.06247 311.26308 299.13970 286.94931
 274.66793 262.57155 250.58716 239.89478 230.02340 221.13401 213.32263 206.33124
 200.17186 195.11648 191.70509 189.75371 188.79733 188.86794 189.70956 191.02417
 192.75579 194.85741 197.12702 199.49264 201.94426 204.43087 206.52549 208.37410
 210.00672 211.15834 211.39395 211.62857 211.57219 211.28380 210.92342 210.56003
 210.18365 209.90027 209.71488 209.58550 209.52012 209.85773 210.25035 210.64596
 211.44558 212.63020 213.88681 215.67643 217.61105 219.66066 221.76228 223.85189
 225.91851 228.00913 230.11274 232.22536 234.36098 236.53959 238.80221 241.17882
 243.80644 246.06406 248.07267 249.84429 251.26791 252.39752 253.22614 253.54875
 253.59237 253.37299 252.73960 251.69422 250.30684 248.47445 246.39007 244.22968
 242.02730 239.83792 237.66453 235.51015 233.37677 231.25038 229.28300 227.44661
 225.73623 224.21485 222.85146 221.63008 220.51870 219.48531 218.59593 217.74354
 216.99216 216.17878 215.28339 214.65401 214.11063 213.17195 210.96045 210.13318
 210.40707 211.02686 212.47273 215.18921 219.18184 223.96518 229.66307 234.74278
 238.62137 242.59680 246.84129 251.06398 254.87465 258.67337 261.57040 263.43524
 266.07483 268.83145 271.28952 273.37784 275.38531 277.23737 278.69852 280.20148
 281.90604 283.50293 285.02856 286.38864 287.56894 288.61340 289.56714 290.43387
 291.21375 291.91232 292.52725 293.33282
 366.78100 356.34135 345.77969 334.65204 323.06138 311.26173 299.13808 286.94742
 274.66577 262.56912 250.58446 239.89181 230.02015 221.13050 213.31885 206.32719
 200.16754 195.11189 191.70023 189.74858 188.79192 188.86227 189.70362 191.01796
 192.74931 194.85065 197.12000 199.48535 201.93669 204.42304 206.51739 208.36573
 209.99808 211.14942 211.38477 211.61912 211.56246 211.27381 210.91315 210.54950
 210.17285 209.88919 209.70354 209.57389 209.50823 209.84558 210.23792 210.63327
 211.43262 212.61696 213.87331 215.66266 217.59700 219.64635 221.74769 223.83704
 225.90339 227.99373 230.09708 232.20942 234.34477 236.52312 238.78546 241.16181
 243.78916 246.04650 248.05485 249.82619 251.24954 252.37889 253.20723 253.52958
 253.57293 253.35327 252.71962 251.67396 250.28631 248.45366 246.36900 244.20835
 242.00569 239.81604 237.64239 235.48773 233.35408 231.22743 229.25977 227.42312
 225.71246 224.19081 222.82716 221.60550 220.49385 219.46019 218.57054 217.71789
 216.96623 216.15258 215.25693 214.62727 214.08362 213.18504 211.06732 210.23935
 210.43535 211.06792 212.50925 215.16667 219.07272 223.87511 229.59427 234.66832
 238.53629 242.50291 246.75502 250.99503 254.81487 258.62003 261.52539 263.40677
 266.06024 268.82101 271.26437 273.31226 275.33600 277.23151 278.66879 280.13474
 281.82605 283.41608 284.93103 286.29071 287.47000 288.51541 289.47046 290.33731
 291.11789 291.81659 292.43112 293.24155
 366.78100 356.34114 345.77927 334.65141 323.06054 311.26068 299.13681 286.94595
 274.66409 262.56722 250.58236 239.88949 230.01763 221.12776 213.31590 206.32404
 200.16417 195.10831 191.69644 189.74458 188.78772 188.85785 189.69899 191.01312
 192.74426 194.84539 197.11453 199.47967 201.93080 204.41694 206.51107 208.35921
 209.99134 211.14248 211.37762 211.61175 211.55489 211.26602 210.90516 210.54129
 210.16443 209.88057 209.69470 209.56484 209.49897 209.83611 210.22825 210.62338
 211.42252 212.60665 213.86279 215.65192 217.58606 219.63520 221.73633 223.82547
 225.89160 227.98174 230.08487 232.19701 234.33215 236.51028 238.77242 241.14855
 243.77569 246.03282 248.04096 249.81210 251.23523 252.36437 253.19250 253.51464
 253.55777 253.33791 252.70405 251.65818 250.27032 248.43745 246.35259 244.19173
 241.98886 239.79900 237.62513 235.47027 233.33640 231.20954 229.24168 227.40481
 225.69395 224.17208 222.80822 221.58635 220.47449 219.44063 218.55076 217.69790
 216.94603 216.13217 215.23630 214.60644 214.06258 213.20001 211.16660 210.35341
 210.46693 211.10661 212.53627 215.14407 218.97685 223.78191 229.53044 234.59271
 238.45085 242.40985 246.67006 250.92703 254.75847 258.56787 261.47940 263.37518
 266.04007 268.80374 271.23581 273.24622 275.28467 277.22253 278.64108 280.07343
 281.75101 283.33417 284.83704 286.19614 287.37714 288.42175 289.37592 290.24295
 291.02551 291.72638 292.33978 293.15356
 366.78100 356.34094 345.77889 334.65083 323.05978 311.25972 299.13566 286.94461
 274.66255 262.56550 250.58044 239.88738 230.01533 221.12527 213.31322 206.32116
 200.16110 195.10505 191.69299 189.74094 188.78388 188.85382 189.69477 191.00871
 192.73966 194.84060 197.10954 199.47449 201.92543 204.41137 206.50532 208.35326
 209.98521 211.13615 211.37109 211.60504 211.54798 211.25893 210.89787 210.53381
 210.15676 209.87270 209.68665 209.55659 209.49053 209.82748 210.21942 210.61437
 211.41331 212.59725 213.85320 215.64214 217.57609 219.62503 221.72597 223.81492
 225.88086 227.97081 230.07375 232.18569 234.32064 236.49858 238.76053 241.13647
 243.76341 246.02036 248.02830 249.79925 251.22219 252.35113 253.17908 253.50102
 253.54397 253.32391 252.68985 251.64380 250.25574 248.42268 246.33763 244.17657
 241.97352 239.78346 237.60940 235.45435 233.32029 231.19324 229.22518 227.38812
 225.67707 224.15501 222.79096 221.56890 220.45684 219.42279 218.53273 217.67968
 216.92762 216.11356 215.21751 214.58745 214.04340 213.21494 211.26151 210.47290
 210.50330 211.14215 212.55678 215.12114 218.89005 223.68692 229.46858 234.51637
 238.36447 242.31825 246.58701 250.86072 254.70654 258.51825 261.43253 263.34113
 266.01355 268.77933 271.20163 273.17926 275.23032 277.20654 278.61435 280.02008
 281.68079 283.25830 284.74789 286.10721 287.28824 288.33334 289.28860 290.15509
 290.93622 291.63675 292.25342 293.06952
 366.78100 356.34070 345.77839 334.65009 323.05879 311.25848 299.13418 286.94287
 274.66057 262.56327 250.57796 239.88466 230.01236 221.12205 213.30975 206.31744
 200.15714 195.10084 191.68853 189.73623 188.77893 188.84862 189.68932 191.00302
 192.73371 194.83441 197.10310 199.46780 201.91850 204.40419 206.49789 208.34559
 209.97728 211.12798 211.36267 211.59637 211.53907 211.24976 210.88846 210.52416
 210.14685 209.86255 209.67625 209.54594 209.47964 209.81633 210.20803 210.60273
 211.40142 212.58512 213.84082 215.62951 217.56321 219.61190 221.71260 223.80130
 225.86699 227.95669 230.05939 232.17108 234.30578 236.48347 238.74517 241.12087
 243.74756 246.00426 248.01196 249.78265 251.20535 252.33405 253.16174 253.48344
 253.52613 253.30583 252.67153 251.62522 250.23692 248.40362 246.31831 244.15701
 241.95370 239.76340 237.58910 235.43379 233.29949 231.17219 229.20388 227.36658
 225.65528 224.13297 222.76867 221.54636 220.43406 219.39976 218.50945 217.65615
 216.90385 216.08954 215.19324 214.56293 214.01863 213.22653 211.35841 210.59204
 210.54741 211.17795 212.56842 215.09953 218.81050 223.59100 229.40457 234.43797
 238.27834 242.22809 246.50438 250.79547 254.65811 258.47278 261.38852 263.30695
 265.98175 268.74594 271.16013 273.10980 275.17050 277.17996 278.58466 279.97198
 281.61700 283.18692 284.66409 286.02429 287.20425 288.24976 289.20578 290.07263
 290.85422 291.55634 292.17285 292.99060
 366.78100 356.34038 345.77776 334.64914 323.05752 311.25690 299.13228 286.94066
 274.65804 262.56042 250.57480 239.88118 230.00856 221.11794 213.30532 206.31270
 200.15208 195.09546 191.68284 189.73022 188.77260 188.84198 189.68236 190.99574
 192.72612 194.82650 197.09488 199.45926 201.90964 204.39502 206.48840 208.33578
 209.96716 211.11754 211.35192 211.58530 211.52768 211.23806 210.87644 210.51182
 210.13420 209.84958 209.66296 209.53234 209.46572 209.80210 210.19348 210.58786
 211.38624 212.56962 213.82500 215.61338 217.54676 219.59514 221.69552 223.78390
 225.84928 227.93866 230.04104 232.15242 234.28680 236.46418 238.72556 241.10094
 243.72732 245.98370 247.99108 249.76146 251.18384 252.31222 253.13960 253.46098
 253.50336 253.28274 252.64812 251.60150 250.21288 248.37926 246.29364 244.13202
 241.92840 239.73778 237.56316 235.40754 233.27292 231.14530 229.17668 227.33906
 225.62744 224.10482 222.74020 221.51758 220.40496 219.37034 218.47972 217.62610
 216.87348 216.05886 215.16224 214.53162 213.98700 213.23445 211.45918 210.70624
 210.60730 211.20726 212.57484 215.08241 218.72729 223.49367 229.34015 234.36024
 238.19417 242.14059 246.42229 250.72971 254.61369 258.43039 261.34528 263.27136
 265.94305 268.70486 271.11252 273.03870 275.10699 277.14502 278.55756 279.93335
 281.56055 283.12006 284.58621 285.94427 287.12503 288.17096 289.12698 289.99399
 290.77762 291.47888 292.09717 292.91592
 366.78100 356.34019 345.77738 334.64857 323.05675 311.25594 299.13113 286.93932
 274.65651 262.55870 250.57288 239.87907 230.00626 221.11545 213.30264 206.30983
 200.14902 195.09220 191.67939 189.72658 188.76877 188.83796 189.67815 190.99134
 192.72152 194.82171 197.08990 199.45409 201.90428 204.38947 206.48265 208.32984
 209.96103 211.11122 211.34541 211.57860 211.52079 211.23097 210.86916 210.50435
 210.12654 209.84173 209.65492 209.52411 209.45729 209.79348 210.18467 210.57886
 211.37705 212.56024 213.81542 215.60361 217.53680 219.58499 221.68518 223.77337
 225.83856 227.92774 230.02993 232.14112 234.27531 236.45250 238.71369 241.08888
 243.71506 245.97125 247.97844 249.74863 251.17082 252.29901 253.12619 253.44738
 253.48957 253.26876 252.63395 251.58714 250.19833 248.36451 246.27870 244.11689
 241.91308 239.72227 237.54746 235.39165 233.25683 231.12902 229.16021 227.32240
 225.61059 224.08778 222.72296 221.50015 220.38734 219.35253 218.46172 217.60791
 216.85510 216.04028 215.14347 214.51266 213.96785 213.24837 211.55081 210.82811
 210.67429 211.23926 212.57219 215.06219 218.65318 223.39691 229.27362 234.27963
 238.10791 242.05269 246.33911 250.66229 254.57166 258.39114 261.30234 263.23431
 265.89865 268.65701 271.06067 272.96942 275.04193 277.10397 278.53433 279.90625
 281.51315 283.05829 284.50958 285.86862 287.04910 288.09494 289.05069 289.91806
 290.70236 291.40463 292.02335 292.83914
 366.78100 356.34021 345.77741 334.64862 323.05682 311.25603 299.13123 286.93944
 274.65665 262.55885 250.57306 239.87926 230.00647 221.11567 213.30288 206.31009
 200.14929 195.09250 191.67970 189.72691 188.76911 188.83832 189.67853 190.99173
 192.72194 194.82214 197.09035 199.45455 201.90476 204.38997 206.48317 208.33038
 209.96158 211.11179 211.34600 211.57920 211.52141 211.23161 210.86982 210.50502
 210.12723 209.84244 209.65564 209.52485 209.45805 209.79426 210.18546 210.57967
 211.37788 212.56108 213.81629 215.60449 217.53770 219.58590 221.68611 223.77432
 225.83952 227.92873 230.03093 232.14214 234.27634 236.45355 238.71476 241.08996
 243.71617 245.97237 247.97958 249.74978 251.17199 252.30020 253.12740 253.44861
 253.49081 253.27002 252.63522 251.58843 250.19964 248.36584 246.28005 244.11825
 241.91446 239.72366 237.54887 235.39308 233.25828 231.13049 229.16169 227.32390
 225.61211 224.08931 222.72452 221.50172 220.38893 219.35413 218.46334 217.60955
 216.85675 216.04196 215.14516 214.51437 213.96957 213.27216 211.62650 210.95244
 210.76401 211.26825 212.57133 215.04117 218.56630 223.29312 229.20294 234.19754
 238.02231 241.96634 246.25650 250.59473 254.53386 258.35703 261.26431 263.20078
 265.85156 268.60419 271.00604 272.89938 274.97293 277.05405 278.50940 279.88562
 281.47012 282.99811 284.43707 285.79456 286.97531 288.02066 288.97815 289.84555
 290.63025 291.33203 291.95004 292.77277
 366.78100 356.34046 345.77793 334.64939 323.05786 311.25732 299.13278 286.94125
 274.65871 262.56118 250.57564 239.88210 230.00957 221.11903 213.30650 206.31396
 200.15343 195.09689 191.68435 189.73182 188.77428 188.84375 189.68421 190.99767
 192.72814 194.82860 197.09707 199.46153 201.91199 204.39746 206.49092 208.33839
 209.96985 211.12031 211.35478 211.58824 211.53071 211.24117 210.87963 210.51510
 210.13756 209.85303 209.66649 209.53596 209.46942 209.80588 210.19735 210.59181
 211.39028 212.57374 213.82920 215.61767 217.55113 219.59960 221.70006 223.78852
 225.85399 227.94345 230.04592 232.15738 234.29184 236.46931 238.73077 241.10624
 243.73270 245.98916 247.99663 249.76709 251.18956 252.31802 253.14548 253.46695
 253.50941 253.28888 252.65434 251.60781 250.21927 248.38573 246.30020 244.13866
 241.93513 239.74459 237.57005 235.41452 233.27998 231.15245 229.18391 227.34637
 225.63484 224.11230 222.74777 221.52523 220.41269 219.37816 218.48762 217.63409
 216.88155 216.06701 215.17048 214.53994 213.99541 213.30884 211.68861 211.06155
 210.89980 211.31186 212.52644 215.01196 218.49573 223.19504 229.13454 234.10934
 237.92677 241.87257 246.16919 250.52571 254.50188 258.33179 261.23886 263.17599
 265.80533 268.54749 270.94632 272.82471 274.89792 276.99258 278.47708 279.86627
 281.43134 282.94031 284.36511 285.72433 286.90417 287.95041 288.90643 289.77588
 290.55823 291.26276 291.88080 292.70474
 366.78100 356.34081 345.77862 334.65043 323.05925 311.25906 299.13487 286.94368
 274.66149 262.56430 250.57911 239.88592 230.01374 221.12355 213.31136 206.31917
 200.15898 195.10279 191.69060 189.73842 188.78123 188.85104 189.69185 191.00566
 192.73647 194.83728 197.10610 199.47091 201.92172 204.40753 206.50134 208.34915
 209.98096 211.13177 211.36659 211.60040 211.54321 211.25402 210.89283 210.52864
 210.15145 209.86727 209.68108 209.55089 209.48470 209.82151 210.21332 210.60813
 211.40695 212.59076 213.84657 215.63538 217.56919 219.61800 221.71881 223.80762
 225.87344 227.96325 230.06606 232.17787 234.31268 236.49049 238.75230 241.12812
 243.75493 246.01174 248.01955 249.79036 251.21317 252.34198 253.16980 253.49161
 253.53442 253.31423 252.68004 251.63385 250.24566 248.41247 246.32729 244.16610
 241.96291 239.77272 237.59853 235.44334 233.30915 231.18197 229.21378 227.37659
 225.66540 224.14321 222.77902 221.55683 220.44465 219.41046 218.52027 217.66708
 216.91489 216.10070 215.20451 214.57432 214.03014 213.34973 211.74394 211.19032
 210.98532 211.38533 212.59421 214.95195 218.34708 223.06635 229.04915 234.01083
 237.83170 241.78621 246.09143 250.47012 254.48495 258.32233 261.22812 263.15604
 265.75482 268.48221 270.87762 272.74240 274.81635 276.92096 278.43924 279.84802
 281.39673 282.88248 284.29730 285.65430 286.83514 287.88147 288.83765 289.70752
 290.49005 291.19424 291.81366 292.63840
 366.78100 356.34135 345.77969 334.65204 323.06139 311.26173 299.13808 286.94742
 274.66577 262.56912 250.58446 239.89181 230.02016 221.13050 213.31885 206.32720
 200.16754 195.11189 191.70023 189.74858 188.79193 188.86227 189.70362 191.01797
 192.74931 194.85066 197.12000 199.48535 201.93670 204.42304 206.51739 208.36574
 209.99808 211.14943 211.38478 211.61912 211.56247 211.27381 210.91316 210.54951
 210.17285 209.88920 209.70355 209.57389 209.50824 209.84559 210.23793 210.63328
 211.43262 212.61697 213.87332 215.66266 217.59701 219.64636 221.74770 223.83705
 225.90339 227.99374 230.09709 232.20943 234.34478 236.52313 238.78547 241.16182
 243.78917 246.04651 248.05486 249.82620 251.24955 252.37890 253.20724 253.52959
 253.57294 253.35328 252.71963 251.67398 250.28632 248.45367 246.36901 244.20836
 242.00571 239.81605 237.64240 235.48775 233.35409 231.22744 229.25978 227.42313
 225.71248 224.19082 222.82717 221.60552 220.49386 219.46021 218.57056 217.71790
 216.96625 216.15259 215.25694 214.62729 214.08363 213.40186 211.79260 211.27692
 211.20232 211.44225 212.49294 214.83112 218.21561 222.94601 229.00003 233.96240
 237.78462 241.73819 246.03671 250.42867 254.47722 258.31256 261.20190 263.11752
 265.68774 268.40198 270.79630 272.65356 274.73071 276.84460 278.40198 279.83646
 281.36716 282.83017 284.23111 285.58807 286.76889 287.81470 288.77182 289.64053
 290.42593 291.12924 291.74896 292.57483
 366.78100 356.34136 345.77973 334.65209 323.06146 311.26182 299.13819 286.94755
 274.66592 262.56928 250.58464 239.89201 230.02037 221.13074 213.31910 206.32747
 200.16783 195.11220 191.70056 189.74893 188.79229 188.86265 189.70402 191.01838
 192.74975 194.85111 197.12048 199.48584 201.93721 204.42357 206.51793 208.36630
 209.99866 211.15003 211.38539 211.61976 211.56312 211.27449 210.91385 210.55022
 210.17358 209.88994 209.70431 209.57467 209.50904 209.84640 210.23877 210.63413
 211.43350 212.61786 213.87422 215.66359 217.59795 219.64732 221.74868 223.83805
 225.90441 227.99478 230.09814 232.21051 234.34587 236.52423 238.78660 241.16296
 243.79033 246.04769 248.05606 249.82742 251.25079 252.38015 253.20851 253.53088
 253.57424 253.35461 252.72097 251.67534 250.28770 248.45507 246.37043 244.20979
 242.00716 239.81752 237.64389 235.48925 233.35562 231.22898 229.26135 227.42471
 225.71408 224.19244 222.82880 221.60717 220.49553 219.46190 218.57226 217.71963
 216.96799 216.15436 215.25872 214.62908 214.08545 213.43069 211.88469 211.30763
 211.35385 211.49071 212.43468 214.78418 218.14188 222.87172 228.97470 233.93127
 237.74463 241.68892 245.97408 250.37337 254.45581 258.28275 261.14523 263.05661
 265.60892 268.31601 270.71301 272.56985 274.64896 276.76984 278.37216 279.83423
 281.34470 282.78232 284.16916 285.52524 286.70563 287.75159 288.70889 289.57736
 290.36349 291.06714 291.68622 292.51401
 366.78100 356.34140 345.77980 334.65220 323.06161 311.26201 299.13841 286.94781
 274.66621 262.56961 250.58501 239.89242 230.02082 221.13122 213.31962 206.32802
 200.16842 195.11282 191.70123 189.74963 188.79303 188.86343 189.70483 191.01923
 192.75063 194.85204 197.12144 199.48684 201.93824 204.42464 206.51904 208.36744
 209.99985 211.15125 211.38665 211.62105 211.56445 211.27585 210.91525 210.55166
 210.17506 209.89146 209.70586 209.57626 209.51066 209.84806 210.24047 210.63587
 211.43527 212.61967 213.87607 215.66547 217.59987 219.64928 221.75068 223.84008
 225.90648 227.99688 230.10028 232.21268 234.34809 236.52649 238.78889 241.16529
 243.79269 246.05009 248.05849 249.82990 251.25330 252.38270 253.21110 253.53350
 253.57690 253.35730 252.72370 251.67811 250.29051 248.45791 246.37331 244.21271
 242.01011 239.82051 237.64692 235.49232 233.35872 231.23212 229.26452 227.42792
 225.71732 224.19573 222.83213 221.61053 220.49893 219.46533 218.57573 217.72313
 216.97154 216.15794 215.26234 214.63274 214.08914 213.45959 211.97273 211.36676
 211.44023 211.52208 212.43997 214.77725 218.07527 222.82066 228.94775 233.88461
 237.68170 241.61717 245.89505 250.30397 254.42606 258.24496 261.08383 262.99857
 265.53363 268.23355 270.63416 272.49377 274.57135 276.69553 278.34424 279.83469
 281.32568 282.73895 284.10861 285.46469 286.64474 287.69080 288.64853 289.51727
 290.30298 291.00623 291.62738 292.45612
 366.78100 356.34174 345.78048 334.65322 323.06296 311.26370 299.14044 286.95018
 274.66892 262.57266 250.58840 239.89614 230.02488 221.13562 213.32436 206.33310
 200.17384 195.11857 191.70731 189.75605 188.79979 188.87053 189.71227 191.02701
 192.75875 194.86049 197.13023 199.49597 201.94771 204.43445 206.52919 208.37793
 210.01067 211.16241 211.39815 211.63289 211.57663 211.28837 210.92811 210.56485
 210.18859 209.90533 209.72007 209.59081 209.52555 209.86329 210.25603 210.65177
 211.45151 212.63625 213.89299 215.68272 217.61746 219.66720 221.76894 223.85868
 225.92542 228.01616 230.11990 232.23264 234.36838 236.54712 238.80986 241.18660
 243.81434 246.07208 248.08082 249.85256 251.27630 252.40604 253.23478 253.55752
 253.60126 253.38200 252.74874 251.70348 250.31622 248.48396 246.39970 244.23944
 242.03718 239.84792 237.67466 235.52040 233.38714 231.26087 229.29361 227.45735
 225.74709 224.22583 222.86257 221.64131 220.53005 219.49679 218.60753 217.75527
 217.00401 216.19075 215.29549 214.66623 214.12297 213.50339 212.03983 211.45082
 211.50145 211.55811 212.45949 214.77138 218.02815 222.77948 228.91060 233.82216
 237.60233 241.53456 245.81116 250.23436 254.39850 258.21024 261.02997 262.94757
 265.46112 268.15225 270.55429 272.41745 274.49246 276.61905 278.31195 279.83276
 281.30484 282.69669 284.05148 285.40692 286.58682 287.63223 288.59015 289.45987
 290.24503 290.95145 291.56970 292.40292
 366.78100 356.34222 345.78143 334.65465 323.06486 311.26608 299.14329 286.95351
 274.67273 262.57694 250.59316 239.90137 230.03059 221.14180 213.33102 206.34023
 200.18145 195.12667 191.71588 189.76510 188.80931 188.88053 189.72274 191.03796
 192.77018 194.87239 197.14261 199.50882 201.96104 204.44825 206.54347 208.39268
 210.02590 211.17812 211.41433 211.64955 211.59376 211.30598 210.94619 210.58341
 210.20763 209.92484 209.74006 209.61127 209.54649 209.88470 210.27792 210.67413
 211.47435 212.65957 213.91678 215.70700 217.64221 219.69243 221.79464 223.88486
 225.95208 228.04329 230.14751 232.26072 234.39694 236.57615 238.83937 241.21658
 243.84480 246.10302 248.11223 249.88445 251.30866 252.43888 253.26809 253.59131
 253.63553 253.41674 252.78396 251.73917 250.35239 248.52060 246.43682 244.27703
 242.07525 239.88647 237.71368 235.55990 233.42711 231.30133 229.33454 227.49876
 225.78898 224.26819 222.90541 221.68462 220.57384 219.54105 218.65227 217.80048
 217.04970 216.23692 215.34213 214.71335 214.17056 213.55396 212.09718 211.54250
 211.54532 211.61388 212.48027 214.76109 217.99677 222.74304 228.86313 233.75023
 237.52083 241.45370 245.73177 250.16978 254.37485 258.17670 260.97369 262.89264
 265.38498 268.06683 270.46936 272.33911 274.41342 276.54102 278.27597 279.82913
 281.28464 282.65701 283.99768 285.35297 286.53250 287.57837 288.53586 289.40515
 290.19138 290.89609 291.51547 292.34702
 366.78100 356.34272 345.78245 334.65617 323.06689 311.26861 299.14634 286.95706
 274.67678 262.58151 250.59823 239.90695 230.03668 221.14840 213.33812 206.34784
 200.18957 195.13529 191.72501 189.77474 188.81946 188.89118 189.73391 191.04963
 192.78235 194.88507 197.15580 199.52252 201.97524 204.46297 206.55869 208.40841
 210.04214 211.19486 211.43158 211.66730 211.61203 211.32475 210.96547 210.60320
 210.22792 209.94564 209.76137 209.63309 209.56881 209.90753 210.30126 210.69798
 211.49870 212.68443 213.94215 215.73287 217.66860 219.71932 221.82204 223.91276
 225.98049 228.07221 230.17693 232.29066 234.42738 236.60710 238.87082 241.24855
 243.87727 246.13599 248.14572 249.91844 251.34316 252.47389 253.30361 253.62733
 253.67205 253.45378 252.82150 251.77722 250.39095 248.55967 246.47639 244.31712
 242.11584 239.92756 237.75528 235.60201 233.46973 231.34445 229.37818 227.54290
 225.83362 224.31335 222.95107 221.73079 220.62051 219.58824 218.69996 217.84868
 217.09841 216.28613 215.39185 214.76358 214.22130 213.60588 212.15186 211.63365
 211.57738 211.67886 212.50960 214.75072 217.98648 222.70549 228.80884 233.67479
 237.44043 241.37660 245.65527 250.10764 254.35069 258.13678 260.90607 262.82791
 265.30447 267.98019 270.38260 272.26187 274.33716 276.46609 278.24115 279.82242
 281.26395 282.61847 283.94687 285.30136 286.48108 287.52679 288.48340 289.35355
 290.13885 290.84525 291.46802 292.29568
 366.78100 356.34322 345.78344 334.65766 323.06888 311.27109 299.14931 286.96053
 274.68075 262.58597 250.60319 239.91241 230.04263 221.15485 213.34506 206.35528
 200.19750 195.14372 191.73394 189.78416 188.82938 188.90160 189.74482 191.06103
 192.79425 194.89747 197.16869 199.53591 201.98913 204.47735 206.57357 208.42379
 210.05800 211.21122 211.44844 211.68466 211.62988 211.34310 210.98432 210.62254
 210.24776 209.96597 209.78219 209.65441 209.59063 209.92985 210.32407 210.72129
 211.52251 212.70873 213.96694 215.75816 217.69438 219.74560 221.84882 223.94004
 226.00826 228.10048 230.20570 232.31991 234.45713 236.63735 238.90157 241.27979
 243.90901 246.16823 248.17845 249.95167 251.37688 252.50810 253.33832 253.66254
 253.70776 253.48998 252.85820 251.81442 250.42864 248.59785 246.51507 244.35629
 242.15551 239.96773 237.79595 235.64317 233.51139 231.38661 229.42082 227.58604
 225.87726 224.35748 222.99570 221.77592 220.66614 219.63436 218.74658 217.89579
 217.14601 216.33423 215.44045 214.81267 214.27089 213.65697 212.20654 211.71671
 211.61029 211.73929 212.55278 214.75056 217.98018 222.66733 228.75366 233.59895
 237.36226 241.29990 245.57899 250.04550 254.32307 258.08792 260.82660 262.75537
 265.22305 267.89377 270.29608 272.18732 274.26505 276.39551 278.20517 279.81314
 281.24243 282.58170 283.89890 285.25345 286.43384 287.47861 288.43527 289.30524
 290.09351 290.79797 291.41928 292.24927
 366.78100 356.34366 345.78432 334.65897 323.07063 311.27329 299.15195 286.96360
 274.68426 262.58992 250.60758 239.91724 230.04789 221.16055 213.35121 206.36187
 200.20452 195.15118 191.74184 189.79250 188.83815 188.91081 189.75447 191.07113
 192.80479 194.90844 197.18010 199.54776 202.00142 204.49007 206.58673 208.43739
 210.07205 211.22571 211.46336 211.70002 211.64568 211.35934 211.00099 210.63965
 210.26531 209.98397 209.80062 209.67328 209.60994 209.94960 210.34426 210.74191
 211.54357 212.73023 213.98889 215.78054 217.71720 219.76886 221.87252 223.96418
 226.03283 228.12549 230.23115 232.34581 234.48346 236.66412 238.92878 241.30744
 243.93710 246.19675 248.20741 249.98107 251.40673 252.53838 253.36904 253.69370
 253.73936 253.52201 252.89067 251.84733 250.46199 248.63165 246.54930 244.39096
 242.19062 240.00328 237.83193 235.67959 233.54825 231.42391 229.45857 227.62422
 225.91588 224.39654 223.03520 221.81585 220.70651 219.67517 218.78783 217.93748
 217.18814 216.37680 215.48346 214.85612 214.31477 213.70512 212.26476 211.78758
 211.65327 211.79463 212.60638 214.76575 217.97130 222.62903 228.70122 233.52812
 237.28351 241.22136 245.50140 249.98294 254.29089 258.02988 260.73801 262.67664
 265.14191 267.80951 270.21011 272.11411 274.19498 276.32867 278.16818 279.79755
 281.21658 282.54446 283.85406 285.20853 286.38733 287.43411 288.39008 289.26025
 290.04626 290.75436 291.37479 292.20743
 366.78100 356.34417 345.78533 334.66050 323.07267 311.27584 299.15500 286.96717
 274.68834 262.59451 250.61267 239.92284 230.05401 221.16717 213.35834 206.36951
 200.21268 195.15984 191.75101 189.80218 188.84834 188.92151 189.76568 191.08285
 192.81701 194.92118 197.19335 199.56152 202.01568 204.50485 206.60202 208.45318
 210.08835 211.24252 211.48069 211.71785 211.66402 211.37819 211.02035 210.65952
 210.28569 210.00486 209.82202 209.69519 209.63236 209.97253 210.36769 210.76586
 211.56803 212.75519 214.01436 215.80653 217.74370 219.79586 221.90003 223.99220
 226.06136 228.15453 230.26070 232.37587 234.51403 236.69520 238.96037 241.33954
 243.96970 246.22987 248.24104 250.01520 251.44137 252.57354 253.40471 253.72987
 253.77604 253.55921 252.92837 251.88554 250.50071 248.67088 246.58904 244.43121
 242.23138 240.04455 237.87371 235.72188 233.59105 231.46721 229.50238 227.66855
 225.96072 224.44188 223.08105 221.86222 220.75338 219.72255 218.83572 217.98589
 217.23705 216.42622 215.53339 214.90656 214.36572 213.75627 212.31638 211.85457
 211.70543 211.84177 212.66615 214.79587 217.96065 222.59352 228.65308 233.46060
 237.20262 241.13779 245.42200 249.92059 254.25504 257.96320 260.64011 262.59418
 265.06238 267.72617 270.12326 272.04126 274.12799 276.26535 278.12930 279.77695
 281.18820 282.50778 283.81366 285.16702 286.34543 287.39227 288.34796 289.21817
 290.00497 290.71051 291.33298 292.16507
 366.78100 356.34469 345.78637 334.66206 323.07475 311.27843 299.15812 286.97081
 274.69249 262.59918 250.61787 239.92855 230.06024 221.17393 213.36562 206.37730
 200.22099 195.16868 191.76036 189.81205 188.85874 188.93242 189.77711 191.09480
 192.82948 194.93417 197.20686 199.57554 202.03023 204.51992 206.61760 208.46929
 210.10498 211.25966 211.49835 211.73604 211.68272 211.39741 211.04010 210.67978
 210.30647 210.02616 209.84385 209.71753 209.65522 209.99591 210.39159 210.79028
 211.59297 212.78065 214.04034 215.83303 217.77071 219.82340 221.92809 224.02077
 226.09046 228.18415 230.29083 232.40652 234.54521 236.72689 238.99258 241.37227
 244.00295 246.26364 248.27533 250.05001 251.47670 252.60939 253.44108 253.76676
 253.81345 253.59714 252.96682 251.92451 250.54020 248.71088 246.62957 244.47226
 242.27294 240.08663 237.91632 235.76500 233.63469 231.51138 229.54706 227.71375
 226.00644 224.48812 223.12781 221.90950 220.80118 219.77087 218.88456 218.03524
 217.28693 216.47662 215.58431 214.95799 214.41768 213.80711 212.36459 211.91385
 211.76642 211.89336 212.72322 214.83545 217.95792 222.55577 228.60236 233.39221
 237.12027 241.05225 245.34360 249.86092 254.21695 257.88779 260.53268 262.50565
 264.98462 267.64502 270.03635 271.96863 274.06415 276.20520 278.08847 279.75168
 281.15860 282.47379 283.77521 285.12881 286.30728 287.35315 288.30823 289.18060
 289.96481 290.67236 291.29462 292.12436
 366.78100 356.34543 345.78786 334.66428 323.07771 311.28214 299.16257 286.97600
 274.69842 262.60585 250.62528 239.93671 230.06914 221.18356 213.37599 206.38842
 200.23285 195.18128 191.77371 189.82613 188.87356 188.94799 189.79342 191.11185
 192.84727 194.95270 197.22613 199.59556 202.05099 204.54141 206.63984 208.49227
 210.12870 211.28413 211.52355 211.76198 211.70941 211.42484 211.06827 210.70869
 210.33612 210.05655 209.87498 209.74941 209.68783 210.02926 210.42569 210.82512
 211.62855 212.81697 214.07740 215.87083 217.80926 219.86269 221.96812 224.06154
 226.13197 228.22640 230.33383 232.45026 234.58968 236.77211 239.03854 241.41897
 244.05040 246.31182 248.32425 250.09968 251.52711 252.66054 253.49296 253.81939
 253.86682 253.65125 253.02168 251.98010 250.59653 248.76796 246.68739 244.53082
 242.33224 240.14667 237.97710 235.82653 233.69696 231.57439 229.61081 227.77824
 226.07167 224.55410 223.19453 221.97695 220.86938 219.83981 218.95424 218.10567
 217.35809 216.54852 215.65695 215.03138 214.49181 213.86839 212.39551 211.97643
 211.83797 211.94540 212.78926 214.87846 217.94749 222.51601 228.55559 233.32047
 237.03325 240.96428 245.26575 249.80341 254.17691 257.80463 260.41425 262.41214
 264.91019 267.56622 269.94943 271.89771 274.00256 276.14877 278.04721 279.72272
 281.12863 282.44275 283.74106 285.09521 286.27393 287.31891 288.27567 289.14441
 289.93240 290.63589 291.26086 292.09003
 366.78100 356.34633 345.78966 334.66699 323.08132 311.28664 299.16797 286.98230
 274.70563 262.61396 250.63429 239.94662 230.07995 221.19527 213.38860 206.40193
 200.24726 195.19659 191.78992 189.84325 188.89158 188.96690 189.81323 191.13256
 192.86889 194.97522 197.24955 199.61988 202.07621 204.56753 206.66686 208.52019
 210.15752 211.31385 211.55418 211.79351 211.74184 211.45817 211.10249 210.74382
 210.37215 210.09348 209.91281 209.78814 209.72747 210.06980 210.46712 210.86745
 211.67178 212.86111 214.12244 215.91677 217.85610 219.91043 222.01675 224.11108
 226.18241 228.27774 230.38607 232.50340 234.64373 236.82706 239.09438 241.47571
 244.10804 246.37037 248.38370 250.16003 251.58836 252.72269 253.55602 253.88334
 253.93167 253.71700 253.08833 252.04766 250.66499 248.83732 246.75765 244.60197
 242.40430 240.21963 238.05096 235.90129 233.77262 231.65095 229.68828 227.85660
 226.15093 224.63426 223.27559 222.05892 220.95225 219.92358 219.03891 218.19123
 217.44456 216.63589 215.74522 215.12055 214.58188 213.93701 212.41344 212.03439
 211.92688 212.00536 212.83586 214.92097 217.96329 222.47580 228.49925 233.23994
 236.94464 240.87764 245.19177 249.75053 254.13708 257.71622 260.28735 262.31464
 264.83810 267.49011 269.86133 271.82672 273.94360 276.09415 278.00424 279.68982
 281.09793 282.41302 283.71121 285.06320 286.24240 287.28760 288.24326 289.11169
 289.89932 290.60455 291.22974 292.05792
 366.78100 356.34712 345.79125 334.66937 323.08450 311.29062 299.17275 286.98787
 274.71200 262.62112 250.64224 239.95537 230.08949 221.20562 213.39974 206.41387
 200.25999 195.21011 191.80424 189.85836 188.90749 188.98361 189.83074 191.15086
 192.88799 194.99511 197.27023 199.64136 202.09848 204.59061 206.69073 208.54486
 210.18298 211.34010 211.58123 211.82135 211.77048 211.48760 211.13273 210.77485
 210.40398 210.12610 209.94622 209.82235 209.76247 210.10560 210.50372 210.90485
 211.70997 212.90009 214.16222 215.95734 217.89747 219.95259 222.05972 224.15484
 226.22697 228.32309 230.43221 232.55034 234.69146 236.87559 239.14371 241.52584
 244.15896 246.42208 248.43621 250.21333 251.64246 252.77758 253.61171 253.93983
 253.98896 253.77508 253.14720 252.10733 250.72545 248.89858 246.81970 244.66483
 242.46795 240.28407 238.11620 235.96732 233.83945 231.71857 229.75670 227.92582
 226.22095 224.70507 223.34719 222.13132 221.02544 219.99757 219.11369 218.26682
 217.52094 216.71306 215.82319 215.19931 214.66144 213.99907 212.43414 212.08723
 212.00468 212.06967 212.90976 214.96286 217.95248 222.43275 228.45650 233.17271
 236.86296 240.79590 245.12256 249.70189 254.09590 257.61877 260.14819 262.20880
 264.76569 267.41293 269.76968 271.75375 273.88458 276.04022 277.95831 279.65268
 281.06662 282.38730 283.68448 285.03622 286.21591 287.26047 288.21561 289.08426
 289.87079 290.57645 291.19937 292.03113
 366.78100 356.34772 345.79244 334.67117 323.08689 311.29361 299.17633 286.99206
 274.71678 262.62650 250.64822 239.96194 230.09667 221.21339 213.40811 206.42283
 200.26956 195.22028 191.81500 189.86972 188.91944 188.99617 189.84389 191.16461
 192.90233 195.01006 197.28578 199.65750 202.11522 204.60794 206.70867 208.56339
 210.20211 211.35983 211.60156 211.84228 211.79200 211.50972 211.15544 210.79817
 210.42789 210.15061 209.97133 209.84806 209.78878 210.13250 210.53122 210.93294
 211.73867 212.92939 214.19211 215.98783 217.92856 219.98428 222.09200 224.18772
 226.26044 228.35717 230.46689 232.58561 234.72733 236.91206 239.18078 241.56350
 244.19722 246.46094 248.47567 250.25339 251.68311 252.81883 253.65356 253.98228
 254.03200 253.81872 253.19144 252.15217 250.77089 248.94461 246.86633 244.71206
 242.51578 240.33250 238.16522 236.01694 233.88967 231.76939 229.80811 227.97783
 226.27356 224.75828 223.40100 222.18572 221.08044 220.05317 219.16989 218.32361
 217.57833 216.77106 215.88178 215.25850 214.72122 214.04979 212.46347 212.12401
 212.10085 212.10309 212.95993 215.06007 217.99712 222.39604 228.40138 233.08667
 236.76822 240.70525 245.05157 249.65453 254.05127 257.51178 260.00351 262.10269
 264.69647 267.33841 269.67789 271.68222 273.82706 275.98788 277.91019 279.61029
 281.03247 282.36292 283.66174 285.01456 286.19205 287.23746 288.19153 289.06015
 289.84647 290.55222 291.17520 292.00461
 366.78100 356.34796 345.79292 334.67188 323.08784 311.29480 299.17776 286.99372
 274.71868 262.62864 250.65059 239.96455 230.09951 221.21647 213.41143 206.42639
 200.27335 195.22431 191.81927 189.87423 188.92419 189.00115 189.84911 191.17007
 192.90803 195.01599 197.29195 199.66391 202.12187 204.61483 206.71578 208.57074
 210.20970 211.36766 211.60962 211.85058 211.80054 211.51850 211.16446 210.80742
 210.43738 210.16034 209.98130 209.85826 209.79922 210.14318 210.54214 210.94410
 211.75006 212.94102 214.20397 215.99993 217.94089 219.99685 222.10481 224.20077
 226.27373 228.37069 230.48065 232.59961 234.74157 236.92653 239.19549 241.57845
 244.21241 246.47637 248.49133 250.26929 251.69925 252.83521 253.67016 253.99912
 254.04908 253.83604 253.20900 252.16996 250.78892 248.96288 246.88484 244.73080
 242.53476 240.35172 238.18468 236.03664 233.90960 231.78956 229.82852 227.99848
 226.29444 224.77939 223.42235 222.20731 221.10227 220.07523 219.19219 218.34615
 217.60111 216.79407 215.90503 215.28199 214.74495 214.08118 212.51294 212.13414
 212.18098 212.24609 212.99353 215.05804 218.03137 222.34990 228.35310 233.01534
 236.68111 240.62160 244.98761 249.61304 254.00975 257.40585 259.85925 261.99786
 264.63007 267.26471 269.58511 271.60916 273.76981 275.93576 277.85989 279.56329
 280.99585 282.33640 283.64230 284.99567 286.17340 287.21686 288.17160 289.03873
 289.82574 290.53113 291.15530 291.98175
 366.78100 356.34806 345.79312 334.67217 323.08823 311.29529 299.17835 286.99441
 274.71947 262.62952 250.65158 239.96564 230.10070 221.21776 213.41282 206.42787
 200.27493 195.22599 191.82105 189.87611 188.92616 189.00322 189.85128 191.17234
 192.91040 195.01846 197.29451 199.66657 202.12463 204.61769 206.71875 208.57380
 210.21286 211.37092 211.61298 211.85404 211.80410 211.52215 211.16821 210.81127
 210.44133 210.16439 209.98545 209.86250 209.80356 210.14762 210.54668 210.94874
 211.75479 212.94585 214.20891 216.00497 217.94603 220.00209 222.11014 224.20620
 226.27926 228.37632 230.48638 232.60543 234.74749 236.93255 239.20161 241.58467
 244.21873 246.48278 248.49784 250.27590 251.70596 252.84202 253.67708 254.00613
 254.05619 253.84325 253.21631 252.17737 250.79642 248.97048 246.89254 244.73860
 242.54266 240.35972 238.19277 236.04483 233.91789 231.79795 229.83701 228.00706
 226.30312 224.78818 223.43124 222.21630 221.11136 220.08441 219.20147 218.35553
 217.61059 216.80365 215.91471 215.29176 214.75482 214.10347 212.56459 212.14989
 212.25642 212.37230 213.02386 215.06276 218.07803 222.31683 228.30679 232.95236
 236.59959 240.54160 244.92642 249.57327 253.96545 257.29175 259.70505 261.88849
 264.56219 267.18823 269.48926 271.53537 273.71396 275.88559 277.81094 279.51727
 280.96155 282.31113 283.62634 284.97845 286.15720 287.20026 288.15442 289.02240
 289.80939 290.51349 291.13559 291.96603
 366.78100 356.34830 345.79359 334.67289 323.08919 311.29648 299.17978 286.99607
 274.72137 262.63167 250.65396 239.96826 230.10356 221.22085 213.41615 206.43144
 200.27874 195.23004 191.82533 189.88063 188.93093 189.00822 189.85652 191.17781
 192.91611 195.02441 197.30070 199.67300 202.13130 204.62459 206.72589 208.58118
 210.22048 211.37878 211.62107 211.86237 211.81267 211.53096 211.17726 210.82055
 210.45085 210.17415 209.99544 209.87274 209.81404 210.15833 210.55763 210.95992
 211.76622 212.95752 214.22081 216.01711 217.95841 220.01470 222.12300 224.21929
 226.29259 228.38989 230.50018 232.61948 234.76178 236.94707 239.21637 241.59966
 244.23396 246.49826 248.51355 250.29185 251.72215 252.85844 253.69374 254.02303
 254.07333 253.86063 253.23392 252.19522 250.81452 248.98881 246.91111 244.75740
 242.56170 240.37900 238.21229 236.06459 233.93789 231.81818 229.85748 228.02777
 226.32407 224.80937 223.45266 222.23796 221.13326 220.10655 219.22385 218.37814
 217.63344 216.82674 215.93803 215.31533 214.77863 214.13028 212.59848 212.18991
 212.33154 212.46017 213.06996 215.10544 218.11595 222.28847 228.26056 232.88676
 236.51346 240.45802 244.86484 249.53275 253.91083 257.16727 259.54370 261.77866
 264.49518 267.11377 269.39783 271.46634 273.66415 275.84222 277.76660 279.47534
 280.93283 282.29245 283.61276 284.96387 286.14301 287.18643 288.13977 289.00571
 289.79242 290.49756 291.12003 291.94962
 366.78100 356.34877 345.79454 334.67432 323.09109 311.29886 299.18263 286.99941
 274.72518 262.63595 250.65872 239.97349 230.10927 221.22704 213.42281 206.43858
 200.28635 195.23813 191.83390 189.88967 188.94044 189.01822 189.86699 191.18876
 192.92753 195.03630 197.31308 199.68585 202.14462 204.63839 206.74017 208.59594
 210.23571 211.39448 211.63725 211.87903 211.82980 211.54857 211.19534 210.83911
 210.46989 210.19366 210.01543 209.89320 209.83498 210.17975 210.57952 210.98229
 211.78906 212.98084 214.24461 216.04138 217.98315 220.03993 222.14870 224.24547
 226.31924 228.41701 230.52779 232.64756 234.79033 236.97610 239.24587 241.62965
 244.26442 246.52919 248.54496 250.32374 251.75451 252.89128 253.72705 254.05682
 254.10760 253.89537 253.26914 252.23091 250.85069 249.02546 246.94823 244.79500
 242.59977 240.41755 238.25132 236.10409 233.97786 231.85864 229.89841 228.06918
 226.36595 224.85172 223.49550 222.28127 221.17704 220.15081 219.26858 218.42336
 217.67913 216.87290 215.98467 215.36245 214.82622 214.16661 212.60822 212.25677
 212.40627 212.52106 213.13658 215.17233 218.13554 222.25430 228.21449 232.81178
 236.42029 240.37202 244.80371 249.49208 253.85139 257.03778 259.38251 261.67316
 264.43130 267.04190 269.31003 271.40240 273.61923 275.80270 277.72665 279.43698
 280.90652 282.27686 283.60114 284.95255 286.12952 287.17294 288.12646 288.99225
 289.77884 290.48163 291.10571 291.93134
 366.78100 356.34933 345.79566 334.67599 323.09332 311.30165 299.18598 287.00331
 274.72965 262.64098 250.66431 239.97964 230.11597 221.23430 213.43063 206.44696
 200.29529 195.24762 191.84395 189.90028 188.95161 189.02994 189.87927 191.20160
 192.94094 195.05027 197.32760 199.70093 202.16026 204.65459 206.75692 208.61325
 210.25358 211.41291 211.65624 211.89857 211.84990 211.56923 211.21656 210.86090
 210.49223 210.21656 210.03889 209.91722 209.85955 210.20488 210.60521 211.00854
 211.81587 213.00820 214.27253 216.06986 218.01219 220.06952 222.17886 224.27619
 226.35052 228.44885 230.56018 232.68051 234.82384 237.01017 239.28050 241.66483
 244.30016 246.56549 248.58182 250.36115 251.79248 252.92981 253.76615 254.09648
 254.14781 253.93614 253.31047 252.27280 250.89313 249.06846 246.99179 244.83912
 242.64445 240.46278 238.29711 236.15044 234.02477 231.90611 229.94644 228.11777
 226.41510 224.90143 223.54576 222.33209 221.22842 220.20275 219.32108 218.47641
 217.73274 216.92707 216.03940 215.41773 214.88206 214.20450 212.60367 212.33833
 212.48177 212.57353 213.21309 215.24504 218.14868 222.21417 228.16519 232.73161
 236.32471 240.28668 244.74522 249.45222 253.78818 256.90723 259.22348 261.57126
 264.36905 266.97101 269.22495 271.34207 273.57785 275.76630 277.68820 279.40060
 280.88235 282.26340 283.59183 284.94305 286.11877 287.16272 288.11441 288.98230
 289.76718 290.47177 291.09460 291.92194
 366.78100 356.34970 345.79639 334.67709 323.09478 311.30348 299.18817 287.00587
 274.73256 262.64426 250.66795 239.98365 230.12034 221.23904 213.43573 206.45243
 200.30112 195.25382 191.85051 189.90721 188.95890 189.03760 189.88729 191.20999
 192.94968 195.05938 197.33707 199.71077 202.17046 204.66516 206.76785 208.62455
 210.26524 211.42494 211.66863 211.91133 211.86302 211.58272 211.23041 210.87511
 210.50680 210.23150 210.05419 209.93289 209.87558 210.22128 210.62197 211.02567
 211.83336 213.02606 214.29075 216.08845 218.03114 220.08884 222.19853 224.29623
 226.37092 228.46962 230.58131 232.70201 234.84570 237.03240 239.30309 241.68779
 244.32348 246.58918 248.60587 250.38557 251.81726 252.95496 253.79165 254.12235
 254.17404 253.96274 253.33743 252.30013 250.92082 249.09652 247.02021 244.86791
 242.67360 240.49230 238.32699 236.18069 234.05538 231.93708 229.97777 228.14947
 226.44716 224.93386 223.57855 222.36525 221.26194 220.23664 219.35533 218.51103
 217.76772 216.96242 216.07511 215.45381 214.91850 214.22992 212.60306 212.42451
 212.55980 212.62189 213.28485 215.31239 218.16142 222.17514 228.11208 232.65213
 236.23286 240.20616 244.69066 249.41298 253.72203 256.77615 259.06879 261.47513
 264.30548 266.89804 269.14172 271.28320 273.53867 275.73383 277.65335 279.36676
 280.85919 282.25046 283.58270 284.93372 286.10968 287.15228 288.10580 288.97119
 289.75742 290.46027 291.08331 291.90979
 366.78100 356.34989 345.79678 334.67767 323.09556 311.30446 299.18935 287.00724
 274.73413 262.64602 250.66991 239.98580 230.12269 221.24158 213.43848 206.45537
 200.30426 195.25715 191.85404 189.91093 188.96282 189.04171 189.89160 191.21450
 192.95439 195.06428 197.34217 199.71606 202.17595 204.67084 206.77373 208.63062
 210.27152 211.43141 211.67530 211.91819 211.87008 211.58997 211.23786 210.88275
 210.51464 210.23954 210.06243 209.94132 209.88421 210.23010 210.63099 211.03488
 211.84277 213.03566 214.30056 216.09845 218.04134 220.09923 222.20912 224.30701
 226.38190 228.48079 230.59268 232.71358 234.85747 237.04436 239.31525 241.70014
 244.33603 246.60192 248.61881 250.39870 251.83060 252.96849 253.80538 254.13627
 254.18816 253.97705 253.35194 252.31483 250.93572 249.11161 247.03551 244.88340
 242.68929 240.50818 238.34307 236.19696 234.07185 231.95374 229.99463 228.16653
 226.46442 224.95131 223.59620 222.38309 221.27998 220.25487 219.37376 218.52965
 217.78655 216.98144 216.09433 215.47322 214.93811 214.24471 212.60645 212.50870
 212.65042 212.66937 213.34828 215.37111 218.17053 222.13852 228.05246 232.56891
 236.14314 240.12898 244.63889 249.37216 253.65013 256.64249 258.91803 261.38016
 264.23938 266.82303 269.05817 271.22794 273.50259 275.70367 277.62183 279.33682
 280.84216 282.24164 283.57495 284.92749 286.10254 287.14642 288.09885 288.96497
 289.74915 290.45346 291.07568 291.90204
 366.78100 356.34989 345.79679 334.67768 323.09558 311.30447 299.18937 287.00726
 274.73416 262.64605 250.66995 239.98584 230.12274 221.24163 213.43853 206.45542
 200.30432 195.25721 191.85411 189.91100 188.96290 189.04179 189.89168 191.21458
 192.95447 195.06437 197.34226 199.71616 202.17605 204.67095 206.77384 208.63074
 210.27163 211.43153 211.67542 211.91832 211.87021 211.59011 211.23800 210.88290
 210.51479 210.23969 210.06258 209.94147 209.88437 210.23026 210.63116 211.03505
 211.84295 213.03584 214.30074 216.09863 218.04153 220.09942 222.20932 224.30721
 226.38211 228.48100 230.59290 232.71379 234.85769 237.04458 239.31548 241.70037
 244.33626 246.60216 248.61905 250.39895 251.83084 252.96874 253.80563 254.13653
 254.18842 253.97732 253.35221 252.31511 250.93600 249.11190 247.03579 244.88369
 242.68958 240.50848 238.34337 236.19727 234.07216 231.95406 229.99495 228.16684
 226.46474 224.95163 223.59653 222.38342 221.28032 220.25521 219.37411 218.53000
 217.78690 216.98179 216.09469 215.47358 214.93848 214.24805 212.61681 212.58844
 212.74808 212.71878 213.41226 215.42325 218.18144 222.10249 227.98869 232.48563
 236.05586 240.05637 244.59067 249.32874 253.57016 256.50421 258.76730 261.28928
 264.17029 266.74591 268.97943 271.17761 273.47122 275.67996 277.59637 279.30862
 280.82050 282.22559 283.57214 284.92459 286.10159 287.14496 288.09760 288.96405
 289.74860 290.45178 291.07214 291.89978
 366.78100 356.34982 345.79665 334.67747 323.09530 311.30412 299.18894 287.00677
 274.73359 262.64542 250.66924 239.98506 230.12189 221.24071 213.43754 206.45436
 200.30318 195.25601 191.85283 189.90966 188.96148 189.04030 189.89013 191.21295
 192.95278 195.06260 197.34042 199.71425 202.17407 204.66889 206.77172 208.62854
 210.26937 211.42919 211.67301 211.91584 211.86766 211.58749 211.23531 210.88013
 210.51196 210.23678 210.05961 209.93843 209.88125 210.22708 210.62790 211.03173
 211.83955 213.03237 214.29720 216.09502 218.03785 220.09567 222.20549 224.30332
 226.37814 228.47697 230.58879 232.70961 234.85344 237.04026 239.31109 241.69591
 244.33173 246.59756 248.61438 250.39421 251.82603 252.96385 253.80068 254.13150
 254.18333 253.97215 253.34697 252.30980 250.93062 249.10645 247.03027 244.87809
 242.68392 240.50274 238.33757 236.19139 234.06621 231.94804 229.98886 228.16068
 226.45851 224.94533 223.59016 222.37698 221.27380 220.24863 219.36745 218.52328
 217.78010 216.97492 216.08775 215.46657 214.93140 214.24600 212.62665 212.66643
 212.85587 212.76776 213.47227 215.47081 218.18982 222.07095 227.91859 232.39940
 235.97385 239.98994 244.54631 249.28571 253.48917 256.36768 258.62741 261.19818
 264.09610 266.66302 268.89890 271.12817 273.44244 275.65741 277.56836 279.27798
 280.79492 282.20755 283.56992 284.92599 286.10223 287.14578 288.09976 288.96469
 289.74869 290.45172 291.07211 291.89923
 366.78100 356.34998 345.79697 334.67795 323.09594 311.30492 299.18990 287.00789
 274.73487 262.64685 250.67084 239.98682 230.12381 221.24279 213.43977 206.45676
 200.30574 195.25873 191.85571 189.91269 188.96468 189.04366 189.89365 191.21663
 192.95661 195.06660 197.34458 199.71856 202.17855 204.67353 206.77652 208.63350
 210.27448 211.43447 211.67845 211.92144 211.87342 211.59340 211.24139 210.88637
 210.51836 210.24334 210.06632 209.94531 209.88829 210.23427 210.63526 211.03924
 211.84723 213.04021 214.30519 216.10318 218.04616 220.10415 222.21413 224.31211
 226.38710 228.48608 230.59806 232.71905 234.86303 237.05002 239.32100 241.70598
 244.34197 246.60795 248.62494 250.40492 251.83690 252.97489 253.81187 254.14286
 254.19484 253.98382 253.35881 252.32179 250.94277 249.11876 247.04274 244.89073
 242.69671 240.51569 238.35068 236.20466 234.07965 231.96163 230.00261 228.17460
 226.47258 224.95957 223.60455 222.39153 221.28852 220.26350 219.38248 218.53847
 217.79545 216.99044 216.10342 215.48240 214.94739 214.25566 212.62138 212.74217
 212.96107 212.83083 213.54614 215.50728 218.18881 222.03604 227.84715 232.31668
 235.89386 239.92908 244.50519 249.23988 253.39772 256.22455 258.47934 261.10928
 264.01740 266.57944 268.82742 271.08456 273.42072 275.64801 277.55542 279.26273
 280.78052 282.19519 283.56454 284.92297 286.09894 287.14221 288.09531 288.96191
 289.75125 290.45917 291.08371 291.90744
 366.78100 356.34973 345.79647 334.67720 323.09494 311.30367 299.18840 287.00614
 274.73287 262.64461 250.66834 239.98407 230.12081 221.23954 213.43628 206.45301
 200.30174 195.25448 191.85121 189.90794 188.95968 189.03841 189.88815 191.21088
 192.95061 195.06035 197.33808 199.71182 202.17155 204.66628 206.76902 208.62575
 210.26649 211.42622 211.66995 211.91269 211.86442 211.58416 211.23189 210.87662
 210.50836 210.23309 210.05583 209.93456 209.87729 210.22303 210.62376 211.02750
 211.83523 213.02796 214.29270 216.09043 218.03316 220.09090 222.20063 224.29837
 226.37310 228.47183 230.58357 232.70430 234.84804 237.03477 239.30550 241.69024
 244.32597 246.59171 248.60844 250.38817 251.81991 252.95764 253.79438 254.12511
 254.17684 253.96558 253.34031 252.30305 250.92378 249.09951 247.02325 244.87098
 242.67672 240.49545 238.33018 236.18392 234.05865 231.94038 229.98112 228.15285
 226.45059 224.93732 223.58205 222.36879 221.26552 220.24026 219.35899 218.51472
 217.77146 216.96619 216.07893 215.45766 214.92239 214.24463 212.64331 212.79353
 213.08134 212.90848 213.60330 215.54485 218.19084 222.01590 227.78421 232.23634
 235.81783 239.87411 244.47147 249.19186 253.28874 256.07651 258.34109 261.03043
 263.93616 266.49902 268.77554 271.06393 273.41812 275.65488 277.56720 279.27655
 280.80099 282.20950 283.56821 284.92194 286.09930 287.14175 288.09613 288.96597
 289.75635 290.46658 291.09082 291.90967
 366.78100 356.35002 345.79703 334.67805 323.09607 311.30509 299.19010 287.00812
 274.73514 262.64716 250.67117 239.98719 230.12421 221.24323 213.44024 206.45726
 200.30628 195.25930 191.85631 189.91333 188.96535 189.04437 189.89438 191.21740
 192.95742 195.06744 197.34545 199.71947 202.17949 204.67451 206.77752 208.63454
 210.27556 211.43558 211.67959 211.92261 211.87463 211.59465 211.24266 210.88768
 210.51970 210.24472 210.06773 209.94675 209.88977 210.23579 210.63680 211.04082
 211.84884 213.04185 214.30687 216.10489 218.04791 220.10592 222.21594 224.31396
 226.38898 228.48799 230.60001 232.72103 234.86505 237.05206 239.32308 241.70810
 244.34412 246.61013 248.62715 250.40717 251.83919 252.97720 253.81422 254.14524
 254.19726 253.98627 253.36129 252.32431 250.94533 249.12134 247.04536 244.89338
 242.69940 240.51841 238.35343 236.20745 234.08247 231.96448 230.00550 228.17752
 226.47554 224.96255 223.60757 222.39459 221.29161 220.26662 219.38564 218.54166
 217.79867 216.99369 216.10671 215.48573 214.95074 214.25789 212.62094 212.93202
 213.18690 212.94949 213.66742 215.56212 218.15556 221.96109 227.71098 232.14581
 235.73878 239.82350 244.44077 249.14642 253.19382 255.95201 258.23074 260.96658
 263.86566 266.42834 268.73248 271.05087 273.42432 275.67264 277.58398 279.28732
 280.81119 282.21918 283.57819 284.93494 286.11469 287.15982 288.11710 288.98776
 289.78067 290.49133 291.11600 291.94061
 366.78100 356.35047 345.79794 334.67941 323.09789 311.30736 299.19283 287.01130
 274.73877 262.65124 250.67571 239.99219 230.12966 221.24913 213.44660 206.46407
 200.31354 195.26701 191.86449 189.92196 188.97443 189.05390 189.90437 191.22784
 192.96831 195.07878 197.35726 199.73173 202.19220 204.68767 206.79114 208.64861
 210.29008 211.45056 211.69503 211.93850 211.89097 211.61144 211.25991 210.90538
 210.53786 210.26333 210.08680 209.96627 209.90974 210.25621 210.65768 211.06216
 211.87063 213.06410 214.32957 216.12804 218.07151 220.12998 222.24046 224.33893
 226.41440 228.51387 230.62634 232.74781 234.89228 237.07976 239.35123 241.73670
 244.37317 246.63964 248.65711 250.43758 251.87005 253.00853 253.84600 254.17747
 254.22994 254.01941 253.39488 252.35835 250.97983 249.15630 247.08077 244.92924
 242.73571 240.55518 238.39065 236.24513 234.12060 232.00307 230.04454 228.21701
 226.51548 225.00295 223.64843 222.43590 221.33337 220.30884 219.42831 218.58478
 217.84225 217.03773 216.15120 215.53067 214.99614 214.27959 212.58667 213.05147
 213.42889 213.00647 213.61507 215.48950 218.07265 221.92659 227.63567 232.05106
 235.66368 239.77824 244.41299 249.10123 253.09694 255.83035 258.13809 260.91211
 263.79819 266.36176 268.69427 271.04208 273.43610 275.69449 277.59311 279.27899
 280.79358 282.20905 283.60095 284.96140 286.14313 287.18997 288.14737 289.02097
 289.81506 290.52826 291.15240 291.97198
 366.78100 356.34961 345.79621 334.67682 323.09442 311.30303 299.18764 287.00524
 274.73185 262.64346 250.66706 239.98267 230.11927 221.23788 213.43449 206.45109
 200.29970 195.25231 191.84891 189.90552 188.95712 189.03573 189.88534 191.20794
 192.94755 195.05716 197.33476 199.70837 202.16797 204.66258 206.76519 208.62179
 210.26240 211.42201 211.66561 211.90822 211.85982 211.57943 211.22704 210.87164
 210.50325 210.22786 210.05046 209.92907 209.87167 210.21728 210.61789 211.02149
 211.82910 213.02170 214.28631 216.08392 218.02652 220.08413 222.19374 224.29134
 226.36595 228.46455 230.57616 232.69677 234.84037 237.02698 239.29759 241.68219
 244.31780 246.58340 248.60001 250.37962 251.81122 252.94883 253.78544 254.11604
 254.16765 253.95625 253.33086 252.29347 250.91407 249.08968 247.01329 244.86089
 242.66650 240.48510 238.31971 236.17332 234.04792 231.92953 229.97014 228.14174
 226.43935 224.92595 223.57056 222.35717 221.25377 220.22838 219.34698 218.50259
 217.75920 216.95380 216.06641 215.44502 214.90962 214.23260 212.63309 213.10698
 213.68634 213.12048 213.51227 215.42184 218.04546 221.86328 227.55316 231.95398
 235.58646 239.73174 244.38251 249.04640 252.97797 255.67990 258.02722 260.83868
 263.71042 266.27859 268.64746 271.02512 273.44281 275.71066 277.59241 279.26053
 280.76855 282.19614 283.62646 284.98822 286.17230 287.21872 288.17682 289.05045
 289.84799 290.56055 291.18393 292.00146
 366.78100 356.34850 345.79399 334.67349 323.08998 311.29748 299.18097 286.99747
 274.72296 262.63346 250.65596 239.97045 230.10595 221.22344 213.41894 206.43443
 200.28193 195.23342 191.82892 189.88442 188.93491 189.01241 189.86090 191.18240
 192.92089 195.02939 197.30588 199.67838 202.13687 204.63037 206.73187 208.58736
 210.22686 211.38535 211.62785 211.86934 211.81984 211.53833 211.18483 210.82833
 210.45882 210.18232 210.00381 209.88131 209.82280 210.16730 210.56679 210.96929
 211.77579 212.96728 214.23078 216.02727 217.96877 220.02526 222.13376 224.23025
 226.30375 228.40125 230.51174 232.63124 234.77373 236.95923 239.22872 241.61222
 244.24671 246.51121 248.52671 250.30520 251.73570 252.87219 253.70769 254.03718
 254.08768 253.87517 253.24867 252.21017 250.82966 249.00416 246.92665 244.77315
 242.57764 240.39514 238.22863 236.08113 233.95462 231.83512 229.87462 228.04511
 226.34161 224.82710 223.47060 222.25609 221.15159 220.12508 219.24258 218.39708
 217.65257 216.84607 215.95756 215.33506 214.79855 214.17482 212.70117 213.13049
 213.80992 213.26680 213.54726 215.44313 218.06033 221.74953 227.48117 231.87331
 235.51421 239.68840 244.35123 248.98235 252.84071 255.51341 257.90430 260.75018
 263.60468 266.18130 268.59052 270.99841 273.43967 275.71225 277.57703 279.23077
 280.74112 282.18738 283.65189 285.01462 286.19681 287.24429 288.20261 289.07690
 289.87421 290.58560 291.21204 292.02478
 366.78100 356.34831 345.79363 334.67294 323.08925 311.29657 299.17988 286.99619
 274.72150 262.63182 250.65413 239.96844 230.10376 221.22107 213.41638 206.43170
 200.27901 195.23032 191.82563 189.88095 188.93126 189.00857 189.85689 191.17820
 192.91651 195.02483 197.30114 199.67345 202.13177 204.62508 206.72639 208.58170
 210.22102 211.37933 211.62164 211.86296 211.81327 211.53158 211.17790 210.82121
 210.45152 210.17483 209.99615 209.87346 209.81477 210.15909 210.55840 210.96071
 211.76703 212.95834 214.22165 216.01797 217.95928 220.01559 222.12390 224.22022
 226.29353 228.39084 230.50116 232.62047 234.76278 236.94810 239.21741 241.60072
 244.23503 246.49935 248.51466 250.29297 251.72329 252.85960 253.69491 254.02423
 254.07454 253.86185 253.23516 252.19648 250.81579 248.99010 246.91242 244.75873
 242.56304 240.38036 238.21367 236.06598 233.93930 231.81961 229.85892 228.02923
 226.32555 224.81086 223.45417 222.23949 221.13480 220.10811 219.22543 218.37974
 217.63505 216.82836 215.93968 215.31699 214.78030 214.16748 212.71965 213.17342
 213.88950 213.39136 213.63058 215.50298 218.08719 221.66844 227.40843 231.79579
 235.44916 239.65202 244.32207 248.91698 252.70206 255.34894 257.78189 260.65509
 263.48856 266.07498 268.52686 270.96396 273.42847 275.70090 277.55194 279.19995
 280.71298 282.15652 283.68097 285.04086 286.21933 287.26639 288.22269 289.09656
 289.89355 290.60553 291.22800 292.04062
 366.78100 356.34861 345.79422 334.67382 323.09043 311.29804 299.18165 286.99826
 274.72386 262.63447 250.65708 239.97169 230.10730 221.22490 213.42051 206.43612
 200.28373 195.23534 191.83094 189.88655 188.93716 189.01477 189.86338 191.18498
 192.92359 195.03220 197.30881 199.68142 202.14002 204.63363 206.73524 208.59085
 210.23046 211.38906 211.63167 211.87328 211.82389 211.54250 211.18910 210.83271
 210.46332 210.18693 210.00854 209.88614 209.82775 210.17236 210.57197 210.97458
 211.78118 212.97279 214.23640 216.03301 217.97462 220.03122 222.13983 224.23644
 226.31005 228.40766 230.51826 232.63787 234.78048 236.96609 239.23570 241.61930
 244.25391 246.51852 248.53413 250.31274 251.74334 252.87995 253.71556 254.04517
 254.09578 253.88338 253.25699 252.21860 250.83821 249.01282 246.93542 244.78203
 242.58664 240.40425 238.23786 236.09046 233.96407 231.84468 229.88429 228.05490
 226.35150 224.83711 223.48072 222.26633 221.16194 220.13554 219.25315 218.40776
 217.66337 216.85698 215.96858 215.34619 214.80980 214.18823 212.71974 213.21097
 213.96944 213.49617 213.70769 215.56291 218.12480 221.60907 227.33492 231.71964
 235.39021 239.62093 244.29553 248.85291 252.56972 255.20004 257.67111 260.56326
 263.37381 265.97122 268.46674 270.93085 273.41483 275.68637 277.52408 279.16479
 280.68234 282.14938 283.69028 285.05356 286.23294 287.27783 288.23489 289.10651
 289.90302 290.61533 291.23682 292.04300
 366.78100 356.34879 345.79459 334.67438 323.09118 311.29897 299.18276 286.99956
 274.72535 262.63614 250.65894 239.97373 230.10953 221.22732 213.42311 206.43891
 200.28670 195.23850 191.83429 189.89008 188.94088 189.01867 189.86746 191.18926
 192.92805 195.03685 197.31364 199.68643 202.14523 204.63902 206.74082 208.59661
 210.23640 211.39520 211.63799 211.87978 211.83058 211.54937 211.19617 210.83996
 210.47075 210.19455 210.01634 209.89414 209.83593 210.18072 210.58052 210.98331
 211.79010 212.98190 214.24569 216.04249 217.98428 220.04107 222.14987 224.24666
 226.32046 228.41825 230.52904 232.64884 234.79163 236.97742 239.24722 241.63101
 244.26581 246.53060 248.54639 250.32519 251.75598 252.89278 253.72857 254.05836
 254.10916 253.89695 253.27074 252.23254 250.85233 249.02713 246.94992 244.79671
 242.60151 240.41930 238.25310 236.10589 233.97968 231.86048 229.90027 228.07106
 226.36786 224.85365 223.49745 222.28324 221.17903 220.15283 219.27062 218.42542
 217.68121 216.87500 215.98680 215.36459 214.82838 214.20644 212.73705 213.23901
 214.04805 213.58311 213.77731 215.61504 218.16644 221.56049 227.26312 231.64645
 235.33514 239.59233 244.26802 248.78642 252.43791 255.05907 257.57111 260.48080
 263.27036 265.88074 268.41711 270.90347 273.40100 275.66528 277.48840 279.12515
 280.64975 282.14893 283.68976 285.05322 286.23218 287.27649 288.23434 289.10547
 289.90042 290.61203 291.23257 292.03241
 366.78100 356.34875 345.79449 334.67424 323.09099 311.29873 299.18248 286.99922
 274.72497 262.63572 250.65846 239.97321 230.10896 221.22670 213.42245 206.43820
 200.28594 195.23769 191.83344 189.88918 188.93993 189.01767 189.86642 191.18817
 192.92691 195.03566 197.31241 199.68515 202.14390 204.63765 206.73939 208.59514
 210.23488 211.39363 211.63638 211.87812 211.82887 211.54762 211.19436 210.83811
 210.46886 210.19260 210.01435 209.89209 209.83384 210.17859 210.57833 210.98108
 211.78783 212.97957 214.24332 216.04007 217.98181 220.03856 222.14731 224.24405
 226.31780 228.41554 230.52629 232.64604 234.78878 236.97453 239.24428 241.62802
 244.26277 246.52752 248.54326 250.32201 251.75275 252.88950 253.72525 254.05499
 254.10574 253.89349 253.26723 252.22898 250.84873 249.02347 246.94622 244.79296
 242.59771 240.41546 238.24920 236.10195 233.97570 231.85644 229.89619 228.06694
 226.36368 224.84943 223.49318 222.27892 221.17467 220.14841 219.26616 218.42091
 217.67665 216.87040 215.98215 215.35989 214.82364 214.21457 212.77560 213.25974
 214.11981 213.65771 213.84839 215.66283 218.20100 221.52249 227.19278 231.57950
 235.28644 239.56532 244.23715 248.71317 252.30263 254.92258 257.47989 260.40173
 263.16940 265.79465 268.37131 270.87628 273.38110 275.63538 277.44089 279.07254
 280.61429 282.14395 283.68213 285.04352 286.22067 287.26492 288.21735 289.08847
 289.88013 290.59067 291.20764 291.99844
 366.78100 356.34871 345.79442 334.67413 323.09083 311.29854 299.18225 286.99896
 274.72467 262.63538 250.65809 239.97279 230.10850 221.22621 213.42192 206.43763
 200.28534 195.23705 191.83275 189.88846 188.93917 189.01688 189.86559 191.18730
 192.92601 195.03471 197.31142 199.68413 202.14284 204.63655 206.73826 208.59396
 210.23367 211.39238 211.63509 211.87680 211.82751 211.54622 211.19292 210.83663
 210.46734 210.19105 210.01276 209.89047 209.83218 210.17688 210.57659 210.97930
 211.78601 212.97772 214.24143 216.03814 217.97984 220.03655 222.14526 224.24197
 226.31568 228.41339 230.52410 232.64380 234.78651 236.97222 239.24193 241.62564
 244.26035 246.52506 248.54076 250.31947 251.75018 252.88689 253.72260 254.05231
 254.10302 253.89072 253.26443 252.22614 250.84585 249.02056 246.94327 244.78998
 242.59468 240.41239 238.24610 236.09881 233.97252 231.85323 229.89294 228.06364
 226.36035 224.84606 223.48977 222.27548 221.17119 220.14489 219.26260 218.41731
 217.67302 216.86673 215.97844 215.35615 214.81985 214.22520 212.82025 213.27243
 214.18555 213.73712 213.92398 215.71097 218.22012 221.49252 227.12378 231.51711
 235.24179 239.53958 244.20453 248.63788 252.16724 254.78938 257.38678 260.32016
 263.06949 265.70892 268.31931 270.83774 273.34647 275.58145 277.37708 279.01425
 280.57794 282.13315 283.65991 285.01907 286.19260 287.23328 288.18359 289.05142
 289.83850 290.54208 291.15457 291.93530
 366.78100 356.34865 345.79431 334.67396 323.09062 311.29827 299.18193 286.99858
 274.72424 262.63489 250.65755 239.97220 230.10786 221.22551 213.42117 206.43682
 200.28447 195.23613 191.83178 189.88744 188.93809 189.01575 189.86440 191.18606
 192.92471 195.03337 197.31002 199.68268 202.14133 204.63499 206.73664 208.59230
 210.23195 211.39060 211.63326 211.87491 211.82557 211.54422 211.19088 210.83453
 210.46519 210.18884 210.01050 209.88815 209.82981 210.17446 210.57412 210.97677
 211.78342 212.97508 214.23873 216.03539 217.97704 220.03370 222.14235 224.23901
 226.31266 228.41032 230.52097 232.64063 234.78328 236.96894 239.23859 241.62225
 244.25690 246.52155 248.53721 250.31586 251.74652 252.88317 253.71883 254.04848
 254.09914 253.88679 253.26045 252.22210 250.84176 249.01641 246.93907 244.78572
 242.59037 240.40803 238.24168 236.09434 233.96799 231.84865 229.88830 228.05896
 226.35561 224.84127 223.48492 222.27058 221.16623 220.13989 219.25754 218.41219
 217.66785 216.86150 215.97316 215.35081 214.81447 214.23622 212.87007 213.27127
 214.22630 213.82326 214.00758 215.77814 218.24809 221.47542 227.06000 231.45993
 235.19897 239.51207 244.16505 248.55305 252.02980 254.66130 257.30417 260.23895
 262.96716 265.62186 268.26273 270.79422 273.29977 275.50974 277.29187 278.94031
 280.52704 282.10623 283.62851 284.97992 286.14209 287.17596 288.12524 288.98572
 289.76767 290.46631 291.07452 291.84351
 366.78100 356.34878 345.79456 334.67434 323.09112 311.29890 299.18268 286.99946
 274.72524 262.63602 250.65880 239.97358 230.10936 221.22714 213.42292 206.43869
 200.28647 195.23825 191.83403 189.88981 188.94059 189.01837 189.86715 191.18893
 192.92771 195.03649 197.31327 199.68605 202.14483 204.63861 206.74039 208.59617
 210.23595 211.39473 211.63751 211.87929 211.83007 211.54885 211.19563 210.83941
 210.47019 210.19397 210.01575 209.89353 209.83530 210.18008 210.57986 210.98264
 211.78942 212.98120 214.24498 216.04176 217.98354 220.04032 222.14910 224.24588
 226.31966 228.41744 230.52822 232.64800 234.79078 236.97656 239.24634 241.63012
 244.26490 246.52968 248.54546 250.32424 251.75502 252.89180 253.72758 254.05736
 254.10814 253.89591 253.26969 252.23147 250.85125 249.02603 246.94881 244.79559
 242.60037 240.41815 238.25193 236.10471 233.97849 231.85927 229.89905 228.06983
 226.36661 224.85239 223.49617 222.28195 221.17773 220.15151 219.26929 218.42407
 217.67985 216.87363 215.98541 215.36319 214.82697 214.25580 212.90636 213.26746
 214.26532 213.91098 214.08394 215.84401 218.26797 221.46451 227.00562 231.41515
 235.16536 239.48886 244.12761 248.47777 251.91037 254.54631 257.21130 260.15115
 262.87119 265.54150 268.20590 270.74136 273.24020 275.42584 277.20596 278.85330
 280.47705 282.07111 283.57892 284.92075 286.06934 287.09744 288.04266 288.90567
 289.68881 290.38922 290.98874 291.71277
 366.78100 356.34866 345.79432 334.67398 323.09063 311.29829 299.18195 286.99861
 274.72427 262.63493 250.65759 239.97225 230.10790 221.22556 213.42122 206.43688
 200.28454 195.23620 191.83186 189.88751 188.93817 189.01583 189.86449 191.18615
 192.92481 195.03347 197.31012 199.68278 202.14144 204.63510 206.73676 208.59242
 210.23208 211.39074 211.63339 211.87505 211.82571 211.54437 211.19103 210.83469
 210.46535 210.18900 210.01066 209.88832 209.82998 210.17464 210.57430 210.97696
 211.78362 212.97527 214.23893 216.03559 217.97725 220.03391 222.14257 224.23923
 226.31288 228.41054 230.52120 232.64086 234.78352 236.96918 239.23884 241.62250
 244.25715 246.52181 248.53747 250.31613 251.74679 252.88345 253.71911 254.04876
 254.09942 253.88708 253.26074 252.22240 250.84206 249.01672 246.93937 244.78603
 242.59069 240.40835 238.24201 236.09467 233.96833 231.84899 229.88864 228.05930
 226.35596 224.84162 223.48528 222.27094 221.16660 220.14025 219.25791 218.41257
 217.66823 216.86189 215.97355 215.35121 214.81487 214.25929 212.94670 213.27097
 214.29630 214.00755 214.17563 215.91714 218.28925 221.45186 226.94841 231.35974
 235.12743 239.45683 244.07616 248.38376 251.77518 254.44286 257.16205 260.08585
 262.77768 265.45657 268.12714 270.67361 273.14954 275.29456 277.06186 278.77838
 280.41293 282.00613 283.50748 284.82919 285.96619 286.98282 287.92023 288.78210
 289.56882 290.26236 290.79944 291.49991
 366.78100 356.34641 345.78982 334.66723 323.08164 311.28705 299.16846 286.98287
 274.70627 262.61468 250.63509 239.94750 230.08091 221.19632 213.38973 206.40314
 200.24855 195.19796 191.79137 189.84478 188.89319 188.96860 189.81501 191.13442
 192.87082 194.97723 197.25164 199.62205 202.07846 204.56987 206.66928 208.52269
 210.16010 211.31651 211.55692 211.79633 211.74474 211.46115 211.10556 210.74696
 210.37537 210.09678 209.91619 209.79160 209.73101 210.07342 210.47083 210.87124
 211.67565 212.86506 214.12647 215.92088 217.86029 219.91470 222.02111 224.11551
 226.18692 228.28233 230.39074 232.50815 234.64856 236.83197 239.09938 241.48079
 244.11320 246.37561 248.38902 250.16543 251.59384 252.72825 253.56165 253.88906
 253.93747 253.72288 253.09429 252.05370 250.67111 248.84352 246.76393 244.60834
 242.41075 240.22616 238.05757 235.90798 233.77939 231.65780 229.69520 227.86361
 226.15802 224.64143 223.28284 222.06625 220.95966 219.93107 219.04648 218.19889
 217.45230 216.64371 215.75312 215.12853 214.58994 214.14624 213.09796 213.33897
 214.23878 213.96558 214.17326 215.94481 218.28610 221.43680 226.90596 231.36765
 235.11783 239.44849 244.05388 248.36050 251.77489 254.42171 257.11160 260.04636
 262.75894 265.44159 268.12863 270.64108 273.08365 275.19879 276.96848 278.60248
 280.29968 281.95389 283.41769 284.73572 285.85922 286.85898 287.78357 288.65207
 289.44098 290.12473 290.70212 291.43524
 366.78100 356.34409 345.78517 334.66026 323.07235 311.27544 299.15452 286.96661
 274.68770 262.59378 250.61187 239.92196 230.05305 221.16613 213.35722 206.36831
 200.21139 195.15848 191.74957 189.80066 188.84674 188.91983 189.76392 191.08100
 192.81509 194.91918 197.19127 199.55935 202.01344 204.50253 206.59961 208.45070
 210.08579 211.23987 211.47796 211.71505 211.66114 211.37522 211.01731 210.65640
 210.28248 210.00157 209.81866 209.69175 209.62883 209.96892 210.36401 210.76209
 211.56418 212.75127 214.01036 215.80244 217.73953 219.79162 221.89570 223.98779
 226.05688 228.14997 230.25605 232.37114 234.50923 236.69031 238.95540 241.33449
 243.96458 246.22466 248.23575 250.00984 251.43592 252.56801 253.39910 253.72419
 253.77027 253.55336 252.92245 251.87953 250.49462 248.66471 246.58280 244.42488
 242.22497 240.03806 237.86714 235.71523 233.58432 231.46041 229.49549 227.66158
 225.95367 224.43475 223.07384 221.85493 220.74601 219.71510 218.82819 217.97828
 217.22936 216.41845 215.52554 214.89862 214.35771 214.02615 213.25957 213.49524
 214.19800 213.85521 214.09464 215.83430 218.19257 221.46046 226.76614 231.34036
 235.08418 239.42308 243.96574 248.17685 251.62468 254.64015 257.45447 260.26358
 262.96591 265.63892 268.23520 270.71280 273.03824 275.04166 276.87903 278.64786
 280.10794 281.70538 283.11469 284.34311 285.41470 286.40976 287.34152 288.10690
 288.58246 288.90100 289.17929 289.53394
 366.78100 356.34379 345.78459 334.65938 323.07118 311.27397 299.15277 286.96456
 274.68536 262.59115 250.60895 239.91874 230.04954 221.16233 213.35312 206.36392
 200.20671 195.15351 191.74430 189.79510 188.84089 188.91369 189.75748 191.07428
 192.80807 194.91187 197.18366 199.55145 202.00525 204.49404 206.59084 208.44163
 210.07643 211.23022 211.46802 211.70481 211.65061 211.36440 211.00620 210.64499
 210.27078 209.98958 209.80637 209.67917 209.61596 209.95576 210.35055 210.74835
 211.55014 212.73694 213.99573 215.78752 217.72432 219.77611 221.87991 223.97170
 226.04050 228.13329 230.23909 232.35388 234.49168 236.67247 238.93727 241.31606
 243.94585 246.20565 248.21644 249.99024 251.41603 252.54783 253.37862 253.70342
 253.74921 253.53201 252.90080 251.85760 250.47239 248.64218 246.55998 244.40177
 242.20157 240.01436 237.84316 235.69095 233.55975 231.43554 229.47034 227.63613
 225.92793 224.40872 223.04751 221.82831 220.71910 219.68790 218.80069 217.95049
 217.20128 216.39008 215.49687 214.86967 214.32846 214.01353 213.30589 213.60283
 214.25874 213.91573 214.17499 215.79436 218.08034 221.40768 226.62242 231.22957
 234.99413 239.33528 243.83609 247.95801 251.47067 254.64964 257.60876 260.40826
 263.08859 265.75058 268.29968 270.72708 273.02905 274.68597 276.93900 278.63943
 280.02374 281.45737 282.75467 283.92145 284.98032 285.92981 286.69315 286.91046
 287.09668 287.26251 287.40735 287.59195
 366.78100 356.34476 345.78651 334.66227 323.07502 311.27878 299.15853 286.97129
 274.69304 262.59980 250.61856 239.92931 230.06107 221.17482 213.36658 206.37833
 200.22209 195.16985 191.76160 189.81336 188.86011 188.93387 189.77862 191.09638
 192.83113 194.93589 197.20865 199.57740 202.03216 204.52191 206.61967 208.47142
 210.10718 211.26193 211.50069 211.73845 211.68520 211.39996 211.04271 210.68247
 210.30922 210.02898 209.84674 209.72049 209.65825 209.99900 210.39476 210.79351
 211.59627 212.78402 214.04378 215.83654 217.77429 219.82705 221.93180 224.02456
 226.09431 228.18807 230.29483 232.41058 234.54934 236.73109 238.99685 241.37660
 244.00736 246.26811 248.27987 250.05463 251.48138 252.61414 253.44589 253.77165
 253.81840 253.60216 252.97191 251.92967 250.54543 248.71618 246.63494 244.47769
 242.27845 240.09220 237.92196 235.77072 233.64047 231.51723 229.55298 227.71974
 226.01249 224.49425 223.13400 221.91576 220.80752 219.77727 218.89103 218.04178
 217.29354 216.48329 215.59105 214.96480 214.42456 214.06366 213.25734 213.66956
 214.45543 214.13094 214.31886 215.84625 218.07570 221.37892 226.54173 231.12787
 234.90041 239.22615 243.66574 247.71283 251.24884 254.53423 257.56577 260.38492
 263.08951 265.77979 268.30646 270.70392 272.97144 274.71762 276.95612 278.55606
 279.88922 281.26562 282.51529 283.64792 284.64255 285.52438 286.20438 286.33624
 286.45483 286.56042 286.65268 286.77026
 366.78100 356.34776 345.79251 334.67127 323.08702 311.29378 299.17653 286.99229
 274.71704 262.62680 250.64855 239.96231 230.09707 221.21382 213.40858 206.42333
 200.27009 195.22084 191.81560 189.87035 188.92011 188.99687 189.84462 191.16538
 192.90313 195.01089 197.28664 199.65840 202.11615 204.60891 206.70966 208.56442
 210.20318 211.36093 211.60269 211.84344 211.79320 211.51095 211.15671 210.79946
 210.42922 210.15197 209.97273 209.84949 209.79024 210.13400 210.53275 210.93451
 211.74026 212.93102 214.19377 215.98953 217.93029 219.98604 222.09380 224.18955
 226.26231 228.35906 230.46882 232.58757 234.72933 236.91408 239.18284 241.56560
 244.19935 246.46311 248.47786 250.25562 251.68537 252.82113 253.65588 253.98464
 254.03439 253.82115 253.19391 252.15466 250.77342 248.94717 246.86893 244.71468
 242.51844 240.33519 238.16795 236.01971 233.89246 231.77222 229.81097 227.98073
 226.27648 224.76124 223.40399 222.18875 221.08350 220.05626 219.17302 218.32677
 217.58153 216.77428 215.88504 215.26179 214.72455 214.22461 213.10277 213.67513
 214.75456 214.42532 214.50078 215.92877 218.05496 221.25464 226.41827 231.00229
 234.79279 239.10223 243.48674 247.45493 250.95813 254.33064 257.45923 260.31250
 263.02942 265.75885 268.29904 270.64026 272.85837 274.88425 276.86401 278.52084
 279.79080 281.12943 282.35504 283.43344 284.37427 285.22995 285.96033 286.13342
 286.22906 286.31424 286.38864 286.48346
 366.78100 356.35019 345.79737 334.67856 323.09674 311.30593 299.19112 287.00930
 274.73649 262.64867 250.67286 239.98905 230.12623 221.24542 213.44260 206.45979
 200.30898 195.26216 191.85935 189.91654 188.96872 189.04791 189.89809 191.22128
 192.96147 195.07165 197.34984 199.72402 202.18421 204.67940 206.78258 208.63977
 210.28095 211.44114 211.68533 211.92851 211.88070 211.60088 211.24907 210.89426
 210.52644 210.25163 210.07481 209.95400 209.89719 210.24337 210.64456 211.04874
 211.85693 213.05012 214.31530 216.11349 218.05667 220.11486 222.22505 224.32323
 226.39842 228.49761 230.60979 232.73098 234.87516 237.06235 239.33354 241.71872
 244.35491 246.62109 248.63828 250.41847 251.85065 252.98884 253.82602 254.15721
 254.20940 253.99858 253.37377 252.33695 250.95814 249.13433 247.05851 244.90670
 242.71288 240.53207 238.36726 236.22144 234.09663 231.97881 230.02000 228.19219
 226.49037 224.97756 223.62275 222.40993 221.30712 220.28230 219.40149 218.55768
 217.81486 217.01005 216.12323 215.50242 214.96761 214.37152 213.04564 213.55426
 214.91258 214.60791 214.66101 216.01967 218.05415 221.21527 226.28932 230.89670
 234.70457 239.00301 243.34193 247.24948 250.75955 254.17499 257.39120 260.30603
 263.05838 265.82001 268.40836 270.66870 272.82574 274.87381 276.79987 278.43030
 279.72891 281.01590 282.19403 283.23944 284.13617 284.89331 285.27292 285.53281
 285.76657 285.97473 286.15656 286.38831
 366.78100 356.35042 345.79785 334.67927 323.09770 311.30712 299.19254 287.01097
 274.73839 262.65082 250.67524 239.99166 230.12909 221.24851 213.44594 206.46336
 200.31278 195.26621 191.86363 189.92105 188.97348 189.05290 189.90333 191.22675
 192.96717 195.07760 197.35602 199.73045 202.19087 204.68629 206.78972 208.64714
 210.28857 211.44899 211.69341 211.93684 211.88926 211.60969 211.25811 210.90353
 210.53596 210.26138 210.08481 209.96423 209.90765 210.25408 210.65550 211.05993
 211.86835 213.06177 214.32720 216.12562 218.06904 220.12747 222.23789 224.33632
 226.41174 228.51116 230.62359 232.74501 234.88944 237.07686 239.34828 241.73371
 244.37013 246.63656 248.65398 250.43440 251.86683 253.00525 253.84268 254.17410
 254.22652 254.01595 253.39137 252.35480 250.97622 249.15264 247.07707 244.92549
 242.73192 240.55134 238.38676 236.24119 234.11661 231.99903 230.04046 228.21288
 226.51131 224.99873 223.64415 222.43158 221.32900 220.30443 219.42385 218.58027
 217.83770 217.03312 216.14655 215.52597 214.99139 214.41039 213.12572 213.43283
 214.93384 214.84581 214.98361 216.26015 218.17981 221.28571 226.23247 230.84312
 234.65448 238.92871 243.23021 247.09552 250.58722 254.01242 257.29636 260.32819
 263.15952 265.96637 268.54349 270.81714 272.84271 274.89832 276.81937 278.39929
 279.64709 280.78683 281.88693 282.85147 283.66028 284.34018 284.95529 285.51251
 286.01367 286.45999 286.84985 287.34671
 366.78100 356.34982 345.79665 334.67747 323.09529 311.30411 299.18894 287.00676
 274.73358 262.64541 250.66923 239.98505 230.12187 221.24070 213.43752 206.45434
 200.30317 195.25599 191.85281 189.90964 188.96146 189.04028 189.89010 191.21293
 192.95275 195.06257 197.34040 199.71422 202.17404 204.66886 206.77169 208.62851
 210.26933 211.42916 211.67298 211.91580 211.86762 211.58745 211.23527 210.88009
 210.51192 210.23674 210.05956 209.93838 209.88121 210.22703 210.62785 211.03168
 211.83950 213.03232 214.29714 216.09497 218.03779 220.09561 222.20544 224.30326
 226.37808 228.47691 230.58873 232.70955 234.85337 237.04020 239.31102 241.69584
 244.33167 246.59749 248.61431 250.39413 251.82596 252.96378 253.80060 254.13143
 254.18325 253.97207 253.34689 252.30972 250.93054 249.10636 247.03019 244.87801
 242.68383 240.50265 238.33748 236.19130 234.06612 231.94795 229.98877 228.16059
 226.45841 224.94524 223.59006 222.37688 221.27371 220.24853 219.36735 218.52318
 217.78000 216.97482 216.08764 215.46647 214.93129 214.40909 213.24699 213.36342
 214.83704 215.09232 215.36589 216.55138 218.31584 221.35498 226.21960 230.78932
 234.60704 238.85167 243.12547 246.94315 250.37544 253.78989 257.16611 260.27454
 263.21075 265.98416 268.60727 270.55246 272.93753 274.96603 276.86862 278.35110
 279.56345 280.62183 281.58023 282.54700 283.47821 284.30206 285.05371 285.73468
 286.34711 286.89249 287.36893 287.97607
 366.78100 356.34741 345.79181 334.67022 323.08562 311.29203 299.17444 286.98984
 274.71425 262.62365 250.64506 239.95846 230.09287 221.20928 213.40368 206.41809
 200.26449 195.21490 191.80931 189.86371 188.91312 188.98952 189.83693 191.15734
 192.89474 195.00215 197.27755 199.64896 202.10637 204.59877 206.69918 208.55358
 210.19199 211.34939 211.59080 211.83121 211.78061 211.49802 211.14342 210.78583
 210.41524 210.13764 209.95805 209.83445 209.77486 210.11827 210.51667 210.91808
 211.72348 212.91389 214.17630 215.97170 217.91211 219.96751 222.07492 224.17032
 226.24273 228.33914 230.44854 232.56695 234.70835 236.89276 239.16117 241.54357
 244.17698 246.44038 248.45479 250.23220 251.66160 252.79701 253.63141 253.95982
 254.00923 253.79563 253.16804 252.12844 250.74685 248.92025 246.84166 244.68707
 242.49047 240.30688 238.13928 235.99069 233.86310 231.74250 229.78091 227.95031
 226.24572 224.73013 223.37253 222.15694 221.05134 220.02375 219.14016 218.29356
 217.54797 216.74037 215.85078 215.22718 214.68959 214.30029 213.41296 213.35953
 214.60413 215.19798 215.61942 216.74939 218.42023 221.38942 226.19424 230.77576
 234.59825 238.82034 243.05626 246.88741 250.32245 253.67503 257.14432 260.28589
 263.19632 265.93692 268.46164 270.50568 273.14786 275.06500 276.80597 278.28149
 279.49741 280.53818 281.41098 282.42871 283.35974 284.18344 284.93494 285.61575
 286.22806 286.77335 287.24966 287.85672
 366.78100 356.34549 345.78797 334.66446 323.07794 311.28243 299.16291 286.97640
 274.69888 262.60637 250.62585 239.93734 230.06982 221.18431 213.37679 206.38928
 200.23376 195.18225 191.77474 189.82722 188.87471 188.94919 189.79468 191.11316
 192.84865 194.95413 197.22762 199.59710 202.05259 204.54307 206.64156 208.49404
 210.13053 211.28601 211.52550 211.76398 211.71147 211.42696 211.07044 210.71093
 210.33841 210.05890 209.87738 209.75187 209.69035 210.03184 210.42832 210.82781
 211.63129 212.81978 214.08026 215.87375 217.81223 219.86572 221.97121 224.06469
 226.13518 228.22966 230.33715 232.45363 234.59312 236.77560 239.04209 241.42257
 244.05406 246.31554 248.32803 250.10351 251.53100 252.66448 253.49697 253.82345
 253.87094 253.65543 253.02591 251.98440 250.60088 248.77237 246.69185 244.53534
 242.33682 240.15131 237.98179 235.83128 233.70176 231.57925 229.61573 227.78322
 226.07670 224.55919 223.19968 221.98216 220.87465 219.84513 218.95962 218.11110
 217.36359 216.55407 215.66256 215.03704 214.49753 214.18851 213.49506 213.51256
 214.48175 215.14078 215.67520 216.80078 218.44873 221.36490 226.13754 230.74306
 234.54858 238.72729 242.89729 246.71387 250.17264 253.58815 257.26529 260.34491
 263.18094 265.86404 268.29605 270.81628 273.15775 275.06409 276.71967 278.18481
 279.44217 280.51495 281.22549 281.94214 282.92783 283.81110 284.61694 285.34698
 286.00360 286.58829 287.09906 287.75000
 366.78100 356.34732 345.79165 334.66997 323.08530 311.29162 299.17395 286.98927
 274.71359 262.62292 250.64424 239.95757 230.09189 221.20822 213.40254 206.41686
 200.26319 195.21351 191.80784 189.86216 188.91149 188.98781 189.83513 191.15546
 192.89278 195.00011 197.27543 199.64676 202.10408 204.59640 206.69673 208.55105
 210.18938 211.34670 211.58803 211.82835 211.77767 211.49500 211.14032 210.78265
 210.41197 210.13430 209.95462 209.83094 209.77127 210.11459 210.51292 210.91424
 211.71956 212.90989 214.17221 215.96754 217.90786 219.96319 222.07051 224.16583
 226.23816 228.33448 230.44381 232.56213 234.70346 236.88778 239.15610 241.53843
 244.17175 246.43508 248.44940 250.22673 251.65605 252.79137 253.62570 253.95402
 254.00335 253.78967 253.16200 252.12232 250.74064 248.91397 246.83529 244.68062
 242.48394 240.30027 238.13259 235.98391 233.85624 231.73556 229.77389 227.94321
 226.23854 224.72286 223.36518 222.14951 221.04383 220.01616 219.13248 218.28581
 217.54013 216.73245 215.84278 215.21910 214.68143 214.30215 213.45410 213.52077
 214.67929 215.28546 215.89020 217.00412 218.48979 221.35089 226.10107 230.66470
 234.45235 238.58426 242.69713 246.50134 249.98396 253.54578 257.12469 260.13446
 262.90701 265.65594 268.27850 270.99051 273.16760 275.03360 276.66052 278.06409
 279.30359 280.19147 280.89136 281.46381 281.95920 282.39749 282.79739 283.15967
 283.48547 283.77560 284.02908 284.35208
 366.78100 356.34685 345.79071 334.66856 323.08342 311.28927 299.17113 286.98598
 274.70984 262.61869 250.63955 239.95240 230.08626 221.20211 213.39597 206.40982
 200.25568 195.20553 191.79939 189.85324 188.90210 188.97795 189.82480 191.14466
 192.88151 194.98837 197.26322 199.63408 202.09093 204.58279 206.68264 208.53650
 210.17435 211.33121 211.57206 211.81192 211.76077 211.47763 211.12248 210.76434
 210.39319 210.11505 209.93490 209.81075 209.75061 210.09346 210.49132 210.89217
 211.69703 212.88688 214.14874 215.94359 217.88345 219.93830 222.04516 224.14001
 226.21187 228.30772 230.41658 232.53443 234.67529 236.85914 239.12699 241.50885
 244.14170 246.40456 248.41841 250.19527 251.62412 252.75898 253.59283 253.92069
 253.96954 253.75540 253.12725 252.08711 250.70496 248.87782 246.79867 244.64353
 242.44638 240.26224 238.09409 235.94494 233.81680 231.69565 229.73351 227.90236
 226.19722 224.68107 223.32293 222.10678 221.00064 219.97249 219.08835 218.24120
 217.49506 216.68691 215.79677 215.17262 214.63448 214.33575 213.54788 213.35513
 214.57207 215.34358 216.10336 217.31409 218.73114 221.32550 226.20901 230.72720
 234.46498 238.52715 242.57718 246.39667 249.89482 253.60893 257.24463 260.25098
 263.00613 265.69678 268.42630 271.02383 273.16119 275.01929 276.63855 278.05054
 279.12338 279.85831 280.49426 281.05267 281.53592 281.96350 282.35358 282.70697
 283.02481 283.30783 283.55508 283.87018
 366.78100 356.34103 345.77906 334.65109 323.06012 311.26015 299.13618 286.94522
 274.66325 262.56628 250.58131 239.88834 230.01637 221.12640 213.31443 206.32246
 200.16249 195.10652 191.69455 189.74258 188.78562 188.85565 189.69668 191.01071
 192.74174 194.84277 197.11180 199.47683 201.92786 204.41389 206.50792 208.35595
 209.98799 211.13902 211.37405 211.60808 211.55111 211.26214 210.90117 210.53720
 210.16023 209.87626 209.69029 209.56032 209.49435 209.83139 210.22342 210.61845
 211.41748 212.60151 213.85754 215.64657 217.58060 219.62963 221.73066 223.81969
 225.88572 227.97575 230.07879 232.19082 234.32585 236.50388 238.76591 241.14194
 243.76897 246.02600 248.03403 249.80506 251.22809 252.35712 253.18515 253.50719
 253.55022 253.33025 252.69628 251.65031 250.26234 248.42937 246.34440 244.18343
 241.98046 239.79049 237.61652 235.46155 233.32759 231.20062 229.23265 227.39568
 225.68471 224.16274 222.79877 221.57680 220.46483 219.43086 218.54089 217.68792
 216.93596 216.12199 215.22602 214.59605 214.05208 214.06435 213.87663 213.28673
 214.10934 215.14912 216.19835 217.46719 218.90141 221.54013 226.34550 230.86209
 234.57660 238.60431 242.63567 246.46420 250.00726 253.69092 257.39987 260.44119
 263.20911 265.78995 268.47592 271.04651 273.18405 274.99484 276.60132 277.97891
 279.04358 279.76074 280.36703 280.89941 281.36011 281.76773 282.13962 282.47653
 282.77954 283.04938 283.28510 283.58548
 366.78100 356.33979 345.77659 334.64738 323.05518 311.25397 299.12877 286.93656
 274.65335 262.55515 250.56894 239.87474 230.00153 221.11033 213.29712 206.30392
 200.14271 195.08550 191.67230 189.71909 188.76089 188.82968 189.66948 190.98227
 192.71206 194.81186 197.07965 199.44345 201.89324 204.37804 206.47083 208.31763
 209.94842 211.09821 211.33201 211.56480 211.50660 211.21639 210.85419 210.48898
 210.11077 209.82557 209.63836 209.50716 209.43995 209.77575 210.16654 210.56034
 211.35813 212.54092 213.79572 215.58351 217.51631 219.56410 221.66390 223.75169
 225.81648 227.90528 230.00707 232.11787 234.25166 236.42846 238.68925 241.06404
 243.68984 245.94563 247.95243 249.72222 251.14402 252.27181 253.09861 253.41940
 253.46119 253.23999 252.60478 251.55758 250.16837 248.33417 246.24796 244.08575
 241.88155 239.69034 237.51514 235.35893 233.22373 231.09552 229.12632 227.28811
 225.57590 224.05270 222.68749 221.46429 220.35108 219.31588 218.42467 217.57046
 216.81726 216.00205 215.10485 214.47364 213.92844 213.95518 213.95004 213.62248
 213.96999 214.93034 215.96373 217.18379 218.84866 221.74625 226.32271 230.90463
 234.61464 238.61363 242.59042 246.39374 249.99850 253.60800 257.22809 260.41064
 263.22333 265.83887 268.50958 270.99896 273.11505 274.92050 276.49188 277.87354
 279.04895 280.06894 281.13110 282.20581 283.13586 283.95871 284.70947 285.38959
 286.00125 286.54596 287.02182 287.62823
 366.78100 356.34466 345.78631 334.66197 323.07463 311.27828 299.15794 286.97060
 274.69226 262.59891 250.61757 239.92823 230.05988 221.17354 213.36520 206.37685
 200.22051 195.16817 191.75982 189.81148 188.85814 188.93179 189.77645 191.09411
 192.82877 194.93342 197.20608 199.57474 202.02939 204.51905 206.61671 208.46836
 210.10402 211.25868 211.49733 211.73499 211.68165 211.39630 211.03896 210.67862
 210.30528 210.02493 209.84259 209.71625 209.65390 209.99456 210.39022 210.78887
 211.59153 212.77919 214.03884 215.83150 217.76916 219.82181 221.92647 224.01913
 226.08879 228.18244 230.28910 232.40476 234.54341 236.72507 238.99073 241.37038
 244.00104 246.26170 248.27335 250.04801 251.47467 252.60732 253.43898 253.76464
 253.81130 253.59495 252.96461 251.92227 250.53792 248.70858 246.62724 244.46989
 242.27055 240.08421 237.91386 235.76252 233.63218 231.50883 229.54449 227.71115
 226.00381 224.48546 223.12512 221.90678 220.79843 219.76809 218.88175 218.03240
 217.28406 216.47372 215.58137 214.95503 214.41469 214.18315 213.69197 213.81046
 214.39578 215.13977 215.97910 217.02582 218.59648 221.50276 226.16156 230.78415
 234.49773 238.45416 242.36386 246.10936 249.72762 253.48523 257.12131 260.24823
 263.04449 265.89725 268.69766 271.09409 273.06796 274.79019 276.36044 277.72739
 278.90689 279.88257 280.77927 281.91965 282.90652 283.77966 284.57629 285.29797
 285.94702 286.52502 287.02997 287.67343
 366.78100 356.34570 345.78839 334.66509 323.07879 311.28348 299.16418 286.97788
 274.70057 262.60827 250.62796 239.93966 230.07236 221.18705 213.37975 206.39245
 200.23714 195.18584 191.77854 189.83123 188.87893 188.95363 189.79932 191.11802
 192.85372 194.95941 197.23311 199.60280 202.05850 204.54920 206.64789 208.50059
 210.13729 211.29298 211.53268 211.77138 211.71907 211.43477 211.07847 210.71916
 210.34686 210.06755 209.88625 209.76095 209.69964 210.04134 210.43804 210.83773
 211.64143 212.83013 214.09082 215.88452 217.82322 219.87691 221.98261 224.07631
 226.14700 228.24170 230.34939 232.46609 234.60579 236.78848 239.05518 241.43588
 244.06757 246.32927 248.34197 250.11766 251.54536 252.67906 253.51175 253.83845
 253.88615 253.67084 253.04154 252.00023 250.61693 248.78863 246.70832 244.55202
 242.35372 240.16841 237.99911 235.84881 233.71950 231.59720 229.63390 227.80159
 226.09529 224.57799 223.21868 222.00138 220.89407 219.86477 218.97947 218.13116
 217.38386 216.57456 215.68325 215.05795 214.51865 214.27199 213.69537 213.64275
 214.52670 215.38426 216.25459 217.26971 218.69476 221.45033 226.11678 230.70348
 234.40280 238.32587 242.20776 245.94588 249.65918 253.50853 257.13739 260.25638
 263.11499 265.99350 268.80069 271.12491 273.00647 274.62390 276.19641 277.57986
 278.45157 279.58292 281.09732 282.42709 283.57791 284.59607 285.52499 286.36652
 287.12341 287.79739 288.38620 289.13654
 366.78100 356.34233 345.78166 334.65499 323.06531 311.26664 299.14397 286.95430
 274.67363 262.57796 250.59429 239.90261 230.03194 221.14327 213.33260 206.34193
 200.18326 195.12859 191.71791 189.76724 188.81157 188.88290 189.72523 191.04056
 192.77289 194.87521 197.14554 199.51187 201.96420 204.45153 206.54686 208.39618
 210.02951 211.18184 211.41817 211.65350 211.59783 211.31016 210.95048 210.58781
 210.21214 209.92947 209.74480 209.61613 209.55146 209.88978 210.28311 210.67944
 211.47977 212.66510 213.92243 215.71276 217.64808 219.69841 221.80074 223.89107
 225.95840 228.04973 230.15406 232.26738 234.40371 236.58304 238.84637 241.22370
 243.85203 246.11036 248.11968 249.89201 251.31634 252.44667 253.27600 253.59933
 253.64366 253.42498 252.79231 251.74764 250.36097 248.52930 246.44563 244.28595
 242.08428 239.89561 237.72294 235.56927 233.43660 231.31093 229.34425 227.50858
 225.79891 224.27824 222.91557 221.69490 220.58423 219.55155 218.66288 217.81121
 217.06054 216.24787 215.35320 214.72453 214.18185 214.13741 213.89636 213.54887
 214.42484 215.46025 216.39847 217.41618 218.79233 221.41202 226.19363 230.72092
 234.38739 238.27693 242.13765 245.86406 249.64291 253.53712 257.16104 260.28912
 263.19168 266.05286 268.83704 271.13956 272.96951 274.48462 276.03540 277.33994
 278.28979 279.92184 281.49319 282.87299 284.06708 285.12354 286.08737 286.96057
 287.74591 288.44525 289.05618 289.83475
 366.78100 356.33900 345.77499 334.64499 323.05198 311.24998 299.12397 286.93097
 274.64696 262.54796 250.56095 239.86595 229.99194 221.09994 213.28594 206.29193
 200.12993 195.07192 191.65792 189.70391 188.74491 188.81290 189.65190 190.96389
 192.69289 194.79189 197.05888 199.42188 201.87087 204.35487 206.44686 208.29286
 209.92285 211.07185 211.30484 211.53684 211.47783 211.18683 210.82383 210.45782
 210.07882 209.79281 209.60481 209.47280 209.40480 209.73979 210.12979 210.52278
 211.31978 212.50178 213.75577 215.54277 217.47476 219.52176 221.62075 223.70775
 225.77174 227.85974 229.96073 232.07073 234.20372 236.37972 238.63972 241.01371
 243.63871 245.89370 247.89970 249.66869 251.08969 252.21668 253.04268 253.36267
 253.40367 253.18167 252.54566 251.49766 250.10765 248.27265 246.18564 244.02264
 241.81763 239.62563 237.44962 235.29262 233.15661 231.02761 229.05761 227.21860
 225.50560 223.98159 222.61559 221.39158 220.27758 219.24157 218.34957 217.49456
 216.74056 215.92456 215.02655 214.39455 213.84854 214.01254 214.07767 213.51630
 214.31766 215.52368 216.52605 217.53661 218.95764 221.46555 226.15434 230.66496
 234.29562 238.14955 241.99419 245.72169 249.56274 253.46530 257.03751 260.24634
 263.24332 266.07953 268.68320 270.89188 272.68307 274.20972 275.80383 277.17865
 278.22528 279.12241 279.89871 280.58035 281.17029 281.69220 282.16840 282.59976
 282.98776 283.33325 283.63507 284.01971
 366.78100 356.33725 345.77150 334.63975 323.04500 311.24125 299.11350 286.91875
 274.63300 262.53225 250.54350 239.84675 229.97100 221.07725 213.26150 206.26575
 200.10200 195.04225 191.62650 189.67075 188.71000 188.77625 189.61350 190.92375
 192.65100 194.74825 197.01350 199.37475 201.82200 204.30425 206.39450 208.23875
 209.86700 211.01425 211.24550 211.47575 211.41500 211.12225 210.75750 210.38975
 210.00900 209.72125 209.53150 209.39775 209.32800 209.66126 210.04951 210.44076
 211.23601 212.41626 213.66851 215.45376 217.38401 219.42926 221.52651 223.61176
 225.67401 227.76026 229.85951 231.96776 234.09901 236.27326 238.53151 240.90376
 243.52701 245.78026 247.78451 249.55176 250.97101 252.09626 252.92051 253.23876
 253.27801 253.05426 252.41651 251.36676 249.97501 248.13826 246.04951 243.88476
 241.67801 239.48426 237.30651 235.14776 233.01001 230.87926 228.90751 227.06676
 225.35201 223.82626 222.45851 221.23276 220.11701 219.07926 218.18551 217.32876
 216.57301 215.75526 214.85551 214.22176 213.67401 213.93988 214.21643 213.52419
 213.97366 215.33746 216.58870 217.71741 219.11185 221.61810 226.21005 230.71405
 234.32896 238.15544 241.97325 245.72244 249.62263 253.56604 257.15668 260.37616
 263.41440 266.24475 268.80054 271.02499 272.87500 274.06616 275.62656 277.39801
 279.21677 280.77576 282.12479 283.30933 284.33444 285.24142 286.06891 286.81854
 287.49277 288.09314 288.61765 289.28604
 366.78100 356.34053 345.77807 334.64960 323.05813 311.25766 299.13320 286.94173
 274.65926 262.56179 250.57633 239.88286 230.01039 221.11992 213.30746 206.31499
 200.15452 195.09805 191.68559 189.73312 188.77565 188.84518 189.68572 190.99925
 192.72978 194.83031 197.09885 199.46338 201.91391 204.39944 206.49298 208.34051
 209.97204 211.12258 211.35711 211.59064 211.53317 211.24371 210.88224 210.51777
 210.14030 209.85584 209.66937 209.53890 209.47243 209.80897 210.20050 210.59503
 211.39356 212.57710 213.83263 215.62116 217.55469 219.60323 221.70376 223.79229
 225.85782 227.94736 230.04989 232.16142 234.29595 236.47349 238.73502 241.11055
 243.73709 245.99362 248.00115 249.77168 251.19422 252.32275 253.15028 253.47181
 253.51435 253.29388 252.65941 251.61294 250.22448 248.39101 246.30554 244.14407
 241.94061 239.75014 237.57567 235.42020 233.28574 231.15827 229.18980 227.35233
 225.64087 224.11840 222.75393 221.53147 220.41900 219.38453 218.49406 217.64060
 216.88813 216.07366 215.17719 214.54673 214.00226 214.06003 214.12622 213.85619
 213.99057 215.10571 216.42415 217.60864 219.09148 221.63861 226.26003 230.72623
 234.30724 238.11119 241.92731 245.71275 249.58913 253.51683 257.12201 260.34158
 263.37674 266.21982 268.74255 270.92712 272.74863 274.17352 275.61938 277.58884
 279.61545 281.55054 283.22507 284.69540 285.96786 287.09366 288.12079 289.05127
 289.88815 290.63342 291.28445 292.11411
 366.78100 356.34390 345.78480 334.65971 323.07161 311.27451 299.15341 286.96531
 274.68621 262.59212 250.61002 239.91992 230.05082 221.16372 213.35462 206.36553
 200.20843 195.15533 191.74623 189.79713 188.84303 188.91594 189.75984 191.07674
 192.81064 194.91454 197.18644 199.55435 202.00825 204.49715 206.59405 208.44495
 210.07986 211.23376 211.47166 211.70856 211.65446 211.36836 211.01027 210.64917
 210.27507 209.99397 209.81087 209.68377 209.62068 209.96058 210.35548 210.75338
 211.55528 212.74218 214.00109 215.79299 217.72989 219.78179 221.88569 223.97759
 226.04650 228.13940 230.24530 232.36020 234.49810 236.67901 238.94391 241.32281
 243.95271 246.21261 248.22351 249.99742 251.42332 252.55522 253.38612 253.71102
 253.75692 253.53983 252.90873 251.86563 250.48053 248.65043 246.56833 244.41024
 242.21014 240.02304 237.85194 235.69984 233.56874 231.44465 229.47955 227.64545
 225.93735 224.41825 223.05716 221.83806 220.72896 219.69786 218.81076 217.96066
 217.21157 216.40047 215.50737 214.88027 214.33917 214.22687 213.97359 213.96405
 214.40076 215.33801 216.44670 217.51239 218.87257 221.49442 226.11882 230.58507
 234.13348 237.87183 241.62573 245.39450 249.37747 253.39044 256.95422 260.15848
 263.21243 266.04147 268.60205 270.72971 272.51169 273.94046 275.49234 277.19885
 279.07144 280.90845 282.49808 283.89389 285.10184 286.17056 287.14563 288.02896
 288.82343 289.53088 290.14893 290.93652
 366.78100 356.34179 345.78059 334.65338 323.06317 311.26397 299.14076 286.95055
 274.66935 262.57314 250.58894 239.89673 230.02552 221.13632 213.32511 206.33390
 200.17470 195.11949 191.70828 189.75708 188.80087 188.87166 189.71346 191.02825
 192.76005 194.86184 197.13163 199.49743 201.94922 204.43601 206.53081 208.37960
 210.01239 211.16419 211.39998 211.63477 211.57857 211.29036 210.93016 210.56695
 210.19074 209.90754 209.72233 209.59312 209.52792 209.86571 210.25850 210.65430
 211.45409 212.63888 213.89568 215.68547 217.62027 219.67006 221.77185 223.86165
 225.92844 228.01923 230.12303 232.23582 234.37161 236.55041 238.81320 241.18999
 243.81779 246.07558 248.08438 249.85617 251.27996 252.40976 253.23855 253.56134
 253.60514 253.38593 252.75272 251.70752 250.32031 248.48810 246.40390 244.24369
 242.04149 239.85228 237.67907 235.52487 233.39166 231.26545 229.29825 227.46204
 225.75183 224.23063 222.86742 221.64621 220.53501 219.50180 218.61260 217.76039
 217.00918 216.19598 215.30077 214.67156 214.12836 214.17670 214.09698 213.75932
 214.35925 215.52147 216.65784 217.70956 219.08360 221.65282 226.13313 230.52330
 234.02377 237.71622 241.44743 245.23689 249.30771 253.32042 256.90918 260.18289
 263.26904 266.07642 268.55466 270.58365 272.29956 273.88254 275.46643 276.95740
 278.29587 279.44315 280.43594 281.30768 282.06210 282.72955 283.33853 283.89020
 284.38638 284.82822 285.21420 285.70609
 366.78100 356.33767 345.77235 334.64102 323.04670 311.24337 299.11604 286.92172
 274.63639 262.53606 250.54774 239.85141 229.97609 221.08276 213.26743 206.27211
 200.10878 195.04946 191.63413 189.67880 188.71848 188.78515 189.62282 190.93350
 192.66117 194.75885 197.02452 199.38619 201.83387 204.31654 206.40722 208.25189
 209.88056 211.02824 211.25991 211.49058 211.43026 211.13793 210.77361 210.40628
 210.02595 209.73863 209.54930 209.41598 209.34665 209.68032 210.06900 210.46067
 211.25634 212.43702 213.68969 215.47537 217.40604 219.45171 221.54939 223.63506
 225.69774 227.78441 229.88408 231.99276 234.12443 236.29910 238.55778 240.93045
 243.55413 245.80780 247.81247 249.58015 250.99982 252.12550 252.95017 253.26884
 253.30852 253.08519 252.44786 251.39854 250.00721 248.17089 246.08256 243.91823
 241.71191 239.51858 237.34126 235.18293 233.04560 230.91528 228.94395 227.10362
 225.38930 223.86397 222.49665 221.27132 220.15599 219.11867 218.22534 217.36902
 216.61369 215.79636 214.89704 214.26371 213.71638 213.99707 214.33835 213.67693
 213.97624 215.36916 216.74356 217.84032 219.24155 221.80832 226.24673 230.63144
 234.12151 237.78833 241.48586 245.28296 249.44200 253.48795 257.05832 260.36618
 263.51099 266.30426 268.67145 270.63058 272.34109 273.74380 275.30835 277.25571
 279.40659 281.25018 282.84555 284.24637 285.45868 286.53125 287.50983 288.39633
 289.19366 289.90369 290.52393 291.31436
 366.78100 356.33664 345.77027 334.63791 323.04255 311.23818 299.10982 286.91445
 274.62809 262.52673 250.53736 239.84000 229.96364 221.06927 213.25291 206.25654
 200.09218 195.03182 191.61545 189.65909 188.69773 188.76336 189.60000 190.90963
 192.63627 194.73291 196.99754 199.35818 201.80482 204.28645 206.37609 208.21972
 209.84736 210.99400 211.22463 211.45427 211.39291 211.09954 210.73418 210.36581
 209.98445 209.69609 209.50572 209.37136 209.30100 209.63363 210.02127 210.41190
 211.20654 212.38618 213.63781 215.42245 217.35209 219.39672 221.49336 223.57799
 225.63963 227.72527 229.82390 231.93154 234.06218 236.23581 238.49345 240.86508
 243.48772 245.74036 247.74399 249.51063 250.92927 252.05390 252.87754 253.19517
 253.23381 253.00945 252.37108 251.32072 249.92836 248.09099 246.00163 243.83626
 241.62890 239.43454 237.25617 235.09681 232.95845 230.82708 228.85472 227.01335
 225.29799 223.77163 222.40326 221.17690 220.06054 219.02217 218.12781 217.27044
 216.51408 215.69572 214.79535 214.16099 213.61263 213.91762 214.45761 213.92549
 213.84016 215.09731 216.55811 217.69432 219.14015 221.95306 226.20526 230.62933
 234.08562 237.72260 241.43317 245.30841 249.40259 253.41190 257.00110 260.31372
 263.42914 266.22046 268.61383 270.63400 272.35620 273.78732 275.35260 277.13715
 278.72345 280.56284 282.31442 283.85242 285.18341 286.36102 287.43539 288.40869
 289.28409 290.06363 290.74463 291.61246
 366.78100 356.33729 345.77159 334.63988 323.04517 311.24147 299.11376 286.91905
 274.63335 262.53264 250.54393 239.84723 229.97152 221.07781 213.26211 206.26640
 200.10270 195.04299 191.62728 189.67158 188.71087 188.77716 189.61446 190.92475
 192.65204 194.74934 197.01463 199.37592 201.82322 204.30551 206.39580 208.24010
 209.86839 211.01568 211.24698 211.47727 211.41656 211.12386 210.75915 210.39144
 210.01074 209.72303 209.53332 209.39962 209.32991 209.66321 210.05150 210.44279
 211.23809 212.41838 213.67067 215.45597 217.38626 219.43155 221.52885 223.61414
 225.67643 227.76273 229.86202 231.97031 234.10161 236.27590 238.53419 240.90649
 243.52978 245.78307 247.78737 249.55466 250.97395 252.09925 252.92354 253.24183
 253.28113 253.05742 252.41972 251.37001 249.97830 248.14160 246.05289 243.88818
 241.68148 239.48777 237.31006 235.15136 233.01365 230.88294 228.91124 227.07053
 225.35582 223.83012 222.46241 221.23670 220.12100 219.08329 218.18958 217.33288
 216.57717 215.75946 214.85976 214.22605 213.67834 213.92870 214.44391 214.18396
 213.91098 214.93376 216.38783 217.59113 219.16588 222.00906 226.19751 230.57225
 233.97118 237.55484 241.23918 245.15965 249.30545 253.31215 256.90549 260.19995
 263.25946 265.99625 268.38440 270.41937 272.18350 273.71161 275.42719 277.31299
 278.87381 280.00943 281.06891 282.33887 283.46997 284.47070 285.38373 286.21085
 286.95474 287.61722 288.19592 288.93341
 366.78100 356.34042 345.77784 334.64926 323.05768 311.25710 299.13251 286.94093
 274.65835 262.56077 250.57519 239.88161 230.00903 221.11845 213.30587 206.31329
 200.15270 195.09612 191.68354 189.73096 188.77338 188.84280 189.68322 190.99664
 192.72706 194.82748 197.09590 199.46031 201.91073 204.39615 206.48957 208.33699
 209.96841 211.11883 211.35325 211.58667 211.52909 211.23951 210.87792 210.51334
 210.13576 209.85118 209.66460 209.53402 209.46744 209.80386 210.19528 210.58970
 211.38811 212.57153 213.82695 215.61537 217.54879 219.59721 221.69763 223.78605
 225.85147 227.94089 230.04331 232.15472 234.28914 236.46656 238.72798 241.10340
 243.72982 245.98624 247.99366 249.76408 251.18650 252.31491 253.14233 253.46375
 253.50617 253.28559 252.65101 251.60443 250.21585 248.38227 246.29669 244.13511
 241.93152 239.74094 237.56636 235.41078 233.27620 231.14862 229.18004 227.34246
 225.63088 224.10830 222.74372 221.52113 220.40855 219.37397 218.48339 217.62981
 216.87723 216.06265 215.16607 214.53549 213.99091 214.09265 214.31261 214.26797
 214.20531 215.04012 216.35629 217.54063 219.07521 221.92490 226.20657 230.49307
 233.90433 237.43411 241.09677 245.06187 249.27589 253.27728 256.85590 260.14734
 263.21280 265.94257 268.30450 270.29462 272.07663 273.59891 275.25494 277.11212
 278.63507 279.64490 280.86581 282.14282 283.24799 284.22574 285.11780 285.92596
 286.65280 287.30005 287.86548 288.58606
 366.78100 356.34160 345.78020 334.65280 323.06240 311.26300 299.13960 286.94920
 274.66780 262.57140 250.58700 239.89460 230.02320 221.13380 213.32240 206.33100
 200.17160 195.11620 191.70480 189.75340 188.79700 188.86761 189.70921 191.02381
 192.75541 194.85701 197.12661 199.49221 201.94381 204.43041 206.52501 208.37361
 210.00621 211.15781 211.39341 211.62801 211.57161 211.28321 210.92281 210.55941
 210.18301 209.89961 209.71421 209.58481 209.51941 209.85701 210.24961 210.64521
 211.44481 212.62941 213.88601 215.67561 217.61021 219.65981 221.76141 223.85101
 225.91761 228.00821 230.11181 232.22441 234.36001 236.53861 238.80121 241.17782
 243.80542 246.06302 248.07162 249.84322 251.26682 252.39642 253.22502 253.54762
 253.59122 253.37182 252.73842 251.69302 250.30562 248.47322 246.38882 244.22842
 242.02602 239.83662 237.66322 235.50882 233.37542 231.24902 229.28162 227.44522
 225.73482 224.21342 222.85002 221.62862 220.51722 219.48382 218.59442 217.74202
 216.99062 216.17722 215.28182 214.65242 214.10902 214.19688 214.32352 214.15352
 214.34239 215.26404 216.46733 217.57567 219.04562 221.74133 226.26665 230.46417
 233.80272 237.32193 241.00467 245.05739 249.30095 253.27794 256.85568 260.16376
 263.20602 265.90329 268.18143 270.20557 271.96051 273.70105 275.37033 276.83990
 278.56091 280.35736 281.91190 283.27692 284.45819 285.50333 286.45688 287.32071
 288.09763 288.78946 289.39386 290.16409
 366.78100 356.33703 345.77106 334.63909 323.04412 311.24015 299.11217 286.91720
 274.63123 262.53026 250.54129 239.84432 229.96835 221.07438 213.25841 206.26244
 200.09846 195.03849 191.62252 189.66655 188.70558 188.77161 189.60864 190.91867
 192.64570 194.74273 197.00775 199.36878 201.81581 204.29784 206.38787 208.23190
 209.85993 211.00696 211.23799 211.46802 211.40704 211.11407 210.74910 210.38113
 210.00016 209.71219 209.52222 209.38825 209.31828 209.65131 210.03933 210.43036
 211.22539 212.40542 213.65745 215.44248 217.37251 219.41754 221.51457 223.59960
 225.66162 227.74765 229.84668 231.95471 234.08574 236.25977 238.51780 240.88983
 243.51286 245.76589 247.76991 249.53694 250.95597 252.08100 252.90503 253.22306
 253.26209 253.03812 252.40015 251.35018 249.95820 248.12123 246.03226 243.86729
 241.66032 239.46635 237.28838 235.12941 232.99144 230.86047 228.88850 227.04752
 225.33255 223.80658 222.43861 221.21264 220.09667 219.05870 218.16473 217.30776
 216.55179 215.73381 214.83384 214.19987 213.65190 214.01833 214.57684 214.02420
 214.03371 215.15480 216.55484 217.75966 219.27383 221.94965 226.35968 230.56543
 233.87984 237.34352 240.96355 245.07645 249.34467 253.29800 256.87534 260.21127
 263.26624 265.92224 268.15292 270.15271 271.97342 273.73419 275.32230 276.71484
 277.87149 278.86292 279.72079 280.47412 281.12604 281.70282 282.22903 282.70578
 283.13452 283.51633 283.84988 284.27496
 366.78100 356.33487 345.76673 334.63260 323.03546 311.22933 299.09919 286.90206
 274.61392 262.51079 250.51965 239.82052 229.94238 221.04625 213.22811 206.22998
 200.06384 195.00171 191.58357 189.62544 188.66230 188.72617 189.56103 190.86890
 192.59376 194.68863 196.95149 199.31036 201.75522 204.23509 206.32295 208.16482
 209.79069 210.93555 211.16442 211.39228 211.32915 211.03401 210.66688 210.29674
 209.91361 209.62347 209.43134 209.29520 209.22307 209.55393 209.93980 210.32866
 211.12153 212.29939 213.54926 215.33212 217.25999 219.30285 221.39772 223.48058
 225.54045 227.62431 229.72118 231.82704 233.95591 236.12777 238.38364 240.75351
 243.37437 245.62524 247.62710 249.39197 250.80883 251.93170 252.75356 253.06943
 253.10629 252.88016 252.24002 251.18789 249.79375 247.95462 245.86348 243.69635
 241.48721 239.29108 237.11094 234.94981 232.80967 230.67654 228.70240 226.85927
 225.14213 223.61400 222.24386 221.01573 219.89760 218.85746 217.96133 217.10219
 216.34406 215.52392 214.62179 213.98565 213.43552 213.90715 214.76202 214.22694
 213.75107 214.77840 216.46634 217.83395 219.40974 222.06943 226.44745 230.61591
 233.91165 237.36749 241.00278 245.10023 249.36937 253.29845 256.87137 260.20770
 263.29715 265.97678 268.23929 270.20645 271.92935 273.62256 275.20078 276.79510
 278.91833 280.74539 282.32642 283.71469 284.91611 285.97906 286.94882 287.82739
 288.61755 289.32117 289.93588 290.71921
 366.78100 356.33778 345.77257 334.64135 323.04714 311.24392 299.11671 286.92249
 274.63728 262.53706 250.54884 239.85263 229.97741 221.08420 213.26898 206.27377
 200.11055 195.05134 191.63612 189.68091 188.72069 188.78747 189.62526 190.93604
 192.66383 194.76161 197.02740 199.38918 201.83697 204.31975 206.41053 208.25532
 209.88410 211.03189 211.26367 211.49446 211.43424 211.14203 210.77781 210.41059
 210.03038 209.74316 209.55395 209.42073 209.35152 209.68530 210.07409 210.46587
 211.26165 212.44244 213.69522 215.48101 217.41179 219.45758 221.55536 223.64115
 225.70393 227.79072 229.89050 231.99928 234.13107 236.30585 238.56464 240.93742
 243.56121 245.81499 247.81978 249.58756 251.00734 252.13313 252.95791 253.27670
 253.31648 253.09327 252.45605 251.40684 250.01562 248.17940 246.09119 243.92697
 241.72076 239.52754 237.35033 235.19211 233.05490 230.92468 228.95346 227.11325
 225.39903 223.87382 222.50660 221.28139 220.16617 219.12896 218.23574 217.37953
 216.62431 215.80709 214.90788 214.27466 213.72745 214.03036 214.68410 214.57985
 213.93124 214.53798 216.15131 217.55350 219.22314 222.02783 226.38882 230.54863
 233.81171 237.27744 240.97270 245.08261 249.30478 253.21513 256.78168 260.12988
 263.21167 265.95276 268.31226 270.37766 272.23260 273.67218 275.08777 276.96017
 278.94073 280.92905 282.64963 284.16040 285.46786 286.62463 287.67999 288.63608
 289.49597 290.26172 290.93066 291.78314
 366.78100 356.34011 345.77723 334.64834 323.05646 311.25557 299.13069 286.93880
 274.65591 262.55803 250.57214 239.87826 230.00537 221.11449 213.30160 206.30872
 200.14783 195.09094 191.67806 189.72517 188.76729 188.83640 189.67652 190.98963
 192.71974 194.81986 197.08797 199.45209 201.90220 204.38732 206.48043 208.32754
 209.95866 211.10877 211.34289 211.57600 211.51812 211.22823 210.86634 210.50146
 210.12357 209.83869 209.65180 209.52092 209.45403 209.79015 210.18126 210.57537
 211.37349 212.55660 213.81172 215.59983 217.53295 219.58106 221.68117 223.76929
 225.83440 227.92352 230.02563 232.13675 234.27086 236.44797 238.70909 241.08420
 243.71032 245.96643 247.97355 249.74366 251.16578 252.29389 253.12100 253.44212
 253.48423 253.26335 252.62846 251.58158 250.19269 248.35880 246.27292 244.11103
 241.90715 239.71626 237.54138 235.38549 233.25060 231.12272 229.15383 227.31595
 225.60406 224.08118 222.71629 221.49340 220.38052 219.34563 218.45475 217.60086
 216.84798 216.03309 215.13621 214.50532 213.96043 214.15260 214.59370 214.66243
 214.28813 214.65474 215.92000 217.25824 218.99071 222.01442 226.30626 230.46063
 233.70691 237.17625 240.91904 245.05215 249.24467 253.13594 256.71243 260.03360
 263.06424 265.76657 268.17188 270.34271 272.30161 273.90506 275.37445 277.24084
 278.96799 280.84570 282.50562 283.96313 285.22452 286.34048 287.35867 288.28104
 289.11063 289.84940 290.49475 291.31717
 366.78100 356.34000 345.77699 334.64799 323.05599 311.25499 299.12998 286.93798
 274.65498 262.55697 250.57097 239.87697 230.00397 221.11296 213.29996 206.30696
 200.14595 195.08895 191.67595 189.72295 188.76494 188.83394 189.67394 190.98693
 192.71693 194.81693 197.08493 199.44892 201.89892 204.38392 206.47691 208.32391
 209.95491 211.10491 211.33890 211.57190 211.51390 211.22389 210.86189 210.49689
 210.11889 209.83388 209.64688 209.51588 209.44887 209.78487 210.17587 210.56987
 211.36786 212.55086 213.80586 215.59385 217.52685 219.57485 221.67485 223.76284
 225.82784 227.91684 230.01883 232.12983 234.26383 236.44083 238.70182 241.07682
 243.70282 245.95881 247.96581 249.73581 251.15781 252.28580 253.11280 253.43380
 253.47579 253.25479 252.61979 251.57279 250.18378 248.34978 246.26378 244.10178
 241.89777 239.70677 237.53177 235.37576 233.24076 231.11276 229.14376 227.30575
 225.59375 224.07075 222.70574 221.48274 220.36974 219.33474 218.44373 217.58973
 216.83673 216.02172 215.12472 214.49372 213.94872 214.17696 214.63493 214.54471
 214.44472 214.99518 216.00246 217.03047 218.79962 221.93925 226.34384 230.39999
 233.63379 237.10425 240.88138 245.03883 249.21614 253.09792 256.67065 259.96704
 262.96939 265.62228 267.96817 270.13776 272.11746 273.68716 275.37158 277.28705
 278.91647 280.68307 282.23596 283.59949 284.77948 285.82349 286.77600 287.63892
 288.41498 289.10608 289.70984 290.47922
 366.78100 356.33946 345.77592 334.64638 323.05383 311.25229 299.12675 286.93421
 274.65067 262.55213 250.56559 239.87105 229.99750 221.10596 213.29242 206.29888
 200.13734 195.07980 191.66626 189.71271 188.75417 188.82263 189.66209 190.97455
 192.70401 194.80347 197.07093 199.43438 201.88384 204.36830 206.46076 208.30722
 209.93768 211.08714 211.32059 211.55305 211.49451 211.20397 210.84143 210.47589
 210.09735 209.81181 209.62426 209.49272 209.42518 209.76064 210.15110 210.54456
 211.34202 212.52447 213.77893 215.56639 217.49885 219.54631 221.64577 223.73323
 225.79769 227.88614 229.98760 232.09806 234.23152 236.40798 238.66844 241.04290
 243.66835 245.92381 247.93027 249.69973 251.12119 252.24865 253.07511 253.39557
 253.43702 253.21548 252.57994 251.53240 250.14286 248.30832 246.22178 244.05923
 241.85469 239.66315 237.48761 235.33107 233.19553 231.06699 229.09745 227.25890
 225.54636 224.02282 222.65728 221.43374 220.32020 219.28466 218.39311 217.53857
 216.78503 215.96949 215.07195 214.44041 213.89487 214.19101 214.71254 214.43347
 214.41415 215.16545 216.14337 217.07080 218.84648 221.88007 226.39255 230.37929
 233.57077 237.02844 240.84264 245.03276 249.20627 253.07210 256.64050 259.93057
 262.92606 265.54608 267.90372 270.08661 272.00751 273.68045 275.33914 277.25089
 279.44595 281.36948 283.03397 284.49551 285.76035 286.87939 287.90036 288.82532
 289.65717 290.39795 291.04510 291.86978
 366.78100 356.33913 345.77526 334.64539 323.05252 311.25065 299.12478 286.93192
 274.64805 262.54918 250.56231 239.86744 229.99357 221.10170 213.28783 206.29396
 200.13209 195.07422 191.66035 189.70648 188.74762 188.81575 189.65488 190.96701
 192.69614 194.79527 197.06240 199.42553 201.87466 204.35879 206.45092 208.29705
 209.92718 211.07632 211.30945 211.54158 211.48271 211.19184 210.82897 210.46310
 210.08423 209.79836 209.61049 209.47862 209.41075 209.74588 210.13601 210.52915
 211.32628 212.50841 213.76254 215.54967 217.48180 219.52893 221.62806 223.71519
 225.77932 227.86745 229.96858 232.07871 234.21185 236.38798 238.64811 241.02224
 243.64737 245.90250 247.90863 249.67776 251.09889 252.22602 253.05215 253.37228
 253.41341 253.19155 252.55568 251.50781 250.11794 248.28307 246.19620 244.03333
 241.82846 239.63659 237.46072 235.30385 233.16798 231.03911 229.06925 227.23038
 225.51751 223.99364 222.62777 221.40390 220.29003 219.25416 218.36229 217.50742
 216.75355 215.93768 215.03981 214.40795 213.86208 214.20969 214.78914 214.39288
 214.26999 215.16965 216.17250 217.11981 218.90402 221.95580 226.40759 230.39922
 233.55867 236.97214 240.81380 245.03224 249.18393 253.06035 256.64438 259.93060
 262.90576 265.49850 267.84778 270.06549 272.04312 273.71790 275.29077 277.68845
 279.93704 281.86444 283.53229 284.99677 286.26416 287.38547 288.40851 289.33530
 290.16885 290.91113 291.55957 292.38593
 366.78100 356.33894 345.77488 334.64482 323.05176 311.24970 299.12363 286.93057
 274.64651 262.54745 250.56039 239.86533 229.99127 221.09921 213.28515 206.29109
 200.12903 195.07096 191.65690 189.70284 188.74378 188.81172 189.65066 190.96260
 192.69154 194.79048 197.05742 199.42036 201.86930 204.35323 206.44517 208.29111
 209.92105 211.06999 211.30293 211.53487 211.47581 211.18475 210.82169 210.45563
 210.07656 209.79050 209.60244 209.47038 209.40232 209.73726 210.12720 210.52014
 211.31708 212.49902 213.75296 215.53989 217.47183 219.51877 221.61771 223.70465
 225.76859 227.85653 229.95747 232.06741 234.20035 236.37629 238.63622 241.01016
 243.63510 245.89004 247.89598 249.66492 251.08586 252.21280 253.03874 253.35868
 253.39962 253.17755 252.54149 251.49343 250.10337 248.26831 246.18125 244.01819
 241.81313 239.62107 237.44501 235.28795 233.15189 231.02282 229.05276 227.21370
 225.50064 223.97658 222.61052 221.38646 220.27240 219.23634 218.34428 217.48922
 216.73515 215.91909 215.02103 214.38897 213.84291 214.23000 214.88440 214.44557
 214.09174 214.94862 216.00279 217.05989 218.91406 222.07916 226.42421 230.41885
 233.55002 236.96727 240.80379 245.02020 249.18597 253.06123 256.62668 259.91122
 262.88120 265.42490 267.81888 270.10556 272.11349 273.68591 275.00916 276.21606
 277.26358 278.16150 278.93848 279.62073 280.21115 280.73352 281.21011 281.64188
 282.03018 282.37601 282.67807 283.06305
 366.78100 356.33886 345.77472 334.64458 323.05144 311.24930 299.12316 286.93002
 274.64587 262.54673 250.55959 239.86445 229.99031 221.09817 213.28403 206.28989
 200.12775 195.06961 191.65547 189.70133 188.74219 188.81005 189.64890 190.96076
 192.68962 194.78848 197.05534 199.41820 201.86706 204.35092 206.44278 208.28864
 209.91850 211.06736 211.30022 211.53208 211.47293 211.18179 210.81865 210.45251
 210.07337 209.78723 209.59909 209.46695 209.39881 209.73367 210.12353 210.51639
 211.31325 212.49511 213.74897 215.53582 217.46768 219.51454 221.61340 223.70026
 225.76412 227.85198 229.95284 232.06270 234.19556 236.37142 238.63128 241.00514
 243.63000 245.88485 247.89071 249.65957 251.08043 252.20729 253.03315 253.35301
 253.39387 253.17173 252.53559 251.48745 250.09731 248.26217 246.17503 244.01189
 241.80674 239.61460 237.43846 235.28132 233.14518 231.01604 229.04590 227.20676
 225.49362 223.96948 222.60334 221.37920 220.26506 219.22892 218.33677 217.48163
 216.72749 215.91135 215.01321 214.38107 213.83493 214.25688 214.97549 214.50987
 213.90247 214.77055 215.80156 216.86409 218.77283 222.16666 226.49338 230.46288
 233.57664 236.98917 240.83786 245.06657 249.22577 253.10423 256.68863 259.97754
 262.92874 265.49527 267.86337 270.10071 271.91913 273.54282 274.75150 275.82990
 276.76593 277.56827 278.26254 278.87216 279.39975 279.86652 280.29236 280.67816
 281.02515 281.33414 281.60406 281.94806
 366.78100 356.33962 345.77624 334.64686 323.05449 311.25311 299.12773 286.93535
 274.65197 262.55359 250.56721 239.87283 229.99946 221.10808 213.29470 206.30132
 200.13994 195.08256 191.66918 189.71581 188.75743 188.82605 189.66567 190.97829
 192.70791 194.80753 197.07515 199.43878 201.88840 204.37302 206.46564 208.31226
 209.94288 211.09250 211.32613 211.55875 211.50037 211.20999 210.84761 210.48223
 210.10385 209.81847 209.63110 209.49972 209.43234 209.76796 210.15858 210.55220
 211.34982 212.53245 213.78707 215.57469 217.50731 219.55493 221.65455 223.74217
 225.80679 227.89542 229.99704 232.10766 234.24128 236.41790 238.67852 241.05314
 243.67876 245.93439 247.94101 249.71063 251.13225 252.25987 253.08649 253.40711
 253.44874 253.22736 252.59198 251.54460 250.15522 248.32084 246.23446 244.07208
 241.86771 239.67633 237.50095 235.34457 233.20919 231.08081 229.11143 227.27306
 225.56068 224.03730 222.67192 221.44854 220.33516 219.29978 218.40840 217.55403
 216.80065 215.98527 215.08789 214.45651 213.91113 214.31024 215.01596 214.59488
 213.82918 214.61061 215.57185 216.60820 218.72704 222.17647 226.55115 230.53098
 233.64503 237.05714 240.91093 245.17407 249.33244 253.20178 256.79767 260.12158
 263.14200 265.77188 268.18463 270.46243 272.33417 273.65384 275.05389 276.30310
 277.38733 278.31671 279.12091 279.82709 280.43820 280.97888 281.47217 281.91907
 282.32098 282.67889 282.99158 283.39005
 366.78100 356.34103 345.77905 334.65108 323.06010 311.26013 299.13615 286.94518
 274.66320 262.56623 250.58125 239.88828 230.01630 221.12633 213.31435 206.32238
 200.16240 195.10643 191.69445 189.74248 188.78550 188.85553 189.69655 191.01058
 192.74160 194.84263 197.11165 199.47668 201.92770 204.41373 206.50775 208.35578
 209.98780 211.13883 211.37385 211.60788 211.55090 211.26193 210.90096 210.53698
 210.16001 209.87603 209.69006 209.56008 209.49411 209.83113 210.22316 210.61818
 211.41721 212.60123 213.85726 215.64628 217.58031 219.62933 221.73036 223.81938
 225.88541 227.97543 230.07846 232.19048 234.32551 236.50353 238.76556 241.14158
 243.76861 246.02563 248.03366 249.80468 251.22771 252.35673 253.18476 253.50678
 253.54981 253.32983 252.69586 251.64989 250.26191 248.42894 246.34396 244.18299
 241.98001 239.79004 237.61606 235.46109 233.32711 231.20014 229.23216 227.39519
 225.68421 224.16224 222.79826 221.57629 220.46431 219.43034 218.54036 217.68739
 216.93541 216.12144 215.22546 214.59549 214.05151 214.38312 215.00526 214.69304
 214.10667 214.62039 215.41710 216.43846 218.74394 222.12291 226.55220 230.51224
 233.62379 237.06248 240.92218 245.14432 249.27110 253.11246 256.68976 259.99869
 263.01437 265.72095 268.22751 270.62802 272.77737 274.30490 276.33224 278.90546
 281.13892 283.05331 284.70993 286.16455 287.42340 288.53714 289.55328 290.47385
 291.30176 292.03903 292.68311 293.50391
 366.78100 356.34188 345.78076 334.65364 323.06352 311.26440 299.14128 286.95116
 274.67004 262.57392 250.58980 239.89768 230.02656 221.13744 213.32631 206.33519
 200.17607 195.12095 191.70983 189.75871 188.80259 188.87347 189.71535 191.03023
 192.76211 194.86399 197.13387 199.49975 201.95163 204.43851 206.53339 208.38227
 210.01515 211.16703 211.40291 211.63779 211.58167 211.29355 210.93343 210.57031
 210.19419 209.91106 209.72594 209.59682 209.53170 209.86958 210.26246 210.65834
 211.45822 212.64310 213.89998 215.68986 217.62474 219.67462 221.77650 223.86638
 225.93326 228.02414 230.12802 232.24090 234.37678 236.55566 238.81854 241.19542
 243.82330 246.08118 248.09006 249.86194 251.28581 252.41569 253.24457 253.56745
 253.61133 253.39221 252.75909 251.71397 250.32685 248.49473 246.41061 244.25049
 242.04837 239.85925 237.68613 235.53201 233.39889 231.27277 229.30565 227.46953
 225.75941 224.23829 222.87517 221.65405 220.54293 219.50981 218.62069 217.76856
 217.01744 216.20432 215.30920 214.68008 214.13696 214.43935 214.99937 214.68988
 214.35254 214.85361 215.38306 216.19829 218.54836 222.08432 226.51917 230.46901
 233.55537 236.98471 240.84627 245.10297 249.21982 253.02510 256.58447 259.85269
 262.76569 265.39169 267.90857 270.35535 272.52182 274.38190 276.13861 278.30276
 280.60046 282.56995 284.27420 285.77066 287.06570 288.21149 289.25687 290.20389
 291.05563 291.81412 292.47672 293.32111
 366.78100 356.34122 345.77944 334.65166 323.06088 311.26110 299.13732 286.94654
 274.66476 262.56798 250.58320 239.89042 230.01864 221.12886 213.31708 206.32530
 200.16552 195.10974 191.69796 189.74618 188.78940 188.85962 189.70084 191.01506
 192.74628 194.84750 197.11672 199.48194 201.93316 204.41938 206.51360 208.36182
 209.99403 211.14525 211.38047 211.61469 211.55791 211.26913 210.90835 210.54457
 210.16779 209.88401 209.69823 209.56845 209.50267 209.83989 210.23211 210.62733
 211.42655 212.61077 213.86699 215.65621 217.59043 219.63965 221.74087 223.83009
 225.89631 227.98653 230.08975 232.20197 234.33719 236.51541 238.77763 241.15385
 243.78107 246.03829 248.04651 249.81773 251.24095 252.37017 253.19839 253.52061
 253.56383 253.34405 252.71027 251.66449 250.27671 248.44393 246.35915 244.19837
 241.99559 239.80581 237.63203 235.47725 233.34347 231.21669 229.24891 227.41213
 225.70135 224.17957 222.81579 221.59401 220.48223 219.44845 218.55866 217.70588
 216.95410 216.14032 215.24454 214.61476 214.07098 214.42340 215.07219 214.60182
 214.30276 214.87714 215.37230 216.01222 218.37340 222.14629 226.49194 230.50139
 233.57655 237.03311 240.92477 245.15504 249.27950 253.10318 256.67389 259.92545
 262.79385 265.35269 267.77673 270.12384 272.22913 274.17715 275.95602 277.45300
 278.92935 280.78790 282.42081 283.85458 285.09543 286.19324 287.19485 288.10220
 288.91830 289.64502 290.27988 291.08893
 366.78100 356.33950 345.77600 334.64650 323.05400 311.25250 299.12699 286.93449
 274.65099 262.55249 250.56599 239.87149 229.99799 221.10649 213.29299 206.29949
 200.13799 195.08048 191.66698 189.71348 188.75498 188.82348 189.66298 190.97548
 192.70498 194.80448 197.07198 199.43548 201.88497 204.36947 206.46197 208.30847
 209.93897 211.08847 211.32197 211.55447 211.49597 211.20547 210.84297 210.47747
 210.09896 209.81346 209.62596 209.49446 209.42696 209.76246 210.15296 210.54646
 211.34396 212.52646 213.78096 215.56845 217.50095 219.54845 221.64795 223.73545
 225.79995 227.88845 229.98995 232.10045 234.23395 236.41045 238.67094 241.04544
 243.67094 245.92644 247.93294 249.70244 251.12394 252.25144 253.07794 253.39844
 253.43994 253.21843 252.58293 251.53543 250.14593 248.31143 246.22493 244.06243
 241.85793 239.66643 237.49093 235.33443 233.19892 231.07042 229.10092 227.26242
 225.54992 224.02642 222.66092 221.43742 220.32392 219.28842 218.39692 217.54241
 216.78891 215.97341 215.07591 214.44441 213.89891 214.33463 215.23726 214.63945
 213.98756 214.50133 215.24236 216.17778 218.48389 222.14641 226.59215 230.53172
 233.62321 237.08430 240.96982 245.19485 249.32777 253.15224 256.70908 259.97186
 262.87558 265.45654 267.83582 270.09756 272.17230 274.05142 275.88409 277.34241
 278.46204 279.56726 280.61481 281.79169 283.04163 284.14874 285.15878 286.07382
 286.89679 287.62967 288.26990 289.08575
 366.78100 356.33886 345.77472 334.64458 323.05144 311.24930 299.12316 286.93002
 274.64587 262.54673 250.55959 239.86445 229.99031 221.09817 213.28403 206.28989
 200.12775 195.06961 191.65547 189.70133 188.74219 188.81005 189.64890 190.96076
 192.68962 194.78848 197.05534 199.41820 201.86706 204.35092 206.44278 208.28864
 209.91850 211.06736 211.30022 211.53208 211.47293 211.18179 210.81865 210.45251
 210.07337 209.78723 209.59909 209.46695 209.39881 209.73367 210.12353 210.51639
 211.31325 212.49511 213.74897 215.53582 217.46768 219.51454 221.61340 223.70026
 225.76412 227.85198 229.95284 232.06270 234.19556 236.37142 238.63128 241.00514
 243.63000 245.88485 247.89071 249.65957 251.08043 252.20729 253.03315 253.35301
 253.39387 253.17173 252.53559 251.48745 250.09731 248.26217 246.17503 244.01189
 241.80674 239.61460 237.43846 235.28132 233.14518 231.01604 229.04590 227.20676
 225.49362 223.96948 222.60334 221.37920 220.26506 219.22892 218.33677 217.48163
 216.72749 215.91135 215.01321 214.38107 213.83493 214.29602 215.33505 214.87627
 213.78784 214.09509 214.90308 215.95264 218.32047 222.04573 226.66364 230.42384
 233.62051 237.06328 240.96609 245.16566 249.29105 253.12047 256.67123 259.92419
 262.83585 265.43262 267.81409 270.06760 272.14877 273.93253 275.76962 277.26978
 278.32727 279.38971 280.59143 281.47089 282.20087 282.98904 283.96951 284.88611
 285.71045 286.44455 287.08582 287.90308
 366.78100 356.34020 345.77739 334.64859 323.05679 311.25598 299.13118 286.93938
 274.65657 262.55877 250.57297 239.87916 230.00636 221.11556 213.30275 206.30995
 200.14915 195.09234 191.67954 189.72674 188.76893 188.83813 189.67833 190.99152
 192.72172 194.82192 197.09012 199.45431 201.90451 204.38971 206.48290 208.33010
 209.96130 211.11149 211.34569 211.57889 211.52108 211.23128 210.86948 210.50467
 210.12687 209.84207 209.65526 209.52446 209.45766 209.79385 210.18505 210.57925
 211.37744 212.56064 213.81584 215.60403 217.53723 219.58543 221.68562 223.77382
 225.83902 227.92821 230.03041 232.14161 234.27580 236.45300 238.71420 241.08939
 243.71559 245.97179 247.97898 249.74918 251.17138 252.29957 253.12677 253.44797
 253.49017 253.26936 252.63456 251.58776 250.19895 248.36515 246.27935 244.11754
 241.91374 239.72294 237.54813 235.39233 233.25753 231.12972 229.16092 227.32312
 225.61131 224.08851 222.72371 221.50090 220.38810 219.35330 218.46249 217.60869
 216.85589 216.04108 215.14428 214.51348 213.96867 214.37846 215.30179 215.00500
 213.84427 213.99556 214.74147 215.84764 218.25787 221.99742 226.66093 230.47128
 233.58244 237.04921 240.97032 245.19772 249.32062 253.14203 256.68314 259.92404
 262.82376 265.40878 267.78177 270.03943 272.14557 273.88895 275.61792 277.19946
 278.16711 279.12845 280.43091 281.42615 282.08563 282.96628 283.98965 284.92657
 285.76920 286.51956 287.17508 288.01044
 366.78100 356.34062 345.77824 334.64986 323.05848 311.25810 299.13371 286.94233
 274.65995 262.56257 250.57719 239.88381 230.01143 221.12105 213.30867 206.31629
 200.15591 195.09952 191.68714 189.73476 188.77738 188.84700 189.68762 191.00124
 192.73186 194.83248 197.10110 199.46572 201.91633 204.40195 206.49557 208.34319
 209.97481 211.12543 211.36005 211.59367 211.53629 211.24691 210.88553 210.52114
 210.14376 209.85938 209.67300 209.54262 209.47624 209.81286 210.20448 210.59910
 211.39772 212.58134 213.83696 215.62557 217.55919 219.60781 221.70843 223.79705
 225.86267 227.95229 230.05491 232.16653 234.30115 236.47877 238.74038 241.11600
 243.74262 245.99924 248.00686 249.77748 251.20010 252.32872 253.15634 253.47796
 253.52058 253.30019 252.66581 251.61943 250.23105 248.39767 246.31229 244.15091
 241.94753 239.75715 237.58277 235.42739 233.29300 231.16562 229.19724 227.35986
 225.64848 224.12610 222.76172 221.53934 220.42696 219.39258 218.50220 217.64881
 216.89643 216.08205 215.18567 214.55529 214.01091 214.42543 215.33260 214.99571
 213.88419 213.99664 214.72939 215.89046 218.32819 222.03598 226.70557 230.56630
 233.61507 237.09669 241.04362 245.28543 249.39940 253.20761 256.73254 259.96008
 262.84320 265.41733 267.78751 270.04370 272.11862 273.86679 275.54211 277.00220
 277.92239 278.95023 280.38196 281.28311 282.44348 283.53397 284.52890 285.43021
 286.24088 286.96274 287.59338 288.39703
 366.78100 356.33948 345.77596 334.64645 323.05393 311.25241 299.12689 286.93437
 274.65086 262.55234 250.56582 239.87130 229.99778 221.10627 213.29275 206.29923
 200.13771 195.08019 191.66668 189.71316 188.75464 188.82312 189.66260 190.97509
 192.70457 194.80405 197.07153 199.43501 201.88450 204.36898 206.46146 208.30794
 209.93842 211.08791 211.32139 211.55387 211.49535 211.20483 210.84232 210.47680
 210.09828 209.81276 209.62524 209.49373 209.42621 209.76169 210.15217 210.54565
 211.34314 212.52562 213.78010 215.56758 217.50006 219.54755 221.64703 223.73451
 225.79899 227.88747 229.98896 232.09944 234.23292 236.40940 238.66988 241.04437
 243.66985 245.92533 247.93181 249.70130 251.12278 252.25026 253.07674 253.39722
 253.43871 253.21719 252.58167 251.53415 250.14463 248.31012 246.22360 244.06108
 241.85656 239.66504 237.48953 235.33301 233.19749 231.06897 229.09945 227.26094
 225.54842 224.02490 222.65938 221.43586 220.32235 219.28683 218.39531 217.54079
 216.78727 215.97176 215.07424 214.44272 213.89720 214.38440 215.44113 215.04597
 213.82399 213.83688 214.64166 215.89513 218.33485 222.03148 226.74841 230.61304
 233.65315 237.13576 241.09804 245.36397 249.47392 253.25967 256.76041 259.97046
 262.85022 265.42337 267.78152 270.02448 272.10391 273.84277 275.54959 276.97089
 277.78647 278.92636 280.40121 281.55359 282.76245 283.85251 284.84705 285.74802
 286.55832 287.27991 287.91028 288.71362
 366.78100 356.34032 345.77764 334.64896 323.05728 311.25660 299.13192 286.94024
 274.65756 262.55988 250.57420 239.88052 230.00783 221.11715 213.30447 206.31179
 200.15111 195.09443 191.68175 189.72907 188.77139 188.84071 189.68103 190.99435
 192.72467 194.82499 197.09331 199.45763 201.90795 204.39327 206.48659 208.33391
 209.96523 211.11555 211.34987 211.58318 211.52550 211.23582 210.87414 210.50946
 210.13178 209.84710 209.66042 209.52974 209.46306 209.79938 210.19070 210.58502
 211.38334 212.56666 213.82198 215.61030 217.54362 219.59194 221.69226 223.78058
 225.84590 227.93522 230.03754 232.14885 234.28317 236.46049 238.72181 241.09713
 243.72345 245.97977 247.98709 249.75741 251.17973 252.30805 253.13537 253.45669
 253.49901 253.27833 252.64365 251.59697 250.20829 248.37461 246.28893 244.12725
 241.92357 239.73289 237.55820 235.40252 233.26784 231.14016 229.17148 227.33380
 225.62212 224.09944 222.73476 221.51208 220.39940 219.36472 218.47404 217.62036
 216.86768 216.05300 215.15632 214.52564 213.98096 214.43456 215.43620 215.20197
 213.88280 213.73242 214.45546 215.65736 218.19704 221.98264 226.73123 230.60071
 233.63910 237.13815 241.12433 245.40936 249.51309 253.27899 256.76108 259.96655
 262.85156 265.42813 267.77698 269.99603 272.06598 273.83789 275.57703 276.94141
 277.75677 278.97797 280.48431 281.63644 282.84030 283.92566 284.91586 285.81293
 286.61972 287.33820 287.96582 288.76569
 366.78100 356.34267 345.78234 334.65601 323.06668 311.26835 299.14602 286.95669
 274.67637 262.58104 250.59771 239.90638 230.03605 221.14772 213.33739 206.34706
 200.18873 195.13440 191.72407 189.77374 188.81841 188.89008 189.73275 191.04842
 192.78110 194.88377 197.15444 199.52111 201.97378 204.46145 206.55712 208.40679
 210.04046 211.19313 211.42980 211.66547 211.61014 211.32281 210.96348 210.60116
 210.22583 209.94350 209.75917 209.63084 209.56651 209.90518 210.29885 210.69552
 211.49619 212.68186 213.93953 215.73020 217.66587 219.71654 221.81921 223.90989
 225.97756 228.06923 230.17390 232.28757 234.42424 236.60391 238.86758 241.24525
 243.87392 246.13259 248.14226 249.91493 251.33960 252.47027 253.29995 253.62362
 253.66829 253.44996 252.81763 251.77330 250.38697 248.55564 246.47231 244.31298
 242.11165 239.92332 237.75099 235.59766 233.46533 231.34000 229.37368 227.53835
 225.82902 224.30869 222.94636 221.72603 220.61570 219.58337 218.69504 217.84371
 217.09338 216.28105 215.38672 214.75839 214.21606 214.56560 215.35486 215.31715
 214.04387 213.71170 214.29024 215.41110 218.05338 221.93517 226.70929 230.57693
 233.61594 237.13470 241.15068 245.46220 249.56807 253.32040 256.78125 259.97186
 262.85275 265.43039 267.76999 269.96457 272.02939 273.83948 275.60156 276.88861
 277.74393 279.05710 280.52975 281.67838 282.87720 283.95752 284.94315 285.83603
 286.63913 287.35425 287.97900 288.77515
 366.78100 356.34349 345.78399 334.65848 323.06997 311.27247 299.15096 286.96245
 274.68295 262.58844 250.60593 239.91543 230.04592 221.15841 213.34891 206.35940
 200.20189 195.14839 191.73888 189.78937 188.83486 188.90736 189.75085 191.06734
 192.80084 194.90433 197.17582 199.54332 201.99681 204.48530 206.58180 208.43229
 210.06678 211.22028 211.45777 211.69426 211.63976 211.35325 210.99474 210.63324
 210.25873 209.97722 209.79372 209.66621 209.60270 209.94220 210.33669 210.73418
 211.53568 212.72217 213.98066 215.77216 217.70865 219.76014 221.86364 223.95513
 226.02362 228.11612 230.22161 232.33610 234.47359 236.65409 238.91858 241.29707
 243.92657 246.18606 248.19655 249.97005 251.39554 252.52703 253.35753 253.68202
 253.72751 253.51001 252.87850 251.83499 250.44949 248.61898 246.53647 244.37797
 242.17746 239.98995 237.81845 235.66594 233.53443 231.40993 229.44442 227.60991
 225.90141 224.38190 223.02039 221.80089 220.69138 219.65987 218.77237 217.92186
 217.17235 216.36084 215.46734 214.83983 214.29832 214.62785 215.36546 215.30461
 214.20932 213.72845 214.14288 215.22743 217.94705 221.90331 226.72624 230.58638
 233.62334 237.15642 241.19493 245.53534 249.64546 253.37936 256.80908 259.97668
 262.84863 265.42267 267.74048 269.92102 272.01291 273.85236 275.60645 276.84537
 277.82629 279.09015 280.49301 281.67599 282.84406 283.88403 284.83289 285.69244
 286.46555 287.15399 287.75540 288.52182
 366.78100 356.34415 345.78530 334.66045 323.07260 311.27575 299.15491 286.96706
 274.68821 262.59436 250.61251 239.92266 230.05381 221.16696 213.35811 206.36926
 200.21241 195.15957 191.75072 189.80187 188.84802 188.92117 189.76532 191.08247
 192.81662 194.92077 197.19292 199.56107 202.01523 204.50438 206.60153 208.45268
 210.08783 211.24198 211.48013 211.71728 211.66343 211.37758 211.01973 210.65889
 210.28504 210.00419 209.82134 209.69449 209.63164 209.97179 210.36694 210.76509
 211.56724 212.75439 214.01354 215.80570 217.74285 219.79500 221.89915 223.99130
 226.06045 228.15360 230.25975 232.37490 234.51305 236.69420 238.95936 241.33851
 243.96866 246.22881 248.23996 250.01411 251.44026 252.57241 253.40356 253.72871
 253.77486 253.55802 252.92717 251.88432 250.49947 248.66962 246.58777 244.42992
 242.23007 240.04322 237.87237 235.72052 233.58968 231.46583 229.50098 227.66713
 225.95928 224.44043 223.07958 221.86073 220.75188 219.72103 218.83418 217.98434
 217.23549 216.42464 215.53179 214.90494 214.36409 214.68231 215.38475 215.29765
 214.30168 213.73743 214.03119 215.13541 217.90469 221.88110 226.76244 230.58249
 233.61926 237.16437 241.23389 245.61584 249.73360 253.44310 256.84006 259.97882
 262.83719 265.41135 267.71454 269.87592 271.99982 273.88721 275.58585 276.80634
 277.88580 279.10553 280.48651 281.77487 282.92792 283.94806 284.87881 285.72198
 286.48035 287.15567 287.74561 288.49744
 366.78100 356.34508 345.78717 334.66325 323.07634 311.28042 299.16050 286.97359
 274.69567 262.60276 250.62184 239.93292 230.06501 221.17909 213.37118 206.38326
 200.22734 195.17543 191.76751 189.81960 188.86668 188.94076 189.78585 191.10393
 192.83902 194.94410 197.21718 199.58627 202.04135 204.53144 206.62952 208.48160
 210.11769 211.27277 211.51186 211.74994 211.69702 211.41211 211.05519 210.69528
 210.32236 210.04244 209.86053 209.73461 209.67269 210.01378 210.40986 210.80895
 211.61203 212.80011 214.06020 215.85328 217.79137 219.84445 221.94953 224.04262
 226.11270 228.20679 230.31387 232.42995 234.56904 236.75112 239.01721 241.39729
 244.02837 246.28946 248.30154 250.07663 251.50371 252.63679 253.46888 253.79496
 253.84205 253.62613 252.99621 251.95430 250.57038 248.74147 246.66055 244.50363
 242.30472 240.11880 237.94889 235.79797 233.66805 231.54514 229.58122 227.74831
 226.04139 224.52347 223.16356 221.94564 220.83773 219.80781 218.92189 218.07298
 217.32506 216.51515 215.62323 214.99731 214.45740 214.74266 215.38234 215.37823
 214.38554 213.68326 213.86151 214.94836 217.79248 221.82283 226.80203 230.60110
 233.63583 237.19781 241.31078 245.71475 249.84830 253.56912 256.95044 260.06842
 262.91635 265.48428 267.76559 269.85843 271.98044 273.85910 275.54556 276.82535
 277.90625 279.14798 280.58975 281.90720 283.04736 284.05609 284.97641 285.81015
 286.56003 287.22778 287.81110 288.55450
 366.78100 356.34528 345.78756 334.66383 323.07711 311.28139 299.16167 286.97494
 274.69722 262.60450 250.62378 239.93506 230.06733 221.18161 213.37389 206.38617
 200.23044 195.17872 191.77100 189.82328 188.87056 188.94483 189.79011 191.10839
 192.84367 194.94894 197.22222 199.59150 202.04678 204.53706 206.63533 208.48761
 210.12389 211.27917 211.51844 211.75672 211.70400 211.41928 211.06255 210.70283
 210.33011 210.05039 209.86867 209.74294 209.68122 210.02250 210.41878 210.81805
 211.62133 212.80961 214.06989 215.86317 217.80144 219.85472 221.96000 224.05328
 226.12355 228.21783 230.32511 232.44139 234.58067 236.76294 239.02922 241.40950
 244.04078 246.30205 248.31433 250.08961 251.51689 252.65017 253.48244 253.80872
 253.85600 253.64028 253.01055 251.96883 250.58511 248.75639 246.67567 244.51894
 242.32022 240.13450 237.96478 235.81405 233.68433 231.56161 229.59789 227.76517
 226.05844 224.54072 223.18100 221.96328 220.85555 219.82583 218.94011 218.09139
 217.34367 216.53394 215.64222 215.01650 214.47678 214.76387 215.40410 215.44580
 214.64638 213.72841 213.56378 214.56293 217.52681 221.68826 226.72755 230.56361
 233.62108 237.23370 241.38777 245.81851 249.99077 253.73344 257.10608 260.20853
 263.04865 265.61475 267.87222 269.87393 271.95422 273.84113 275.54880 276.87625
 277.96561 279.14084 280.58746 281.91635 283.06641 284.08392 285.01224 285.85321
 286.60959 287.28317 287.87158 288.62143
 366.78100 356.34447 345.78595 334.66142 323.07390 311.27737 299.15685 286.96932
 274.69080 262.59727 250.61575 239.92622 230.05770 221.17117 213.36265 206.37412
 200.21760 195.16507 191.75655 189.80802 188.85450 188.92797 189.77245 191.08992
 192.82440 194.92887 197.20135 199.56982 202.02430 204.51377 206.61125 208.46272
 210.09819 211.25267 211.49114 211.72862 211.67509 211.38957 211.03204 210.67152
 210.29799 210.01747 209.83494 209.70842 209.64589 209.98637 210.38184 210.78032
 211.58279 212.77027 214.02974 215.82222 217.75969 219.81217 221.91664 224.00912
 226.07859 228.17207 230.27854 232.39402 234.53249 236.71397 238.97944 241.35892
 243.98939 246.24986 248.26134 250.03581 251.46229 252.59476 253.42624 253.75171
 253.79819 253.58166 252.95114 251.90861 250.52409 248.69456 246.61304 244.45551
 242.25599 240.06946 237.89894 235.74741 233.61689 231.49336 229.52884 227.69531
 225.98779 224.46926 223.10874 221.89021 220.78169 219.75116 218.86464 218.01511
 217.26658 216.45606 215.56353 214.93701 214.39648 214.74142 215.46994 215.37523
 214.86040 214.04326 213.50580 214.22989 217.22636 221.49850 226.53891 230.37779
 233.47496 237.16661 241.39732 245.87915 250.08463 253.85764 257.25064 260.36395
 263.21027 265.77814 267.99557 269.89572 271.88718 273.81155 275.55093 276.93814
 278.03934 279.25992 280.74683 282.10345 283.27750 284.31619 285.26389 286.12241
 286.89456 287.58215 288.18283 288.94833
 366.78100 356.34308 345.78317 334.65725 323.06833 311.27041 299.14850 286.95958
 274.67966 262.58475 250.60183 239.91091 230.04100 221.15308 213.34316 206.35324
 200.19533 195.14141 191.73149 189.78158 188.82666 188.89874 189.74182 191.05791
 192.79099 194.89407 197.16516 199.53224 201.98532 204.47341 206.56949 208.41957
 210.05365 211.20674 211.44382 211.67990 211.62499 211.33807 210.97915 210.61723
 210.24232 209.96040 209.77648 209.64857 209.58465 209.92373 210.31782 210.71490
 211.51598 212.70206 213.96015 215.75123 217.68731 219.73840 221.84148 223.93256
 226.00064 228.09273 230.19781 232.31189 234.44898 236.62906 238.89314 241.27123
 243.90031 246.15939 248.16947 249.94256 251.36764 252.49872 253.32881 253.65289
 253.69797 253.48005 252.84814 251.80422 250.41830 248.58739 246.50447 244.34555
 242.14463 239.95672 237.78480 235.63188 233.49997 231.37505 229.40913 227.57422
 225.86530 224.34538 222.98346 221.76355 220.65363 219.62171 218.73380 217.88288
 217.13296 216.32104 215.42713 214.79921 214.25729 214.67940 215.56410 215.33311
 214.77065 214.30832 213.73364 214.20459 217.07709 221.35611 226.28517 230.15228
 233.27170 237.04503 241.35641 245.87961 250.10434 253.90215 257.31750 260.45825
 263.34158 265.94144 268.19278 270.06183 271.89783 273.75842 275.50635 276.98224
 278.19186 279.51755 281.07648 282.58646 283.89325 285.04941 286.10422 287.05981
 287.91928 288.68463 289.35321 290.20526
 366.78100 356.34414 345.78529 334.66043 323.07257 311.27572 299.15486 286.96700
 274.68814 262.59429 250.61243 239.92257 230.05372 221.16686 213.35800 206.36915
 200.21229 195.15943 191.75058 189.80172 188.84786 188.92101 189.76515 191.08229
 192.81643 194.92058 197.19272 199.56086 202.01501 204.50415 206.60129 208.45244
 210.08758 211.24172 211.47987 211.71701 211.66315 211.37730 211.01944 210.65858
 210.28472 210.00387 209.82101 209.69415 209.63130 209.97144 210.36658 210.76473
 211.56687 212.75401 214.01316 215.80530 217.74244 219.79459 221.89873 223.99087
 226.06001 228.15316 230.25930 232.37444 234.51259 236.69373 238.95887 241.33802
 243.96816 246.22830 248.23945 250.01359 251.43973 252.57188 253.40302 253.72816
 253.77430 253.55745 252.92659 251.88373 250.49888 248.66902 246.58716 244.42931
 242.22945 240.04259 237.87174 235.71988 233.58902 231.46517 229.50031 227.66645
 225.95859 224.43974 223.07888 221.86002 220.75117 219.72031 218.83345 217.98360
 217.23474 216.42388 215.53103 214.90417 214.36331 214.72322 215.52386 215.52310
 214.67923 214.22058 213.88914 214.31990 217.05795 221.31557 226.19382 230.00639
 233.13235 236.94627 241.30630 245.86533 250.05049 253.78197 257.16077 260.33398
 263.27933 265.95062 268.25040 270.07996 271.88275 273.64685 275.49744 277.00351
 278.38458 279.82458 281.34665 282.86285 284.18359 285.35211 286.41821 287.38403
 288.25269 289.02621 289.70193 290.56311
 366.78100 356.34767 345.79233 334.67100 323.08667 311.29333 299.17600 286.99167
 274.71634 262.62600 250.64767 239.96134 230.09600 221.21267 213.40734 206.42200
 200.26867 195.21934 191.81401 189.86867 188.91834 188.99501 189.84267 191.16334
 192.90101 195.00867 197.28434 199.65601 202.11368 204.60634 206.70701 208.56168
 210.20034 211.35801 211.59968 211.84034 211.79001 211.50768 211.15335 210.79601
 210.42568 210.14835 209.96901 209.84568 209.78635 210.13001 210.52868 210.93035
 211.73602 212.92668 214.18935 215.98502 217.92568 219.98135 222.08902 224.18468
 226.25735 228.35402 230.46368 232.58235 234.72402 236.90869 239.17735 241.56002
 244.19369 246.45735 248.47202 250.24969 251.67935 252.81502 253.64969 253.97836
 254.02802 253.81469 253.18736 252.14802 250.76669 248.94036 246.86202 244.70769
 242.51136 240.32803 238.16069 236.01236 233.88503 231.76469 229.80336 227.97303
 226.26869 224.75336 223.39603 222.18070 221.07536 220.04803 219.16470 218.31836
 217.57303 216.76570 215.87636 215.25303 214.71570 214.90730 215.39069 215.62491
 214.87453 214.15271 213.73091 214.25148 217.04996 221.29144 226.25090 229.97473
 233.14055 236.98477 241.35236 245.85396 250.03056 253.74030 257.09375 260.21680
 263.14127 265.83188 268.15546 270.04044 271.80954 273.68939 275.48770 276.98254
 278.52716 280.37924 282.10751 283.62506 284.93839 286.10031 287.16040 288.12079
 288.98453 289.75369 290.42563 291.28192
 366.78100 356.35007 345.79714 334.67821 323.09628 311.30535 299.19042 287.00849
 274.73556 262.64763 250.67170 239.98777 230.12484 221.24391 213.44098 206.45805
 200.30712 195.26019 191.85726 189.91433 188.96640 189.04548 189.89555 191.21862
 192.95869 195.06876 197.34683 199.72090 202.18097 204.67604 206.77911 208.63618
 210.27725 211.43732 211.68139 211.92446 211.87653 211.59660 211.24467 210.88974
 210.52181 210.24688 210.06995 209.94902 209.89209 210.23816 210.63923 211.04330
 211.85137 213.04444 214.30951 216.10758 218.05065 220.10872 222.21879 224.31686
 226.39193 228.49100 230.60307 232.72414 234.86821 237.05528 239.32635 241.71143
 244.34750 246.61357 248.63064 250.41071 251.84278 252.98085 253.81792 254.14899
 254.20106 253.99013 253.36520 252.32827 250.94934 249.12541 247.04948 244.89755
 242.70362 240.52269 238.35776 236.21183 234.08690 231.96897 230.01004 228.18211
 226.48018 224.96725 223.61232 222.39939 221.29646 220.27153 219.39060 218.54667
 217.80374 216.99881 216.11188 215.49095 214.95602 215.04758 215.32066 215.59599
 215.05186 214.16599 213.52716 214.12766 217.01199 221.20326 226.17828 229.93776
 233.14058 237.01343 241.42155 245.96559 250.18726 253.89920 257.23987 260.34726
 263.26794 266.01025 268.40775 270.36655 272.08356 273.83051 275.58084 277.11563
 279.44644 281.58237 283.43066 285.05359 286.45810 287.70074 288.83444 289.86151
 290.78525 291.60785 292.32642 293.24219
 366.78100 356.35051 345.79802 334.67953 323.09803 311.30754 299.19305 287.01156
 274.73907 262.65158 250.67609 239.99259 230.13010 221.24961 213.44712 206.46463
 200.31414 195.26765 191.86516 189.92266 188.97517 189.05468 189.90519 191.22870
 192.96921 195.07972 197.35822 199.73273 202.19324 204.68875 206.79226 208.64977
 210.29128 211.45178 211.69629 211.93980 211.89231 211.61282 211.26133 210.90684
 210.53935 210.26485 210.08836 209.96787 209.91138 210.25789 210.65940 211.06391
 211.87241 213.06592 214.33143 216.12994 218.07345 220.13196 222.24247 224.34097
 226.41648 228.51599 230.62850 232.75001 234.89452 237.08203 239.35353 241.73904
 244.37555 246.64206 248.65957 250.44008 251.87259 253.01110 253.84860 254.18011
 254.23262 254.02213 253.39764 252.36115 250.98266 249.15916 247.08367 244.93218
 242.73869 240.55820 238.39371 236.24822 234.12372 232.00623 230.04774 228.22025
 226.51876 225.00627 223.65178 222.43929 221.33679 220.31230 219.43181 218.58832
 217.84583 217.04134 216.15485 215.53435 214.99986 215.07556 215.29074 215.58748
 215.28494 214.31258 213.42731 213.84682 216.85707 221.14693 226.03947 229.84792
 233.07901 236.99467 241.42976 245.97307 250.16666 253.87228 257.19522 260.30859
 263.27322 266.11630 268.68900 270.75528 272.52002 274.23584 275.61206 277.55597
 279.72141 281.89966 283.78458 285.43970 286.87204 288.13931 289.29547 290.34290
 291.28494 292.12384 292.85669 293.79059
 366.78100 356.35064 345.79828 334.67993 323.09857 311.30821 299.19385 287.01250
 274.74014 262.65278 250.67742 239.99407 230.13171 221.25135 213.44899 206.46663
 200.31628 195.26992 191.86756 189.92520 188.97785 189.05749 189.90813 191.23177
 192.97242 195.08306 197.36170 199.73634 202.19698 204.69263 206.79627 208.65391
 210.29555 211.45620 211.70084 211.94448 211.89712 211.61776 211.26641 210.91205
 210.54469 210.27033 210.09398 209.97362 209.91726 210.26390 210.66555 211.07019
 211.87883 213.07247 214.33811 216.13676 218.08040 220.13904 222.24968 224.34833
 226.42397 228.52361 230.63625 232.75790 234.90254 237.09018 239.36182 241.74746
 244.38411 246.65075 248.66839 250.44903 251.88168 253.02032 253.85796 254.18960
 254.24225 254.03189 253.40753 252.37117 250.99281 249.16946 247.09410 244.94274
 242.74938 240.56903 238.40467 236.25931 234.13495 232.01759 230.05924 228.23188
 226.53052 225.01816 223.66381 222.45145 221.34909 220.32473 219.44438 218.60102
 217.85866 217.05430 216.16794 215.54759 215.01323 215.08795 215.27136 215.54877
 215.51505 214.55887 213.46954 213.73778 216.67551 220.99203 225.79784 229.66449
 232.94142 236.90559 241.37924 245.93958 250.13235 253.83748 257.15198 260.23538
 263.15878 265.98187 268.61530 270.71466 272.54047 274.35175 275.62662 277.60495
 279.73721 281.86777 283.74536 285.39401 286.82080 288.08313 289.23480 290.27817
 291.21655 292.05219 292.78217 293.71243
 366.78100 356.34701 345.79101 334.66902 323.08403 311.29003 299.17204 286.98705
 274.71105 262.62006 250.64107 239.95407 230.08808 221.20409 213.39809 206.41210
 200.25811 195.20811 191.80212 189.85613 188.90513 188.98114 189.82814 191.14815
 192.88516 194.99216 197.26717 199.63818 202.09518 204.58719 206.68720 208.54120
 210.17921 211.33622 211.57722 211.81723 211.76624 211.48324 211.12825 210.77026
 210.39926 210.12127 209.94128 209.81728 209.75729 210.10030 210.49830 210.89931
 211.70432 212.89432 214.15633 215.95134 217.89134 219.94635 222.05336 224.14836
 226.22037 228.31638 230.42538 232.54339 234.68439 236.86840 239.13641 241.51841
 244.15142 246.41443 248.42843 250.20544 251.63445 252.76945 253.60346 253.93147
 253.98047 253.76648 253.13849 252.09849 250.71650 248.88951 246.81051 244.65552
 242.45853 240.27453 238.10654 235.95755 233.82955 231.70856 229.74657 227.91557
 226.21058 224.69459 223.33659 222.12060 221.01461 219.98661 219.10262 218.25563
 217.50963 216.70164 215.81165 215.18765 214.64966 214.91891 215.41879 215.28448
 215.52844 214.90672 213.76871 213.81125 216.61383 220.87337 225.52811 229.43083
 232.73386 236.80249 241.38950 246.00591 250.21750 253.94583 257.29346 260.38904
 263.29190 266.08063 268.64108 270.77515 272.72180 274.54126 275.79965 277.60831
 279.58090 281.42398 283.17160 284.70615 286.03418 287.20911 288.28110 289.25223
 290.12564 290.90344 291.58289 292.44879
 366.78100 356.34434 345.78569 334.66103 323.07337 311.27671 299.15606 286.96840
 274.68974 262.59609 250.61443 239.92477 230.05611 221.16946 213.36080 206.37214
 200.21549 195.16283 191.75417 189.80551 188.85186 188.92520 189.76954 191.08689
 192.82123 194.92557 197.19791 199.56626 202.02060 204.50994 206.60729 208.45863
 210.09397 211.24831 211.48666 211.72400 211.67034 211.38469 211.02703 210.66637
 210.29271 210.01206 209.82940 209.70274 209.64009 209.98043 210.37577 210.77411
 211.57646 212.76380 214.02314 215.81549 217.75283 219.80517 221.90951 224.00186
 226.07120 228.16454 230.27089 232.38623 234.52457 236.70591 238.97126 241.35060
 243.98094 246.24129 248.25263 250.02697 251.45331 252.58566 253.41700 253.74234
 253.78869 253.57203 252.94137 251.89871 250.51406 248.68440 246.60274 244.44509
 242.24543 240.05877 237.88811 235.73646 233.60580 231.48214 229.51749 227.68383
 225.97617 224.45751 223.09686 221.87820 220.76954 219.73889 218.85223 218.00257
 217.25391 216.44326 215.55060 214.92394 214.38329 214.75964 215.55965 215.18837
 215.25752 214.95911 214.05806 214.06960 216.54208 220.67764 225.33179 229.23271
 232.63933 236.77109 241.36392 245.94569 250.13081 253.86145 257.22473 260.35333
 263.29495 266.06604 268.62967 270.90445 272.95190 274.85138 276.48163 277.81177
 279.17191 280.57178 281.79733 283.02267 284.18411 285.25076 286.22391 287.10553
 287.89847 288.60455 289.22137 290.00748
 366.78100 356.34690 345.79080 334.66870 323.08360 311.28950 299.17141 286.98631
 274.71021 262.61911 250.64001 239.95291 230.08681 221.20271 213.39661 206.41051
 200.25642 195.20632 191.80022 189.85412 188.90302 188.97892 189.82582 191.14572
 192.88262 194.98952 197.26443 199.63533 202.09223 204.58413 206.68403 208.53793
 210.17583 211.33273 211.57363 211.81353 211.76244 211.47934 211.12424 210.76614
 210.39504 210.11694 209.93684 209.81274 209.75264 210.09554 210.49345 210.89435
 211.69925 212.88915 214.15105 215.94595 217.88585 219.94075 222.04765 224.14255
 226.21446 228.31036 230.41926 232.53716 234.67806 236.86196 239.12986 241.51176
 244.14466 246.40756 248.42147 250.19837 251.62727 252.76217 253.59607 253.92397
 253.97287 253.75877 253.13067 252.09057 250.70848 248.88138 246.80228 244.64718
 242.45008 240.26598 238.09788 235.94878 233.82068 231.69958 229.73749 227.90639
 226.20129 224.68519 223.32709 222.11099 221.00489 219.97679 219.09269 218.24559
 217.49950 216.69140 215.80130 215.17720 214.63910 214.85793 215.36790 215.45964
 215.37630 214.98000 214.00162 213.79851 216.26312 220.47205 225.23898 228.91971
 232.54018 236.70764 241.35287 245.92325 250.09271 253.79173 257.13919 260.24503
 263.16751 265.91699 268.46362 270.76746 272.87912 274.85699 276.61154 278.08115
 279.35022 280.51511 281.55438 282.44305 283.27893 284.15384 285.02829 285.87354
 286.64319 287.32861 287.92737 288.69040
 366.78100 356.34972 345.79644 334.67717 323.09489 311.30361 299.18833 287.00606
 274.73278 262.64450 250.66822 239.98395 230.12067 221.23939 213.43611 206.45284
 200.30156 195.25428 191.85100 189.90772 188.95945 189.03817 189.88789 191.21061
 192.95034 195.06006 197.33778 199.71150 202.17123 204.66595 206.76867 208.62539
 210.26611 211.42584 211.66956 211.91228 211.86400 211.58373 211.23145 210.87617
 210.50789 210.23262 210.05534 209.93406 209.87678 210.22251 210.62323 211.02695
 211.83467 213.02739 214.29212 216.08984 218.03256 220.09028 222.20001 224.29773
 226.37245 228.47117 230.58290 232.70362 234.84734 237.03406 239.30479 241.68951
 244.32523 246.59095 248.60767 250.38740 251.81912 252.95684 253.79356 254.12429
 254.17601 253.96473 253.33945 252.30218 250.92290 249.09862 247.02234 244.87006
 242.67579 240.49451 238.32923 236.18295 234.05768 231.93940 229.98012 228.15184
 226.44957 224.93629 223.58101 222.36773 221.26446 220.23918 219.35790 218.51362
 217.77034 216.96507 216.07779 215.45651 214.92123 215.00006 215.19406 215.52621
 215.50034 214.93463 213.92032 213.76797 216.22348 220.37079 225.09813 228.86443
 232.43517 236.70619 241.39917 246.00308 250.18527 253.89435 257.24408 260.33923
 263.22455 265.92694 268.42612 270.69165 272.80722 274.80643 276.54898 278.02859
 279.34360 280.53665 281.56125 282.38663 283.17538 284.02060 284.89166 285.68729
 286.40286 287.04007 287.59671 288.30612
 366.78100 356.34957 345.79614 334.67672 323.09429 311.30286 299.18743 287.00500
 274.73158 262.64315 250.66672 239.98229 230.11886 221.23744 213.43401 206.45058
 200.29915 195.25172 191.84830 189.90487 188.95644 189.03501 189.88458 191.20716
 192.94673 195.05630 197.33387 199.70745 202.16702 204.66159 206.76416 208.62073
 210.26131 211.42088 211.66445 211.90702 211.85859 211.57817 211.22574 210.87031
 210.50188 210.22645 210.04903 209.92760 209.87017 210.21574 210.61631 211.01989
 211.82746 213.02003 214.28460 216.08217 218.02475 220.08232 222.19189 224.28946
 226.36403 228.46261 230.57418 232.69475 234.83832 237.02489 239.29547 241.68004
 244.31561 246.58118 248.59775 250.37733 251.80890 252.94647 253.78304 254.11361
 254.16519 253.95376 253.32833 252.29090 250.91148 249.08705 247.01062 244.85819
 242.66376 240.48234 238.31691 236.17048 234.04505 231.92662 229.96720 228.13877
 226.43634 224.92291 223.56748 222.35406 221.25063 220.22520 219.34377 218.49934
 217.75592 216.95049 216.06306 215.44163 214.90620 215.00212 215.23152 215.43124
 215.44603 214.91763 213.97340 213.93311 216.33739 220.37119 225.03900 228.88586
 232.40422 236.71297 241.43491 246.07042 250.26518 253.97295 257.32828 260.43726
 263.32471 266.02191 268.52280 270.79031 272.90820 274.88153 276.60324 278.06961
 279.38052 280.56738 281.53821 282.29233 283.22971 284.23520 285.16336 286.00421
 286.76044 287.43390 288.02222 288.77194
 366.78100 356.34859 345.79417 334.67376 323.09034 311.29793 299.18151 286.99810
 274.72368 262.63427 250.65685 239.97144 230.10702 221.22461 213.42019 206.43578
 200.28336 195.23495 191.83053 189.88612 188.93670 189.01429 189.86287 191.18446
 192.92304 195.03163 197.30821 199.68080 202.13938 204.63297 206.73455 208.59014
 210.22972 211.38831 211.63089 211.87248 211.82306 211.54165 211.18823 210.83182
 210.46240 210.18599 210.00757 209.88516 209.82674 210.17133 210.57091 210.97350
 211.78008 212.97167 214.23526 216.03184 217.97343 220.03001 222.13860 224.23518
 226.30877 228.40635 230.51694 232.63652 234.77911 236.96469 239.23428 241.61786
 244.25245 246.51703 248.53262 250.31120 251.74179 252.87837 253.71396 254.04354
 254.09413 253.88171 253.25530 252.21688 250.83647 249.01105 246.93364 244.78022
 242.58481 240.40239 238.23598 236.08856 233.96215 231.84273 229.88232 228.05290
 226.34949 224.83507 223.47866 222.26424 221.15983 220.13341 219.25100 218.40558
 217.66117 216.85476 215.96634 215.34393 214.80751 214.94943 215.27907 215.40623
 215.37183 214.85834 214.00545 213.95572 216.35844 220.38463 225.03880 228.83820
 232.34641 236.66853 241.41272 246.04289 250.19580 253.86598 257.21698 260.34866
 263.27069 266.02060 268.57993 270.89078 273.04993 275.05780 276.78018 278.21841
 279.53033 280.71045 281.63306 282.34198 283.26440 284.22003 285.08566 285.86984
 286.57513 287.20322 287.75189 288.45108
 366.78100 356.34828 345.79357 334.67285 323.08914 311.29642 299.17971 286.99599
 274.72128 262.63156 250.65385 239.96813 230.10342 221.22070 213.41599 206.43127
 200.27856 195.22984 191.82513 189.88041 188.93070 189.00798 189.85627 191.17755
 192.91584 195.02412 197.30041 199.67269 202.13098 204.62426 206.72555 208.58083
 210.22012 211.37840 211.62069 211.86197 211.81226 211.53054 211.17683 210.82011
 210.45040 210.17368 209.99497 209.87225 209.81354 210.15782 210.55711 210.95939
 211.76568 212.95696 214.22025 216.01653 217.95782 220.01410 222.12239 224.21867
 226.29196 228.38924 230.49953 232.61881 234.76110 236.94638 239.21567 241.59895
 244.23324 246.49752 248.51281 250.29109 251.72138 252.85766 253.69295 254.02223
 254.07252 253.85980 253.23309 252.19437 250.81366 248.98794 246.91023 244.75651
 242.56080 240.37808 238.21137 236.06365 233.93694 231.81722 229.85651 228.02679
 226.32308 224.80836 223.45165 222.23693 221.13222 220.10550 219.22279 218.37707
 217.63236 216.82564 215.93693 215.31421 214.77750 214.92279 215.26413 215.43709
 215.46555 214.85486 213.94469 213.84209 216.30840 220.39206 225.08751 228.78258
 232.29842 236.62512 241.38629 246.01231 250.13463 253.76915 257.08548 260.18536
 263.09647 265.85931 268.45306 270.82910 273.03702 275.07913 276.82196 278.28278
 279.59940 280.77164 281.71259 282.42120 283.12155 283.98169 284.82181 285.49564
 286.09146 286.62204 287.08554 287.67624
 366.78100 356.34830 345.79360 334.67290 323.08920 311.29650 299.17980 286.99610
 274.72140 262.63170 250.65399 239.96829 230.10359 221.22089 213.41619 206.43149
 200.27879 195.23009 191.82539 189.88069 188.93099 189.00829 189.85659 191.17789
 192.91619 195.02449 197.30079 199.67309 202.13138 204.62468 206.72598 208.58128
 210.22058 211.37888 211.62118 211.86248 211.81278 211.53108 211.17738 210.82068
 210.45098 210.17428 209.99558 209.87288 209.81418 210.15848 210.55778 210.96007
 211.76637 212.95767 214.22097 216.01727 217.95857 220.01487 222.12317 224.21947
 226.29277 228.39007 230.50037 232.61967 234.76197 236.94727 239.21657 241.59987
 244.23417 246.49846 248.51376 250.29206 251.72236 252.85866 253.69396 254.02326
 254.07356 253.86086 253.23416 252.19546 250.81476 248.98906 246.91136 244.75766
 242.56196 240.37926 238.21256 236.06486 233.93815 231.81845 229.85775 228.02805
 226.32435 224.80965 223.45295 222.23825 221.13355 220.10685 219.22415 218.37845
 217.63375 216.82705 215.93835 215.31565 214.77895 214.91779 215.24510 215.43901
 215.55363 214.89575 213.84193 213.70903 216.25552 220.39873 225.11511 228.75577
 232.26520 236.60493 241.40067 246.06247 250.20755 253.85065 257.15356 260.20953
 263.05087 265.75259 268.32205 270.70282 272.93002 274.96811 276.69113 278.15790
 279.51157 280.69998 281.62729 282.31949 282.97086 283.74991 284.57260 285.26703
 285.82382 286.31964 286.75281 287.30481
 366.78100 356.34813 345.79326 334.67239 323.08852 311.29565 299.17878 286.99491
 274.72003 262.63016 250.65229 239.96642 230.10155 221.21868 213.41381 206.42894
 200.27607 195.22720 191.82233 189.87746 188.92759 189.00472 189.85285 191.17397
 192.91210 195.02023 197.29636 199.66849 202.12662 204.61975 206.72088 208.57601
 210.21514 211.37327 211.61540 211.85653 211.80666 211.52478 211.17091 210.81404
 210.44417 210.16730 209.98843 209.86556 209.80669 210.15082 210.54995 210.95208
 211.75821 212.94934 214.21247 216.00860 217.94972 220.00585 222.11398 224.21011
 226.28324 228.38037 230.49050 232.60963 234.75176 236.93689 239.20602 241.58915
 244.22328 246.48741 248.50254 250.28066 251.71079 252.84692 253.68205 254.01118
 254.06131 253.84844 253.22157 252.18270 250.80183 248.97596 246.89809 244.74422
 242.54835 240.36548 238.19860 236.05073 233.92386 231.80399 229.84312 228.01325
 226.30938 224.79451 223.43764 222.22277 221.11790 220.09103 219.20816 218.36229
 217.61742 216.81054 215.92167 215.29880 214.76193 214.90985 215.25732 215.41179
 215.52678 214.88690 213.81688 213.65532 216.20753 220.36865 225.06546 228.72476
 232.23267 236.59177 241.41028 246.09982 250.28423 253.96906 257.29892 260.35037
 263.15189 265.79779 268.32278 270.68576 272.91718 274.95532 276.65128 278.10938
 279.47620 280.65414 281.53503 282.18112 282.81714 283.58655 284.42590 285.17633
 285.83157 286.41507 286.92477 287.57437
 366.78100 356.34789 345.79278 334.67167 323.08755 311.29444 299.17733 286.99322
 274.71811 262.62800 250.64989 239.96378 230.09866 221.21555 213.41044 206.42533
 200.27222 195.22311 191.81800 189.87289 188.92277 188.99966 189.84755 191.16844
 192.90633 195.01422 197.29011 199.66199 202.11988 204.61277 206.71366 208.56855
 210.20744 211.36533 211.60722 211.84810 211.79799 211.51588 211.16177 210.80466
 210.43455 210.15744 209.97833 209.85521 209.79610 210.13999 210.53888 210.94077
 211.74666 212.93755 214.20043 215.99632 217.93721 219.99310 222.10099 224.19688
 226.26977 228.36666 230.47654 232.59543 234.73732 236.92221 239.19110 241.57399
 244.20788 246.47177 248.48665 250.26454 251.69443 252.83032 253.66521 253.99410
 254.04399 253.83087 253.20376 252.16465 250.78354 248.95743 246.87932 244.72521
 242.52910 240.34598 238.17887 236.03076 233.90365 231.78354 229.82243 227.99232
 226.28820 224.77309 223.41598 222.20087 221.09576 220.06865 219.18554 218.33943
 217.59431 216.78720 215.89809 215.27498 214.73787 214.89664 215.26933 215.40086
 215.50232 214.91377 213.92467 213.63417 216.13298 220.29292 224.96774 228.61208
 232.15948 236.55356 241.39377 246.08720 250.27831 253.98409 257.34235 260.41690
 263.22400 265.85846 268.37622 270.74768 272.99695 275.06711 276.77829 278.22397
 279.59171 280.75348 281.60864 282.22534 282.82260 283.53146 284.33493 285.09119
 285.75314 286.34259 286.85754 287.51376
 366.78100 356.34755 345.79211 334.67066 323.08622 311.29277 299.17533 286.99088
 274.71544 262.62499 250.64655 239.96010 230.09466 221.21121 213.40577 206.42032
 200.26687 195.21743 191.81198 189.86654 188.91609 188.99265 189.84020 191.16076
 192.89831 195.00587 197.28142 199.65298 202.11053 204.60309 206.70364 208.55820
 210.19675 211.35430 211.59586 211.83641 211.78597 211.50352 211.14908 210.79163
 210.42119 210.14374 209.96430 209.84085 209.78141 210.12496 210.52352 210.92507
 211.73062 212.92118 214.18373 215.97929 217.91984 219.97540 222.08295 224.17851
 226.25106 228.34762 230.45717 232.57573 234.71728 236.90184 239.17039 241.55294
 244.18650 246.45005 248.46461 250.24216 251.67172 252.80727 253.64183 253.97038
 254.01994 253.80649 253.17905 252.13960 250.75816 248.93171 246.85326 244.69882
 242.50237 240.31893 238.15148 236.00304 233.87559 231.75515 229.79370 227.96326
 226.25881 224.74337 223.38592 222.17048 221.06503 220.03759 219.15414 218.30769
 217.56225 216.75480 215.86536 215.24191 214.70447 214.87543 215.27837 215.40076
 215.51231 214.97008 214.07062 213.62445 216.06149 220.21817 224.88109 228.46744
 232.07263 236.50703 241.36589 246.04382 250.21281 253.91460 257.28561 260.37881
 263.19876 265.83719 268.36319 270.76205 273.05051 275.16977 276.93735 278.40561
 279.77072 280.93701 281.79773 282.40753 282.96677 283.58356 284.33511 285.06320
 285.67767 286.20947 286.67407 287.26614
 366.78100 356.34732 345.79164 334.66996 323.08528 311.29160 299.17392 286.98925
 274.71357 262.62289 250.64421 239.95753 230.09185 221.20817 213.40249 206.41681
 200.26313 195.21345 191.80777 189.86209 188.91142 188.98774 189.83506 191.15538
 192.89270 195.00002 197.27534 199.64666 202.10398 204.59630 206.69662 208.55094
 210.18926 211.34659 211.58791 211.82823 211.77755 211.49487 211.14019 210.78251
 210.41183 210.13415 209.95447 209.83079 209.77111 210.11443 210.51275 210.91408
 211.71940 212.90972 214.17204 215.96736 217.90768 219.96300 222.07032 224.16564
 226.23796 228.33428 230.44360 232.56192 234.70325 236.88757 239.15589 241.53821
 244.17153 246.43485 248.44917 250.22649 251.65581 252.79113 253.62545 253.95377
 254.00309 253.78942 253.16174 252.12206 250.74038 248.91370 246.83502 244.68034
 242.48366 240.29998 238.13230 235.98362 233.85594 231.73526 229.77359 227.94291
 226.23823 224.72255 223.36487 222.14919 221.04351 220.01583 219.13215 218.28547
 217.53979 216.73211 215.84243 215.21876 214.68108 214.86073 215.28517 215.40584
 215.49529 214.97604 214.13802 213.61429 216.03165 220.19186 224.82442 228.37180
 232.01486 236.48148 241.35500 246.02036 250.17023 253.86789 257.24109 260.33646
 263.14975 265.77615 268.28918 270.70020 273.03186 275.20743 277.02591 278.52225
 279.88885 281.05206 281.89523 282.47394 283.02936 283.65762 284.38123 285.08322
 285.67776 286.14236 286.54822 287.06540
 366.78100 356.34683 345.79065 334.66848 323.08330 311.28913 299.17095 286.98578
 274.70960 262.61843 250.63926 239.95208 230.08591 221.20173 213.39556 206.40938
 200.25521 195.20504 191.79886 189.85269 188.90151 188.97734 189.82416 191.14399
 192.88081 194.98764 197.26247 199.63329 202.09012 204.58194 206.68177 208.53559
 210.17342 211.33025 211.57107 211.81090 211.75972 211.47655 211.12137 210.76320
 210.39202 210.11385 209.93368 209.80950 209.74933 210.09215 210.48998 210.89080
 211.69563 212.88546 214.14728 215.94211 217.88193 219.93676 222.04358 224.13841
 226.21023 228.30606 230.41489 232.53271 234.67354 236.85736 239.12519 241.50701
 244.13984 246.40266 248.41649 250.19332 251.62214 252.75697 253.59079 253.91862
 253.96744 253.75327 253.12510 252.08492 250.70275 248.87557 246.79640 244.64122
 242.44405 240.25987 238.09170 235.94253 233.81435 231.69318 229.73100 227.89983
 226.19465 224.67848 223.32031 222.10413 220.99796 219.96978 219.08561 218.23843
 217.49226 216.68408 215.79391 215.16974 214.63156 214.83601 215.31903 215.40695
 215.41924 214.92969 214.10672 213.62570 216.04550 220.19502 224.79001 228.37019
 231.99939 236.47813 241.35513 246.01274 250.16045 253.86533 257.24393 260.33493
 263.13605 265.74326 268.23022 270.62872 272.99323 275.22079 277.08041 278.61115
 279.99030 281.13724 281.92615 282.46826 282.99887 283.62585 284.34253 285.01807
 285.59357 286.06473 286.47629 287.00082
 366.78100 356.34607 345.78914 334.66622 323.08029 311.28536 299.16643 286.98050
 274.70358 262.61165 250.63172 239.94379 230.07687 221.19194 213.38501 206.39808
 200.24315 195.19223 191.78530 189.83837 188.88644 188.96151 189.80759 191.12666
 192.86273 194.96880 197.24288 199.61295 202.06902 204.56009 206.65916 208.51224
 210.14931 211.30538 211.54545 211.78452 211.73260 211.44867 211.09274 210.73381
 210.36189 210.08296 209.90203 209.77710 209.71617 210.05825 210.45532 210.85539
 211.65946 212.84853 214.10961 215.90368 217.84275 219.89682 222.00290 224.09697
 226.16804 228.26311 230.37118 232.48826 234.62833 236.81140 239.07847 241.45954
 244.09162 246.35369 248.36676 250.14283 251.57091 252.70498 253.53805 253.86512
 253.91319 253.69827 253.06934 252.02841 250.64548 248.81755 246.73763 244.58170
 242.38377 240.19884 238.02991 235.87999 233.75106 231.62913 229.66620 227.83428
 226.12835 224.61142 223.25249 222.03556 220.92864 219.89971 219.01478 218.16685
 217.41992 216.61100 215.72007 215.09514 214.55621 214.79677 215.36508 215.42639
 215.31650 214.87804 214.05615 213.61093 216.04701 220.21906 224.77142 228.36647
 231.99232 236.47704 241.35583 246.00702 250.15450 253.86720 257.25375 260.34579
 263.14401 265.73987 268.19983 270.57950 272.96738 275.25305 277.16602 278.72986
 280.11108 281.23090 281.97821 282.47308 282.96988 283.57553 284.28772 284.96280
 285.53476 285.98428 286.37695 286.87738
 366.78100 356.34565 345.78830 334.66496 323.07861 311.28326 299.16391 286.97756
 274.70022 262.60787 250.62752 239.93917 230.07182 221.18648 213.37913 206.39178
 200.23643 195.18509 191.77774 189.83039 188.87804 188.95269 189.79835 191.11700
 192.85265 194.95830 197.23195 199.60161 202.05726 204.54791 206.64656 208.49921
 210.13587 211.29152 211.53117 211.76982 211.71747 211.43313 211.07678 210.71743
 210.34508 210.06573 209.88439 209.75904 209.69769 210.03934 210.43599 210.83565
 211.63930 212.82795 214.08860 215.88226 217.82091 219.87456 221.98021 224.07386
 226.14452 228.23917 230.34682 232.46347 234.60312 236.78578 239.05243 241.43308
 244.06473 246.32638 248.33904 250.11469 251.54234 252.67599 253.50864 253.83530
 253.88295 253.66760 253.03825 251.99690 250.61356 248.78521 246.70486 244.54851
 242.35016 240.16482 237.99547 235.84512 233.71577 231.59343 229.63008 227.79773
 226.09138 224.57403 223.21469 221.99734 220.88999 219.86064 218.97529 218.12695
 217.37960 216.57025 215.67890 215.05355 214.51421 214.77267 215.38335 215.47101
 215.25391 214.84140 214.04791 213.56726 216.01442 220.17291 224.73146 228.32654
 231.97636 236.46825 241.35014 245.99080 250.13402 253.85417 257.25177 260.35175
 263.15381 265.74506 268.18600 270.54230 272.94504 275.29218 277.27057 278.87140
 280.25388 281.35272 282.07632 282.54227 282.99893 283.54404 284.23444 284.92456
 285.52805 285.95020 286.31512 286.78018
 366.78100 356.34534 345.78767 334.66401 323.07735 311.28168 299.16202 286.97536
 274.69770 262.60503 250.62437 239.93571 230.06804 221.18238 213.37472 206.38705
 200.23139 195.17973 191.77207 189.82440 188.87174 188.94608 189.79141 191.10975
 192.84509 194.95042 197.22376 199.59310 202.04844 204.53877 206.63711 208.48945
 210.12578 211.28112 211.52046 211.75879 211.70613 211.42147 211.06480 210.70514
 210.33248 210.05282 209.87115 209.74549 209.68383 210.02516 210.42150 210.82084
 211.62417 212.81251 214.07285 215.86619 217.80452 219.85786 221.96320 224.05653
 226.12687 228.22121 230.32854 232.44488 234.58422 236.76655 239.03289 241.41323
 244.04457 246.30590 248.31824 250.09358 251.52091 252.65425 253.48659 253.81292
 253.86026 253.64460 253.01494 251.97327 250.58961 248.76095 246.68028 244.52362
 242.32496 240.13929 237.96963 235.81897 233.68931 231.56664 229.60298 227.77032
 226.06365 224.54599 223.18633 221.96866 220.86100 219.83134 218.94567 218.09701
 217.34935 216.53969 215.64802 215.02236 214.48270 214.75392 215.39473 215.50262
 215.24062 214.78563 214.04941 213.58806 216.00816 220.10674 224.68872 228.28143
 231.95758 236.45772 241.34299 245.97086 250.10358 253.82501 257.23026 260.33673
 263.14496 265.73901 268.16870 270.50879 272.92331 275.33987 277.40225 279.03928
 280.42969 281.52817 282.26895 282.74246 283.16739 283.61359 284.20044 284.89377
 285.50864 285.96063 286.28522 286.69891
 366.78100 356.34446 345.78591 334.66137 323.07382 311.27728 299.15674 286.96919
 274.69065 262.59711 250.61556 239.92602 230.05747 221.17093 213.36239 206.37384
 200.21730 195.16476 191.75621 189.80767 188.85412 188.92758 189.77204 191.08949
 192.82395 194.92841 197.20086 199.56932 202.02377 204.51323 206.61069 208.46214
 210.09760 211.25206 211.49051 211.72797 211.67442 211.38888 211.03134 210.67079
 210.29725 210.01671 209.83416 209.70762 209.64507 209.98553 210.38099 210.77944
 211.58190 212.76936 214.02881 215.82127 217.75872 219.81118 221.91564 224.00809
 226.07755 228.17100 230.27746 232.39292 234.53137 236.71283 238.97829 241.35774
 243.98820 246.24865 248.26011 250.03457 251.46102 252.59348 253.42494 253.75039
 253.79685 253.58030 252.94976 251.90722 250.52267 248.69313 246.61159 244.45404
 242.25450 240.06795 237.89741 235.74587 233.61532 231.49178 229.52724 227.69369
 225.98615 224.46760 223.10706 221.88852 220.77997 219.74943 218.86289 218.01334
 217.26480 216.45425 215.56171 214.93517 214.39462 214.70668 215.44392 215.50383
 215.24834 214.70677 214.02049 213.60104 216.02687 220.05397 224.64281 228.27406
 231.96338 236.46169 241.33409 245.94830 250.06946 253.79384 257.20633 260.31619
 263.12521 265.71307 268.12402 270.45206 272.88522 275.37808 277.50644 279.18152
 280.60339 281.70184 282.45087 282.90683 283.30835 283.73712 284.27475 284.94492
 285.58438 286.09802 286.41058 286.80893
 366.78100 356.34404 345.78509 334.66013 323.07218 311.27522 299.15427 286.96631
 274.68736 262.59340 250.61145 239.92149 230.05254 221.16558 213.35663 206.36767
 200.21072 195.15776 191.74880 189.79985 188.84589 188.91894 189.76298 191.08003
 192.81407 194.91812 197.19016 199.55821 202.01225 204.50130 206.59834 208.44939
 210.08443 211.23848 211.47652 211.71356 211.65961 211.37365 211.01570 210.65474
 210.28079 209.99983 209.81688 209.68992 209.62697 209.96701 210.36206 210.76010
 211.56215 212.74919 214.00823 215.80028 217.73732 219.78937 221.89341 223.98546
 226.05450 228.14755 230.25359 232.36864 234.50668 236.68773 238.95277 241.33182
 243.96186 246.22191 248.23295 250.00699 251.43304 252.56508 253.39613 253.72117
 253.76722 253.55026 252.91931 251.87635 250.49140 248.66144 246.57949 244.42153
 242.22158 240.03462 237.86367 235.71171 233.58075 231.45680 229.49184 227.65789
 225.94993 224.43098 223.07002 221.85107 220.74211 219.71116 218.82420 217.97425
 217.22529 216.41434 215.52138 214.89443 214.35347 214.68355 215.46339 215.54640
 215.25725 214.58304 213.90112 213.52971 216.00256 220.02591 224.62744 228.31236
 231.97925 236.46555 241.32190 245.93500 250.05266 253.78441 257.20264 260.31177
 263.12106 265.70605 268.10333 270.41013 272.84021 275.38513 277.57794 279.29385
 280.71497 281.81259 282.56754 283.03952 283.43015 283.79822 284.24936 284.85461
 285.47180 285.97223 286.31256 286.74622
 366.78100 356.34386 345.78472 334.65959 323.07145 311.27431 299.15317 286.96503
 274.68590 262.59176 250.60962 239.91948 230.05034 221.16320 213.35407 206.36493
 200.20779 195.15465 191.74551 189.79638 188.84224 188.91510 189.75896 191.07582
 192.80969 194.91355 197.18541 199.55327 202.00713 204.49600 206.59286 208.44372
 210.07858 211.23244 211.47030 211.70717 211.65303 211.36689 211.00875 210.64761
 210.27348 209.99234 209.80920 209.68206 209.61892 209.95879 210.35365 210.75151
 211.55337 212.74023 213.99909 215.79096 217.72782 219.77968 221.88354 223.97540
 226.04427 228.13713 230.24299 232.35785 234.49571 236.67658 238.94144 241.32030
 243.95016 246.21002 248.22089 249.99475 251.42061 252.55247 253.38333 253.70819
 253.75406 253.53692 252.90578 251.86264 250.47750 248.64737 246.56523 244.40709
 242.20695 240.01981 237.84868 235.69654 233.56540 231.44126 229.47612 227.64199
 225.93385 224.41471 223.05357 221.83443 220.72529 219.69416 218.80702 217.95688
 217.20774 216.39660 215.50347 214.87633 214.33519 214.67763 215.48668 215.56442
 215.30862 214.51799 213.68187 213.30548 215.94711 219.99147 224.58545 228.42632
 232.05840 236.52039 241.33234 245.93604 250.05835 253.79128 257.19952 260.29553
 263.09274 265.66302 268.06375 270.41287 272.89575 275.45618 277.68411 279.46957
 280.91052 281.98245 282.61496 282.94019 283.34207 283.82626 284.41092 285.09552
 285.74084 286.25192 286.66309 287.18707
 354.97500 345.04800 334.58700 324.11500 313.32600 302.53700 291.65000 280.76700
 269.93100 259.19300 248.62200 238.61700 229.08700 220.35500 212.54000 205.53500
 199.46400 194.49300 191.14300 189.19000 188.08900 188.01400 188.72400 189.90600
 191.46900 193.38200 195.40300 197.55600 199.80700 202.06000 204.28800 206.47900
 208.55200 210.37800 212.02500 213.65900 214.99800 216.11800 217.17200 218.25900
 219.49400 220.64500 221.67900 222.61400 223.54500 224.98200 226.57100 228.19000
 229.79700 231.81100 233.86500 235.97200 238.24200 240.55300 242.89900 245.25300
 247.48800 249.53500 251.36600 252.84800 254.09800 255.16700 256.02700 256.25300
 256.09500 255.54300 253.93500 252.56600 251.38400 250.24500 249.05200 247.70100
 246.01600 243.99600 241.78400 239.39300 236.81300 234.22300 231.65800 229.14400
 226.74000 224.47300 222.33500 220.32500 218.44000 216.67700 214.96200 213.47200
 212.20000 211.10800 210.26000 209.63900 209.24400 209.03100 209.05800 209.33300
 209.78400 210.62600 211.33100 212.39100 213.62500 214.84668 217.72949 219.47640
 220.32566 220.86828 220.88710 220.27371 219.43733 218.84250 219.04934 220.86203
 222.60583 225.72206 229.03064 232.61777 236.12270 239.51333 242.70767 245.68587
 248.41061 250.90679 253.19353 254.91714 256.48655 257.94920 259.39966 260.69384
 261.81714 262.77997 263.71679 264.54570 265.26305 265.89772 266.47676 267.00133
 267.47312 267.89325 268.26027 268.72800
