|-------------------------------------------------------------------------|
|   File Name : in_temp.dat
|   Subject   : temperature profiles used for initial guess atmosphere
|   File Type : input of gmtr
|   Data Type : atmospherical data
|   Author/s  : WRF-Chem
|   Date      : Fri Jul 26 15:39:24 2024
|-------------------------------------------------------------------------|

 WRF-Chem temperature
#
 values of T (K)    (8f10.5)
#
 354.97500 345.04800 334.58700 324.11500 313.32600 302.53700 291.65000 280.76700
 269.93100 259.19300 248.62200 238.61700 229.08700 220.35500 212.54000 205.53500
 199.46400 194.49300 191.14300 189.19000 188.08900 188.01400 188.72400 189.90600
 191.46900 193.38200 195.40300 197.55600 199.80700 202.06000 204.28800 206.47900
 208.55200 210.37800 212.02500 213.65900 214.99800 216.11800 217.17200 218.25900
 219.49400 220.64500 221.67900 222.61400 223.54500 224.98200 226.57100 228.19000
 229.79700 231.81100 233.86500 235.97200 238.24200 240.55300 242.89900 245.25300
 247.48800 249.53500 251.36600 252.84800 254.09800 255.16700 256.02700 256.25300
 256.09500 255.54300 253.93500 252.56600 251.38400 250.24500 249.05200 247.70100
 246.01600 243.99600 241.78400 239.39300 236.81300 234.22300 231.65800 229.14400
 226.74000 224.47300 222.33500 220.32500 218.44000 216.67700 214.96200 213.47200
 212.20000 211.10800 210.26000 209.63900 209.24400 209.03100 209.05800 209.33300
 209.78400 210.62600 211.33100 212.39100 213.62500 214.84668 217.72949 219.47640
 220.32566 220.86828 220.88710 220.27371 219.43733 218.84250 219.04934 220.86203
 222.60583 225.72206 229.03064 232.61777 236.12270 239.51333 242.70767 245.68587
 248.41061 250.90679 253.19353 254.91714 256.48655 257.94920 259.39966 260.69384
 261.81714 262.77997 263.71679 264.54570 265.26305 265.89772 266.47676 267.00133
 267.47312 267.89325 268.26027 268.72800
 366.78100 356.33500 345.76700 334.63300 323.03600 311.23000 299.10000 286.90300
 274.61500 262.51200 250.52100 239.82200 229.94400 221.04800 213.23000 206.23200
 200.06600 195.00400 191.58600 189.62800 188.66500 188.72900 189.56400 190.87200
 192.59700 194.69200 196.95500 199.31400 201.75900 204.23900 206.32700 208.16900
 209.79500 210.94000 211.16900 211.39700 211.33400 211.03900 210.67200 210.30200
 209.91900 209.62900 209.43700 209.30100 209.22900 209.56000 209.94600 210.33500
 211.12800 212.30600 213.55600 215.33900 217.26700 219.31000 221.40500 223.48800
 225.54800 227.63200 229.72900 231.83500 233.96400 236.13600 238.39200 240.76200
 243.38300 245.63400 247.63600 249.40100 250.81800 251.94100 252.76300 253.07900
 253.11600 252.89000 252.25000 251.19800 249.80400 247.96500 245.87400 243.70700
 241.49800 239.30200 237.12200 234.96100 232.82100 230.68800 228.71400 226.87100
 225.15400 223.62600 222.25600 221.02800 219.91000 218.87000 217.97400 217.11500
 216.35700 215.53700 214.63500 213.99900 213.44900 212.85855 212.01316 212.61654
 214.26826 216.08686 218.14273 220.53346 223.40855 226.78828 231.49734 235.90155
 239.42278 243.28576 247.23140 251.11907 254.80144 258.23331 261.38913 264.27520
 266.89312 269.26852 271.44504 273.08845 274.58484 275.98591 277.39845 278.65879
 279.75272 280.69038 281.56708 282.34086 283.01050 283.60295 284.14348 284.63317
 285.07358 285.46577 285.80838 286.24500
 381.81900 372.39900 361.20600 349.77600 337.62200 324.85300 311.81000 298.35300
 284.86000 271.32400 258.56100 246.30400 236.08700 226.79600 218.44800 211.29000
 205.52200 200.89400 197.38100 194.84800 193.01500 192.31500 192.25000 192.43100
 192.91200 193.53700 194.13600 194.71200 195.26200 195.83100 196.39300 196.97600
 197.60400 198.14900 198.58400 199.05700 199.69500 200.37800 201.05400 201.70800
 202.31300 202.85700 203.35500 203.86200 204.56900 205.29700 206.02600 206.98700
 208.19300 209.44100 210.96900 212.57600 214.46200 216.51300 218.63000 220.85300
 223.34100 225.96200 228.73900 231.69700 234.70600 237.70600 240.69200 243.65700
 246.73700 249.69900 252.52100 255.06300 257.29000 259.23300 260.63300 261.68000
 262.46100 262.79800 262.69100 262.22400 261.06900 259.52500 257.70700 255.50700
 253.00100 250.30200 247.39800 244.45200 241.65400 239.05400 236.73300 234.59000
 232.59500 230.72500 228.83400 226.82600 224.66600 222.38700 220.10400 217.71500
 215.45900 213.06600 210.54600 208.09300 205.35400 202.08130 196.05959 200.71215
 209.01611 216.90438 223.84126 229.78593 235.00632 240.20838 245.98943 250.68668
 254.32982 257.93487 261.55666 264.96801 268.15192 271.06452 273.76717 276.25691
 278.57680 280.74479 282.77456 284.60533 286.27232 287.81705 289.31715 290.65561
 291.81734 292.81312 293.70701 294.49387 295.17482 295.77730 296.32696 296.82492
 297.27278 297.67160 298.02000 298.46400
 399.33000 389.90700 379.81300 368.66800 357.52200 345.30100 333.07400 320.22700
 307.21600 293.84800 280.37600 267.29600 254.61000 242.98700 232.15100 221.97700
 212.67200 204.28600 197.66900 192.82100 189.48600 187.45200 186.81400 187.08900
 187.78100 189.05400 190.64800 192.54200 194.63000 196.75200 198.67100 200.15800
 201.53500 202.48700 202.97500 203.34000 203.53900 203.49700 203.38500 203.24700
 203.00500 202.78600 202.60300 202.43700 202.42600 202.88800 203.42000 203.95100
 204.89500 205.99200 207.30100 208.95800 210.73800 213.10000 215.56400 218.18000
 220.96600 223.91800 226.96100 230.09200 233.29300 236.55700 239.95500 243.53700
 246.84500 249.39000 251.54200 253.47400 255.19500 256.48400 257.43100 258.05900
 258.21200 258.04000 257.58200 256.64300 255.23900 253.50700 251.40800 249.05600
 246.57600 243.99400 241.38900 238.83000 236.34400 233.98600 231.96900 230.11800
 228.42300 226.89900 225.54800 224.29700 223.10500 221.96500 220.95800 220.11300
 219.49000 218.92000 218.32500 217.88100 217.42300 216.96366 216.35568 216.80261
 217.73415 218.28582 218.64258 219.10077 220.44626 222.53987 226.38451 230.35736
 233.59734 237.39164 241.29814 245.22796 248.98002 252.51130 255.78595 258.80109
 261.54781 264.05210 266.34239 268.04198 269.58951 271.01303 272.35754 273.55718
 274.59842 275.49092 276.28989 276.99307 277.60161 278.14001 278.63122 279.07623
 279.47646 279.83287 280.14422 280.54100
 399.73800 389.78500 379.66200 368.15100 356.64100 344.35000 331.79200 318.88800
 305.72600 292.49300 279.20900 266.73800 254.69600 244.21100 234.45700 225.43300
 217.56900 210.45100 204.30000 199.30600 195.45800 192.57600 191.02700 190.38600
 190.23900 190.53400 191.16600 191.92500 192.79500 193.76600 194.73200 195.31200
 195.80000 196.05200 196.11500 196.11500 196.03900 195.72300 195.34000 194.98900
 194.75100 194.79200 195.13300 195.59800 196.50600 198.13600 199.85800 201.56600
 204.17900 206.82300 209.89300 213.28400 216.82800 220.60500 224.38700 228.20900
 232.03200 235.82500 239.56000 243.25800 246.84500 250.20100 253.70900 257.46800
 261.53000 264.22100 266.60100 268.68100 270.32900 271.74100 272.83600 273.47400
 273.89800 274.00200 273.75700 273.28800 272.37100 271.10000 269.58900 267.77900
 265.81600 263.72100 261.39300 258.91600 256.29800 253.42300 250.33100 247.11400
 243.83700 240.52900 237.24900 233.99900 230.72800 227.51500 224.25400 220.95200
 217.62700 213.65600 210.12100 206.78900 204.01000 201.99491 199.07309 198.76551
 199.40006 200.48994 201.46112 202.31912 203.45100 204.96110 207.47502 210.85391
 213.70530 217.29629 220.99574 224.72316 228.28753 231.64854 234.68024 237.40893
 239.70644 241.60899 243.46854 245.67368 247.68154 249.52395 251.24767 252.78566
 254.12057 255.26479 256.23740 257.09036 257.82852 258.48160 259.07744 259.61723
 260.10271 260.53504 260.91270 261.39400
 399.73800 389.78500 379.66200 368.15100 356.64100 344.35000 331.79200 318.88800
 305.72600 292.49300 279.20900 266.73800 254.69600 244.21100 234.45700 225.43300
 217.56900 210.45100 204.30000 199.30600 195.45800 192.57600 191.02700 190.38600
 190.23900 190.53400 191.16600 191.92500 192.79500 193.76600 194.73200 195.31200
 195.80000 196.05200 196.11500 196.11500 196.03900 195.72300 195.34000 194.98900
 194.75100 194.79200 195.13300 195.59800 196.50600 198.13600 199.85800 201.56600
 204.17900 206.82300 209.89300 213.28400 216.82800 220.60500 224.38700 228.20900
 232.03200 235.82500 239.56000 243.25800 246.84500 250.20100 253.70900 257.46800
 261.53000 264.22100 266.60100 268.68100 270.32900 271.74100 272.83600 273.47400
 273.89800 274.00200 273.75700 273.28800 272.37100 271.10000 269.58900 267.77900
 265.81600 263.72100 261.39300 258.91600 256.29800 253.42300 250.33100 247.11400
 243.83700 240.52900 237.24900 233.99900 230.72800 227.51500 224.25400 220.95200
 217.62700 213.65600 210.12100 206.78900 204.01000 201.99491 199.07309 198.76551
 199.40006 200.48994 201.46112 202.31912 203.45100 204.96110 207.47502 210.85391
 213.70530 217.29629 220.99574 224.72316 228.28753 231.64854 234.68024 237.40893
 239.70644 241.60899 243.46854 245.67368 247.68154 249.52395 251.24767 252.78566
 254.12057 255.26479 256.23740 257.09036 257.82852 258.48160 259.07744 259.61723
 260.10271 260.53504 260.91270 261.39400
 399.33000 389.90700 379.81300 368.66800 357.52200 345.30100 333.07400 320.22700
 307.21600 293.84800 280.37600 267.29600 254.61000 242.98700 232.15100 221.97700
 212.67200 204.28600 197.66900 192.82100 189.48600 187.45200 186.81400 187.08900
 187.78100 189.05400 190.64800 192.54200 194.63000 196.75200 198.67100 200.15800
 201.53500 202.48700 202.97500 203.34000 203.53900 203.49700 203.38500 203.24700
 203.00500 202.78600 202.60300 202.43700 202.42600 202.88800 203.42000 203.95100
 204.89500 205.99200 207.30100 208.95800 210.73800 213.10000 215.56400 218.18000
 220.96600 223.91800 226.96100 230.09200 233.29300 236.55700 239.95500 243.53700
 246.84500 249.39000 251.54200 253.47400 255.19500 256.48400 257.43100 258.05900
 258.21200 258.04000 257.58200 256.64300 255.23900 253.50700 251.40800 249.05600
 246.57600 243.99400 241.38900 238.83000 236.34400 233.98600 231.96900 230.11800
 228.42300 226.89900 225.54800 224.29700 223.10500 221.96500 220.95800 220.11300
 219.49000 218.92000 218.32500 217.88100 217.42300 216.96366 216.35568 216.80261
 217.73415 218.28582 218.64258 219.10077 220.44626 222.53987 226.38451 230.35736
 233.59734 237.39164 241.29814 245.22796 248.98002 252.51130 255.78595 258.80109
 261.54781 264.05210 266.34239 268.04198 269.58951 271.01303 272.35754 273.55718
 274.59842 275.49092 276.28989 276.99307 277.60161 278.14001 278.63122 279.07623
 279.47646 279.83287 280.14422 280.54100
 381.81900 372.39900 361.20600 349.77600 337.62200 324.85300 311.81000 298.35300
 284.86000 271.32400 258.56100 246.30400 236.08700 226.79600 218.44800 211.29000
 205.52200 200.89400 197.38100 194.84800 193.01500 192.31500 192.25000 192.43100
 192.91200 193.53700 194.13600 194.71200 195.26200 195.83100 196.39300 196.97600
 197.60400 198.14900 198.58400 199.05700 199.69500 200.37800 201.05400 201.70800
 202.31300 202.85700 203.35500 203.86200 204.56900 205.29700 206.02600 206.98700
 208.19300 209.44100 210.96900 212.57600 214.46200 216.51300 218.63000 220.85300
 223.34100 225.96200 228.73900 231.69700 234.70600 237.70600 240.69200 243.65700
 246.73700 249.69900 252.52100 255.06300 257.29000 259.23300 260.63300 261.68000
 262.46100 262.79800 262.69100 262.22400 261.06900 259.52500 257.70700 255.50700
 253.00100 250.30200 247.39800 244.45200 241.65400 239.05400 236.73300 234.59000
 232.59500 230.72500 228.83400 226.82600 224.66600 222.38700 220.10400 217.71500
 215.45900 213.06600 210.54600 208.09300 205.35400 202.08130 196.05959 200.71215
 209.01611 216.90438 223.84126 229.78593 235.00632 240.20838 245.98943 250.68668
 254.32982 257.93487 261.55666 264.96801 268.15192 271.06452 273.76717 276.25691
 278.57680 280.74479 282.77456 284.60533 286.27232 287.81705 289.31715 290.65561
 291.81734 292.81312 293.70701 294.49387 295.17482 295.77730 296.32696 296.82492
 297.27278 297.67160 298.02000 298.46400
 366.78100 356.34202 345.78104 334.65405 323.06407 311.26509 299.14211 286.95212
 274.67114 262.57516 250.59118 239.89919 230.02821 221.13923 213.32825 206.33727
 200.17828 195.12330 191.71232 189.76134 188.80535 188.87637 189.71839 191.03341
 192.76543 194.86744 197.13746 199.50348 201.95550 204.44251 206.53753 208.38655
 210.01957 211.17158 211.40760 211.64262 211.58664 211.29866 210.93867 210.57569
 210.19971 209.91673 209.73174 209.60276 209.53778 209.87580 210.26882 210.66483
 211.46485 212.64987 213.90689 215.69690 217.63192 219.68194 221.78396 223.87397
 225.94099 228.03201 230.13603 232.24905 234.38506 236.56408 238.82710 241.20412
 243.83213 246.09015 248.09917 249.87119 251.29521 252.42522 253.25424 253.57726
 253.62128 253.40229 252.76931 251.72433 250.33735 248.50536 246.42138 244.26140
 242.05942 239.87044 237.69745 235.54347 233.41049 231.28451 229.31752 227.48154
 225.77156 224.25058 222.88759 221.66661 220.55563 219.52265 218.63367 217.78168
 217.03070 216.21772 215.32274 214.69375 214.15077 213.07349 210.54250 209.83664
 210.35135 210.59955 211.78450 215.20766 219.58665 224.36940 230.11183 235.10081
 238.94682 242.95741 247.22766 251.41820 255.11438 258.39584 261.15042 263.62619
 266.44708 269.14801 271.72531 274.30457 276.43701 278.09143 279.39255 280.95227
 282.85474 284.64160 286.18915 287.54794 288.72498 289.76550 290.71564 291.57391
 292.34418 293.02972 293.62418 294.37277
 366.78100 356.34245 345.78189 334.65534 323.06578 311.26723 299.14468 286.95512
 274.67457 262.57901 250.59546 239.90391 230.03335 221.14480 213.33424 206.34369
 200.18514 195.13058 191.72003 189.76947 188.81392 188.88537 189.72781 191.04326
 192.77570 194.87815 197.14860 199.51504 201.96749 204.45494 206.55038 208.39983
 210.03327 211.18572 211.42217 211.65761 211.60206 211.31450 210.95495 210.59240
 210.21684 209.93429 209.74973 209.62118 209.55663 209.89507 210.28852 210.68496
 211.48541 212.67086 213.92830 215.71875 217.65419 219.70464 221.80709 223.89753
 225.96498 228.05642 230.16087 232.27432 234.41076 236.59021 238.85365 241.23110
 243.85955 246.11799 248.12744 249.89988 251.32433 252.45478 253.28422 253.60767
 253.65211 253.43356 252.80101 251.75645 250.36990 248.53834 246.45479 244.29524
 242.09368 239.90513 237.73257 235.57902 233.44647 231.32091 229.35436 227.51881
 225.80925 224.28870 222.92614 221.70559 220.59504 219.56248 218.67393 217.82237
 217.07182 216.25927 215.36471 214.73616 214.19360 213.12019 210.59782 209.91028
 210.36458 210.66397 211.82202 215.15924 219.53764 224.31213 230.02463 235.01227
 238.85826 242.86835 247.14211 251.33607 255.04050 258.35812 261.13858 263.61133
 266.42313 269.10931 271.66769 274.22205 276.34064 278.00024 279.33289 280.91132
 282.80215 284.58087 286.12439 287.48349 288.65970 289.70111 290.65045 291.50958
 292.28027 292.96533 293.56161 294.31320
 366.78100 356.34288 345.78276 334.65664 323.06752 311.26940 299.14728 286.95816
 274.67804 262.58292 250.59980 239.90868 230.03856 221.15044 213.34032 206.35020
 200.19208 195.13796 191.72784 189.77772 188.82260 188.89448 189.73736 191.05324
 192.78612 194.88900 197.15988 199.52676 201.97964 204.46752 206.56340 208.41328
 210.04715 211.20003 211.43691 211.67279 211.61767 211.33055 210.97143 210.60931
 210.23419 209.95207 209.76795 209.63983 209.57571 209.91459 210.30847 210.70535
 211.50623 212.69211 213.94999 215.74087 217.67675 219.72763 221.83051 223.92139
 225.98927 228.08115 230.18603 232.29991 234.43679 236.61667 238.88055 241.25843
 243.88731 246.14619 248.15607 249.92895 251.35383 252.48471 253.31459 253.63847
 253.68335 253.46523 252.83311 251.78899 250.40287 248.57175 246.48863 244.32951
 242.12839 239.94027 237.76815 235.61503 233.48291 231.35779 229.39167 227.55655
 225.84743 224.32731 222.96519 221.74507 220.63495 219.60283 218.71471 217.86359
 217.11346 216.30134 215.40722 214.77910 214.23698 213.16550 210.64717 209.98463
 210.38870 210.72231 211.86722 215.12250 219.47673 224.24236 229.94203 234.93118
 238.77545 242.78210 247.05576 251.25090 254.96375 258.31580 261.12204 263.59274
 266.39584 269.06747 271.60681 274.13818 276.24457 277.91168 279.27539 280.87231
 282.75580 284.51779 286.05853 287.41727 288.59412 289.63577 290.58682 291.44495
 292.21466 292.90149 293.49844 294.25162
 366.78100 356.34327 345.78353 334.65780 323.06907 311.27133 299.14960 286.96087
 274.68113 262.58640 250.60367 239.91293 230.04320 221.15547 213.34574 206.35600
 200.19827 195.14454 191.73480 189.78507 188.83034 188.90260 189.74587 191.06214
 192.79540 194.89867 197.16994 199.53720 201.99047 204.47874 206.57500 208.42527
 210.05954 211.21280 211.45007 211.68634 211.63160 211.34487 210.98614 210.62441
 210.24967 209.96794 209.78421 209.65647 209.59274 209.93201 210.32627 210.72354
 211.52481 212.71107 213.96934 215.76061 217.69687 219.74814 221.85141 223.94267
 226.01094 228.10321 230.20847 232.32274 234.46001 236.64028 238.90454 241.28281
 243.91208 246.17134 248.18161 249.95488 251.38014 252.51141 253.34168 253.66594
 253.71121 253.49348 252.86174 251.81801 250.43228 248.60154 246.51881 244.36008
 242.15934 239.97161 237.79988 235.64714 233.51541 231.39068 229.42495 227.59021
 225.88148 224.36175 223.00001 221.78028 220.67055 219.63881 218.75108 217.90035
 217.15061 216.33888 215.44515 214.81741 214.27568 213.20715 210.69533 210.05600
 210.42635 210.77872 211.91269 215.09564 219.40874 224.17062 229.86415 234.85291
 238.69293 242.69447 246.96799 251.16441 254.88635 258.27280 261.10220 263.56927
 266.36417 269.02179 271.54193 274.05060 276.14841 277.82581 279.22070 280.83472
 282.71329 284.45468 285.99405 287.35175 288.52859 289.57071 290.52106 291.38049
 292.15121 292.83832 293.43503 294.19223
 366.78100 356.34363 345.78427 334.65890 323.07053 311.27317 299.15180 286.96343
 274.68407 262.58970 250.60733 239.91696 230.04760 221.16023 213.35086 206.36150
 200.20413 195.15076 191.74140 189.79203 188.83766 188.91030 189.75393 191.07056
 192.80420 194.90783 197.17946 199.54710 202.00073 204.48936 206.58600 208.43663
 210.07126 211.22489 211.46253 211.69916 211.64479 211.35843 211.00006 210.63869
 210.26433 209.98296 209.79959 209.67223 209.60886 209.94849 210.34313 210.74076
 211.54239 212.72903 213.98766 215.77929 217.71592 219.76756 221.87119 223.96282
 226.03146 228.12409 230.22972 232.34436 234.48199 236.66262 238.92726 241.30589
 243.93552 246.19516 248.20579 249.97942 251.40506 252.53669 253.36732 253.69195
 253.73759 253.52022 252.88885 251.84549 250.46012 248.62975 246.54739 244.38902
 242.18865 240.00129 237.82992 235.67755 233.54619 231.42182 229.45645 227.62209
 225.91372 224.39435 223.03299 221.81362 220.70425 219.67288 218.78552 217.93515
 217.18578 216.37442 215.48105 214.85368 214.31232 213.24672 210.74127 210.12450
 210.47298 210.83571 211.95636 215.07819 219.33708 224.09613 229.78958 234.77454
 238.60971 242.60748 246.88103 251.07828 254.81036 258.22870 261.07681 263.53967
 266.32684 268.97089 271.47321 273.96054 276.05280 277.74335 279.16791 280.79733
 282.67166 284.39484 285.93149 287.28961 288.46695 289.50888 290.45898 291.31879
 292.08871 292.77802 293.37430 294.13263
 366.78100 356.34406 345.78511 334.66017 323.07222 311.27528 299.15433 286.96639
 274.68744 262.59350 250.61156 239.92161 230.05267 221.16572 213.35678 206.36783
 200.21089 195.15794 191.74900 189.80006 188.84611 188.91917 189.76322 191.08028
 192.81433 194.91839 197.19044 199.55850 202.01255 204.50161 206.59867 208.44972
 210.08478 211.23883 211.47689 211.71394 211.66000 211.37405 211.01611 210.65517
 210.28122 210.00028 209.81733 209.69039 209.62744 209.96750 210.36255 210.76061
 211.56267 212.74972 214.00878 215.80083 217.73789 219.78994 221.89400 223.98605
 226.05511 228.14817 230.25422 232.36928 234.50733 236.68839 238.95344 241.33250
 243.96255 246.22261 248.23367 250.00772 251.43378 252.56583 253.39689 253.72194
 253.76800 253.55105 252.92011 251.87716 250.49222 248.66228 246.58033 244.42239
 242.22244 240.03550 237.86455 235.71261 233.58166 231.45772 229.49278 227.65883
 225.95089 224.43194 223.07100 221.85205 220.74311 219.71216 218.82522 217.97528
 217.22633 216.41539 215.52244 214.89550 214.35455 213.28838 210.78114 210.19325
 210.52582 210.89525 211.99973 215.06744 219.26331 224.01912 229.71794 234.69492
 238.52510 242.52094 246.79494 250.99399 254.73662 258.18384 261.04675 263.50385
 266.28473 268.91553 271.40094 273.86771 275.95837 277.66336 279.11581 280.75964
 282.62915 284.34033 285.87222 287.23080 288.40637 289.44910 290.39978 291.25800
 292.02875 292.71387 293.31064 294.06598
 366.78100 356.34451 345.78602 334.66154 323.07405 311.27756 299.15707 286.96958
 274.69109 262.59761 250.61612 239.92663 230.05814 221.17165 213.36316 206.37468
 200.21819 195.16570 191.75721 189.80872 188.85524 188.92875 189.77326 191.09077
 192.82528 194.92979 197.20231 199.57082 202.02533 204.51484 206.61235 208.46386
 210.09938 211.25389 211.49240 211.72991 211.67642 211.39094 211.03345 210.67296
 210.29947 210.01898 209.83649 209.71001 209.64752 209.98803 210.38354 210.78205
 211.58456 212.77208 214.03159 215.82410 217.76161 219.81412 221.91864 224.01115
 226.08066 228.17417 230.28068 232.39619 234.53471 236.71622 238.98173 241.36124
 243.99175 246.25227 248.26378 250.03829 251.46480 252.59731 253.42882 253.75434
 253.80085 253.58436 252.95387 251.91138 250.52689 248.69741 246.61592 244.45843
 242.25894 240.07245 237.90197 235.75048 233.61999 231.49650 229.53201 227.69852
 225.99104 224.47255 223.11206 221.89357 220.78508 219.75459 218.86811 218.01862
 217.27013 216.45964 215.56715 214.94067 214.40018 213.33127 210.81711 210.25597
 210.58049 210.95827 212.04449 215.06679 219.19043 223.93860 229.64748 234.61639
 238.44203 242.43701 246.71172 250.91266 254.66515 258.13779 261.01208 263.46280
 266.23877 268.85596 271.32336 273.77112 275.86356 277.58566 279.06308 280.71991
 282.58575 284.28763 285.81607 287.17352 288.35016 289.39136 290.34024 291.19849
 291.96811 292.65152 293.24625 293.99506
 366.78100 356.34513 345.78726 334.66339 323.07651 311.28064 299.16077 286.97390
 274.69603 262.60316 250.62228 239.93341 230.06554 221.17967 213.37180 206.38393
 200.22805 195.17618 191.76831 189.82044 188.86757 188.94170 189.78682 191.10495
 192.84008 194.94521 197.21834 199.58747 202.04259 204.53272 206.63085 208.48298
 210.11911 211.27424 211.51336 211.75149 211.69862 211.41375 211.05688 210.69701
 210.32414 210.04426 209.86239 209.73652 209.67465 210.01578 210.41191 210.81103
 211.61416 212.80229 214.06242 215.85555 217.79368 219.84680 221.95193 224.04506
 226.11519 228.20932 230.31645 232.43257 234.57170 236.75383 239.01996 241.40009
 244.03122 246.29234 248.30447 250.07960 251.50673 252.63986 253.47199 253.79811
 253.84524 253.62937 252.99950 251.95763 250.57376 248.74489 246.66401 244.50714
 242.30827 240.12240 237.95253 235.80166 233.67178 231.54891 229.58504 227.75217
 226.04530 224.52743 223.16755 221.94968 220.84181 219.81194 218.92607 218.07720
 217.32932 216.51945 215.62758 215.00171 214.46184 213.38026 210.83612 210.33862
 210.65709 210.99898 212.08775 215.06944 219.10640 223.85515 229.58055 234.53783
 238.35796 242.35297 246.62807 250.83060 254.59447 258.09198 260.97626 263.41928
 266.19168 268.79413 271.24097 273.67029 275.76691 277.50806 279.00778 280.67746
 282.54086 284.23648 285.76077 287.11829 288.29492 289.33496 290.28174 291.14066
 291.91010 292.59338 293.18680 293.92307
 366.78100 356.34546 345.78792 334.66438 323.07784 311.28231 299.16277 286.97623
 274.69869 262.60615 250.62561 239.93707 230.06953 221.18400 213.37646 206.38892
 200.23338 195.18184 191.77430 189.82676 188.87422 188.94868 189.79415 191.11261
 192.84807 194.95353 197.22699 199.59645 202.05191 204.54237 206.64084 208.49330
 210.12976 211.28522 211.52468 211.76314 211.71060 211.42606 211.06952 210.70999
 210.33745 210.05791 209.87637 209.75083 209.68929 210.03075 210.42721 210.82668
 211.63014 212.81860 214.07906 215.87252 217.81098 219.86444 221.96990 224.06336
 226.13383 228.22829 230.33575 232.45221 234.59167 236.77413 239.04059 241.42105
 244.05251 246.31398 248.32644 250.10190 251.52936 252.66282 253.49528 253.82174
 253.86920 253.65367 253.02413 251.98259 250.59905 248.77051 246.68997 244.53343
 242.33489 240.14935 237.97982 235.82928 233.69974 231.57720 229.61366 227.78112
 226.07458 224.55704 223.19751 221.97997 220.87243 219.84289 218.95735 218.10881
 217.36127 216.55173 215.66019 215.03466 214.49512 213.41403 210.87051 210.40408
 210.74255 211.07323 212.10823 215.06822 219.03645 223.75931 229.50119 234.44987
 238.27002 242.26961 246.54654 250.75215 254.53065 258.05334 260.94675 263.37811
 266.14520 268.73013 271.15323 273.56317 275.66711 277.42847 278.94818 280.63092
 282.49329 284.18356 285.71042 287.06659 288.24323 289.28210 290.23251 291.08923
 291.85797 292.54102 293.13455 293.86127
 366.78100 356.34681 345.79062 334.66842 323.08323 311.28904 299.17085 286.98565
 274.70946 262.61827 250.63908 239.95189 230.08569 221.20150 213.39531 206.40912
 200.25492 195.20473 191.79854 189.85235 188.90116 188.97696 189.82377 191.14358
 192.88039 194.98719 197.26200 199.63281 202.08962 204.58143 206.68123 208.53504
 210.17285 211.32966 211.57046 211.81027 211.75908 211.47589 211.12069 210.76250
 210.39131 210.11312 209.93293 209.80873 209.74854 210.09135 210.48916 210.88996
 211.69477 212.88458 214.14639 215.94120 217.88100 219.93581 222.04262 224.13743
 226.20923 228.30504 230.41385 232.53166 234.67247 236.85627 239.12408 241.50589
 244.13870 246.40150 248.41531 250.19212 251.62093 252.75574 253.58954 253.91735
 253.96616 253.75197 253.12377 252.08358 250.70139 248.87420 246.79501 244.63981
 242.44262 240.25843 238.09024 235.94104 233.81285 231.69166 229.72947 227.89828
 226.19308 224.67689 223.31870 222.10251 220.99631 219.96812 219.08393 218.23674
 217.49054 216.68235 215.79216 215.16797 214.62978 213.49847 210.83702 210.50186
 210.86163 211.12575 212.15695 215.04739 218.91644 223.65163 229.42958 234.37338
 238.19424 242.19858 246.47351 250.68053 254.47198 258.01712 260.91672 263.33267
 266.09409 268.66064 271.05902 273.44992 275.56537 277.34705 278.88339 280.57962
 282.44125 284.12521 285.66251 287.01932 288.19507 289.23502 290.18289 291.04031
 291.80905 292.49213 293.08286 293.80234
 366.78100 356.34830 345.79360 334.67290 323.08920 311.29650 299.17980 286.99610
 274.72140 262.63170 250.65400 239.96830 230.10360 221.22090 213.41620 206.43150
 200.27880 195.23010 191.82540 189.88070 188.93100 189.00830 189.85660 191.17791
 192.91621 195.02451 197.30081 199.67311 202.13141 204.62471 206.72601 208.58131
 210.22061 211.37891 211.62121 211.86251 211.81281 211.53111 211.17741 210.82071
 210.45101 210.17431 209.99561 209.87291 209.81421 210.15851 210.55781 210.96011
 211.76641 212.95771 214.22101 216.01731 217.95861 220.01491 222.12321 224.21951
 226.29281 228.39011 230.50041 232.61971 234.76201 236.94731 239.21661 241.59991
 244.23421 246.49851 248.51381 250.29211 251.72242 252.85872 253.69402 254.02332
 254.07362 253.86092 253.23422 252.19552 250.81482 248.98912 246.91142 244.75772
 242.56202 240.37932 238.21262 236.06492 233.93822 231.81852 229.85782 228.02812
 226.32442 224.80972 223.45302 222.23832 221.13362 220.10692 219.22422 218.37852
 217.63382 216.82712 215.93842 215.31572 214.77902 213.59178 210.79852 210.56285
 211.04765 211.19580 212.10823 215.01222 218.86200 223.56239 229.36116 234.29634
 238.11731 242.12701 246.39999 250.60820 254.41235 257.97818 260.88235 263.28311
 266.04010 268.58847 270.96255 273.33731 275.46738 277.27060 278.82022 280.52756
 282.38885 284.07593 285.61594 286.97250 288.14700 289.18558 290.13229 290.98956
 291.75943 292.44040 293.02328 293.70963
 366.78100 356.34916 345.79532 334.67547 323.09263 311.30079 299.18495 287.00211
 274.72826 262.63942 250.66258 239.97774 230.11390 221.23205 213.42821 206.44437
 200.29253 195.24468 191.84084 189.89700 188.94816 189.02632 189.87547 191.19763
 192.93679 195.04595 197.32311 199.69626 202.15542 204.64958 206.75174 208.60790
 210.24805 211.40721 211.65037 211.89253 211.84369 211.56284 211.21000 210.85416
 210.48532 210.20947 210.03163 209.90979 209.85195 210.19711 210.59726 211.00042
 211.80758 212.99974 214.26390 216.06105 218.00321 220.06037 222.16953 224.26669
 226.34084 228.43900 230.55016 232.67032 234.81348 236.99963 239.26979 241.65395
 244.28911 246.55426 248.57042 250.34958 251.78074 252.91790 253.75405 254.08421
 254.13537 253.92353 253.29769 252.25984 250.88000 249.05516 246.97832 244.82548
 242.63063 240.44879 238.28295 236.13611 234.01027 231.89142 229.93158 228.10274
 226.39990 224.88605 223.53021 222.31637 221.21253 220.18669 219.30484 218.46000
 217.71616 216.91032 216.02248 215.40063 214.86479 213.65436 210.80531 210.55702
 211.28127 211.32475 212.03168 214.95921 218.77005 223.45375 229.28580 234.21906
 238.04636 242.06546 246.33643 250.54417 254.35905 257.94138 260.84671 263.23105
 265.98349 268.51309 270.86325 273.22385 275.37112 277.19635 278.75732 280.47397
 282.33484 284.02350 285.56607 286.92319 288.09796 289.13580 290.08090 290.93692
 291.70679 292.38815 292.96097 293.62033
 366.78100 356.34932 345.79564 334.67595 323.09327 311.30159 299.18591 287.00322
 274.72954 262.64086 250.66418 239.97949 230.11581 221.23413 213.43045 206.44677
 200.29508 195.24740 191.84372 189.90004 188.95135 189.02967 189.87899 191.20131
 192.94062 195.04994 197.32726 199.70058 202.15989 204.65421 206.75653 208.61285
 210.25317 211.41248 211.65580 211.89812 211.84944 211.56875 211.21607 210.86039
 210.49171 210.21602 210.03834 209.91666 209.85898 210.20430 210.60461 211.00793
 211.81525 213.00757 214.27188 216.06920 218.01152 220.06884 222.17815 224.27547
 226.34979 228.44811 230.55943 232.67974 234.82306 237.00938 239.27970 241.66401
 244.29933 246.56465 248.58097 250.36028 251.79160 252.92892 253.76524 254.09556
 254.14687 253.93519 253.30951 252.27183 250.89214 249.06746 246.99078 244.83810
 242.64341 240.46173 238.29605 236.14937 234.02368 231.90500 229.94532 228.11664
 226.41396 224.90027 223.54459 222.33091 221.22723 220.20154 219.31986 218.47518
 217.73150 216.92581 216.03813 215.41645 214.88077 213.68280 210.86153 210.52904
 211.32950 211.46608 212.17700 214.91301 218.62825 223.36375 229.22586 234.16483
 237.99547 242.02089 246.28165 250.48399 254.30598 257.90002 260.80389 263.17297
 265.92410 268.43430 270.76129 273.10876 275.27444 277.12198 278.69220 280.41843
 282.27963 283.97101 285.51605 286.87360 288.04626 289.08191 290.02545 290.88104
 291.65298 292.33762 292.91568 293.53281
 366.78100 356.34956 345.79613 334.67669 323.09425 311.30282 299.18738 287.00494
 274.73151 262.64307 250.66663 239.98220 230.11876 221.23732 213.43389 206.45045
 200.29901 195.25158 191.84814 189.90470 188.95627 189.03483 189.88439 191.20696
 192.94652 195.05608 197.33365 199.70721 202.16677 204.66134 206.76390 208.62046
 210.26103 211.42059 211.66415 211.90672 211.85828 211.57784 211.22541 210.86997
 210.50153 210.22610 210.04866 209.92722 209.86979 210.21535 210.61591 211.01948
 211.82704 213.01960 214.28417 216.08173 218.02429 220.08186 222.19142 224.28898
 226.36355 228.46211 230.57367 232.69424 234.83780 237.02436 239.29493 241.67949
 244.31505 246.58062 248.59718 250.37674 251.80831 252.94587 253.78243 254.11300
 254.16456 253.95312 253.32769 252.29025 250.91081 249.08638 247.00994 244.85750
 242.66307 240.48163 238.31619 236.16976 234.04432 231.92588 229.96645 228.13801
 226.43557 224.92214 223.56670 222.35326 221.24983 220.22439 219.34295 218.49852
 217.75508 216.94964 216.06221 215.44077 214.90533 213.71414 210.90758 210.53799
 211.33966 211.53340 212.32471 214.91811 218.53758 223.29599 229.17998 234.12242
 237.94765 241.97174 246.21947 250.41479 254.24438 257.85040 260.75421 263.11349
 265.86340 268.35687 270.66037 272.99628 275.18271 277.04959 278.62787 280.36179
 282.22437 283.92007 285.46600 286.82275 287.99258 289.02365 289.96478 290.82065
 291.59305 292.27457 292.79031 293.31903
 366.78100 356.35001 345.79702 334.67803 323.09604 311.30505 299.19006 287.00807
 274.73507 262.64708 250.67109 239.98710 230.12411 221.24312 213.44013 206.45714
 200.30615 195.25916 191.85617 189.91318 188.96519 189.04420 189.89421 191.21722
 192.95722 195.06723 197.34524 199.71925 202.17926 204.67427 206.77728 208.63429
 210.27530 211.43531 211.67932 211.92233 211.87434 211.59435 211.24236 210.88737
 210.51937 210.24438 210.06739 209.94640 209.88941 210.23542 210.63643 211.04044
 211.84845 213.04146 214.30647 216.10448 218.04749 220.10550 222.21551 224.31351
 226.38852 228.48753 230.59954 232.72055 234.86456 237.05157 239.32258 241.70759
 244.34360 246.60961 248.62662 250.40663 251.83864 252.97665 253.81366 254.14466
 254.19667 253.98568 253.36069 252.32370 250.94471 249.12072 247.04473 244.89274
 242.69875 240.51776 238.35277 236.20678 234.08179 231.96380 230.00480 228.17681
 226.47482 224.96183 223.60684 222.39385 221.29086 220.26587 219.38488 218.54089
 217.79790 216.99291 216.10592 215.48493 214.94994 213.75539 210.93985 210.54836
 211.38052 211.58549 212.41768 214.94112 218.48703 223.23848 229.13664 234.07492
 237.89061 241.91121 246.14987 250.34053 254.18170 257.80185 260.70947 263.05615
 265.80447 268.27719 270.55621 272.88336 275.08792 276.97382 278.56122 280.30566
 282.16980 283.86743 285.41443 286.76981 287.93558 288.96149 289.90164 290.75656
 291.53156 292.21524 292.69415 293.15253
 366.78100 356.35054 345.79808 334.67962 323.09815 311.30769 299.19323 287.01177
 274.73931 262.65185 250.67638 239.99292 230.13046 221.25000 213.44754 206.46508
 200.31461 195.26815 191.86569 189.92323 188.97577 189.05531 189.90584 191.22938
 192.96992 195.08046 197.35900 199.73354 202.19407 204.68961 206.79315 208.65069
 210.29223 211.45277 211.69730 211.94084 211.89338 211.61392 211.26246 210.90800
 210.54054 210.26607 210.08961 209.96915 209.91269 210.25923 210.66077 211.06530
 211.87384 213.06738 214.33292 216.13146 218.07500 220.13353 222.24407 224.34261
 226.41815 228.51769 230.63023 232.75176 234.89630 237.08384 239.35538 241.74092
 244.37746 246.64399 248.66153 250.44207 251.87461 253.01315 253.85069 254.18223
 254.23476 254.02430 253.39984 252.36338 250.98492 249.16146 247.08599 244.93453
 242.74107 240.56061 238.39615 236.25069 234.12622 232.00876 230.05030 228.22284
 226.52138 225.00892 223.65445 222.44199 221.33953 220.31507 219.43461 218.59115
 217.84868 217.04422 216.15776 215.53730 215.00284 213.80159 210.96942 210.54623
 211.42567 211.65482 212.49953 214.96681 218.45093 223.18065 229.09314 234.02010
 237.82719 241.84753 246.08092 250.26949 254.12447 257.75717 260.66638 263.00583
 265.74200 268.19446 270.45129 272.76917 274.99216 276.89175 278.48743 280.24637
 282.11371 283.81497 285.36273 286.71802 287.87662 288.89429 289.83261 290.68796
 291.46378 292.14215 292.56967 292.94760
 366.78100 356.35118 345.79937 334.68155 323.10073 311.31091 299.19710 287.01628
 274.74446 262.65765 250.68283 240.00001 230.13819 221.25838 213.45656 206.47474
 200.32493 195.27911 191.87729 189.93548 188.98866 189.06884 189.92002 191.24421
 192.98539 195.09657 197.37576 199.75094 202.21212 204.70830 206.81249 208.67067
 210.31285 211.47404 211.71922 211.96340 211.91658 211.63777 211.28695 210.93313
 210.56632 210.29250 210.11668 209.99687 209.94105 210.28823 210.69041 211.09560
 211.90478 213.09896 214.36515 216.16433 218.10851 220.16769 222.27888 224.37806
 226.45424 228.55443 230.66761 232.78979 234.93497 237.12316 239.39534 241.78152
 244.41871 246.68589 248.70407 250.48526 251.91844 253.05762 253.89580 254.22799
 254.28117 254.07135 253.44754 252.41172 251.03390 249.21108 247.13627 244.98545
 242.79263 240.61282 238.44900 236.30418 234.18036 232.06355 230.10573 228.27891
 226.57810 225.06628 223.71246 222.50065 221.39883 220.37501 219.49519 218.65238
 217.91056 217.10674 216.22093 215.60111 215.06729 213.85524 210.99606 210.53329
 211.45888 211.74214 212.59447 214.99377 218.41455 223.11809 229.04999 233.96509
 237.76552 241.78969 246.01900 250.20699 254.07457 257.71600 260.62222 262.94461
 265.67929 268.10806 270.34598 272.65942 274.89764 276.80887 278.41364 280.18362
 282.05389 283.75949 285.30780 286.66190 287.80838 288.81815 289.75427 290.60977
 291.38541 292.04810 292.41138 292.73428
 366.78100 356.35151 345.80002 334.68253 323.10204 311.31255 299.19906 287.01857
 274.74707 262.66058 250.68609 240.00360 230.14211 221.26262 213.46113 206.47964
 200.33015 195.28466 191.88317 189.94168 188.99519 189.07570 189.92720 191.25171
 192.99322 195.10473 197.38424 199.75975 202.22126 204.71777 206.82228 208.68079
 210.32330 211.48481 211.73032 211.97483 211.92833 211.64984 211.29935 210.94586
 210.57937 210.30588 210.13039 210.01090 209.95541 210.30292 210.70543 211.11094
 211.92045 213.11496 214.38146 216.18097 218.12548 220.18499 222.29650 224.39601
 226.47252 228.57303 230.68654 232.80905 234.95456 237.14307 239.41558 241.80209
 244.43960 246.70710 248.72561 250.50712 251.94063 253.08014 253.91865 254.25116
 254.30467 254.09518 253.47169 252.43620 251.05871 249.23622 247.16173 245.01123
 242.81874 240.63925 238.47576 236.33127 234.20778 232.09129 230.13380 228.30731
 226.60682 225.09533 223.74184 222.53035 221.42886 220.40536 219.52587 218.68338
 217.94189 217.13840 216.25291 215.63342 215.09993 213.89244 211.04297 210.53033
 211.48016 211.80675 212.65112 215.03099 218.41292 223.07304 229.00778 233.91423
 237.71001 241.74187 245.96941 250.15887 254.04482 257.69684 260.61316 262.87009
 265.62674 268.02762 270.23096 272.53772 274.77353 276.68521 278.32486 280.13553
 282.00174 283.69379 285.23453 286.58215 287.72223 288.72009 289.65280 290.50543
 291.28354 291.90668 292.26254 292.58044
 366.78100 356.35105 345.79911 334.68116 323.10022 311.31027 299.19633 287.01538
 274.74344 262.65649 250.68155 239.99860 230.13666 221.25671 213.45477 206.47282
 200.32288 195.27693 191.87499 189.93304 188.98610 189.06615 189.91721 191.24126
 192.98232 195.09337 197.37243 199.74748 202.20854 204.70459 206.80865 208.66670
 210.30876 211.46981 211.71487 211.95892 211.91198 211.63303 211.28209 210.92814
 210.56120 210.28725 210.11131 209.99136 209.93542 210.28247 210.68453 211.08958
 211.89863 213.09269 214.35874 216.15780 218.10185 220.16091 222.27196 224.37102
 226.44707 228.54713 230.66018 232.78224 234.92729 237.11535 239.38740 241.77346
 244.41051 246.67757 248.69562 250.47668 251.90973 253.04879 253.88684 254.21890
 254.27195 254.06201 253.43806 252.40212 251.02417 249.20123 247.12628 244.97534
 242.78239 240.60245 238.43850 236.29356 234.16961 232.05267 230.09472 228.26778
 226.56683 225.05489 223.70094 222.48900 221.38705 220.36310 219.48316 218.64021
 217.89827 217.09432 216.20838 215.58843 215.05449 213.88889 211.14507 210.57173
 211.48215 211.84819 212.71126 215.04398 218.36328 223.00563 228.94662 233.86093
 237.64470 241.69308 245.91792 250.10985 254.02242 257.67789 260.60141 262.98456
 265.56390 267.93701 270.13620 272.42963 274.67642 276.59262 278.23584 280.05722
 281.94611 283.66223 285.20108 286.53424 287.66205 288.65695 289.58063 290.43750
 291.17508 291.65146 291.83817 291.97607
 366.78100 356.34998 345.79695 334.67793 323.09590 311.30488 299.18985 287.00783
 274.73481 262.64678 250.67076 239.98673 230.12371 221.24269 213.43966 206.45664
 200.30561 195.25859 191.85556 189.91254 188.96452 189.04349 189.89347 191.21644
 192.95642 195.06639 197.34437 199.71835 202.17832 204.67330 206.77627 208.63325
 210.27423 211.43420 211.67818 211.92115 211.87313 211.59310 211.24108 210.88606
 210.51803 210.24301 210.06598 209.94496 209.88793 210.23391 210.63489 211.03886
 211.84684 213.03981 214.30479 216.10277 218.04574 220.10372 222.21369 224.31167
 226.38664 228.48562 230.59760 232.71857 234.86255 237.04952 239.32050 241.70547
 244.34145 246.60743 248.62440 250.40438 251.83635 252.97433 253.81131 254.14228
 254.19426 253.98323 253.35821 252.32118 250.94216 249.11814 247.04211 244.89009
 242.69606 240.51504 238.35001 236.20399 234.07897 231.96094 230.00192 228.17389
 226.47187 224.95885 223.60382 222.39080 221.28777 220.26275 219.38172 218.53770
 217.79468 216.98965 216.10263 215.48160 214.94658 213.85690 211.31647 210.64287
 211.45259 211.86412 212.76060 215.00201 218.29936 222.92622 228.84067 233.77509
 237.53671 241.61005 245.83623 250.02257 253.97316 257.60150 260.52164 262.95673
 265.66776 268.05405 270.24640 272.47516 274.64014 276.51102 278.20264 280.02002
 281.83829 283.54050 285.04764 286.33151 287.43185 288.41437 289.32327 290.04724
 290.59302 291.11981 291.58002 292.16650
 366.78100 356.34812 345.79324 334.67236 323.08848 311.29559 299.17871 286.99483
 274.71995 262.63007 250.65219 239.96631 230.10143 221.21854 213.41366 206.42878
 200.27590 195.22702 191.82214 189.87726 188.92738 189.00449 189.85261 191.17373
 192.91185 195.01997 197.29609 199.66821 202.12633 204.61945 206.72056 208.57568
 210.21480 211.37292 211.61504 211.85616 211.80628 211.52440 211.17051 210.81363
 210.44375 210.16687 209.98799 209.86511 209.80623 210.15035 210.54946 210.95158
 211.75770 212.94882 214.21194 216.00806 217.94918 220.00530 222.11341 224.20953
 226.28265 228.37977 230.48989 232.60901 234.75113 236.93625 239.20537 241.58848
 244.22260 246.48672 248.50184 250.27996 251.71008 252.84620 253.68132 254.01043
 254.06055 253.84767 253.22079 252.18191 250.80103 248.97515 246.89727 244.74338
 242.54750 240.36462 238.19774 236.04986 233.92298 231.80310 229.84222 228.01234
 226.30845 224.79357 223.43669 222.22181 221.11693 220.09005 219.20717 218.36129
 217.61640 216.80952 215.92064 215.29776 214.76088 213.77409 211.48141 210.75392
 211.42700 211.83252 212.75171 214.93942 218.22185 222.84525 228.75824 233.70000
 237.45410 241.53625 245.76749 249.95963 253.93933 257.58136 260.47852 263.02887
 265.73795 268.12137 270.28775 272.45731 274.59424 276.46417 278.16574 279.95041
 281.73254 283.41498 284.90329 286.18396 287.27594 288.24802 289.11334 289.89716
 290.63403 291.29022 291.86343 292.59396
 366.78100 356.34770 345.79240 334.67110 323.08680 311.29350 299.17620 286.99190
 274.71660 262.62630 250.64800 239.96170 230.09640 221.21310 213.40779 206.42249
 200.26919 195.21989 191.81459 189.86929 188.91899 188.99569 189.84339 191.16409
 192.90179 195.00949 197.28519 199.65689 202.11459 204.60729 206.70799 208.56269
 210.20139 211.35909 211.60079 211.84149 211.79119 211.50889 211.15459 210.79729
 210.42699 210.14969 209.97038 209.84708 209.78778 210.13148 210.53018 210.93188
 211.73758 212.92828 214.19098 215.98668 217.92738 219.98308 222.09078 224.18648
 226.25918 228.35588 230.46558 232.58428 234.72598 236.91068 239.17938 241.56208
 244.19578 246.45948 248.47418 250.25188 251.68158 252.81727 253.65197 253.98067
 254.03037 253.81707 253.18977 252.15047 250.76917 248.94287 246.86457 244.71027
 242.51397 240.33067 238.16337 236.01507 233.88777 231.76747 229.80617 227.97587
 226.27157 224.75627 223.39897 222.18367 221.07837 220.05107 219.16777 218.32147
 217.57617 216.76886 215.87956 215.25626 214.71896 213.74997 211.48793 210.82507
 211.53273 211.94675 212.79047 214.91536 218.13560 222.77145 228.71674 233.63911
 237.39142 241.47458 245.71071 249.92276 253.91798 257.58582 260.56244 263.02139
 265.72308 268.11768 270.26929 272.43646 274.60291 276.53250 278.24316 279.98322
 281.71292 283.36499 284.85660 286.15512 287.24310 288.21964 289.13187 289.95703
 290.70844 291.40704 292.01733 292.79510
 366.78100 356.34833 345.79366 334.67299 323.08932 311.29665 299.17998 286.99631
 274.72164 262.63198 250.65431 239.96864 230.10397 221.22130 213.41663 206.43196
 200.27929 195.23062 191.82595 189.88128 188.93161 189.00894 189.85727 191.17860
 192.91693 195.02526 197.30160 199.67393 202.13226 204.62559 206.72692 208.58225
 210.22158 211.37991 211.62224 211.86357 211.81390 211.53223 211.17856 210.82189
 210.45222 210.17555 209.99688 209.87422 209.81555 210.15988 210.55921 210.96154
 211.76787 212.95920 214.22253 216.01886 217.96019 220.01652 222.12485 224.22118
 226.29451 228.39184 230.50217 232.62150 234.76384 236.94917 239.21850 241.60183
 244.23616 246.50049 248.51582 250.29415 251.72448 252.86081 253.69614 254.02547
 254.07580 253.86313 253.23646 252.19779 250.81712 248.99146 246.91379 244.76012
 242.56445 240.38178 238.21511 236.06744 233.94077 231.82110 229.86043 228.03076
 226.32709 224.81242 223.45575 222.24108 221.13641 220.10974 219.22708 218.38141
 217.63674 216.83007 215.94140 215.31873 214.78206 213.78362 211.43347 210.86165
 211.65948 212.07248 212.85370 214.94022 218.06927 222.71446 228.68834 233.54929
 237.31876 241.39847 245.64455 249.87654 253.87782 257.57651 260.54053 262.95181
 265.58368 267.96503 270.10794 272.32236 274.56543 276.54935 278.22479 279.96420
 281.72754 283.36444 284.86057 286.16098 287.25928 288.23212 289.15433 289.97668
 290.63913 291.16568 291.55869 292.02139
 366.78100 356.34864 345.79428 334.67392 323.09055 311.29819 299.18183 286.99847
 274.72411 262.63475 250.65739 239.97203 230.10766 221.22530 213.42094 206.43658
 200.28422 195.23586 191.83150 189.88713 188.93777 189.01541 189.86405 191.18569
 192.92433 195.03297 197.30961 199.68224 202.14088 204.63452 206.73616 208.59180
 210.23144 211.39008 211.63271 211.87435 211.82499 211.54363 211.19027 210.83391
 210.46455 210.18819 210.00982 209.88746 209.82910 210.17374 210.57338 210.97602
 211.78266 212.97429 214.23793 216.03457 217.97621 220.03285 222.14149 224.23813
 226.31177 228.40940 230.52004 232.63968 234.78232 236.96796 239.23760 241.62124
 244.25587 246.52051 248.53615 250.31479 251.74543 252.88207 253.71771 254.04735
 254.09798 253.88562 253.25926 252.22090 250.84054 249.01518 246.93782 244.78445
 242.58909 240.40673 238.24037 236.09301 233.96665 231.84729 229.88692 228.05756
 226.35420 224.83984 223.48348 222.26912 221.16476 220.13840 219.25603 218.41067
 217.66631 216.85995 215.97159 215.34923 214.81287 213.81030 211.44800 210.93201
 211.69356 212.10561 212.93469 214.98398 218.05081 222.66179 228.63721 233.48441
 237.25920 241.34605 245.59950 249.84592 253.86592 257.55679 260.57904 262.87369
 265.42633 267.80972 269.96207 272.20096 274.46964 276.43057 278.08447 279.86478
 281.68546 283.35144 284.83392 286.10828 287.19440 288.19662 289.11313 289.84882
 290.42816 290.87753 291.17175 291.48340
 366.78100 356.34772 345.79243 334.67115 323.08687 311.29359 299.17630 286.99202
 274.71674 262.62646 250.64817 239.96189 230.09661 221.21333 213.40804 206.42276
 200.26948 195.22020 191.81491 189.86963 188.91935 188.99607 189.84378 191.16450
 192.90222 195.00994 197.28565 199.65737 202.11509 204.60781 206.70852 208.56324
 210.20196 211.35968 211.60139 211.84211 211.79183 211.50955 211.15526 210.79798
 210.42770 210.15042 209.97113 209.84785 209.78857 210.13229 210.53100 210.93272
 211.73844 212.92916 214.19187 215.98759 217.92831 219.98403 222.09174 224.18746
 226.26018 228.35690 230.46661 232.58533 234.72705 236.91177 239.18048 241.56320
 244.19692 246.46064 248.47535 250.25307 251.68279 252.81851 253.65322 253.98194
 254.03166 253.81838 253.19109 252.15181 250.77053 248.94425 246.86596 244.71168
 242.51540 240.33212 238.16483 236.01655 233.88927 231.76899 229.80770 227.97742
 226.27314 224.75786 223.40057 222.18529 221.08001 220.05273 219.16944 218.32316
 217.57788 216.77060 215.88131 215.25803 214.72075 213.77937 211.57767 210.97308
 211.72324 212.12306 212.92595 214.91432 218.00696 222.63336 228.56943 233.44145
 237.18860 241.29234 245.55391 249.80672 253.85188 257.49814 260.42819 263.05252
 265.53857 267.83139 269.98743 272.18536 274.37354 276.30936 278.05008 279.83429
 281.59067 283.21463 284.64197 285.85733 286.92667 287.91055 288.71335 289.29288
 289.84375 290.45816 291.00699 291.70642
 366.78100 356.34641 345.78981 334.66722 323.08162 311.28703 299.16844 286.98284
 274.70625 262.61465 250.63506 239.94746 230.08087 221.19628 213.38968 206.40309
 200.24849 195.19790 191.79131 189.84471 188.89312 188.96852 189.81493 191.13433
 192.87074 194.97715 197.25155 199.62196 202.07836 204.56977 206.66918 208.52258
 210.15999 211.31639 211.55680 211.79620 211.74461 211.46102 211.10542 210.74683
 210.37523 210.09664 209.91605 209.79145 209.73086 210.07326 210.47067 210.87107
 211.67548 212.86489 214.12629 215.92070 217.86010 219.91451 222.02092 224.11532
 226.18673 228.28213 230.39054 232.50794 234.64835 236.83176 239.09916 241.48057
 244.11297 246.37538 248.38879 250.16519 251.59360 252.72800 253.56141 253.88881
 253.93722 253.72263 253.09403 252.05344 250.67084 248.84325 246.76366 244.60806
 242.41047 240.22587 238.05728 235.90769 233.77909 231.65750 229.69490 227.86331
 226.15771 224.64112 223.28253 222.06593 220.95934 219.93074 219.04615 218.19856
 217.45196 216.64337 215.75277 215.12818 214.58958 213.72591 211.71500 211.02365
 211.69186 212.08513 212.89168 214.85829 217.99925 222.58954 228.49513 233.37674
 237.11566 241.23169 245.50912 249.78226 253.85153 257.48502 260.51422 263.14566
 265.59418 267.85800 270.02066 272.21841 274.38235 276.29532 278.06943 279.84467
 281.55569 283.14645 284.53479 285.74582 286.81238 287.68219 288.36758 289.15402
 289.95612 290.67038 291.29434 292.08951
 366.78100 356.34688 345.79077 334.66865 323.08353 311.28941 299.17130 286.98618
 274.71006 262.61894 250.63983 239.95271 230.08659 221.20247 213.39636 206.41024
 200.25612 195.20600 191.79989 189.85377 188.90265 188.97853 189.82542 191.14530
 192.88218 194.98906 197.26395 199.63483 202.09171 204.58359 206.68348 208.53736
 210.17524 211.33212 211.57301 211.81289 211.76177 211.47865 211.12354 210.76542
 210.39430 210.11618 209.93607 209.81195 209.75183 210.09471 210.49260 210.89348
 211.69836 212.88824 214.15013 215.94501 217.88489 219.93977 222.04666 224.14154
 226.21342 228.30930 230.41819 232.53607 234.67695 236.86083 239.12872 241.51060
 244.14348 246.40636 248.42025 250.19713 251.62601 252.76089 253.59478 253.92266
 253.97154 253.75742 253.12931 252.08919 250.70707 248.87995 246.80084 244.64572
 242.44860 240.26448 238.09637 235.94725 233.81913 231.69801 229.73590 227.90478
 226.19966 224.68354 223.32543 222.10931 221.00319 219.97508 219.09096 218.24384
 217.49772 216.68961 215.79949 215.17537 214.63725 213.75407 211.69647 211.07909
 211.78883 212.16772 212.93784 214.88048 217.95309 222.50063 228.43790 233.30624
 237.04352 241.16457 245.45250 249.74370 253.84587 257.49564 260.50488 263.15692
 265.60556 267.90900 270.08157 272.27664 274.43588 276.35950 278.06607 279.87662
 281.57361 283.12167 284.49918 285.71295 286.75403 287.62085 288.39426 289.21246
 290.02261 290.75870 291.40173 292.22119
 366.78100 356.34782 345.79264 334.67147 323.08729 311.29411 299.17693 286.99275
 274.71757 262.62740 250.64922 239.96304 230.09786 221.21468 213.40951 206.42433
 200.27115 195.22197 191.81679 189.87162 188.92144 188.99826 189.84608 191.16690
 192.90472 195.01255 197.28837 199.66019 202.11801 204.61083 206.71166 208.56648
 210.20530 211.36312 211.60494 211.84577 211.79559 211.51341 211.15923 210.80205
 210.43187 210.15470 209.97552 209.85234 209.79316 210.13698 210.53581 210.93763
 211.74345 212.93427 214.19709 215.99291 217.93374 219.98956 222.09738 224.19320
 226.26602 228.36285 230.47267 232.59149 234.73331 236.91813 239.18696 241.56978
 244.20360 246.46742 248.48224 250.26006 251.68989 252.82571 253.66053 253.98935
 254.03917 253.82600 253.19882 252.15964 250.77846 248.95228 246.87411 244.71993
 242.52375 240.34057 238.17339 236.02521 233.89804 231.77786 229.81668 227.98650
 226.28232 224.76715 223.40997 222.19479 221.08961 220.06243 219.17925 218.33308
 217.58790 216.78072 215.89154 215.26836 214.73119 213.81627 211.69255 211.10114
 211.92258 212.26495 212.99214 214.91495 217.91125 222.40659 228.35591 233.21100
 236.92657 241.04433 245.34047 249.63853 253.71117 257.25940 260.39755 263.27271
 265.71790 267.96860 270.09543 272.22162 274.30991 276.13214 278.08167 279.79102
 281.30722 282.85242 284.17310 285.34293 286.31302 287.11145 287.93036 288.74057
 289.46008 290.10083 290.66058 291.37390
 366.78100 356.34829 345.79359 334.67288 323.08917 311.29647 299.17976 286.99605
 274.72134 262.63164 250.65393 239.96822 230.10352 221.22081 213.41610 206.43140
 200.27869 195.22998 191.82527 189.88057 188.93086 189.00815 189.85645 191.17774
 192.91603 195.02433 197.30062 199.67291 202.13121 204.62450 206.72579 208.58108
 210.22038 211.37867 211.62096 211.86226 211.81255 211.53084 211.17714 210.82043
 210.45072 210.17402 209.99531 209.87260 209.81389 210.15819 210.55748 210.95977
 211.76607 212.95736 214.22065 216.01695 217.95824 220.01453 222.12282 224.21912
 226.29241 228.38970 230.50000 232.61929 234.76158 236.94688 239.21617 241.59946
 244.23376 246.49805 248.51334 250.29163 251.72193 252.85822 253.69351 254.02281
 254.07310 253.86039 253.23369 252.19498 250.81427 248.98856 246.91086 244.75715
 242.56144 240.37874 238.21203 236.06432 233.93762 231.81791 229.85720 228.02750
 226.32379 224.80908 223.45237 222.23767 221.13296 220.10625 219.22355 218.37784
 217.63313 216.82643 215.93772 215.31501 214.77831 213.87019 211.77850 211.10294
 211.91451 212.33423 213.16725 215.02316 217.96332 222.41344 228.29175 233.11389
 236.82619 240.94135 245.24777 249.57286 253.56750 257.14136 260.35269 263.15509
 265.67078 267.93216 270.06158 272.19125 274.20438 276.18277 278.17923 279.74582
 281.16708 282.55536 283.79178 284.84198 285.76785 286.75259 287.65668 288.47568
 289.21231 289.86826 290.44131 291.17157
 366.78100 356.34864 345.79428 334.67392 323.09055 311.29819 299.18183 286.99847
 274.72411 262.63475 250.65739 239.97202 230.10766 221.22530 213.42094 206.43658
 200.28422 195.23585 191.83149 189.88713 188.93777 189.01541 189.86405 191.18569
 192.92432 195.03296 197.30960 199.68224 202.14088 204.63452 206.73616 208.59179
 210.23143 211.39007 211.63271 211.87435 211.82499 211.54362 211.19026 210.83390
 210.46454 210.18818 210.00982 209.88746 209.82909 210.17373 210.57337 210.97601
 211.78265 212.97429 214.23793 216.03456 217.97620 220.03284 222.14148 224.23812
 226.31176 228.40940 230.52003 232.63967 234.78231 236.96795 239.23759 241.62123
 244.25586 246.52050 248.53614 250.31478 251.74542 252.88206 253.71770 254.04733
 254.09797 253.88561 253.25925 252.22089 250.84053 249.01517 246.93780 244.78444
 242.58908 240.40672 238.24036 236.09300 233.96663 231.84727 229.88691 228.05755
 226.35419 224.83983 223.48347 222.26910 221.16474 220.13838 219.25602 218.41066
 217.66630 216.85994 215.97157 215.34921 214.81285 213.92186 211.87099 211.14235
 211.88040 212.43944 213.39108 215.17546 218.03090 222.44539 228.28816 233.05690
 236.76544 240.88356 245.18929 249.56116 253.56633 257.15732 260.37369 263.05310
 265.63873 267.95108 270.07391 272.23108 274.08884 276.23456 278.19968 279.75513
 281.06244 282.42401 283.59302 284.75732 285.95743 287.03732 288.02255 288.91510
 289.71783 290.43268 291.05716 291.85300
 366.78100 356.34868 345.79436 334.67404 323.09072 311.29840 299.18207 286.99875
 274.72443 262.63511 250.65779 239.97247 230.10815 221.22583 213.42151 206.43719
 200.28487 195.23654 191.83222 189.88790 188.93858 189.01626 189.86494 191.18662
 192.92530 195.03398 197.31066 199.68334 202.14201 204.63569 206.73737 208.59305
 210.23273 211.39141 211.63409 211.87577 211.82645 211.54513 211.19181 210.83548
 210.46616 210.18984 210.01152 209.88920 209.83088 210.17556 210.57524 210.97792
 211.78460 212.97628 214.23995 216.03663 217.97831 220.03499 222.14367 224.24035
 226.31403 228.41171 230.52239 232.64207 234.78475 236.97042 239.24010 241.62378
 244.25846 246.52314 248.53882 250.31750 251.74818 252.88486 253.72054 254.05022
 254.10090 253.88857 253.26225 252.22393 250.84361 249.01829 246.94097 244.78765
 242.59233 240.41001 238.24369 236.09637 233.97004 231.85072 229.89040 228.06108
 226.35776 224.84344 223.48712 222.27280 221.16848 220.14216 219.25984 218.41451
 217.67019 216.86387 215.97555 215.35323 214.81691 213.95651 211.96452 211.16890
 211.83812 212.46237 213.47202 215.27205 218.07460 222.45163 228.28314 233.03004
 236.72520 240.83418 245.14651 249.50366 253.54959 257.12564 260.31650 263.04669
 265.56506 267.91672 270.09647 272.26266 274.21985 276.16147 278.11777 279.70599
 281.10544 282.43585 283.65469 285.04224 286.32605 287.46191 288.49820 289.43698
 290.28134 291.03323 291.69009 292.52716
 366.78100 356.34804 345.79308 334.67211 323.08815 311.29519 299.17823 286.99427
 274.71930 262.62934 250.65138 239.96542 230.10046 221.21749 213.41253 206.42757
 200.27461 195.22565 191.82069 189.87572 188.92576 189.00280 189.85084 191.17188
 192.90991 195.01795 197.29399 199.66603 202.12407 204.61710 206.71814 208.57318
 210.21222 211.37026 211.61229 211.85333 211.80337 211.52141 211.16745 210.81048
 210.44052 210.16356 209.98460 209.86164 209.80268 210.14671 210.54575 210.94779
 211.75383 212.94487 214.20790 216.00394 217.94498 220.00102 222.10906 224.20509
 226.27813 228.37517 230.48521 232.60425 234.74628 236.93132 239.20036 241.58340
 244.21744 246.48147 248.49651 250.27455 251.70459 252.84063 253.67567 254.00470
 254.05474 253.84178 253.21482 252.17586 250.79489 248.96893 246.89097 244.73701
 242.54105 240.35808 238.19112 236.04316 233.91620 231.79624 229.83527 228.00531
 226.30135 224.78639 223.42943 222.21446 221.10950 220.08254 219.19958 218.35362
 217.60866 216.80169 215.91273 215.28977 214.75281 213.93881 212.04146 211.17775
 211.77167 212.41594 213.45293 215.31256 218.12495 222.43762 228.25586 233.03806
 236.72398 240.82274 245.14226 249.49168 253.58975 257.19986 260.24332 262.98386
 265.61026 267.93094 270.12958 272.25153 274.28000 276.12085 278.04214 279.80481
 281.26294 282.57129 283.81424 285.15506 286.47250 287.64856 288.72153 289.69354
 290.56778 291.34628 292.02637 292.89304
 366.78100 356.34699 345.79099 334.66898 323.08397 311.28997 299.17196 286.98695
 274.71095 262.61994 250.64093 239.95393 230.08792 221.20391 213.39791 206.41190
 200.25790 195.20789 191.80188 189.85588 188.90487 188.98086 189.82786 191.14785
 192.88484 194.99184 197.26683 199.63782 202.09482 204.58681 206.68680 208.54080
 210.17879 211.33578 211.57678 211.81677 211.76576 211.48276 211.12775 210.76974
 210.39874 210.12073 209.94073 209.81672 209.75671 210.09971 210.49770 210.89869
 211.70369 212.89368 214.15567 215.95067 217.89066 219.94565 222.05265 224.14764
 226.21963 228.31563 230.42462 232.54261 234.68361 236.86760 239.13559 241.51759
 244.15058 246.41357 248.42757 250.20456 251.63356 252.76855 253.60254 253.93054
 253.97953 253.76552 253.13752 252.09751 250.71550 248.88850 246.80949 244.65448
 242.45748 240.27347 238.10546 235.95646 233.82845 231.70744 229.74544 227.91443
 226.20942 224.69342 223.33541 222.11940 221.01340 219.98539 219.10139 218.25438
 217.50837 216.70037 215.81036 215.18635 214.64835 213.88556 212.10251 211.21483
 211.64865 212.31059 213.38557 215.28477 218.13197 222.38199 228.19801 233.01755
 236.69461 240.79155 245.10309 249.44673 253.51614 257.13116 260.10654 262.85168
 265.44562 267.78931 270.05569 272.23193 274.35007 276.28857 278.14548 279.91425
 281.51779 282.85007 284.02310 285.07474 286.19540 287.26666 288.31467 289.26407
 290.11795 290.87836 291.54263 292.38916
 366.78100 356.34547 345.78793 334.66440 323.07787 311.28233 299.16280 286.97627
 274.69873 262.60620 250.62567 239.93713 230.06960 221.18407 213.37654 206.38900
 200.23347 195.18194 191.77440 189.82687 188.87434 188.94880 189.79427 191.11274
 192.84820 194.95367 197.22714 199.59660 202.05207 204.54254 206.64100 208.49347
 210.12994 211.28540 211.52487 211.76334 211.71081 211.42627 211.06974 210.71021
 210.33767 210.05814 209.87661 209.75107 209.68954 210.03101 210.42747 210.82694
 211.63041 212.81887 214.07934 215.87281 217.81127 219.86474 221.97021 224.06367
 226.13414 228.22861 230.33608 232.45254 234.59201 236.77448 239.04094 241.42141
 244.05288 246.31434 248.32681 250.10228 251.52974 252.66321 253.49568 253.82214
 253.86961 253.65408 253.02454 251.98301 250.59948 248.77094 246.69041 244.53388
 242.33535 240.14981 237.98028 235.82975 233.70021 231.57768 229.61415 227.78161
 226.07508 224.55755 223.19801 221.98048 220.87295 219.84341 218.95788 218.10935
 217.36181 216.55228 215.66075 215.03521 214.49568 213.81808 212.22075 211.25230
 211.64131 212.35304 213.38927 215.24187 218.09027 222.32553 228.15674 232.97656
 236.64095 240.75165 245.06874 249.41203 253.47133 257.00531 259.98184 262.60272
 265.23187 267.65247 269.91870 272.11270 274.28043 276.30371 278.18304 279.94473
 281.47733 282.84692 284.03452 285.00076 285.92624 286.94699 287.92447 288.87845
 289.73642 290.50046 291.16794 292.01852
 366.78100 356.34275 345.78250 334.65625 323.06700 311.26875 299.14650 286.95725
 274.67700 262.58175 250.59850 239.90725 230.03700 221.14875 213.33850 206.34825
 200.19000 195.13575 191.72550 189.77525 188.82000 188.89175 189.73450 191.05025
 192.78300 194.88575 197.15650 199.52325 201.97600 204.46375 206.55950 208.40925
 210.04300 211.19575 211.43250 211.66825 211.61301 211.32576 210.96651 210.60426
 210.22901 209.94676 209.76251 209.63426 209.57001 209.90876 210.30251 210.69926
 211.50001 212.68576 213.94351 215.73426 217.67001 219.72076 221.82351 223.91426
 225.98201 228.07376 230.17851 232.29226 234.42901 236.60876 238.87251 241.25026
 243.87901 246.13776 248.14751 249.92026 251.34501 252.47576 253.30551 253.62926
 253.67401 253.45576 252.82351 251.77926 250.39301 248.56176 246.47851 244.31926
 242.11801 239.92976 237.75751 235.60426 233.47201 231.34676 229.38051 227.54526
 225.83601 224.31576 222.95351 221.73326 220.62301 219.59076 218.70251 217.85126
 217.10101 216.28876 215.39451 214.76626 214.22401 213.69760 212.43036 211.29343
 211.53725 212.25052 213.35034 215.22897 218.08849 222.30754 228.11658 232.96318
 236.64301 240.76332 245.09805 249.45995 253.52835 257.07932 260.02768 262.64188
 265.16797 267.54285 269.80539 272.01367 274.12704 276.17444 278.13071 279.89865
 281.41983 282.76617 283.93848 284.92126 285.79489 286.81656 287.82349 288.77634
 289.63333 290.39651 291.06320 291.91281
 366.78100 356.34317 345.78333 334.65750 323.06866 311.27083 299.14900 286.96016
 274.68033 262.58549 250.60266 239.91183 230.04199 221.15416 213.34433 206.35449
 200.19666 195.14282 191.73299 189.78316 188.82832 188.90049 189.74365 191.05982
 192.79299 194.89615 197.16732 199.53448 201.98765 204.47582 206.57198 208.42215
 210.05632 211.20948 211.44665 211.68281 211.62798 211.34115 210.98231 210.62048
 210.24564 209.96381 209.77998 209.65214 209.58831 209.92747 210.32164 210.71881
 211.51997 212.70614 213.96430 215.75547 217.69164 219.74280 221.84597 223.93714
 226.00530 228.09747 230.20263 232.31680 234.45397 236.63413 238.89830 241.27646
 243.90563 246.16480 248.17496 249.94813 251.37329 252.50446 253.33463 253.65879
 253.70396 253.48613 252.85429 251.81046 250.42462 248.59379 246.51096 244.35212
 242.15129 239.96345 237.79162 235.63879 233.50695 231.38212 229.41628 227.58145
 225.87262 224.35278 222.99095 221.77111 220.66128 219.62945 218.74161 217.89078
 217.14095 216.32911 215.43528 214.80744 214.26561 213.71432 212.40529 211.40088
 211.63039 212.26273 213.31255 215.17372 218.02611 222.25148 228.08218 232.92255
 236.59018 240.73285 245.10620 249.51830 253.66705 257.22620 260.18777 262.75595
 265.19101 267.52698 269.76111 271.94696 274.15576 276.24991 278.09930 279.87680
 281.40198 282.76260 284.00351 285.07748 285.79022 286.63208 287.56833 288.46277
 289.30649 290.05783 290.71420 291.55063
 366.78100 356.34654 345.79007 334.66761 323.08214 311.28768 299.16921 286.98375
 274.70728 262.61582 250.63635 239.94889 230.08242 221.19796 213.39149 206.40503
 200.25056 195.20010 191.79363 189.84717 188.89570 188.97124 189.81777 191.13731
 192.87384 194.98038 197.25491 199.62545 202.08198 204.57352 206.67305 208.52659
 210.16412 211.32066 211.56119 211.80073 211.74926 211.46580 211.11033 210.75187
 210.38040 210.10194 209.92147 209.79701 209.73654 210.07908 210.47661 210.87715
 211.68168 212.87122 214.13275 215.92729 217.86682 219.92136 222.02789 224.12243
 226.19396 228.28950 230.39803 232.51557 234.65611 236.83964 239.10718 241.48871
 244.12125 246.38378 248.39732 250.17385 251.60239 252.73692 253.57046 253.89799
 253.94653 253.73206 253.10360 252.06313 250.68067 248.85320 246.77374 244.61827
 242.42081 240.23634 238.06788 235.91841 233.78995 231.66848 229.70602 227.87455
 226.16909 224.65262 223.29416 222.07769 220.97123 219.94276 219.05830 218.21083
 217.46437 216.65590 215.76544 215.14097 214.60251 213.88347 212.19102 211.44661
 212.01332 212.54895 213.29858 215.03314 217.83832 222.12674 228.01730 232.75749
 236.39548 240.57780 244.98582 249.43335 253.68098 257.28885 260.32074 262.71747
 265.10376 267.48480 269.73291 271.94843 274.13611 276.19287 278.08517 279.78970
 281.39551 282.79059 283.97125 284.92133 285.83490 286.64478 287.31467 288.08298
 288.86151 289.59506 290.26102 291.10971
 366.78100 356.34564 345.78829 334.66493 323.07858 311.28322 299.16386 286.97751
 274.70015 262.60779 250.62744 239.93908 230.07173 221.18637 213.37901 206.39166
 200.23630 195.18494 191.77759 189.83023 188.87788 188.95252 189.79816 191.11681
 192.85245 194.95810 197.23174 199.60138 202.05703 204.54767 206.64631 208.49896
 210.13560 211.29125 211.53089 211.76953 211.71718 211.43282 211.07647 210.71711
 210.34475 210.06540 209.88404 209.75868 209.69733 210.03897 210.43562 210.83526
 211.63890 212.82755 214.08819 215.88183 217.82048 219.87412 221.97977 224.07341
 226.14405 228.23870 230.34634 232.46299 234.60263 236.78527 239.05192 241.43256
 244.06420 246.32585 248.33849 250.11414 251.54178 252.67542 253.50807 253.83471
 253.88236 253.66700 253.03764 251.99629 250.61293 248.78457 246.70422 244.54786
 242.34951 240.16415 237.99479 235.84444 233.71508 231.59272 229.62937 227.79701
 226.09066 224.57330 223.21394 221.99659 220.88923 219.85988 218.97452 218.12616
 217.37881 216.56945 215.67809 215.05274 214.51338 213.86780 212.34671 211.45287
 212.02257 212.50873 213.38251 215.15657 217.94070 222.18701 227.90999 232.62465
 236.26631 240.43382 244.83998 249.27184 253.41048 256.91440 259.96735 262.72760
 265.19336 267.55371 269.83591 271.99014 274.18353 276.35788 278.19986 279.66043
 281.01755 282.40695 283.54709 284.47638 285.19949 286.04932 286.91357 287.70795
 288.41614 289.04681 289.59772 290.29984
 366.78100 356.34455 345.78609 334.66164 323.07418 311.27773 299.15727 286.96982
 274.69136 262.59791 250.61645 239.92700 230.05854 221.17209 213.36363 206.37518
 200.21872 195.16627 191.75781 189.80936 188.85590 188.92945 189.77399 191.09154
 192.82608 194.93063 197.20317 199.57172 202.02627 204.51581 206.61336 208.46490
 210.10045 211.25499 211.49354 211.73108 211.67763 211.39217 211.03472 210.67426
 210.30081 210.02035 209.83790 209.71144 209.64899 209.98953 210.38508 210.78362
 211.58617 212.77371 214.03326 215.82580 217.76335 219.81589 221.92044 224.01299
 226.08253 228.17608 230.28262 232.39817 234.53671 236.71826 238.98380 241.36335
 243.99389 246.25444 248.26598 250.04053 251.46707 252.59962 253.43116 253.75671
 253.80325 253.58680 252.95634 251.91389 250.52943 248.69998 246.61852 244.46107
 242.26161 240.07516 237.90471 235.75325 233.62280 231.49934 229.53489 227.70143
 225.99398 224.47552 223.11507 221.89661 220.78816 219.75770 218.87125 218.02179
 217.27334 216.46288 215.57043 214.94397 214.40352 213.86050 212.54395 211.50815
 211.78473 212.60300 213.73404 215.45184 218.14136 222.28784 227.88704 232.52190
 236.20601 240.37917 244.78421 249.18861 253.26828 256.61893 259.78223 262.66107
 265.17374 267.54749 269.80301 272.00754 274.43903 276.52902 278.21191 279.55450
 280.90079 282.18179 283.11972 283.97217 285.11481 286.17706 287.14618 288.02417
 288.81378 289.51697 290.13126 290.91409
 366.78100 356.34381 345.78462 334.65942 323.07123 311.27404 299.15285 286.96466
 274.68547 262.59127 250.60908 239.91889 230.04970 221.16251 213.35331 206.36412
 200.20693 195.15374 191.74455 189.79536 188.84116 188.91397 189.75778 191.07459
 192.80840 194.91220 197.18401 199.55182 202.00563 204.49444 206.59125 208.44205
 210.07686 211.23067 211.46848 211.70529 211.65109 211.36490 211.00671 210.64552
 210.27133 209.99014 209.80694 209.67975 209.61656 209.95637 210.35118 210.74898
 211.55079 212.73760 213.99641 215.78822 217.72503 219.77683 221.88064 223.97245
 226.04126 228.13407 230.23987 232.35468 234.49249 236.67330 238.93811 241.31692
 243.94672 246.20653 248.21734 249.99115 251.41696 252.54876 253.37957 253.70438
 253.75019 253.53300 252.90181 251.85861 250.47342 248.64323 246.56104 244.40285
 242.20265 240.01546 237.84427 235.69208 233.56089 231.43670 229.47150 227.63731
 225.92912 224.40993 223.04874 221.82955 220.72035 219.68916 218.80197 217.95178
 217.20259 216.39139 215.49820 214.87101 214.32982 213.86555 212.68613 211.53166
 211.62396 212.60547 213.99854 215.73927 218.23871 222.30550 227.94173 232.54211
 236.19228 240.35316 244.76524 249.15945 253.19818 256.59589 259.59167 262.54559
 265.15894 267.49524 269.67523 272.01190 274.50012 276.46671 278.13858 279.49786
 280.94528 282.13272 283.16333 284.52335 285.71622 286.77161 287.73450 288.60678
 289.39133 290.08997 290.70029 291.47806
 366.78100 356.34194 345.78089 334.65383 323.06377 311.26472 299.14166 286.95160
 274.67055 262.57449 250.59043 239.89838 230.02732 221.13826 213.32721 206.33615
 200.17709 195.12204 191.71098 189.75992 188.80387 188.87481 189.71675 191.03169
 192.76364 194.86558 197.13552 199.50147 201.95341 204.44035 206.53530 208.38424
 210.01718 211.16913 211.40507 211.64001 211.58396 211.29590 210.93584 210.57279
 210.19673 209.91367 209.72862 209.59956 209.53450 209.87245 210.26539 210.66133
 211.46128 212.64622 213.90316 215.69311 217.62805 219.67799 221.77994 223.86988
 225.93682 228.02777 230.13171 232.24465 234.38060 236.55954 238.82248 241.19943
 243.82737 246.08531 248.09426 249.86620 251.29014 252.42008 253.24903 253.57197
 253.61591 253.39686 252.76380 251.71874 250.33169 248.49963 246.41557 244.25552
 242.05346 239.86440 237.69135 235.53729 233.40423 231.27818 229.31112 227.47506
 225.76501 224.24395 222.88089 221.65984 220.54878 219.51572 218.62667 217.77461
 217.02355 216.21050 215.31544 214.68638 214.14333 213.80975 212.86256 211.57394
 211.46095 212.41429 214.06871 215.95488 218.37346 222.34732 227.97650 232.59331
 236.25938 240.39746 244.79144 249.18211 253.24123 256.64627 259.35837 262.48181
 265.25098 267.56668 269.71445 272.08813 274.51535 276.38278 278.06039 279.42319
 280.84909 281.99155 283.44876 284.76187 285.89825 286.90369 287.82095 288.65195
 289.39935 290.06491 290.64633 291.38727
 366.78100 356.34119 345.77937 334.65156 323.06074 311.26093 299.13712 286.94630
 274.66449 262.56767 250.58286 239.89005 230.01823 221.12842 213.31660 206.32479
 200.16498 195.10916 191.69735 189.74553 188.78872 188.85891 189.70009 191.01428
 192.74546 194.84665 197.11584 199.48102 201.93221 204.41839 206.51258 208.36076
 209.99295 211.14414 211.37932 211.61351 211.55669 211.26788 210.90707 210.54325
 210.16644 209.88262 209.69681 209.56700 209.50118 209.83837 210.23055 210.62574
 211.42493 212.60911 213.86530 215.65448 217.58867 219.63786 221.73904 223.82823
 225.89441 227.98460 230.08779 232.19997 234.33516 236.51334 238.77553 241.15172
 243.77890 246.03609 248.04427 249.81546 251.23865 252.36783 253.19602 253.51820
 253.56139 253.34158 252.70776 251.66195 250.27413 248.44132 246.35651 244.19569
 241.99288 239.80306 237.62925 235.47444 233.34062 231.21381 229.24599 227.40918
 225.69836 224.17655 222.81274 221.59092 220.47911 219.44529 218.55548 217.70267
 216.95085 216.13704 215.24122 214.61141 214.06760 213.80034 212.96779 211.71190
 211.44333 212.30222 213.99738 215.86261 218.37231 222.25195 227.92010 232.57307
 236.28522 240.44547 244.84271 249.23819 253.32285 256.74170 259.33054 262.26810
 265.28699 267.69601 269.79776 272.07104 274.41794 276.37555 277.98041 279.33194
 280.60489 282.17111 283.64542 284.93994 286.06021 287.05139 287.95569 288.77493
 289.51175 290.16788 290.74106 291.47150
 366.78100 356.34183 345.78065 334.65348 323.06330 311.26413 299.14095 286.95078
 274.66960 262.57343 250.58925 239.89708 230.02591 221.13673 213.32556 206.33438
 200.17521 195.12003 191.70886 189.75768 188.80151 188.87233 189.71416 191.02899
 192.76081 194.86264 197.13246 199.49829 201.95011 204.43694 206.53176 208.38059
 210.01341 211.16524 211.40107 211.63589 211.57972 211.29154 210.93137 210.56819
 210.19202 209.90884 209.72367 209.59449 209.52932 209.86715 210.25997 210.65580
 211.45562 212.64045 213.89727 215.68710 217.62192 219.67175 221.77357 223.86340
 225.93023 228.02105 230.12488 232.23770 234.37353 236.55235 238.81518 241.19200
 243.81983 246.07765 248.08648 249.85831 251.28213 252.41196 253.24078 253.56361
 253.60743 253.38826 252.75508 251.70991 250.32273 248.49056 246.40639 244.24621
 242.04404 239.85486 237.68169 235.52751 233.39434 231.26816 229.30099 227.46482
 225.75464 224.23347 222.87029 221.64912 220.53794 219.50477 218.61559 217.76342
 217.01224 216.19907 215.30390 214.67472 214.13155 213.86272 213.00841 211.76970
 211.48129 212.36057 214.02756 215.85399 218.36639 222.24706 227.82814 232.47603
 236.19890 240.38907 244.81152 249.23814 253.36284 256.76212 259.49252 262.28802
 265.12677 267.62189 269.72635 272.16595 274.40005 276.36014 277.93021 279.33316
 280.96716 282.75571 284.30341 285.66238 286.83847 287.87900 288.82834 289.68835
 290.46185 291.15067 291.75241 292.51923
 366.78100 356.34160 345.78020 334.65280 323.06241 311.26301 299.13961 286.94921
 274.66781 262.57141 250.58701 239.89461 230.02322 221.13382 213.32242 206.33102
 200.17162 195.11622 191.70482 189.75342 188.79703 188.86763 189.70923 191.02383
 192.75543 194.85703 197.12663 199.49224 201.94384 204.43044 206.52504 208.37364
 210.00624 211.15784 211.39344 211.62805 211.57165 211.28325 210.92285 210.55945
 210.18305 209.89965 209.71425 209.58486 209.51946 209.85706 210.24966 210.64526
 211.44486 212.62946 213.88607 215.67567 217.61027 219.65987 221.76147 223.85107
 225.91767 228.00827 230.11188 232.22448 234.36008 236.53868 238.80128 241.17788
 243.80548 246.06309 248.07169 249.84329 251.26689 252.39649 253.22509 253.54769
 253.59129 253.37190 252.73850 251.69310 250.30570 248.47330 246.38890 244.22850
 242.02610 239.83671 237.66331 235.50891 233.37551 231.24911 229.28171 227.44531
 225.73492 224.21352 222.85012 221.62872 220.51732 219.48392 218.59452 217.74212
 216.99073 216.17733 215.28193 214.65253 214.10913 213.87875 213.09016 211.76825
 211.35951 212.29813 214.06474 215.95149 218.43379 222.28334 227.82123 232.44316
 236.15323 240.35402 244.78833 249.21899 253.32933 256.78964 259.66949 262.36761
 265.18701 267.74597 269.90784 272.09830 274.35834 276.32120 277.94131 279.35800
 281.52774 283.44910 285.11172 286.57162 287.83505 288.95285 289.97269 290.89658
 291.72754 292.46750 293.11389 293.93768
 366.78100 356.34231 345.78162 334.65493 323.06523 311.26654 299.14385 286.95416
 274.67347 262.57778 250.59409 239.90240 230.03170 221.14301 213.33232 206.34163
 200.18294 195.12825 191.71756 189.76687 188.81117 188.88248 189.72479 191.04010
 192.77241 194.87472 197.14503 199.51134 201.96364 204.45095 206.54626 208.39557
 210.02888 211.18119 211.41750 211.65280 211.59711 211.30942 210.94973 210.58704
 210.21135 209.92866 209.74397 209.61527 209.55058 209.88889 210.28220 210.67851
 211.47882 212.66413 213.92144 215.71174 217.64705 219.69736 221.79967 223.88998
 225.95729 228.04860 230.15290 232.26621 234.40252 236.58183 238.84514 241.22245
 243.85076 246.10907 248.11837 249.89068 251.31499 252.44530 253.27461 253.59792
 253.64223 253.42354 252.79084 251.74615 250.35946 248.52777 246.44408 244.28439
 242.08270 239.89401 237.72131 235.56762 233.43493 231.30924 229.34255 227.50686
 225.79717 224.27647 222.91378 221.69309 220.58240 219.54971 218.66102 217.80933
 217.05864 216.24594 215.35125 214.72256 214.17987 213.91983 213.13303 211.91190
 211.30960 212.13786 213.93826 215.90977 218.40688 222.29015 227.82942 232.44220
 236.15143 240.35448 244.78801 249.20517 253.35144 256.85202 259.75424 262.42163
 265.23083 267.89838 270.20697 272.07565 274.27487 276.26782 277.92072 279.73969
 281.95868 284.10614 285.96439 287.59607 289.00818 290.25751 291.39734 292.42993
 293.35864 294.18567 294.90814 295.82886
 366.78100 356.34289 345.78277 334.65666 323.06755 311.26943 299.14732 286.95821
 274.67809 262.58298 250.59987 239.90875 230.03864 221.15053 213.34041 206.35030
 200.19219 195.13807 191.72796 189.77785 188.82273 188.89462 189.73751 191.05339
 192.78628 194.88917 197.16005 199.52694 201.97983 204.46771 206.56360 208.41349
 210.04737 211.20026 211.43715 211.67303 211.61792 211.33081 210.97169 210.60958
 210.23447 209.95236 209.76824 209.64013 209.57602 209.91490 210.30879 210.70568
 211.50656 212.69245 213.95034 215.74122 217.67711 219.72800 221.83088 223.92177
 225.98966 228.08154 230.18643 232.30032 234.43720 236.61709 238.88098 241.25886
 243.88775 246.14664 248.15652 249.92941 251.35430 252.48518 253.31507 253.63896
 253.68384 253.46573 252.83362 251.78950 250.40339 248.57228 246.48916 244.33005
 242.12894 239.94082 237.76871 235.61560 233.48348 231.35837 229.39226 227.55714
 225.84803 224.32792 222.96580 221.74569 220.63558 219.60346 218.71535 217.86424
 217.11412 216.30201 215.40790 214.77978 214.23767 213.95287 213.16486 212.08951
 211.40425 212.02397 213.82231 215.83528 218.33588 222.24922 227.80701 232.40585
 236.10545 240.30042 244.71869 249.08539 253.13985 256.60361 259.48581 262.16547
 265.07202 267.78925 270.16403 272.11197 274.26312 276.20615 277.95721 279.76492
 281.77173 283.65500 285.31229 286.76752 288.02689 289.14111 290.15768 291.07861
 291.90689 292.64447 293.28882 294.10995
 366.78100 356.34295 345.78291 334.65686 323.06781 311.26976 299.14772 286.95867
 274.67862 262.58358 250.60053 239.90948 230.03944 221.15139 213.34134 206.35129
 200.19325 195.13920 191.72915 189.77911 188.82406 188.89601 189.73896 191.05492
 192.78787 194.89082 197.16178 199.52873 201.98168 204.46964 206.56559 208.41554
 210.04949 211.20245 211.43940 211.67535 211.62031 211.33326 210.97421 210.61216
 210.23712 209.95507 209.77102 209.64298 209.57893 209.91788 210.31183 210.70879
 211.50974 212.69569 213.95365 215.74460 217.68055 219.73151 221.83446 223.92541
 225.99336 228.08532 230.19027 232.30422 234.44118 236.62113 238.88508 241.26303
 243.89199 246.15094 248.16089 249.93385 251.35880 252.48975 253.31971 253.64366
 253.68861 253.47056 252.83852 251.79447 250.40842 248.57738 246.49433 244.33528
 242.13423 239.94619 237.77414 235.62109 233.48905 231.36400 229.39795 227.56291
 225.85386 224.33381 222.97176 221.75172 220.64167 219.60962 218.72158 217.87053
 217.12048 216.30843 215.41439 214.78634 214.24429 213.97571 213.21178 212.14862
 211.48361 211.94035 213.73853 215.83534 218.39940 222.25627 227.82857 232.40480
 236.09692 240.28598 244.70009 249.04817 253.05402 256.44464 259.26935 261.86502
 264.94791 267.70166 270.03937 271.99902 274.28705 276.19739 277.82666 279.63599
 281.56015 283.40009 285.02478 286.45142 287.68600 288.77832 289.77490 290.67773
 291.48972 292.21280 292.84448 293.64948
 366.78100 356.34584 345.78869 334.66553 323.07937 311.28421 299.16506 286.97890
 274.70174 262.60959 250.62943 239.94127 230.07411 221.18896 213.38180 206.39464
 200.23948 195.18833 191.78117 189.83401 188.88186 188.95670 189.80254 191.12138
 192.85723 194.96307 197.23691 199.60676 202.06260 204.55344 206.65228 208.50513
 210.14197 211.29781 211.53766 211.77650 211.72434 211.44018 211.08403 210.72487
 210.35271 210.07355 209.89240 209.76724 209.70608 210.04793 210.44477 210.84461
 211.64845 212.83730 214.09814 215.89198 217.83083 219.88467 221.99051 224.08435
 226.15520 228.25004 230.35788 232.47472 234.61457 236.79741 239.06425 241.44510
 244.07694 246.33878 248.35162 250.12747 251.55531 252.68915 253.52200 253.84884
 253.89668 253.68152 253.05237 252.01121 250.62805 248.79990 246.71974 244.56358
 242.36542 240.18027 238.01111 235.86095 233.73179 231.60964 229.64648 227.81432
 226.10817 224.59101 223.23185 222.01469 220.90754 219.87838 218.99322 218.14507
 217.39791 216.58875 215.69759 215.07244 214.53328 214.13696 213.12730 212.17557
 211.66069 211.94765 213.59962 215.65904 218.28880 222.28610 227.79501 232.39786
 236.10701 240.30696 244.73308 249.09917 253.13387 256.54825 259.31979 261.86465
 265.01697 267.80750 270.09927 271.95084 274.22495 276.14453 277.86502 279.62262
 281.54858 283.44064 285.17407 286.69617 288.01340 289.17880 290.24210 291.20532
 292.07166 292.84314 293.51709 294.37595
 366.78100 356.34929 345.79559 334.67588 323.09318 311.30147 299.18577 287.00306
 274.72936 262.64065 250.66394 239.97924 230.11553 221.23383 213.43012 206.44642
 200.29471 195.24701 191.84330 189.89960 188.95089 189.02918 189.87848 191.20077
 192.94007 195.04936 197.32666 199.69995 202.15925 204.65354 206.75583 208.61213
 210.25242 211.41172 211.65501 211.89731 211.84860 211.56790 211.21519 210.85948
 210.49078 210.21507 210.03737 209.91566 209.85796 210.20325 210.60355 211.00684
 211.81414 213.00643 214.27072 216.06802 218.01031 220.06761 222.17690 224.27420
 226.34849 228.44679 230.55808 232.67837 234.82167 237.00796 239.27826 241.66255
 244.29785 246.56314 248.57944 250.35873 251.79002 252.92732 253.76361 254.09391
 254.14520 253.93350 253.30779 252.27009 250.89038 249.06568 246.98897 244.83626
 242.64156 240.45985 238.29415 236.14744 234.02174 231.90303 229.94333 228.11462
 226.41191 224.89821 223.54250 222.32880 221.22509 220.19939 219.31768 218.47298
 217.72927 216.92357 216.03586 215.41415 214.87845 214.31450 212.98787 212.16507
 211.88458 212.10538 213.44606 215.44223 218.21385 222.31018 227.59677 232.30699
 236.01965 240.24954 244.70570 249.09198 253.11562 256.52322 259.34946 262.03192
 264.89423 267.65369 269.95370 271.99057 274.17160 276.14957 278.04004 279.92120
 281.69296 283.33508 284.84155 286.23459 287.49405 288.60837 289.62500 290.54602
 291.37436 292.11200 292.75638 293.57761
 366.78100 356.34699 345.79099 334.66898 323.08397 311.28997 299.17196 286.98695
 274.71095 262.61994 250.64093 239.95392 230.08792 221.20391 213.39790 206.41190
 200.25789 195.20788 191.80188 189.85587 188.90486 188.98086 189.82785 191.14784
 192.88484 194.99183 197.26682 199.63782 202.09481 204.58680 206.68679 208.54079
 210.17878 211.33577 211.57677 211.81676 211.76575 211.48275 211.12774 210.76973
 210.39873 210.12072 209.94071 209.81671 209.75670 210.09969 210.49769 210.89868
 211.70367 212.89366 214.15566 215.95065 217.89064 219.94564 222.05263 224.14762
 226.21962 228.31561 230.42460 232.54260 234.68359 236.86758 239.13558 241.51757
 244.15056 246.41356 248.42755 250.20454 251.63353 252.76853 253.60252 253.93051
 253.97951 253.76550 253.13749 252.09749 250.71548 248.88847 246.80947 244.65446
 242.45745 240.27345 238.10544 235.95643 233.82842 231.70742 229.74541 227.91440
 226.20940 224.69339 223.33538 222.11938 221.01337 219.98536 219.10136 218.25435
 217.50834 216.70034 215.81033 215.18632 214.64832 214.19087 213.10371 212.21867
 211.76552 212.04378 213.34395 215.35271 218.12189 222.17157 227.49318 232.12350
 235.95638 240.17064 244.60751 248.95404 252.93472 256.35883 259.27167 261.97830
 264.74329 267.51346 269.86853 271.99881 274.09317 276.02908 277.99359 279.84521
 281.52316 282.98712 284.24957 285.41782 286.44711 287.45349 288.42911 289.35675
 290.19107 290.93402 291.58307 292.41019
 366.78100 356.34423 345.78546 334.66069 323.07292 311.27615 299.15537 286.96760
 274.68883 262.59506 250.61329 239.92352 230.05475 221.16798 213.35921 206.37044
 200.21366 195.16089 191.75212 189.80335 188.84958 188.92281 189.76704 191.08427
 192.81850 194.92273 197.19495 199.56318 202.01741 204.50664 206.60387 208.45510
 210.09033 211.24456 211.48279 211.72002 211.66624 211.38047 211.02270 210.66193
 210.28816 210.00739 209.82462 209.69785 209.63508 209.97531 210.37054 210.76876
 211.57099 212.75822 214.01745 215.80968 217.74691 219.79914 221.90337 223.99560
 226.06483 228.15805 230.26428 232.37951 234.51774 236.69897 238.96420 241.34343
 243.97366 246.23389 248.24512 250.01934 251.44557 252.57780 253.40903 253.73426
 253.78049 253.56372 252.93295 251.89018 250.50541 248.67563 246.59386 244.43609
 242.23632 240.04955 237.87878 235.72701 233.59624 231.47247 229.50770 227.67393
 225.96615 224.44738 223.08661 221.86784 220.75907 219.72830 218.84153 217.99176
 217.24299 216.43222 215.53944 214.91267 214.37190 214.03880 213.24739 212.41234
 211.64229 211.95609 213.42632 215.48167 218.19875 222.18387 227.51790 231.99644
 235.88397 240.08646 244.53828 248.87265 252.83240 256.24039 259.16223 261.88831
 264.65292 267.43454 269.86267 271.96106 274.04770 276.00253 277.95505 279.86548
 281.58432 283.04510 284.23038 285.30701 286.22754 286.93851 287.62360 288.43445
 289.23914 290.02563 290.71268 291.58826
 366.78100 356.34454 345.78607 334.66161 323.07414 311.27768 299.15721 286.96975
 274.69128 262.59782 250.61635 239.92689 230.05842 221.17196 213.36349 206.37503
 200.21856 195.16610 191.75763 189.80917 188.85571 188.92924 189.77378 191.09131
 192.82585 194.93038 197.20292 199.57145 202.02599 204.51552 206.61306 208.46459
 210.10013 211.25466 211.49320 211.73073 211.67727 211.39180 211.03434 210.67388
 210.30041 210.01995 209.83748 209.71102 209.64855 209.98909 210.38462 210.78316
 211.58569 212.77323 214.03276 215.82530 217.76283 219.81537 221.91990 224.01244
 226.08198 228.17551 230.28205 232.39758 234.53612 236.71765 238.98319 241.36272
 243.99326 246.25379 248.26533 250.03986 251.46640 252.59893 253.43047 253.75600
 253.80254 253.58607 252.95561 251.91315 250.52868 248.69922 246.61775 244.46029
 242.26082 240.07436 237.90389 235.75243 233.62196 231.49850 229.53403 227.70057
 225.99310 224.47464 223.11417 221.89571 220.78724 219.75678 218.87032 218.02085
 217.27239 216.46192 215.56946 214.94299 214.40253 214.06271 213.25807 212.47105
 211.56898 211.84866 213.46590 215.61295 218.36569 222.29889 227.58708 231.98561
 235.84879 240.03851 244.48805 248.79929 252.72855 256.11185 259.04449 261.82095
 264.59921 267.32074 269.78726 271.96017 274.00168 275.95139 277.95847 279.89499
 281.62555 283.07883 284.19742 285.22299 286.12256 286.82544 287.38336 288.20767
 288.99738 289.75226 290.44019 291.31689
 366.78100 356.34565 345.78829 334.66494 323.07859 311.28324 299.16388 286.97753
 274.70018 262.60783 250.62747 239.93912 230.07177 221.18642 213.37906 206.39171
 200.23636 195.18501 191.77765 189.83030 188.87795 188.95260 189.79824 191.11689
 192.85254 194.95819 197.23183 199.60148 202.05713 204.54778 206.64642 208.49907
 210.13572 211.29137 211.53101 211.76966 211.71731 211.43296 211.07660 210.71725
 210.34490 210.06555 209.88419 209.75884 209.69749 210.03914 210.43578 210.83543
 211.63908 212.82773 214.08837 215.88202 217.82067 219.87432 221.97996 224.07361
 226.14426 228.23891 230.34655 232.46320 234.60285 236.78550 239.05214 241.43279
 244.06444 246.32609 248.33873 250.11438 251.54203 252.67568 253.50832 253.83497
 253.88262 253.66727 253.03791 251.99656 250.61321 248.78486 246.70450 244.54815
 242.34980 240.16445 237.99509 235.84474 233.71539 231.59304 229.62968 227.79733
 226.09098 224.57363 223.21427 221.99692 220.88957 219.86022 218.97486 218.12651
 217.37916 216.56981 215.67845 215.05310 214.51375 214.13416 213.23640 212.48361
 211.70816 211.74382 213.34480 215.60149 218.41328 222.35583 227.63832 232.03960
 235.82655 240.01736 244.45233 248.74303 252.64610 256.01981 258.97070 261.77802
 264.56116 267.24225 269.71442 271.93781 273.95944 275.90363 277.94431 279.86237
 281.55478 282.94632 284.02176 285.06363 285.92929 286.62817 287.33240 288.19089
 288.97745 289.71326 290.37158 291.21054
 366.78100 356.34404 345.78508 334.66012 323.07216 311.27521 299.15425 286.96629
 274.68733 262.59337 250.61141 239.92145 230.05249 221.16554 213.35658 206.36762
 200.21066 195.15770 191.74874 189.79978 188.84582 188.91886 189.76291 191.07995
 192.81399 194.91803 197.19007 199.55811 202.01215 204.50119 206.59824 208.44928
 210.08432 211.23836 211.47640 211.71344 211.65948 211.37352 211.01557 210.65461
 210.28065 209.99969 209.81673 209.68977 209.62681 209.96685 210.36189 210.75994
 211.56198 212.74902 214.00806 215.80010 217.73714 219.78918 221.89322 223.98527
 226.05431 228.14735 230.25339 232.36843 234.50647 236.68751 238.95255 241.33159
 243.96164 246.22168 248.23272 250.00676 251.43280 252.56484 253.39588 253.72092
 253.76697 253.55001 252.91905 251.87609 250.49113 248.66117 246.57921 244.42125
 242.22130 240.03434 237.86338 235.71142 233.58046 231.45650 229.49154 227.65758
 225.94962 224.43067 223.06971 221.85075 220.74179 219.71083 218.82387 217.97391
 217.22495 216.41400 215.52104 214.89408 214.35312 214.07225 213.39632 212.39825
 211.76328 211.80849 213.28505 215.53439 218.36014 222.33081 227.61159 232.08092
 235.79100 240.00801 244.42937 248.70976 252.59587 255.97310 258.94699 261.76041
 264.53949 267.24219 269.69800 271.91742 273.91907 275.84802 277.85501 279.74857
 281.40350 282.74582 283.83057 284.89679 285.76279 286.46967 287.35010 288.21597
 289.03329 289.77820 290.42892 291.25818
 366.78100 356.34166 345.78031 334.65297 323.06263 311.26328 299.13994 286.94959
 274.66825 262.57191 250.58756 239.89522 230.02388 221.13453 213.32319 206.33185
 200.17250 195.11716 191.70582 189.75447 188.79813 188.86878 189.71044 191.02510
 192.75675 194.85841 197.12807 199.49372 201.94538 204.43204 206.52669 208.37535
 210.00800 211.15966 211.39532 211.62997 211.57363 211.28529 210.92494 210.56160
 210.18526 209.90191 209.71657 209.58722 209.52188 209.85954 210.25219 210.64785
 211.44751 212.63216 213.88882 215.67848 217.61313 219.66279 221.76445 223.85410
 225.92076 228.01141 230.11507 232.22773 234.36338 236.54204 238.80470 241.18135
 243.80901 246.06667 248.07532 249.84698 251.27063 252.40029 253.22895 253.55160
 253.59526 253.37592 252.74257 251.69723 250.30989 248.47754 246.39320 244.23286
 242.03051 239.84117 237.66782 235.51348 233.38014 231.25379 229.28645 227.45011
 225.73976 224.21842 222.85508 221.63373 220.52239 219.48904 218.59970 217.74736
 216.99601 216.18267 215.28733 214.65798 214.11464 213.97691 213.58882 212.36354
 211.58604 211.70180 213.31683 215.64481 218.47615 222.36845 227.56395 232.07649
 235.76613 240.00058 244.41681 248.68738 252.55672 255.92603 258.91052 261.72043
 264.49838 267.23160 269.70605 271.94452 273.87726 275.68671 277.70129 279.58286
 281.19022 282.51129 283.68039 284.66397 285.57217 286.56131 287.52130 288.39410
 289.17908 289.87808 290.48874 291.26694
 366.78100 356.34288 345.78277 334.65665 323.06754 311.26942 299.14730 286.95819
 274.67807 262.58296 250.59984 239.90872 230.03861 221.15049 213.34038 206.35026
 200.19214 195.13803 191.72791 189.77780 188.82268 188.89456 189.73745 191.05333
 192.78622 194.88910 197.15998 199.52687 201.97975 204.46763 206.56352 208.41340
 210.04729 211.20017 211.43705 211.67294 211.61782 211.33071 210.97159 210.60947
 210.23436 209.95224 209.76813 209.64001 209.57589 209.91478 210.30866 210.70555
 211.50643 212.69231 213.95020 215.74108 217.67697 219.72785 221.83073 223.92162
 225.98950 228.08139 230.18627 232.30015 234.43704 236.61692 238.88081 241.25869
 243.88757 246.14646 248.15634 249.92923 251.35411 252.48499 253.31488 253.63876
 253.68365 253.46553 252.83341 251.78930 250.40318 248.57207 246.48895 244.32983
 242.12872 239.94060 237.76848 235.61537 233.48325 231.35814 229.39202 227.55690
 225.84779 224.32767 222.96556 221.74544 220.63532 219.60321 218.71509 217.86398
 217.11386 216.30174 215.40763 214.77951 214.23740 214.07016 213.56233 212.39053
 211.66760 211.90216 213.55783 215.84019 218.61272 222.42149 227.55980 231.96707
 235.70277 239.96870 244.40747 248.68185 252.52699 255.87866 258.87497 261.70059
 264.46692 267.21915 269.75241 271.94461 273.78629 275.59891 277.60498 279.42038
 280.97055 282.29068 283.45435 284.78094 285.97418 287.02991 287.99307 288.86563
 289.65042 290.34927 290.95978 291.73779
 366.78100 356.34615 345.78931 334.66646 323.08061 311.28577 299.16692 286.98107
 274.70423 262.61238 250.63253 239.94469 230.07784 221.19299 213.38615 206.39930
 200.24445 195.19361 191.78676 189.83991 188.88807 188.96322 189.80937 191.12853
 192.86468 194.97083 197.24499 199.61514 202.07129 204.56245 206.66160 208.51475
 210.15191 211.30806 211.54821 211.78737 211.73552 211.45167 211.09583 210.73698
 210.36513 210.08629 209.90544 209.78059 209.71975 210.06190 210.45905 210.85921
 211.66336 212.85251 214.11367 215.90782 217.84697 219.90113 222.00728 224.10143
 226.17259 228.26774 230.37589 232.49305 234.63320 236.81635 239.08351 241.46466
 244.09681 246.35897 248.37212 250.14827 251.57643 252.71058 253.54373 253.87089
 253.91904 253.70419 253.07534 252.03450 250.65165 248.82380 246.74396 244.58811
 242.39026 240.20542 238.03657 235.88672 233.75788 231.63603 229.67318 227.84134
 226.13549 224.61864 223.25980 222.04295 220.93610 219.90726 219.02241 218.17456
 217.42772 216.61887 215.72802 215.10318 214.56433 214.24928 213.44402 212.48180
 211.75858 211.98380 213.56709 215.81894 218.55946 222.38747 227.48466 231.90651
 235.65833 239.94498 244.39207 248.65759 252.50249 255.88553 258.93738 261.79501
 264.49158 267.23767 269.79520 271.94107 273.71133 275.57831 277.55594 279.30460
 280.82819 282.23355 283.81018 285.24896 286.49411 287.59576 288.60086 289.51138
 290.33032 291.05957 291.69666 292.50851
 366.78100 356.34723 345.79146 334.66969 323.08492 311.29115 299.17338 286.98860
 274.71283 262.62206 250.64329 239.95652 230.09075 221.20698 213.40121 206.41544
 200.26167 195.21190 191.80613 189.86035 188.90958 188.98581 189.83304 191.15327
 192.89050 194.99773 197.27296 199.64419 202.10142 204.59365 206.69388 208.54811
 210.18633 211.34356 211.58479 211.82502 211.77425 211.49148 211.13671 210.77894
 210.40817 210.13040 209.95063 209.82686 209.76709 210.11031 210.50854 210.90977
 211.71500 212.90523 214.16746 215.96269 217.90292 219.95815 222.06538 224.16061
 226.23284 228.32906 230.43829 232.55652 234.69775 236.88198 239.15021 241.53244
 244.16567 246.42890 248.44313 250.22036 251.64959 252.78482 253.61904 253.94727
 253.99650 253.78273 253.15496 252.11519 250.73342 248.90665 246.82788 244.67311
 242.47634 240.29257 238.12480 235.97602 233.84825 231.72748 229.76571 227.93494
 226.23017 224.71440 223.35663 222.14086 221.03509 220.00732 219.12355 218.27677
 217.53100 216.72323 215.83346 215.20969 214.67192 214.29941 213.40361 212.60229
 211.86404 211.94829 213.43771 215.71165 218.51944 222.37422 227.34509 231.82460
 235.58797 239.89688 244.34781 248.60181 252.43768 255.85252 258.96655 261.87738
 264.59125 267.24286 269.81479 271.93286 273.71869 275.61725 277.54877 279.29086
 280.83145 282.19110 283.71674 285.15298 286.41403 287.52979 288.54770 289.46988
 290.29929 291.03784 291.68307 292.50531
 366.78100 356.34652 345.79004 334.66756 323.08208 311.28760 299.16913 286.98365
 274.70717 262.61569 250.63621 239.94873 230.08225 221.19777 213.39129 206.40481
 200.25033 195.19986 191.79338 189.84690 188.89542 188.97094 189.81746 191.13698
 192.87350 194.98002 197.25454 199.62506 202.08159 204.57311 206.67263 208.52615
 210.16367 211.32019 211.56071 211.80023 211.74875 211.46527 211.10979 210.75131
 210.37984 210.10136 209.92088 209.79640 209.73592 210.07844 210.47596 210.87648
 211.68100 212.87052 214.13204 215.92657 217.86609 219.92061 222.02713 224.12165
 226.19317 228.28869 230.39721 232.51473 234.65525 236.83877 239.10630 241.48782
 244.12034 246.38286 248.39638 250.17290 251.60142 252.73594 253.56946 253.89698
 253.94550 253.73103 253.10255 252.06207 250.67959 248.85211 246.77263 244.61715
 242.41967 240.23519 238.06671 235.91723 233.78876 231.66728 229.70480 227.87332
 226.16784 224.65136 223.29288 222.07640 220.96992 219.94144 219.05696 218.20949
 217.46301 216.65453 215.76405 215.13957 214.60109 214.26547 213.44693 212.66217
 211.99136 211.96187 213.37393 215.64291 218.45882 222.32297 227.26454 231.74701
 235.51109 239.82771 244.27473 248.50298 252.30049 255.71545 258.87656 261.85101
 264.60492 267.24139 269.78256 271.90237 273.67807 275.63214 277.53900 279.23813
 280.76392 282.10483 283.57532 285.00040 286.25171 287.35883 288.36890 289.28397
 290.10696 290.83984 291.48007 292.29596
 366.78100 356.34573 345.78845 334.66518 323.07891 311.28363 299.16436 286.97808
 274.70081 262.60854 250.62826 239.93999 230.07272 221.18744 213.38017 206.39290
 200.23762 195.18635 191.77907 189.83180 188.87953 188.95425 189.79998 191.11871
 192.85443 194.96016 197.23389 199.60361 202.05934 204.55006 206.64879 208.50152
 210.13824 211.29397 211.53370 211.77242 211.72015 211.43588 211.07960 210.72033
 210.34805 210.06878 209.88751 209.76223 209.70096 210.04269 210.43941 210.83914
 211.64287 212.83159 214.09232 215.88604 217.82477 219.87850 221.98422 224.07795
 226.14868 228.24340 230.35113 232.46786 234.60758 236.79031 239.05703 241.43776
 244.06949 246.33121 248.34394 250.11967 251.54739 252.68112 253.51385 253.84057
 253.88830 253.67302 253.04375 252.00248 250.61920 248.79093 246.71066 244.55438
 242.35611 240.17084 238.00156 235.85129 233.72202 231.59974 229.63647 227.80419
 226.09792 224.58065 223.22137 222.00410 220.89683 219.86755 218.98228 218.13401
 217.38673 216.57746 215.68618 215.06091 214.52164 214.23854 213.51022 212.67088
 212.05357 212.00575 213.39502 215.64316 218.40958 222.26602 227.25658 231.71172
 235.48135 239.78590 244.22052 248.43550 252.23447 255.67514 258.88843 261.91269
 264.69638 267.23239 269.74979 271.86438 273.69479 275.67648 277.53964 279.18417
 280.65442 282.20853 283.87613 285.39780 286.71469 287.87979 288.94275 289.90573
 290.77185 291.54309 292.21686 293.07550
 366.78100 356.34472 345.78644 334.66215 323.07487 311.27859 299.15831 286.97103
 274.69274 262.59946 250.61818 239.92890 230.06062 221.17433 213.36605 206.37777
 200.22149 195.16921 191.76093 189.81264 188.85936 188.93308 189.77780 191.09552
 192.83023 194.93495 197.20767 199.57639 202.03111 204.52082 206.61854 208.47026
 210.10598 211.26070 211.49941 211.73713 211.68385 211.39857 211.04129 210.68100
 210.30772 210.02744 209.84516 209.71888 209.65660 209.99731 210.39303 210.79175
 211.59447 212.78219 214.04190 215.83462 217.77234 219.82506 221.92978 224.02249
 226.09221 228.18593 230.29265 232.40837 234.54708 236.72880 238.99452 241.37424
 244.00496 246.26567 248.27739 250.05211 251.47883 252.61155 253.44326 253.76898
 253.81570 253.59942 252.96914 251.92686 250.54257 248.71329 246.63201 244.47473
 242.27545 240.08916 237.91888 235.76760 233.63732 231.51404 229.54975 227.71647
 226.00919 224.49091 223.13063 221.91234 220.80406 219.77378 218.88750 218.03822
 217.28993 216.47965 215.58737 214.96109 214.42081 214.19221 213.57877 212.73857
 212.05363 211.97154 213.37767 215.62534 218.35480 222.21753 227.22679 231.66104
 235.43393 239.74840 244.19197 248.40373 252.19563 255.64856 258.91129 262.01620
 264.84454 267.36749 269.77991 272.01221 274.05502 275.93991 277.66599 279.25760
 280.62585 282.33377 284.11484 285.71790 287.10522 288.33264 289.45248 290.46698
 291.37939 292.19193 292.90170 293.80627
 366.78100 356.34425 345.78551 334.66076 323.07301 311.27627 299.15552 286.96777
 274.68903 262.59528 250.61353 239.92378 230.05504 221.16829 213.35954 206.37080
 200.21405 195.16130 191.75256 189.80381 188.85006 188.92332 189.76757 191.08482
 192.81908 194.92333 197.19558 199.56383 202.01809 204.50734 206.60459 208.45585
 210.09110 211.24535 211.48361 211.72086 211.66711 211.38137 211.02362 210.66287
 210.28913 210.00838 209.82563 209.69888 209.63614 209.97639 210.37164 210.76990
 211.57215 212.75940 214.01866 215.81091 217.74816 219.80042 221.90467 223.99692
 226.06618 228.15943 230.26568 232.38093 234.51919 236.70044 238.96569 241.34495
 243.97520 246.23545 248.24671 250.02096 251.44721 252.57947 253.41072 253.73597
 253.78223 253.56548 252.93473 251.89199 250.50724 248.67749 246.59574 244.43800
 242.23825 240.05150 237.88076 235.72901 233.59826 231.47452 229.50977 227.67602
 225.96828 224.44953 223.08878 221.87004 220.76129 219.73054 218.84379 217.99405
 217.24530 216.43455 215.54181 214.91506 214.37431 214.15550 213.59612 212.84489
 212.05678 211.88426 213.31126 215.60278 218.38297 222.21413 227.14264 231.59822
 235.35359 239.67899 244.12132 248.31056 252.06470 255.50568 258.76865 261.84497
 264.67123 267.29001 269.75739 272.01868 274.24548 276.33414 278.21790 279.91833
 281.36874 282.70572 284.23141 285.72641 287.06003 288.23993 289.31641 290.29163
 291.16873 291.94980 292.63214 293.50168
 366.78100 356.34487 345.78674 334.66262 323.07549 311.27936 299.15923 286.97211
 274.69398 262.60085 250.61972 239.93060 230.06247 221.17634 213.36821 206.38009
 200.22396 195.17183 191.76370 189.81557 188.86245 188.93632 189.78119 191.09906
 192.83394 194.93881 197.21168 199.58055 202.03543 204.52530 206.62317 208.47504
 210.11091 211.26579 211.50466 211.74253 211.68940 211.40428 211.04715 210.68702
 210.31389 210.03377 209.85164 209.72551 209.66338 210.00426 210.40013 210.79900
 211.60187 212.78974 214.04962 215.84249 217.78036 219.83323 221.93811 224.03098
 226.10085 228.19472 230.30160 232.41747 234.55634 236.73821 239.00408 241.38396
 244.01483 246.27570 248.28757 250.06245 251.48932 252.62219 253.45406 253.77994
 253.82681 253.61068 252.98055 251.93843 250.55430 248.72517 246.64404 244.48691
 242.28779 240.10166 237.93153 235.78040 233.65028 231.52715 229.56302 227.72989
 226.02277 224.50464 223.14451 221.92638 220.81825 219.78813 218.90200 218.05287
 217.30474 216.49462 215.60249 214.97636 214.43623 214.17577 213.54523 212.88373
 212.05701 211.73886 213.23584 215.68350 218.47823 222.23076 227.15521 231.58258
 235.34616 239.63600 244.04237 248.18658 251.89812 255.33455 258.60916 261.69650
 264.52112 267.19211 269.65164 271.63007 273.78445 276.06061 278.13120 279.94437
 281.51727 282.93613 284.24564 285.40808 286.40002 287.27863 288.08020 288.80640
 289.45950 290.04111 290.54919 291.19669
 366.78100 356.34586 345.78871 334.66557 323.07943 311.28428 299.16514 286.97900
 274.70186 262.60971 250.62957 239.94143 230.07428 221.18914 213.38200 206.39485
 200.23971 195.18857 191.78143 189.83428 188.88214 188.95700 189.80285 191.12171
 192.85757 194.96342 197.23728 199.60714 202.06300 204.55385 206.65271 208.50557
 210.14242 211.29828 211.53814 211.77699 211.72485 211.44071 211.08457 210.72542
 210.35328 210.07414 209.89299 209.76785 209.70671 210.04856 210.44542 210.84528
 211.64914 212.83799 214.09885 215.89271 217.83156 219.88542 221.99128 224.08513
 226.15599 228.25085 230.35871 232.47556 234.61542 236.79828 239.06513 241.44599
 244.07785 246.33970 248.35256 250.12842 251.55627 252.69013 253.52299 253.84985
 253.89770 253.68256 253.05342 252.01227 250.62913 248.80099 246.72084 244.56470
 242.36656 240.18142 238.01227 235.86213 233.73299 231.61084 229.64770 227.81556
 226.10941 224.59227 223.23313 222.01599 220.90884 219.87970 218.99456 218.14641
 217.39927 216.59013 215.69898 215.07384 214.53470 214.23671 213.52159 212.86116
 212.07201 211.85573 213.33025 215.77084 218.59247 222.31313 227.21339 231.56969
 235.33086 239.62260 244.02928 248.15448 251.80742 255.22874 258.55145 261.68185
 264.52667 267.16577 269.59390 271.53506 273.38959 275.68967 277.71304 279.42001
 281.05942 282.61691 283.94452 285.04755 286.20761 287.23495 288.17224 289.02136
 289.78503 290.46512 291.05920 291.81631
 366.78100 356.34605 345.78910 334.66616 323.08021 311.28526 299.16631 286.98037
 274.70342 262.61147 250.63152 239.94358 230.07663 221.19168 213.38473 206.39778
 200.24284 195.19189 191.78494 189.83799 188.88605 188.96110 189.80715 191.12620
 192.86226 194.96831 197.24236 199.61241 202.06846 204.55952 206.65857 208.51162
 210.14867 211.30473 211.54478 211.78383 211.73188 211.44794 211.09199 210.73304
 210.36109 210.08214 209.90120 209.77625 209.71530 210.05735 210.45441 210.85446
 211.65851 212.84756 214.10861 215.90267 217.84172 219.89577 222.00182 224.09588
 226.16693 228.26198 230.37003 232.48709 234.62714 236.81019 239.07724 241.45829
 244.09035 246.35240 248.36545 250.14150 251.56956 252.70361 253.53666 253.86371
 253.91177 253.69682 253.06787 252.02692 250.64397 248.81603 246.73608 244.58013
 242.38218 240.19724 238.02829 235.87834 233.74939 231.62745 229.66450 227.83255
 226.12660 224.60965 223.25071 222.03376 220.92681 219.89786 219.01292 218.16497
 217.41802 216.60907 215.71813 215.09318 214.55423 214.28288 213.57559 212.77567
 212.14381 212.10555 213.44435 215.75659 218.51294 222.24931 227.22937 231.57216
 235.32504 239.59402 243.95665 248.02469 251.68567 255.15051 258.51306 261.68466
 264.51926 267.17676 269.55481 271.48380 273.39255 275.49866 277.41544 279.15573
 280.69717 282.39340 284.02603 285.45959 286.70023 287.79788 288.79932 289.70654
 290.52249 291.24911 291.88385 292.69278
 366.78100 356.34483 345.78666 334.66249 323.07532 311.27915 299.15899 286.97182
 274.69365 262.60048 250.61931 239.93014 230.06197 221.17580 213.36763 206.37946
 200.22330 195.17113 191.76296 189.81479 188.86162 188.93545 189.78028 191.09811
 192.83294 194.93777 197.21061 199.57944 202.03427 204.52410 206.62193 208.47376
 210.10959 211.26442 211.50325 211.74108 211.68792 211.40275 211.04558 210.68541
 210.31224 210.03207 209.84990 209.72373 209.66156 210.00239 210.39823 210.79706
 211.59989 212.78772 214.04755 215.84038 217.77821 219.83104 221.93587 224.02870
 226.09854 228.19237 230.29920 232.41503 234.55386 236.73569 239.00152 241.38135
 244.01218 246.27301 248.28484 250.05968 251.48651 252.61934 253.45117 253.77700
 253.82383 253.60766 252.97749 251.93532 250.55115 248.72199 246.64082 244.48365
 242.28448 240.09831 237.92814 235.77697 233.64680 231.52363 229.55946 227.72630
 226.01913 224.50096 223.14079 221.92262 220.81445 219.78428 218.89811 218.04894
 217.30077 216.49061 215.59844 214.97227 214.43210 214.26425 213.65605 212.68964
 212.15955 212.13733 213.35165 215.75783 218.57082 222.22963 227.20717 231.56682
 235.33095 239.60004 243.97012 248.05016 251.69258 255.16495 258.53015 261.69791
 264.58783 267.17282 269.53787 271.45868 273.35254 275.33963 276.95367 278.67953
 281.03918 283.08728 284.85956 286.41574 287.76248 288.95401 290.04111 291.02594
 291.91168 292.70044 293.38947 294.26758
 366.78100 356.34501 345.78702 334.66302 323.07603 311.28004 299.16005 286.97306
 274.69507 262.60207 250.62108 239.93209 230.06410 221.17811 213.37011 206.38212
 200.22613 195.17414 191.76615 189.81815 188.86516 188.93917 189.78418 191.10219
 192.83720 194.94220 197.21521 199.58422 202.03923 204.52924 206.62724 208.47925
 210.11526 211.27027 211.50928 211.74728 211.69429 211.40930 211.05231 210.69232
 210.31933 210.03933 209.85734 209.73135 209.66936 210.01037 210.40637 210.80538
 211.60839 212.79640 214.05641 215.84942 217.78742 219.84043 221.94544 224.03845
 226.10846 228.20246 230.30947 232.42548 234.56449 236.74650 239.01250 241.39251
 244.02352 246.28453 248.29654 250.07155 251.49855 252.63156 253.46357 253.78958
 253.83659 253.62059 252.99060 251.94861 250.56462 248.73563 246.65463 244.49764
 242.29865 240.11266 237.94267 235.79168 233.66168 231.53869 229.57470 227.74171
 226.03472 224.51672 223.15673 221.93874 220.83075 219.80076 218.91477 218.06577
 217.31778 216.50779 215.61580 214.98981 214.44981 214.27568 213.66460 212.70204
 212.27991 212.10936 213.15045 215.53877 218.46664 222.25797 227.17339 231.60205
 235.38553 239.67665 244.05321 248.13136 251.79677 255.30557 258.71631 261.87814
 264.69757 267.21417 269.51547 271.43198 273.30493 275.08099 276.71478 278.47443
 280.50510 282.51495 284.25418 285.78131 287.10294 288.27222 289.33902 290.30548
 291.17468 291.94873 292.62491 293.48663
 366.78100 356.34600 345.78900 334.66600 323.08000 311.28500 299.16600 286.98000
 274.70300 262.61100 250.63100 239.94300 230.07600 221.19100 213.38400 206.39700
 200.24200 195.19100 191.78400 189.83700 188.88500 188.96000 189.80600 191.12500
 192.86100 194.96700 197.24099 199.61099 202.06699 204.55799 206.65699 208.50999
 210.14699 211.30299 211.54299 211.78199 211.72999 211.44599 211.08999 210.73099
 210.35899 210.07999 209.89899 209.77399 209.71299 210.05499 210.45199 210.85199
 211.65599 212.84499 214.10599 215.89999 217.83899 219.89299 221.99899 224.09299
 226.16399 228.25899 230.36699 232.48399 234.62399 236.80699 239.07399 241.45499
 244.08699 246.34899 248.36199 250.13799 251.56599 252.69999 253.53299 253.85999
 253.90799 253.69299 253.06399 252.02299 250.63999 248.81199 246.73198 244.57598
 242.37798 240.19298 238.02398 235.87398 233.74498 231.62298 229.65998 227.82798
 226.12198 224.60498 223.24598 222.02898 220.92198 219.89298 219.00798 218.15998
 217.41298 216.60398 215.71298 215.08798 214.54898 214.29572 213.61978 212.76598
 212.44708 212.28181 213.13225 215.26926 218.27119 222.22171 226.93260 231.55151
 235.31216 239.58078 243.89413 247.94539 251.68263 255.26511 258.70773 261.89276
 264.78174 267.36197 269.65344 271.72623 273.56802 275.31458 276.87640 278.26755
 279.62836 280.80869 282.43622 284.03525 285.41910 286.64343 287.76047 288.77243
 289.68256 290.49304 291.20105 292.10336
 366.78100 356.34539 345.78777 334.66416 323.07754 311.28193 299.16231 286.97570
 274.69808 262.60547 250.62485 239.93624 230.06862 221.18301 213.37539 206.38778
 200.23216 195.18055 191.77293 189.82532 188.87270 188.94709 189.79247 191.11086
 192.84624 194.95163 197.22501 199.59440 202.04979 204.54017 206.63856 208.49094
 210.12733 211.28271 211.52210 211.76048 211.70787 211.42325 211.06664 210.70702
 210.33441 210.05479 209.87318 209.74756 209.68595 210.02733 210.42372 210.82310
 211.62649 212.81487 214.07526 215.86864 217.80703 219.86041 221.96580 224.05919
 226.12957 228.22396 230.33134 232.44773 234.58711 236.76950 239.03588 241.41627
 244.04765 246.30904 248.32142 250.09681 251.52419 252.65758 253.48996 253.81635
 253.86373 253.64812 253.01850 251.97689 250.59327 248.76466 246.68404 244.52743
 242.32881 240.14320 237.97359 235.82297 233.69336 231.57074 229.60713 227.77451
 226.06790 224.55028 223.19067 221.97305 220.86544 219.83582 218.95021 218.10159
 217.35398 216.54436 215.65275 215.02713 214.48752 214.23682 213.61900 212.82730
 212.43716 212.32167 213.07883 215.12511 218.14148 222.07660 226.93137 231.38683
 235.21327 239.39732 243.63733 247.64600 251.39093 254.99538 258.44797 261.67593
 264.65976 267.35074 269.73721 271.82074 273.73032 275.49521 277.08020 278.48773
 279.70901 280.80542 281.88364 282.68991 283.79837 284.90265 285.98666 286.96872
 287.85199 288.63852 289.32562 290.20126
 366.78100 356.34364 345.78427 334.65891 323.07054 311.27318 299.15181 286.96345
 274.68409 262.58972 250.60736 239.91699 230.04763 221.16026 213.35090 206.36154
 200.20417 195.15081 191.74144 189.79208 188.83772 188.91035 189.75399 191.07062
 192.80426 194.90789 197.17953 199.54717 202.00080 204.48944 206.58607 208.43671
 210.07134 211.22498 211.46262 211.69925 211.64489 211.35852 211.00016 210.63879
 210.26443 209.98307 209.79970 209.67234 209.60897 209.94861 210.34325 210.74088
 211.54252 212.72915 213.98779 215.77942 217.71606 219.76770 221.87133 223.96297
 226.03160 228.12424 230.22987 232.34451 234.48215 236.66278 238.92742 241.30605
 243.93569 246.19532 248.20596 249.97960 251.40523 252.53687 253.36750 253.69214
 253.73777 253.52041 252.88905 251.84568 250.46032 248.62995 246.54759 244.38923
 242.18886 240.00150 237.83013 235.67777 233.54640 231.42204 229.45668 227.62231
 225.91395 224.39458 223.03322 221.81385 220.70449 219.67313 218.78576 217.93540
 217.18603 216.37467 215.48130 214.85394 214.31258 214.14151 213.71649 212.82899
 212.40108 212.33817 213.12253 215.10358 218.12190 222.07829 227.03238 231.35832
 235.22464 239.36682 243.57341 247.52254 251.20930 254.78767 258.30698 261.60403
 264.54965 267.25812 269.72702 271.89511 273.83496 275.61484 277.17471 278.52399
 279.69568 280.77328 281.75153 282.71863 283.41864 284.18600 285.13596 286.06326
 286.91647 287.67630 288.34003 289.18591
 366.78100 356.34019 345.77737 334.64856 323.05674 311.25593 299.13112 286.93930
 274.65649 262.55868 250.57286 239.87905 230.00623 221.11542 213.30261 206.30979
 200.14898 195.09217 191.67935 189.72654 188.76872 188.83791 189.67810 190.99128
 192.72147 194.82166 197.08984 199.45403 201.90421 204.38940 206.48259 208.32977
 209.96096 211.11114 211.34533 211.57852 211.52070 211.23089 210.86908 210.50426
 210.12645 209.84163 209.65482 209.52401 209.45719 209.79338 210.18457 210.57875
 211.37694 212.56012 213.81531 215.60350 217.53668 219.58487 221.68506 223.77324
 225.83843 227.92761 230.02980 232.14099 234.27517 236.45236 238.71354 241.08873
 243.71492 245.97110 247.97829 249.74848 251.17066 252.29885 253.12603 253.44722
 253.48941 253.26859 252.63378 251.58697 250.19815 248.36434 246.27852 244.11671
 241.91290 239.72208 237.54727 235.39146 233.25664 231.12883 229.16001 227.32220
 225.61039 224.08757 222.72276 221.49994 220.38713 219.35232 218.46150 217.60769
 216.85488 216.04006 215.14325 214.51243 213.96762 213.96613 213.93149 212.90840
 212.17441 212.11823 213.12492 215.16603 218.16129 222.12187 227.13316 231.45103
 235.29236 239.45758 243.68436 247.63078 251.27614 254.81425 258.28683 261.54947
 264.51544 267.19186 269.63556 271.81027 273.77896 275.57523 277.11945 278.42337
 279.58563 280.69269 281.76471 282.70074 283.45599 284.09003 284.97946 285.89474
 286.75177 287.51495 288.18167 289.03131
 366.78100 356.33865 345.77431 334.64396 323.05062 311.24827 299.12193 286.92858
 274.64424 262.54489 250.55755 239.86220 229.98786 221.09551 213.28117 206.28682
 200.12448 195.06613 191.65179 189.69744 188.73810 188.80575 189.64441 190.95606
 192.68472 194.78337 197.05003 199.41268 201.86134 204.34499 206.43665 208.28230
 209.91196 211.06061 211.29327 211.52492 211.46558 211.17423 210.81089 210.44454
 210.06520 209.77885 209.59051 209.45816 209.38982 209.72447 210.11413 210.50678
 211.30344 212.48509 213.73875 215.52540 217.45706 219.50371 221.60237 223.68902
 225.75268 227.84033 229.94099 232.05064 234.18330 236.35895 238.61861 240.99226
 243.61692 245.87157 247.87723 249.64588 251.06654 252.19319 253.01885 253.33850
 253.37916 253.15681 252.52047 251.47212 250.08178 248.24643 246.15909 243.99574
 241.79040 239.59805 237.42171 235.26436 233.12802 230.99867 229.02833 227.18898
 225.47564 223.95129 222.58495 221.36060 220.24626 219.20991 218.31757 217.46222
 216.70788 215.89153 214.99319 214.36084 213.81450 213.87041 213.99109 213.21442
 212.15614 211.93951 212.96794 215.00934 218.01569 222.03331 227.16107 231.45407
 235.34874 239.50554 243.75746 247.71288 251.35312 254.89145 258.37479 261.60632
 264.56274 267.16153 269.50861 271.67767 273.64032 275.42233 276.97897 278.38708
 279.65427 280.85373 281.97000 282.93658 283.74597 284.47452 285.26450 286.08008
 286.83865 287.52155 288.11810 288.87833
 366.78100 356.34034 345.77767 334.64901 323.05734 311.25668 299.13202 286.94035
 274.65769 262.56003 250.57436 239.88070 230.00803 221.11737 213.30471 206.31204
 200.15138 195.09472 191.68205 189.72939 188.77172 188.84106 189.68140 190.99473
 192.72507 194.82541 197.09374 199.45808 201.90841 204.39375 206.48709 208.33442
 209.96576 211.11609 211.35043 211.58377 211.52610 211.23644 210.87478 210.51011
 210.13245 209.84778 209.66112 209.53046 209.46379 209.80013 210.19147 210.58580
 211.38414 212.56747 213.82281 215.61115 217.54448 219.59282 221.69315 223.78149
 225.84683 227.93616 230.03850 232.14984 234.28417 236.46151 238.72284 241.09818
 243.72452 245.98085 247.98819 249.75853 251.18086 252.30920 253.13653 253.45787
 253.50021 253.27954 252.64488 251.59822 250.20955 248.37589 246.29022 244.12856
 241.92490 239.73423 237.55957 235.40390 233.26924 231.14158 229.17291 227.33525
 225.62359 224.10092 222.73626 221.51359 220.40093 219.36627 218.47560 217.62194
 216.86928 216.05461 215.15795 214.52728 213.98262 213.94926 213.86765 213.38240
 212.42548 211.92970 212.79407 214.86459 217.87195 221.92761 227.15804 231.47545
 235.30585 239.54506 243.83017 247.79906 251.38441 254.89830 258.45026 261.41913
 264.37704 266.98285 269.26767 271.47589 273.52905 275.33710 276.89371 278.25165
 279.53357 280.77664 281.88367 282.77969 283.57330 284.40433 285.21695 285.96609
 286.64935 287.30518 287.87808 288.60822
 366.78100 356.34104 345.77909 334.65113 323.06017 311.26021 299.13626 286.94530
 274.66334 262.56638 250.58143 239.88847 230.01651 221.12655 213.31460 206.32264
 200.16268 195.10672 191.69477 189.74281 188.78585 188.85589 189.69694 191.01098
 192.74202 194.84306 197.11211 199.47715 201.92819 204.41423 206.50828 208.35632
 209.98836 211.13940 211.37445 211.60849 211.55153 211.26257 210.90162 210.53766
 210.16070 209.87674 209.69079 209.56083 209.49487 209.83191 210.22396 210.61900
 211.41804 212.60208 213.85813 215.64717 217.58121 219.63025 221.73130 223.82034
 225.88638 227.97642 230.07947 232.19151 234.32655 236.50459 238.76664 241.14268
 243.76972 246.02676 248.03481 249.80585 251.22889 252.35793 253.18598 253.50802
 253.55106 253.33110 252.69715 251.65119 250.26323 248.43027 246.34532 244.18436
 241.98140 239.79145 237.61749 235.46253 233.32857 231.20162 229.23366 227.39670
 225.68574 224.16379 222.79983 221.57787 220.46591 219.43196 218.54200 217.68904
 216.93708 216.12313 215.22717 214.59721 214.05325 214.02460 213.90524 213.25912
 212.45848 212.04083 212.96103 214.99829 217.99623 221.99802 227.11438 231.57260
 235.32860 239.55771 243.83440 247.82385 251.43768 255.07846 258.42804 261.47974
 264.38623 266.99677 269.14645 270.98340 272.80234 274.73749 276.66049 278.26862
 279.57156 280.70322 281.61246 282.52643 283.64508 284.70175 285.66583 286.53922
 287.32471 288.02420 288.63528 289.41403
 366.78100 356.34069 345.77838 334.65007 323.05876 311.25845 299.13414 286.94283
 274.66052 262.56321 250.57791 239.88460 230.01229 221.12198 213.30967 206.31736
 200.15705 195.10074 191.68843 189.73612 188.77881 188.84850 189.68919 191.00288
 192.73357 194.83426 197.10295 199.46764 201.91833 204.40402 206.49772 208.34541
 209.97710 211.12779 211.36248 211.59617 211.53886 211.24955 210.88824 210.52393
 210.14662 209.86231 209.67600 209.54569 209.47938 209.81607 210.20776 210.60245
 211.40114 212.58484 213.84053 215.62922 217.56291 219.61160 221.71229 223.80098
 225.86667 227.95636 230.05905 232.17074 234.30543 236.48312 238.74481 241.12050
 243.74719 246.00388 248.01157 249.78226 251.20495 252.33365 253.16134 253.48303
 253.52572 253.30541 252.67110 251.62479 250.23648 248.40317 246.31786 244.15655
 241.95324 239.76293 237.58862 235.43331 233.29900 231.17169 229.20338 227.36607
 225.65477 224.13246 222.76815 221.54584 220.43353 219.39922 218.50891 217.65560
 216.90329 216.08898 215.19267 214.56236 214.01805 214.06644 213.99799 213.22644
 212.46329 212.21544 212.84906 214.95433 217.97830 221.92291 227.09978 231.59065
 235.37811 239.59100 243.84604 247.85509 251.67094 255.32658 258.73862 261.84091
 264.60559 267.01566 269.10498 270.98700 272.91574 275.00220 276.94742 278.41077
 279.43869 280.25760 280.96628 281.58850 282.12701 282.60345 283.03815 283.43192
 283.78610 284.10147 284.37698 284.72812
 366.78100 356.34134 345.77968 334.65202 323.06136 311.26170 299.13804 286.94738
 274.66572 262.56906 250.58439 239.89173 230.02007 221.13041 213.31875 206.32709
 200.16743 195.11177 191.70011 189.74845 188.79179 188.86213 189.70347 191.01781
 192.74915 194.85049 197.11983 199.48517 201.93651 204.42284 206.51718 208.36552
 209.99786 211.14920 211.38454 211.61888 211.56222 211.27356 210.91290 210.54924
 210.17258 209.88892 209.70326 209.57360 209.50794 209.84528 210.23762 210.63295
 211.43229 212.61663 213.87297 215.66231 217.59665 219.64599 221.74733 223.83667
 225.90301 227.99335 230.09669 232.20903 234.34437 236.52271 238.78505 241.16139
 243.78873 246.04607 248.05440 249.82574 251.24908 252.37842 253.20676 253.52910
 253.57244 253.35278 252.71912 251.67346 250.28580 248.45314 246.36848 244.20782
 242.00516 239.81550 237.64184 235.48718 233.35352 231.22685 229.25919 227.42253
 225.71187 224.19021 222.82655 221.60489 220.49323 219.45957 218.56991 217.71725
 216.96559 216.15193 215.25627 214.62661 214.08295 214.11252 214.00052 213.25441
 212.62883 212.31157 212.73712 214.76173 217.82512 221.82574 226.88774 231.42781
 235.25072 239.50278 243.76485 247.78372 251.66063 255.51413 259.16714 262.47107
 265.47299 268.12964 270.36258 272.16147 273.75659 275.00122 277.07413 278.59894
 279.53723 280.33328 281.02216 281.62701 282.15045 282.61359 283.03610 283.41888
 283.76318 284.06973 284.33755 284.67886
 366.78100 356.34221 345.78142 334.65463 323.06484 311.26605 299.14326 286.95347
 274.67268 262.57689 250.59310 239.90131 230.03052 221.14173 213.33094 206.34015
 200.18136 195.12657 191.71578 189.76499 188.80920 188.88041 189.72262 191.03783
 192.77004 194.87225 197.14246 199.50867 201.96088 204.44809 206.54330 208.39251
 210.02572 211.17793 211.41414 211.64935 211.59356 211.30577 210.94598 210.58319
 210.20740 209.92461 209.73982 209.61103 209.54624 209.88445 210.27766 210.67387
 211.47408 212.65929 213.91650 215.70671 217.64192 219.69213 221.79434 223.88455
 225.95176 228.04297 230.14718 232.26039 234.39660 236.57581 238.83902 241.21623
 243.84444 246.10265 248.11186 249.88407 251.30828 252.43849 253.26770 253.59091
 253.63512 253.41633 252.78354 251.73875 250.35196 248.52017 246.43638 244.27659
 242.07480 239.88601 237.71322 235.55943 233.42664 231.30085 229.33406 227.49827
 225.78848 224.26769 222.90490 221.68411 220.57332 219.54053 218.65174 217.79995
 217.04916 216.23637 215.34158 214.71279 214.17000 214.13329 213.94591 213.29083
 212.80447 212.52196 212.92612 214.67766 217.71230 221.83511 226.69194 231.33195
 235.07535 239.23058 243.37717 247.32405 251.14700 254.96500 258.67538 262.13510
 265.37790 268.35352 270.95633 273.11911 274.83179 276.08038 276.90625 278.29263
 279.87497 281.49490 283.23074 284.78583 286.13162 287.32227 288.40857 289.39270
 290.27780 291.06601 291.75455 292.63202
 366.78100 356.34140 345.77980 334.65220 323.06159 311.26199 299.13839 286.94779
 274.66619 262.56959 250.58498 239.89238 230.02078 221.13118 213.31958 206.32798
 200.16837 195.11277 191.70117 189.74957 188.79297 188.86337 189.70476 191.01916
 192.75056 194.85196 197.12136 199.48676 201.93815 204.42455 206.51895 208.36735
 209.99975 211.15115 211.38654 211.62094 211.56434 211.27574 210.91514 210.55154
 210.17493 209.89133 209.70573 209.57613 209.51053 209.84793 210.24032 210.63572
 211.43512 212.61952 213.87592 215.66532 217.59972 219.64911 221.75051 223.83991
 225.90631 227.99671 230.10011 232.21250 234.34790 236.52630 238.78870 241.16510
 243.79250 246.04989 248.05829 249.82969 251.25309 252.38249 253.21089 253.53328
 253.57668 253.35708 252.72348 251.67788 250.29028 248.45767 246.37307 244.21247
 242.00987 239.82027 237.64667 235.49206 233.35846 231.23186 229.26426 227.42766
 225.71706 224.19545 222.83185 221.61025 220.49865 219.46505 218.57545 217.72284
 216.97124 216.15764 215.26204 214.63244 214.08884 214.07549 213.97993 213.26424
 212.77065 212.49242 213.00143 214.70230 217.71812 221.82361 226.79150 231.35693
 235.12946 239.28062 243.40631 247.26918 250.94168 254.62749 258.25107 261.50519
 264.69089 267.70950 270.41495 272.72229 274.62723 276.15918 277.35211 278.46255
 279.71777 280.98050 282.30817 283.62650 284.91550 286.17920 287.33215 288.37665
 289.31604 290.15259 290.88339 291.81470
 366.78100 356.34161 345.78022 334.65283 323.06244 311.26305 299.13966 286.94927
 274.66788 262.57148 250.58709 239.89470 230.02331 221.13392 213.32253 206.33114
 200.17175 195.11636 191.70497 189.75358 188.79719 188.86780 189.70941 191.02402
 192.75563 194.85723 197.12684 199.49245 201.94406 204.43067 206.52528 208.37389
 210.00650 211.15811 211.39372 211.62833 211.57194 211.28355 210.92316 210.55977
 210.18338 209.89999 209.71459 209.58520 209.51981 209.85742 210.25003 210.64564
 211.44525 212.62986 213.88647 215.67608 217.61069 219.66030 221.76191 223.85152
 225.91813 228.00874 230.11234 232.22495 234.36056 236.53917 238.80178 241.17839
 243.80600 246.06361 248.07222 249.84383 251.26744 252.39705 253.22566 253.54827
 253.59188 253.37249 252.73910 251.69370 250.30631 248.47392 246.38953 244.22914
 242.02675 239.83736 237.66397 235.50958 233.37619 231.24980 229.28241 227.44602
 225.73563 224.21424 222.85085 221.62946 220.51806 219.48467 218.59528 217.74289
 216.99150 216.17811 215.28272 214.65333 214.10994 214.06952 213.95872 213.46103
 212.69949 212.22269 212.85518 214.58565 217.58603 221.71367 226.86081 231.32344
 235.20670 239.37732 243.58253 247.50340 251.16484 254.76547 258.26749 261.47815
 264.51282 267.44138 270.12439 272.44125 274.37357 275.96909 277.28122 278.44980
 279.73141 281.01804 282.15903 283.15836 284.14368 285.09113 286.05930 287.06912
 287.98215 288.79523 289.50552 290.41071
 366.78100 356.34193 345.78087 334.65380 323.06374 311.26467 299.14160 286.95154
 274.67047 262.57441 250.59034 239.89827 230.02721 221.13814 213.32708 206.33601
 200.17694 195.12188 191.71081 189.75975 188.80368 188.87461 189.71655 191.03148
 192.76341 194.86535 197.13528 199.50122 201.95315 204.44008 206.53502 208.38395
 210.01689 211.16882 211.40475 211.63969 211.58362 211.29556 210.93549 210.57242
 210.19636 209.91329 209.72823 209.59916 209.53409 209.87203 210.26496 210.66090
 211.46083 212.64576 213.90270 215.69263 217.62757 219.67750 221.77943 223.86937
 225.93630 228.02724 230.13117 232.24410 234.38004 236.55897 238.82190 241.19884
 243.82677 246.08471 248.09364 249.86557 251.28951 252.41944 253.24838 253.57131
 253.61524 253.39618 252.76311 251.71805 250.33098 248.49891 246.41485 244.25478
 242.05272 239.86365 237.69058 235.53652 233.40345 231.27739 229.31032 227.47425
 225.76419 224.24312 222.88006 221.65899 220.54792 219.51486 218.62579 217.77373
 217.02266 216.20959 215.31453 214.68546 214.14240 214.08821 213.95169 213.55133
 212.87590 212.18193 212.71088 214.50049 217.48566 221.61005 226.78983 231.22668
 235.11929 239.32623 243.57298 247.54353 251.24515 254.86934 258.38602 261.57584
 264.52130 267.36072 270.00671 272.31857 274.26596 275.91071 277.31277 278.51352
 279.72098 281.09003 282.34393 283.37405 284.20398 285.09222 286.04388 286.99310
 287.89404 288.69632 289.39719 290.29037
 366.78100 356.34078 345.77855 334.65033 323.05910 311.25888 299.13465 286.94343
 274.66120 262.56398 250.57875 239.88553 230.01330 221.12308 213.31085 206.31863
 200.15840 195.10218 191.68995 189.73773 188.78050 188.85028 189.69105 191.00483
 192.73560 194.83638 197.10515 199.46993 201.92070 204.40648 206.50025 208.34803
 209.97980 211.13058 211.36535 211.59913 211.54190 211.25268 210.89145 210.52723
 210.15000 209.86578 209.67955 209.54933 209.48310 209.81988 210.21165 210.60643
 211.40520 212.58898 213.84475 215.63353 217.56730 219.61608 221.71685 223.80563
 225.87140 227.96118 230.06395 232.17573 234.31050 236.48828 238.75005 241.12583
 243.75260 246.00938 248.01715 249.78793 251.21070 252.33948 253.16725 253.48903
 253.53180 253.31158 252.67735 251.63113 250.24290 248.40968 246.32445 244.16323
 241.96000 239.76978 237.59555 235.44033 233.30610 231.17888 229.21065 227.37343
 225.66220 224.13998 222.77575 221.55353 220.44130 219.40708 218.51685 217.66363
 216.91140 216.09718 215.20095 214.57073 214.02650 214.04692 214.06186 213.47263
 212.86829 212.13010 212.59921 214.50058 217.52939 221.63145 226.77444 231.27074
 235.06966 239.28900 243.52148 247.49976 251.24028 254.92868 258.48282 261.69086
 264.60440 267.36292 269.94400 272.20758 274.09235 275.70264 277.10541 278.34839
 279.72293 281.07916 282.23755 283.45190 284.62225 285.69067 286.78546 287.79846
 288.70953 289.52084 290.22961 291.13281
 366.78100 356.34099 345.77898 334.65097 323.05996 311.25996 299.13595 286.94494
 274.66293 262.56592 250.58091 239.88790 230.01589 221.12588 213.31388 206.32187
 200.16186 195.10585 191.69384 189.74183 188.78482 188.85481 189.69580 191.00980
 192.74079 194.84178 197.11077 199.47576 201.92675 204.41274 206.50673 208.35472
 209.98672 211.13771 211.37270 211.60669 211.54968 211.26067 210.89966 210.53565
 210.15864 209.87464 209.68863 209.55862 209.49261 209.82960 210.22159 210.61658
 211.41557 212.59956 213.85556 215.64455 217.57854 219.62753 221.72852 223.81751
 225.88350 227.97349 230.07648 232.18848 234.32347 236.50146 238.76345 241.13944
 243.76643 246.02342 248.03141 249.80240 251.22540 252.35439 253.18238 253.50437
 253.54736 253.32735 252.69334 251.64733 250.25932 248.42632 246.34131 244.18030
 241.97729 239.78728 237.61327 235.45826 233.32425 231.19724 229.22924 227.39223
 225.68122 224.15921 222.79520 221.57319 220.46118 219.42717 218.53716 217.68416
 216.93215 216.11814 215.22213 214.59212 214.04811 214.06577 214.07446 213.59518
 212.85794 212.08058 212.53297 214.47804 217.54782 221.66275 226.82535 231.32700
 235.09550 239.31049 243.53328 247.50569 251.25554 254.98566 258.60352 261.87836
 264.80664 267.52573 270.05634 272.27011 274.10629 275.61664 276.78625 277.99963
 279.63245 281.03748 282.35086 283.72784 284.95331 286.11520 287.22180 288.22430
 289.12595 289.92886 290.63028 291.52417
 366.78100 356.34349 345.78398 334.65847 323.06996 311.27245 299.15094 286.96243
 274.68292 262.58840 250.60589 239.91538 230.04587 221.15836 213.34885 206.35934
 200.20183 195.14832 191.73881 189.78930 188.83479 188.90728 189.75077 191.06726
 192.80075 194.90424 197.17573 199.54321 201.99670 204.48519 206.58168 208.43217
 210.06666 211.22015 211.45764 211.69413 211.63962 211.35311 210.99460 210.63309
 210.25858 209.97707 209.79356 209.66605 209.60253 209.94202 210.33651 210.73400
 211.53549 212.72198 213.98047 215.77196 217.70845 219.75994 221.86343 223.95492
 226.02341 228.11590 230.22139 232.33588 234.47337 236.65386 238.91834 241.29683
 243.92632 246.18581 248.19630 249.96979 251.39528 252.52677 253.35726 253.68175
 253.72724 253.50973 252.87822 251.83471 250.44920 248.61869 246.53618 244.37767
 242.17715 239.98964 237.81813 235.66562 233.53411 231.40960 229.44409 227.60958
 225.90107 224.38156 223.02005 221.80054 220.69103 219.65952 218.77201 217.92150
 217.17199 216.36047 215.46696 214.83945 214.29794 214.18785 213.93980 213.84973
 212.93044 211.96004 212.40028 214.34431 217.44086 221.58781 226.78011 231.29100
 235.06512 239.27988 243.48343 247.42505 251.16119 254.91075 258.57254 261.91086
 264.89301 267.63358 270.19150 272.43494 274.29993 275.83722 277.02432 278.18381
 279.77231 281.16138 282.47916 283.82837 285.06033 286.20279 287.34369 288.37726
 289.30685 290.13464 290.85782 291.77939
 366.78100 356.34492 345.78685 334.66277 323.07570 311.27962 299.15955 286.97247
 274.69440 262.60132 250.62025 239.93117 230.06309 221.17702 213.36894 206.38087
 200.22479 195.17272 191.76464 189.81657 188.86349 188.93741 189.78234 191.10026
 192.83519 194.94011 197.21304 199.58196 202.03689 204.52681 206.62474 208.47666
 210.11258 211.26751 211.50643 211.74436 211.69128 211.40621 211.04913 210.68906
 210.31598 210.03591 209.85383 209.72775 209.66568 210.00660 210.40253 210.80145
 211.60438 212.79230 214.05223 215.84515 217.78308 219.83600 221.94092 224.03385
 226.10377 228.19770 230.30462 232.42055 234.55947 236.74140 239.00732 241.38724
 244.01817 246.27909 248.29102 250.06594 251.49287 252.62579 253.45772 253.78364
 253.83057 253.61449 252.98441 251.94234 250.55826 248.72919 246.64811 244.49104
 242.29196 240.10589 237.93581 235.78474 233.65466 231.53158 229.56751 227.73443
 226.02736 224.50928 223.14921 221.93113 220.82306 219.79298 218.90690 218.05783
 217.30975 216.49968 215.60760 214.98153 214.44145 214.26372 213.86235 213.89302
 213.14568 211.94920 212.29910 214.25020 217.34575 221.49686 226.70442 231.21204
 235.00121 239.20671 243.38374 247.28914 251.00470 254.73978 258.40085 261.75681
 264.76587 267.51575 270.05807 272.29651 274.14954 275.70123 277.08002 278.47253
 279.98264 281.35825 282.68311 284.03033 285.23260 286.29785 287.36081 288.37167
 289.28085 290.09045 290.79773 291.69904
 366.78100 356.34308 345.78316 334.65725 323.06833 311.27041 299.14849 286.95958
 274.67966 262.58474 250.60182 239.91091 230.04099 221.15307 213.34315 206.35323
 200.19532 195.14140 191.73148 189.78156 188.82665 188.89873 189.74181 191.05789
 192.79098 194.89406 197.16514 199.53222 201.98531 204.47339 206.56947 208.41955
 210.05363 211.20672 211.44380 211.67988 211.62496 211.33805 210.97913 210.61721
 210.24229 209.96038 209.77646 209.64854 209.58462 209.92370 210.31779 210.71487
 211.51595 212.70203 213.96012 215.75120 217.68728 219.73836 221.84145 223.93253
 226.00061 228.09269 230.19777 232.31186 234.44894 236.62902 238.89310 241.27119
 243.90027 246.15935 248.16943 249.94252 251.36760 252.49868 253.32876 253.65285
 253.69793 253.48001 252.84809 251.80417 250.41826 248.58734 246.50442 244.34550
 242.14459 239.95667 237.78475 235.63183 233.49992 231.37500 229.40908 227.57416
 225.86524 224.34533 222.98341 221.76349 220.65357 219.62166 218.73374 217.88282
 217.13290 216.32099 215.42707 214.79915 214.25723 214.18944 214.02011 213.71106
 213.28725 212.07370 212.28476 214.24899 217.36201 221.49544 226.69684 231.20442
 234.99071 239.20067 243.36404 247.23146 250.90218 254.61392 258.26389 261.61670
 264.63309 267.37369 269.85651 271.95444 273.61102 275.17136 276.77289 278.39722
 279.96118 281.42020 282.87323 284.25421 285.46564 286.53024 287.58627 288.58099
 289.47565 290.27234 290.96832 291.85526
 366.78100 356.33953 345.77606 334.64660 323.05413 311.25266 299.12719 286.93473
 274.65126 262.55279 250.56632 239.87186 229.99839 221.10692 213.29345 206.29999
 200.13852 195.08105 191.66758 189.71412 188.75565 188.82418 189.66371 190.97624
 192.70578 194.80531 197.07284 199.43637 201.88591 204.37044 206.46297 208.30950
 209.94004 211.08957 211.32310 211.55563 211.49717 211.20670 210.84423 210.47876
 210.10029 209.81483 209.62736 209.49589 209.42842 209.76396 210.15449 210.54802
 211.34555 212.52809 213.78262 215.57015 217.50268 219.55022 221.64975 223.73728
 225.80181 227.89035 229.99188 232.10241 234.23594 236.41247 238.67301 241.04754
 243.67307 245.92860 247.93514 249.70467 251.12620 252.25373 253.08027 253.40080
 253.44233 253.22086 252.58540 251.53793 250.14846 248.31399 246.22752 244.06506
 241.86059 239.66912 237.49365 235.33719 233.20172 231.07325 229.10378 227.26532
 225.55285 224.02938 222.66391 221.44045 220.32698 219.29151 218.40004 217.54558
 216.79211 215.97664 215.07917 214.44770 213.90224 214.03906 214.27896 213.59128
 213.31665 212.25497 212.38701 214.26532 217.38470 221.51674 226.71758 231.23032
 235.02290 239.25699 243.44733 247.32275 250.95740 254.62189 258.24609 261.61304
 264.64517 267.39148 269.84024 271.84528 273.37775 274.70563 276.27518 278.09293
 279.84995 281.53177 283.09302 284.53653 285.83734 287.07639 288.20682 289.23093
 290.15198 290.97217 291.68869 292.60181
 366.78100 356.33900 345.77499 334.64499 323.05198 311.24998 299.12397 286.93097
 274.64697 262.54796 250.56096 239.86595 229.99195 221.09994 213.28594 206.29194
 200.12993 195.07193 191.65792 189.70392 188.74491 188.81291 189.65191 190.96390
 192.69290 194.79189 197.05889 199.42188 201.87088 204.35488 206.44687 208.29287
 209.92286 211.07186 211.30485 211.53685 211.47785 211.18684 210.82384 210.45783
 210.07883 209.79282 209.60482 209.47282 209.40481 209.73981 210.12980 210.52280
 211.31979 212.50179 213.75579 215.54278 217.47478 219.52177 221.62077 223.70776
 225.77176 227.85976 229.96075 232.07075 234.20374 236.37974 238.63973 241.01373
 243.63873 245.89372 247.89972 249.66871 251.08971 252.21670 253.04270 253.36270
 253.40369 253.18169 252.54568 251.49768 250.10767 248.27267 246.18567 244.02266
 241.81766 239.62565 237.44965 235.29264 233.15664 231.02764 229.05763 227.21863
 225.50562 223.98162 222.61561 221.39161 220.27761 219.24160 218.34960 217.49459
 216.74059 215.92458 215.02658 214.39458 213.84857 214.04349 214.34187 213.67867
 213.21638 212.42892 212.53137 214.23573 217.28960 221.41772 226.68900 231.16977
 234.98634 239.24672 243.46759 247.38829 251.08185 254.74951 258.35504 261.73779
 264.82040 267.62872 270.08768 272.07077 273.54266 274.79205 276.20724 277.96259
 280.06369 281.93948 283.79562 285.55774 287.08270 288.43192 289.66287 290.77802
 291.78098 292.67410 293.45435 294.44864
 366.78100 356.34257 345.78213 334.65570 323.06627 311.26783 299.14540 286.95597
 274.67554 262.58010 250.59667 239.90524 230.03480 221.14637 213.33594 206.34550
 200.18707 195.13264 191.72220 189.77177 188.81634 188.88790 189.73047 191.04604
 192.77861 194.88117 197.15174 199.51831 201.97087 204.45844 206.55401 208.40357
 210.03714 211.18971 211.42627 211.66184 211.60641 211.31897 210.95954 210.59711
 210.22168 209.93924 209.75481 209.62638 209.56194 209.90051 210.29408 210.69064
 211.49121 212.67678 213.93434 215.72491 217.66048 219.71104 221.81361 223.90418
 225.97175 228.06331 230.16788 232.28145 234.41801 236.59758 238.86115 241.23871
 243.86728 246.12585 248.13541 249.90798 251.33255 252.46312 253.29268 253.61625
 253.66082 253.44238 252.80995 251.76552 250.37908 248.54765 246.46422 244.30478
 242.10335 239.91492 237.74248 235.58905 233.45662 231.33119 229.36475 227.52932
 225.81989 224.29945 222.93702 221.71659 220.60615 219.57372 218.68529 217.83385
 217.08342 216.27099 215.37655 214.74812 214.20569 214.22969 214.22841 213.83316
 213.11374 212.50362 212.60260 214.14870 217.13113 221.26414 226.55196 231.05388
 234.88841 239.15578 243.38570 247.33063 251.06715 254.77779 258.43826 261.90253
 265.08228 268.00681 270.64249 272.81003 274.38638 275.53888 276.63733 278.34482
 280.52158 282.83432 285.01254 286.92517 288.58038 290.04483 291.38092 292.59131
 293.67993 294.64935 295.49622 296.57547
 366.78100 356.34618 345.78936 334.66654 323.08072 311.28590 299.16708 286.98126
 274.70444 262.61262 250.63280 239.94498 230.07816 221.19334 213.38652 206.39970
 200.24488 195.19406 191.78724 189.84042 188.88860 188.96378 189.80996 191.12914
 192.86532 194.97150 197.24568 199.61586 202.07204 204.56322 206.66240 208.51559
 210.15277 211.30895 211.54913 211.78831 211.73649 211.45267 211.09685 210.73803
 210.36621 210.08739 209.90657 209.78175 209.72093 210.06311 210.46029 210.86047
 211.66465 212.85383 214.11501 215.90919 217.84837 219.90255 222.00873 224.10291
 226.17409 228.26927 230.37745 232.49463 234.63481 236.81799 239.08517 241.46635
 244.09853 246.36071 248.37389 250.15007 251.57825 252.71243 253.54561 253.87279
 253.92097 253.70615 253.07733 252.03651 250.65369 248.82587 246.74605 244.59023
 242.39241 240.20759 238.03877 235.88895 233.76013 231.63831 229.67549 227.84367
 226.13785 224.62103 223.26221 222.04540 220.93858 219.90976 219.02494 218.17712
 217.43030 216.62148 215.73066 215.10584 214.56702 214.40106 214.08296 214.01851
 213.11819 212.36421 212.65717 214.30255 217.24026 221.31219 226.49615 230.96753
 234.78316 239.03717 243.23483 247.15323 250.88158 254.58229 258.21594 261.65930
 264.86667 267.87561 270.65091 273.03030 274.78253 276.03180 277.14233 278.65692
 280.76266 282.77963 284.95621 286.86737 288.52133 289.98468 291.31976 292.52924
 293.61703 294.58572 295.43195 296.51035
 366.78100 356.34827 345.79355 334.67282 323.08910 311.29637 299.17964 286.99592
 274.72119 262.63146 250.65374 239.96801 230.10329 221.22056 213.41583 206.43111
 200.27838 195.22966 191.82493 189.88020 188.93048 189.00775 189.85602 191.17730
 192.91557 195.02385 197.30012 199.67239 202.13067 204.62394 206.72521 208.58049
 210.21976 211.37804 211.62031 211.86158 211.81186 211.53013 211.17641 210.81968
 210.44995 210.17323 209.99450 209.87177 209.81305 210.15732 210.55660 210.95887
 211.76514 212.95642 214.21969 216.01597 217.95724 220.01351 222.12179 224.21806
 226.29133 228.38861 230.49888 232.61816 234.76043 236.94570 239.21498 241.59825
 244.23252 246.49680 248.51207 250.29035 251.72062 252.85689 253.69217 254.02144
 254.07172 253.85899 253.23226 252.19354 250.81281 248.98708 246.90936 244.75563
 242.55991 240.37718 238.21045 236.06273 233.93600 231.81628 229.85555 228.02582
 226.32210 224.80737 223.45064 222.23592 221.13119 220.10447 219.22174 218.37601
 217.63129 216.82456 215.93583 215.31311 214.77638 214.51498 214.01018 214.09093
 213.32558 212.27109 212.49873 214.31110 217.31381 221.36766 226.56389 230.97942
 234.75888 238.99489 243.18098 247.07936 250.78008 254.44849 258.03494 261.39709
 264.49368 267.41272 270.11713 272.36649 273.94958 275.27966 276.74127 278.80057
 280.94308 283.01120 285.13461 286.99911 288.61267 290.04028 291.34274 292.52271
 293.58392 294.52896 295.35452 296.40659
 366.78100 356.34617 345.78933 334.66650 323.08067 311.28584 299.16700 286.98117
 274.70434 262.61250 250.63267 239.94484 230.07801 221.19317 213.38634 206.39951
 200.24468 195.19384 191.78701 189.84018 188.88834 188.96351 189.80968 191.12885
 192.86501 194.97118 197.24535 199.61551 202.07168 204.56285 206.66202 208.51518
 210.15235 211.30852 211.54868 211.78785 211.73602 211.45219 211.09635 210.73752
 210.36569 210.08686 209.90602 209.78119 209.72036 210.06252 210.45969 210.85986
 211.66403 212.85319 214.11436 215.90853 217.84769 219.90186 222.00803 224.10220
 226.17336 228.26853 230.37670 232.49386 234.63403 236.81720 239.08437 241.46553
 244.09770 246.35987 248.37303 250.14920 251.57737 252.71154 253.54470 253.87187
 253.92004 253.70521 253.07637 252.03554 250.65271 248.82487 246.74504 244.58921
 242.39138 240.20654 238.03771 235.88788 233.75904 231.63721 229.67438 227.84255
 226.13671 224.61988 223.26105 222.04421 220.93738 219.90855 219.02372 218.17588
 217.42905 216.62022 215.72939 215.10455 214.56572 214.45689 214.15466 213.96277
 213.57063 212.37781 212.22038 214.12865 217.26233 221.29155 226.55479 230.99417
 234.77661 238.99596 243.18958 247.12582 250.86290 254.54889 258.13138 261.46829
 264.52182 267.35452 269.91351 271.94400 273.37280 274.66086 276.53986 278.96201
 281.37015 283.75635 285.82126 287.63437 289.20349 290.59174 291.85831 293.00574
 294.03772 294.95670 295.75949 296.78259
 366.78100 356.34211 345.78122 334.65434 323.06445 311.26556 299.14267 286.95279
 274.67190 262.57601 250.59212 239.90024 230.02935 221.14046 213.32957 206.33869
 200.17980 195.12491 191.71402 189.76314 188.80725 188.87836 189.72047 191.03559
 192.76770 194.86981 197.13992 199.50604 201.95815 204.44526 206.54037 208.38949
 210.02260 211.17471 211.41082 211.64594 211.59005 211.30216 210.94227 210.57939
 210.20350 209.92061 209.73572 209.60684 209.54195 209.88006 210.27317 210.66929
 211.46940 212.65451 213.91162 215.70174 217.63685 219.68696 221.78907 223.87919
 225.94630 228.03741 230.14152 232.25464 234.39075 236.56986 238.83297 241.21009
 243.83820 246.09631 248.10542 249.87754 251.30165 252.43176 253.26087 253.58399
 253.62810 253.40921 252.77632 251.73144 250.34455 248.51266 246.42877 244.26889
 242.06700 239.87811 237.70522 235.55134 233.41845 231.29256 229.32567 227.48979
 225.77990 224.25901 222.89612 221.67524 220.56435 219.53146 218.64257 217.79069
 217.03980 216.22691 215.33202 214.70314 214.16025 214.30707 214.35080 213.80043
 213.68486 212.59225 212.12820 214.01425 217.15529 221.23125 226.44695 230.90794
 234.71008 238.95236 243.16754 247.13515 250.92261 254.66354 258.29410 261.68274
 264.77603 267.59641 270.12558 272.11316 273.47800 274.63959 276.75232 279.32507
 282.21362 284.70056 286.85260 288.74228 290.37759 291.82446 293.14447 294.34033
 295.41589 296.37366 297.21036 298.27661
 366.78100 356.34130 345.77959 334.65189 323.06118 311.26148 299.13777 286.94707
 274.66536 262.56866 250.58395 239.89125 230.01954 221.12984 213.31814 206.32643
 200.16673 195.11102 191.69932 189.74761 188.79091 188.86120 189.70250 191.01679
 192.74809 194.84938 197.11868 199.48397 201.93527 204.42157 206.51586 208.36416
 209.99645 211.14775 211.38304 211.61734 211.56063 211.27193 210.91122 210.54752
 210.17081 209.88711 209.70141 209.57170 209.50600 209.84329 210.23559 210.63088
 211.43018 212.61447 213.87077 215.66006 217.59436 219.64365 221.74495 223.83425
 225.90054 227.99084 230.09413 232.20643 234.34172 236.52002 238.78231 241.15861
 243.78590 246.04320 248.05149 249.82279 251.24609 252.37538 253.20368 253.52597
 253.56927 253.34956 252.71586 251.67015 250.28245 248.44974 246.36504 244.20433
 242.00163 239.81192 237.63822 235.48352 233.34981 231.22311 229.25540 227.41870
 225.70799 224.18629 222.82258 221.60088 220.48917 219.45547 218.56576 217.71306
 216.96136 216.14765 215.25195 214.62224 214.07854 214.28242 214.43546 213.76051
 213.62335 212.76448 212.23489 213.97984 217.08894 221.16455 226.35811 230.83107
 234.63261 238.87779 243.09210 247.06332 250.87666 254.65024 258.32132 261.75800
 264.89978 267.76437 270.33502 272.34555 273.59705 274.58109 276.83554 279.43802
 282.19995 284.56738 286.61597 288.41479 289.97153 291.34885 292.60541 293.74380
 294.76764 295.67938 296.47586 297.49088
 366.78100 356.34403 345.78506 334.66008 323.07211 311.27514 299.15417 286.96619
 274.68722 262.59325 250.61128 239.92131 230.05233 221.16536 213.35639 206.36742
 200.21044 195.15747 191.74850 189.79953 188.84556 188.91858 189.76261 191.07964
 192.81367 194.91769 197.18972 199.55775 202.01178 204.50081 206.59783 208.44886
 210.08389 211.23792 211.47594 211.71297 211.65900 211.37303 211.01505 210.65408
 210.28011 209.99914 209.81617 209.68919 209.62622 209.96625 210.36128 210.75930
 211.56133 212.74836 214.00739 215.79942 217.73644 219.78847 221.89250 223.98453
 226.05355 228.14658 230.25261 232.36764 234.50567 236.68669 238.95172 241.33075
 243.96078 246.22080 248.23183 250.00586 251.43189 252.56392 253.39494 253.71997
 253.76600 253.54903 252.91805 251.87508 250.49011 248.66014 246.57817 244.42019
 242.22022 240.03325 237.86228 235.71030 233.57933 231.45536 229.49039 227.65642
 225.94844 224.42947 223.06850 221.84953 220.74055 219.70958 218.82261 217.97264
 217.22367 216.41269 215.51972 214.89275 214.35178 214.41263 214.38704 213.88622
 213.54070 212.79099 212.35495 213.96666 217.01640 221.09132 226.26982 230.75645
 234.56187 238.81500 243.04346 247.04117 250.87604 254.66167 258.34317 261.79953
 264.97501 267.86948 270.46072 272.47800 273.57986 274.32553 276.61218 279.19003
 281.88425 284.19360 286.19196 287.94666 289.46521 290.80875 292.03452 293.14496
 294.14371 295.03308 295.81003 296.80014
 366.78100 356.34700 345.79100 334.66900 323.08400 311.28999 299.17199 286.98699
 274.71099 262.61999 250.64099 239.95399 230.08799 221.20399 213.39799 206.41198
 200.25798 195.20798 191.80198 189.85598 188.90498 188.98098 189.82798 191.14798
 192.88497 194.99197 197.26697 199.63797 202.09497 204.58697 206.68697 208.54097
 210.17897 211.33597 211.57696 211.81696 211.76596 211.48296 211.12796 210.76996
 210.39896 210.12096 209.94096 209.81695 209.75695 210.09995 210.49795 210.89895
 211.70395 212.89395 214.15595 215.95095 217.89095 219.94594 222.05294 224.14794
 226.21994 228.31594 230.42494 232.54294 234.68394 236.86794 239.13594 241.51793
 244.15093 246.41393 248.42793 250.20493 251.63393 252.76893 253.60293 253.93093
 253.97992 253.76592 253.13792 252.09792 250.71592 248.88892 246.80992 244.65492
 242.45792 240.27392 238.10591 235.95691 233.82891 231.70791 229.74591 227.91491
 226.20991 224.69391 223.33591 222.11990 221.01390 219.98590 219.10190 218.25490
 217.50890 216.70090 215.81090 215.18690 214.64890 214.56393 214.31897 214.02426
 213.54832 212.72543 212.42982 213.99995 216.98494 221.02118 226.15907 230.63673
 234.44221 238.70119 242.93330 246.95337 250.83263 254.65971 258.38147 261.88449
 265.12131 268.08914 270.75244 272.86960 274.07111 274.69229 276.66803 279.34457
 282.11255 284.48514 286.53824 288.34097 289.90112 291.28143 292.54077 293.68164
 294.70770 295.62146 296.41968 297.43689
 366.78100 356.34744 345.79187 334.67031 323.08574 311.29218 299.17462 286.99005
 274.71449 262.62392 250.64536 239.95880 230.09323 221.20967 213.40410 206.41854
 200.26498 195.21541 191.80985 189.86428 188.91372 188.99016 189.83759 191.15803
 192.89546 195.00290 197.27834 199.64977 202.10721 204.59964 206.70008 208.55451
 210.19295 211.35039 211.59182 211.83226 211.78169 211.49913 211.14457 210.78700
 210.41644 210.13887 209.95931 209.83575 209.77618 210.11962 210.51805 210.91949
 211.72493 212.91536 214.17780 215.97323 217.91367 219.96911 222.07654 224.17198
 226.24441 228.34085 230.45029 232.56872 234.71016 236.89459 239.16303 241.54547
 244.17890 246.44234 248.45677 250.23421 251.66365 252.79908 253.63352 253.96195
 254.01139 253.79783 253.17026 252.13070 250.74913 248.92257 246.84401 244.68944
 242.49288 240.30931 238.14175 235.99319 233.86562 231.74506 229.78349 227.95293
 226.24836 224.73280 223.37524 222.15967 221.05411 220.02654 219.14298 218.29642
 217.55085 216.74329 215.85372 215.23016 214.69260 214.60304 214.32581 214.05612
 213.61887 212.65511 212.36703 214.06346 217.06615 221.06445 226.14893 230.58928
 234.36826 238.59828 242.79697 246.79085 250.65721 254.48392 258.21851 261.75916
 265.07614 268.15195 270.95135 273.28268 274.77243 275.36331 276.70154 279.24442
 282.01672 284.39304 286.44934 288.25491 289.81747 291.19995 292.46124 293.60391
 294.63159 295.54675 296.34622 297.36505
 366.78100 356.34538 345.78776 334.66413 323.07751 311.28189 299.16227 286.97564
 274.69802 262.60540 250.62478 239.93615 230.06853 221.18291 213.37529 206.38767
 200.23204 195.18042 191.77280 189.82518 188.87255 188.94693 189.79231 191.11069
 192.84606 194.95144 197.22482 199.59420 202.04958 204.53995 206.63833 208.49071
 210.12709 211.28246 211.52184 211.76022 211.70760 211.42298 211.06635 210.70673
 210.33411 210.05449 209.87286 209.74724 209.68562 210.02700 210.42337 210.82275
 211.62613 212.81451 214.07489 215.86826 217.80664 219.86002 221.96540 224.05877
 226.12915 228.22353 230.33091 232.44728 234.58666 236.76904 239.03542 241.41580
 244.04717 246.30855 248.32093 250.09631 251.52368 252.65706 253.48944 253.81582
 253.86319 253.64757 253.01795 251.97633 250.59271 248.76408 246.68346 244.52684
 242.32822 240.14259 237.97297 235.82235 233.69273 231.57011 229.60648 227.77386
 226.06724 224.54962 223.18999 221.97237 220.86475 219.83513 218.94950 218.10088
 217.35326 216.54364 215.65202 215.02639 214.48677 214.52969 214.42877 213.99350
 213.73654 212.66179 212.18353 213.99756 217.09444 221.11189 226.21272 230.62720
 234.37628 238.59679 242.80057 246.79317 250.62854 254.39738 258.06122 261.54114
 264.83582 267.95401 270.82083 273.17801 274.67825 275.34045 276.79144 279.32132
 282.14273 284.57443 286.67871 288.52640 290.12543 291.54016 292.83087 294.00018
 295.05185 295.98834 296.80646 297.84906
 366.78100 356.34295 345.78290 334.65684 323.06779 311.26974 299.14769 286.95864
 274.67859 262.58353 250.60048 239.90943 230.03938 221.15133 213.34127 206.35122
 200.19317 195.13912 191.72907 189.77902 188.82396 188.89591 189.73886 191.05481
 192.78776 194.89071 197.16165 199.52860 201.98155 204.46950 206.56545 208.41539
 210.04934 211.20229 211.43924 211.67519 211.62014 211.33308 210.97403 210.61198
 210.23693 209.95488 209.77082 209.64277 209.57872 209.91767 210.31162 210.70857
 211.50951 212.69546 213.95341 215.74436 217.68031 219.73125 221.83420 223.92515
 225.99310 228.08505 230.19000 232.30394 234.44089 236.62084 238.88479 241.26274
 243.89168 246.15063 248.16058 249.93353 251.35848 252.48943 253.31937 253.64332
 253.68827 253.47022 252.83817 251.79412 250.40806 248.57701 246.49396 244.33491
 242.13386 239.94580 237.77375 235.62070 233.48865 231.36360 229.39755 227.56249
 225.85344 224.33339 222.97134 221.75129 220.64123 219.60918 218.72113 217.87008
 217.12003 216.30798 215.41392 214.78587 214.24382 214.43425 214.56587 213.88428
 213.84018 212.89258 212.15793 213.76866 216.91576 221.01987 226.08890 230.54541
 234.32079 238.56938 242.82266 246.88515 250.76419 254.53009 258.15863 261.58496
 264.82520 267.89984 270.79358 273.28442 274.80106 275.46802 276.79797 279.21631
 281.78104 284.09030 286.08859 287.84323 289.36169 290.70517 291.93091 293.04132
 294.04001 294.92935 295.70627 296.69635
 366.78100 356.34326 345.78352 334.65777 323.06903 311.27129 299.14955 286.96081
 274.68106 262.58632 250.60358 239.91284 230.04310 221.15536 213.34561 206.35587
 200.19813 195.14439 191.73465 189.78490 188.83016 188.90242 189.74568 191.06194
 192.79519 194.89845 197.16971 199.53697 201.99023 204.47849 206.57474 208.42500
 210.05926 211.21252 211.44978 211.68603 211.63129 211.34455 210.98581 210.62407
 210.24932 209.96758 209.78384 209.65610 209.59236 209.93161 210.32587 210.72313
 211.52439 212.71065 213.96891 215.76016 217.69642 219.74768 221.85094 223.94220
 226.01045 228.10271 230.20797 232.32223 234.45949 236.63974 238.90400 241.28226
 243.91152 246.17078 248.18104 249.95429 251.37955 252.51081 253.34107 253.66533
 253.71058 253.49284 252.86110 251.81736 250.43162 248.60087 246.51813 244.35939
 242.15865 239.97091 237.79916 235.64642 233.51468 231.38994 229.42420 227.58946
 225.88071 224.36097 222.99923 221.77949 220.66975 219.63800 218.75026 217.89952
 217.14978 216.33804 215.44429 214.81655 214.27481 214.44165 214.63063 213.84276
 213.68068 213.26659 212.64270 213.71893 216.71245 220.89267 225.77213 230.35498
 234.11975 238.36230 242.63744 246.75044 250.70380 254.51028 258.14087 261.55396
 264.79434 267.89590 270.84222 273.44989 275.20764 276.17181 277.13043 279.05380
 281.17535 283.11041 284.88861 286.45001 287.80127 288.99677 290.08746 291.07559
 291.96429 292.75568 293.44702 294.32806
 366.78100 356.34573 345.78846 334.66518 323.07891 311.28364 299.16437 286.97810
 274.70082 262.60855 250.62828 239.94001 230.07274 221.18746 213.38019 206.39292
 200.23765 195.18638 191.77910 189.83183 188.87956 188.95429 189.80002 191.11875
 192.85447 194.96020 197.23393 199.60366 202.05939 204.55011 206.64884 208.50157
 210.13830 211.29403 211.53375 211.77248 211.72021 211.43594 211.07967 210.72039
 210.34812 210.06885 209.88758 209.76231 209.70103 210.04276 210.43949 210.83922
 211.64295 212.83167 214.09240 215.88613 217.82486 219.87859 221.98431 224.07804
 226.14877 228.24350 230.35123 232.46795 234.60768 236.79041 239.05714 241.43787
 244.06960 246.33132 248.34405 250.11978 251.54751 252.68124 253.51396 253.84069
 253.88842 253.67315 253.04388 252.00260 250.61933 248.79106 246.71079 244.55452
 242.35624 240.17097 238.00170 235.85143 233.72216 231.59988 229.63661 227.80434
 226.09807 224.58080 223.22152 222.00425 220.89698 219.86771 218.98244 218.13416
 217.38689 216.57762 215.68635 215.06108 214.52180 214.54814 214.55557 214.04704
 213.36821 213.11295 212.95566 214.05069 216.89012 220.92609 225.70320 230.23825
 233.96255 238.21466 242.47752 246.59039 250.56625 254.37294 257.96570 261.33438
 264.53162 267.60098 270.52121 273.09937 275.01077 276.29391 277.44992 279.03586
 281.05536 282.87531 284.48862 286.03223 287.40543 288.62033 289.72876 290.73294
 291.63608 292.44031 293.14288 294.03824
 366.78100 356.34738 345.79176 334.67014 323.08552 311.29190 299.17428 286.98966
 274.71404 262.62342 250.64480 239.95818 230.09256 221.20894 213.40332 206.41769
 200.26407 195.21445 191.80883 189.86321 188.91259 188.98897 189.83635 191.15673
 192.89411 195.00149 197.27687 199.64825 202.10563 204.59801 206.69839 208.55277
 210.19115 211.34853 211.58991 211.83029 211.77967 211.49705 211.14243 210.78481
 210.41419 210.13657 209.95695 209.83333 209.77371 210.11708 210.51546 210.91684
 211.72222 212.91260 214.17498 215.97036 217.91074 219.96612 222.07350 224.16888
 226.24126 228.33764 230.44702 232.56540 234.70678 236.89116 239.15954 241.54192
 244.17530 246.43868 248.45306 250.23044 251.65982 252.79520 253.62958 253.95796
 254.00734 253.79372 253.16609 252.12647 250.74485 248.91823 246.83961 244.68499
 242.48837 240.30475 238.13713 235.98851 233.86089 231.74027 229.77865 227.94803
 226.24341 224.72779 223.37017 222.15455 221.04893 220.02131 219.13769 218.29107
 217.54545 216.73783 215.84821 215.22459 214.68697 214.63895 214.50899 214.16626
 213.33635 212.70839 212.78139 214.15793 217.08582 221.09653 225.91457 230.30940
 234.01976 238.23338 242.49577 246.62643 250.62556 254.44344 258.01163 261.31360
 264.41751 267.38455 270.21158 272.72491 274.54330 275.83792 277.17474 278.96176
 280.97885 282.78256 284.37018 285.82248 287.11340 288.25555 289.29758 290.24158
 291.09061 291.84668 292.50717 293.34888
 366.78100 356.34557 345.78814 334.66470 323.07827 311.28284 299.16341 286.97698
 274.69954 262.60711 250.62668 239.93825 230.07082 221.18538 213.37795 206.39052
 200.23509 195.18366 191.77622 189.82879 188.87636 188.95093 189.79650 191.11506
 192.85063 194.95620 197.22977 199.59934 202.05490 204.54547 206.64404 208.49661
 210.13318 211.28874 211.52831 211.76688 211.71445 211.43002 211.07358 210.71415
 210.34172 210.06229 209.88086 209.75542 209.69399 210.03556 210.43213 210.83170
 211.63526 212.82383 214.08440 215.87797 217.81654 219.87010 221.97567 224.06924
 226.13981 228.23438 230.34194 232.45851 234.59808 236.78065 239.04721 241.42778
 244.05935 246.32092 248.33349 250.10905 251.53662 252.67019 253.50276 253.82933
 253.87689 253.66146 253.03203 251.99060 250.60717 248.77873 246.69830 244.54187
 242.34344 240.15801 237.98857 235.83814 233.70871 231.58628 229.62285 227.79041
 226.08398 224.56655 223.20712 221.98969 220.88225 219.85282 218.96739 218.11896
 217.37153 216.56209 215.67066 215.04523 214.50580 214.56987 214.65282 214.12410
 213.38033 212.53027 212.55302 214.08696 217.10831 221.15945 226.04514 230.37915
 234.06973 238.27754 242.55402 246.70789 250.73619 254.58107 258.16531 261.45035
 264.50327 267.39011 270.13577 272.59491 274.35764 275.62067 277.06610 278.87924
 280.69507 282.44696 284.03427 285.53641 286.88596 288.07996 289.16931 290.15619
 291.04379 291.83420 292.52466 293.40460
 366.78100 356.34432 345.78565 334.66097 323.07329 311.27662 299.15594 286.96826
 274.68958 262.59591 250.61423 239.92455 230.05588 221.16920 213.36052 206.37185
 200.21517 195.16249 191.75381 189.80514 188.85146 188.92478 189.76911 191.08643
 192.82075 194.92508 197.19740 199.56572 202.02004 204.50937 206.60669 208.45801
 210.09334 211.24766 211.48598 211.72331 211.66963 211.38395 211.02627 210.66560
 210.29192 210.01124 209.82857 209.70189 209.63921 209.97954 210.37486 210.77318
 211.57550 212.76283 214.02215 215.81447 217.75180 219.80412 221.90844 224.00077
 226.07009 228.16341 230.26974 232.38506 234.52338 236.70470 238.97003 241.34935
 243.97967 246.24000 248.25132 250.02564 251.45197 252.58429 253.41561 253.74093
 253.78726 253.57058 252.93990 251.89723 250.51255 248.68287 246.60120 244.44352
 242.24384 240.05716 237.88649 235.73481 233.60413 231.48046 229.51578 227.68210
 225.97443 224.45575 223.09507 221.87639 220.76772 219.73704 218.85036 218.00069
 217.25201 216.44133 215.54866 214.92198 214.38130 214.51755 214.76347 214.15688
 213.48550 212.50879 212.36424 213.88153 216.95309 221.07098 226.01337 230.36497
 234.04970 238.22406 242.48692 246.65250 250.70341 254.58894 258.21420 261.52350
 264.58618 267.46222 270.16937 272.58563 274.40155 275.69421 277.19199 278.97479
 280.66727 282.09854 283.42856 284.79468 286.06412 287.20963 288.25476 289.20157
 290.05310 290.81143 291.47388 292.31808
 366.78100 356.34502 345.78703 334.66305 323.07607 311.28009 299.16010 286.97312
 274.69514 262.60216 250.62117 239.93219 230.06421 221.17822 213.37024 206.38226
 200.22628 195.17429 191.76631 189.81833 188.86535 188.93936 189.78438 191.10240
 192.83742 194.94243 197.21545 199.58447 202.03948 204.52950 206.62752 208.47954
 210.11555 211.27057 211.50959 211.74761 211.69462 211.40964 211.05266 210.69267
 210.31969 210.03971 209.85773 209.73174 209.66976 210.01078 210.40680 210.80581
 211.60883 212.79685 214.05686 215.84988 217.78790 219.84092 221.94593 224.03895
 226.10897 228.20299 230.31000 232.42602 234.56504 236.74705 239.01307 241.39309
 244.02411 246.28512 248.29714 250.07216 251.49918 252.63219 253.46421 253.79023
 253.83725 253.62126 252.99128 251.94930 250.56531 248.73633 246.65535 244.49837
 242.29938 240.11340 237.94342 235.79244 233.66245 231.53947 229.57549 227.74250
 226.03552 224.51754 223.15756 221.93957 220.83159 219.80161 218.91563 218.06664
 217.31866 216.50868 215.61669 214.99071 214.45073 214.56815 214.77335 214.19157
 213.59995 212.58868 212.31305 213.78500 216.84074 220.98787 225.97272 230.31490
 233.99489 238.16132 242.40683 246.55382 250.59599 254.48819 258.13351 261.47107
 264.56366 267.45169 270.16235 272.59955 274.44562 275.79224 277.28558 278.99988
 280.65421 282.01562 283.15570 284.47235 285.75034 286.90729 287.96286 288.91910
 289.77914 290.54504 291.21408 292.06674
 366.78100 356.34438 345.78577 334.66115 323.07354 311.27692 299.15630 286.96869
 274.69007 262.59646 250.61484 239.92522 230.05661 221.16999 213.36138 206.37276
 200.21614 195.16353 191.75491 189.80630 188.85268 188.92607 189.77045 191.08783
 192.82222 194.92660 197.19899 199.56737 202.02175 204.51114 206.60852 208.45991
 210.09529 211.24967 211.48806 211.72544 211.67183 211.38621 211.02859 210.66798
 210.29436 210.01375 209.83113 209.70451 209.64190 209.98228 210.37767 210.77605
 211.57843 212.76582 214.02520 215.81759 217.75497 219.80735 221.91174 224.00412
 226.07351 228.16689 230.27328 232.38866 234.52704 236.70843 238.97381 241.35320
 243.98358 246.24396 248.25535 250.02973 251.45612 252.58850 253.41988 253.74527
 253.79165 253.57504 252.94442 251.90180 250.51719 248.68757 246.60596 244.44834
 242.24872 240.06211 237.89149 235.73988 233.60926 231.48564 229.52103 227.68741
 225.97980 224.46118 223.10056 221.88195 220.77333 219.74272 218.85610 218.00649
 217.25787 216.44725 215.55464 214.92802 214.38741 214.55699 214.85844 214.18977
 213.47366 212.57414 212.36035 213.86649 216.89885 221.02055 226.03374 230.34776
 234.01146 238.17116 242.40935 246.53842 250.55388 254.41580 258.04431 261.38464
 264.48950 267.38669 270.11520 272.59897 274.49222 275.97354 277.51236 279.16156
 280.70309 282.00327 283.13165 284.54150 285.90643 287.11407 288.21585 289.21399
 290.11172 290.91113 291.60950 292.49945
 366.78100 356.34390 345.78481 334.65971 323.07162 311.27452 299.15343 286.96533
 274.68624 262.59214 250.61004 239.91995 230.05085 221.16376 213.35466 206.36557
 200.20847 195.15538 191.74628 189.79718 188.84309 188.91599 189.75990 191.07680
 192.81071 194.91461 197.18652 199.55442 202.00833 204.49723 206.59413 208.44504
 210.07994 211.23385 211.47175 211.70866 211.65456 211.36847 211.01037 210.64927
 210.27518 209.99408 209.81099 209.68389 209.62080 209.96070 210.35561 210.75351
 211.55541 212.74232 214.00122 215.79313 217.73003 219.78194 221.88584 223.97775
 226.04665 228.13955 230.24546 232.36036 234.49827 236.67917 238.94408 241.32298
 243.95289 246.21279 248.22370 249.99760 251.42350 252.55541 253.38631 253.71122
 253.75712 253.54003 252.90893 251.86584 250.48074 248.65064 246.56855 244.41045
 242.21036 240.02326 237.85217 235.70007 233.56898 231.44488 229.47978 227.64569
 225.93759 224.41850 223.05740 221.83831 220.72921 219.69812 218.81102 217.96092
 217.21183 216.40073 215.50764 214.88054 214.33945 214.54091 214.92532 214.29155
 213.35181 212.35742 212.27467 213.89790 216.95114 221.06938 226.11784 230.42287
 234.06638 238.21294 242.44685 246.56029 250.54506 254.37253 257.97336 261.29288
 264.38776 267.28040 270.01312 272.50391 274.44537 276.00708 277.61462 279.28391
 280.80002 282.07153 283.26199 284.61127 285.89536 287.03143 288.06793 289.00693
 289.85147 290.60352 291.26050 292.09775
 366.78100 356.34578 345.78855 334.66533 323.07911 311.28388 299.16466 286.97844
 274.70121 262.60899 250.62877 239.94054 230.07332 221.18810 213.38087 206.39365
 200.23843 195.18720 191.77998 189.83275 188.88053 188.95531 189.80108 191.11986
 192.85564 194.96141 197.23519 199.60497 202.06074 204.55152 206.65030 208.50307
 210.13985 211.29563 211.53540 211.77418 211.72196 211.43773 211.08151 210.72229
 210.35006 210.07084 209.88962 209.76439 209.70317 210.04495 210.44172 210.84150
 211.64528 212.83405 214.09483 215.88861 217.82738 219.88116 221.98693 224.08071
 226.15149 228.24626 230.35404 232.47082 234.61059 236.79337 239.06015 241.44092
 244.07270 246.33448 248.34725 250.12303 251.55081 252.68458 253.51736 253.84414
 253.89191 253.67669 253.04747 252.00624 250.62302 248.79480 246.71457 244.55835
 242.36013 240.17490 238.00568 235.85546 233.72623 231.60401 229.64079 227.80856
 226.10234 224.58511 223.22589 222.00867 220.90144 219.87222 218.98700 218.13877
 217.39155 216.58233 215.69110 215.06588 214.52666 214.65106 214.86531 214.35680
 213.50188 212.31982 212.14230 213.80536 216.90077 221.03284 226.12111 230.41225
 234.05540 238.21144 242.46133 246.58934 250.57182 254.38135 257.96173 261.26834
 264.34171 267.20850 269.93600 272.42084 274.38269 276.00339 277.55008 278.99854
 280.36081 281.76923 283.26627 284.74191 286.04285 287.19385 288.24396 289.19531
 290.05093 290.81287 291.47849 292.32672
 366.78100 356.34706 345.79112 334.66918 323.08425 311.29031 299.17237 286.98743
 274.71149 262.62055 250.64162 239.95468 230.08874 221.20480 213.39886 206.41292
 200.25899 195.20905 191.80311 189.85717 188.90623 188.98229 189.82936 191.14942
 192.88648 194.99354 197.26860 199.63966 202.09673 204.58879 206.68885 208.54291
 210.18097 211.33803 211.57910 211.81916 211.76822 211.48528 211.13034 210.77240
 210.40147 210.12353 209.94359 209.81965 209.75971 210.10277 210.50084 210.90190
 211.70696 212.89702 214.15908 215.95414 217.89421 219.94927 222.05633 224.15139
 226.22345 228.31951 230.42858 232.54664 234.68770 236.87176 239.13982 241.52188
 244.15495 246.41801 248.43207 250.20913 251.63819 252.77325 253.60732 253.93538
 253.98444 253.77050 253.14256 252.10262 250.72069 248.89375 246.81481 244.65987
 242.46293 240.27899 238.11106 235.96212 233.83418 231.71324 229.75130 227.92036
 226.21543 224.69949 223.34155 222.12561 221.01967 219.99173 219.10780 218.26086
 217.51492 216.70698 215.81704 215.19310 214.65517 214.73991 214.84428 214.27588
 213.60966 212.48425 212.11699 213.61798 216.80991 221.00377 226.12865 230.40878
 234.04008 238.19197 242.44846 246.59834 250.59482 254.40303 257.97162 261.26602
 264.33173 267.19077 269.92892 272.47485 274.54077 276.20755 277.75851 279.10751
 280.02695 280.38617 281.97986 283.62741 285.05322 286.31470 287.46561 288.50824
 289.44598 290.28104 291.01053 291.94019
 366.78100 356.34629 345.78957 334.66686 323.08114 311.28643 299.16771 286.98200
 274.70528 262.61357 250.63385 239.94614 230.07942 221.19471 213.38799 206.40128
 200.24656 195.19585 191.78914 189.84242 188.89071 188.96599 189.81228 191.13156
 192.86785 194.97413 197.24842 199.61870 202.07499 204.56627 206.66556 208.51884
 210.15613 211.31241 211.55270 211.79199 211.74027 211.45656 211.10084 210.74213
 210.37041 210.09170 209.91098 209.78627 209.72555 210.06784 210.46512 210.86541
 211.66969 212.85898 214.12026 215.91455 217.85384 219.90812 222.01441 224.10869
 226.17998 228.27526 230.38355 232.50083 234.64112 236.82440 239.09169 241.47297
 244.10526 246.36754 248.38083 250.15712 251.58540 252.71969 253.55297 253.88026
 253.92854 253.71383 253.08511 252.04440 250.66168 248.83397 246.75425 244.59854
 242.40082 240.21611 238.04739 235.89768 233.76897 231.64725 229.68454 227.85282
 226.14711 224.63039 223.27168 222.05496 220.94825 219.91953 219.03482 218.18710
 217.44039 216.63167 215.74096 215.11624 214.57753 214.71181 214.92825 214.20090
 213.56442 212.49983 212.12463 213.49028 216.74773 221.02211 226.10129 230.41336
 234.04285 238.17351 242.41986 246.57639 250.58054 254.37534 257.91797 261.18820
 264.24640 267.13403 269.89764 272.48346 274.62799 276.34323 277.87375 279.11343
 279.76712 279.75854 280.56049 282.02994 283.47806 284.75925 285.92813 286.98709
 287.93948 288.78760 289.52850 290.47269
 366.78100 356.34464 345.78628 334.66191 323.07455 311.27819 299.15783 286.97046
 274.69210 262.59874 250.61738 239.92801 230.05965 221.17329 213.36493 206.37656
 200.22020 195.16784 191.75948 189.81111 188.85775 188.93139 189.77603 191.09366
 192.82830 194.93294 197.20558 199.57421 202.02885 204.51849 206.61613 208.46776
 210.10340 211.25804 211.49668 211.73431 211.68095 211.39559 211.03823 210.67786
 210.30450 210.02414 209.84178 209.71541 209.65305 209.99369 210.38933 210.78796
 211.59060 212.77824 214.03788 215.83051 217.76815 219.82079 221.92543 224.01806
 226.08770 228.18134 230.28798 232.40361 234.54225 236.72389 238.98953 241.36916
 243.99980 246.26044 248.27208 250.04671 251.47335 252.60599 253.43763 253.76326
 253.80990 253.59354 252.96318 251.92081 250.53645 248.70709 246.62573 244.46836
 242.26900 240.08264 237.91228 235.76091 233.63055 231.50719 229.54283 227.70946
 226.00210 224.48374 223.12338 221.90501 220.79665 219.76629 218.87993 218.03056
 217.28220 216.47184 215.57948 214.95311 214.41275 214.62952 215.05980 214.19139
 213.44948 212.36026 212.02393 213.33228 216.63794 221.00336 226.09258 230.42426
 234.05562 238.16380 242.41042 246.58554 250.60011 254.38863 257.90228 261.13504
 264.16754 267.04944 269.81360 272.40765 274.59619 276.35638 277.82635 278.92032
 279.51691 279.61972 279.82217 280.94135 282.17664 283.42007 284.58417 285.63876
 286.58725 287.43188 288.16974 289.11005
 366.78100 356.34490 345.78679 334.66269 323.07558 311.27948 299.15937 286.97227
 274.69416 262.60106 250.61995 239.93085 230.06274 221.17664 213.36854 206.38043
 200.22433 195.17222 191.76412 189.81601 188.86291 188.93680 189.78170 191.09959
 192.83449 194.93938 197.21228 199.58118 202.03607 204.52597 206.62386 208.47576
 210.11165 211.26655 211.50544 211.74334 211.69023 211.40513 211.04802 210.68792
 210.31482 210.03471 209.85261 209.72650 209.66440 210.00529 210.40119 210.80008
 211.60298 212.79087 214.05077 215.84366 217.78156 219.83445 221.93935 224.03225
 226.10214 228.19604 230.30293 232.41883 234.55772 236.73962 239.00551 241.38541
 244.01630 246.27720 248.28909 250.06399 251.49089 252.62378 253.45568 253.78157
 253.82847 253.61236 252.98226 251.94015 250.55605 248.72694 246.64584 244.48873
 242.28963 240.10353 237.93342 235.78232 233.65221 231.52911 229.56500 227.73190
 226.02479 224.50669 223.14658 221.92848 220.82037 219.79027 218.90417 218.05506
 217.30696 216.49685 215.60475 214.97864 214.43854 214.63481 215.06305 214.35941
 213.32098 212.10284 211.87225 213.20601 216.52870 220.96037 226.10968 230.41267
 234.06645 238.17007 242.43114 246.62793 250.66156 254.44936 257.93567 261.13364
 264.13132 266.99527 269.75821 272.37314 274.61929 276.40503 277.80722 278.80780
 279.34818 279.51807 279.70618 280.36832 281.50092 282.57770 283.63898 284.64169
 285.54352 286.34659 287.04816 287.94220
 366.78100 356.34667 345.79033 334.66800 323.08267 311.28834 299.17000 286.98467
 274.70834 262.61701 250.63767 239.95034 230.08401 221.19968 213.39334 206.40701
 200.25268 195.20235 191.79601 189.84968 188.89835 188.97401 189.82068 191.14035
 192.87702 194.98368 197.25835 199.62902 202.08569 204.57735 206.67702 208.53069
 210.16836 211.32502 211.56569 211.80536 211.75403 211.47069 211.11536 210.75703
 210.38570 210.10736 209.92703 209.80270 209.74236 210.08503 210.48270 210.88337
 211.68803 212.87770 214.13937 215.93404 217.87370 219.92837 222.03504 224.12971
 226.20137 228.29704 230.40571 232.52338 234.66404 236.84771 239.11538 241.49704
 244.12971 246.39238 248.40605 250.18271 251.61138 252.74605 253.57972 253.90738
 253.95605 253.74172 253.11339 252.07305 250.69072 248.86339 246.78406 244.62872
 242.43139 240.24706 238.07873 235.92939 233.80106 231.67973 229.71739 227.88606
 226.18073 224.66440 223.30606 222.08973 220.98340 219.95507 219.07073 218.22340
 217.47707 216.66874 215.77840 215.15407 214.61574 214.72256 214.96300 214.51839
 213.39659 212.00485 211.76804 213.11533 216.44762 220.93674 226.11058 230.38863
 234.06207 238.16747 242.43668 246.64647 250.69728 254.48657 257.95178 261.11798
 264.08444 266.93216 269.69745 272.32532 274.60864 276.44763 277.84094 278.76178
 279.23499 279.44394 279.64844 280.19897 281.21912 282.28403 283.29858 284.26068
 285.14957 285.94110 286.63257 287.51376
 366.78100 356.34731 345.79163 334.66994 323.08525 311.29156 299.17388 286.98919
 274.71350 262.62281 250.64413 239.95744 230.09175 221.20806 213.40238 206.41669
 200.26300 195.21331 191.80763 189.86194 188.91125 188.98756 189.83488 191.15519
 192.89250 194.99981 197.27513 199.64644 202.10375 204.59606 206.69638 208.55069
 210.18900 211.34631 211.58763 211.82794 211.77725 211.49456 211.13988 210.78219
 210.41150 210.13381 209.95413 209.83044 209.77075 210.11406 210.51238 210.91369
 211.71900 212.90931 214.17163 215.96694 217.90725 219.96256 222.06988 224.16519
 226.23750 228.33381 230.44313 232.56144 234.70275 236.88706 239.15538 241.53769
 244.17100 246.43431 248.44863 250.22594 251.65525 252.79056 253.62488 253.95319
 254.00250 253.78881 253.16113 252.12144 250.73975 248.91306 246.83438 244.67969
 242.48300 240.29931 238.13163 235.98294 233.85525 231.73456 229.77288 227.94219
 226.23750 224.72181 223.36413 222.14844 221.04275 220.01506 219.13138 218.28469
 217.53900 216.73131 215.84163 215.21794 214.68025 214.76190 214.94543 214.53790
 213.42972 211.94263 211.67632 213.09776 216.41895 220.87218 226.09198 230.39815
 234.06931 238.17554 242.44417 246.65930 250.71907 254.50583 257.95328 261.09412
 264.03851 266.87164 269.64240 272.29974 274.62326 276.47638 277.81906 278.67816
 279.14664 279.39017 279.59073 280.02264 280.98019 282.04440 283.05923 284.02759
 284.92401 285.72226 286.41962 287.30832
 366.78100 356.34697 345.79094 334.66891 323.08388 311.28985 299.17182 286.98679
 274.71076 262.61974 250.64071 239.95368 230.08765 221.20362 213.39759 206.41156
 200.25753 195.20750 191.80147 189.85544 188.90441 188.98038 189.82735 191.14732
 192.88429 194.99126 197.26623 199.63721 202.09418 204.58615 206.68612 208.54009
 210.17806 211.33503 211.57600 211.81597 211.76494 211.48191 211.12688 210.76885
 210.39782 210.11979 209.93976 209.81573 209.75571 210.09868 210.49665 210.89762
 211.70259 212.89256 214.15453 215.94950 217.88947 219.94444 222.05141 224.14638
 226.21835 228.31432 230.42329 232.54126 234.68223 236.86620 239.13418 241.51615
 244.14912 246.41209 248.42606 250.20303 251.63200 252.76697 253.60094 253.92891
 253.97788 253.76385 253.13582 252.09579 250.71376 248.88673 246.80770 244.65268
 242.45565 240.27162 238.10359 235.95456 233.82653 231.70550 229.74347 227.91244
 226.20741 224.69138 223.33335 222.11732 221.01129 219.98326 219.09923 218.25220
 217.50617 216.69815 215.80812 215.18409 214.64606 214.74799 214.98257 214.54559
 213.47774 211.85901 211.53345 213.03734 216.41226 220.83391 226.10913 230.43085
 234.09941 238.20117 242.46440 246.67557 250.73714 254.52107 257.95535 261.07758
 264.00452 266.82825 269.60242 272.27832 274.61768 276.44623 277.73499 278.57068
 279.05173 279.28998 279.49173 279.93430 280.80490 281.86841 282.87189 283.81781
 284.73038 285.54300 286.25287 287.15756
 366.78100 356.34663 345.79025 334.66788 323.08250 311.28813 299.16975 286.98438
 274.70800 262.61663 250.63725 239.94988 230.08350 221.19913 213.39275 206.40638
 200.25200 195.20163 191.79525 189.84888 188.89750 188.97313 189.81975 191.13938
 192.87600 194.98263 197.25725 199.62788 202.08450 204.57613 206.67575 208.52938
 210.16700 211.32363 211.56425 211.80388 211.75250 211.46913 211.11375 210.75538
 210.38400 210.10563 209.92525 209.80088 209.74050 210.08313 210.48076 210.88138
 211.68601 212.87563 214.13726 215.93188 217.87151 219.92613 222.03276 224.12738
 226.19901 228.29463 230.40326 232.52088 234.66151 236.84513 239.11276 241.49438
 244.12701 246.38963 248.40326 250.17988 251.60851 252.74313 253.57676 253.90438
 253.95301 253.73863 253.11026 252.06988 250.68751 248.86013 246.78076 244.62538
 242.42801 240.24363 238.07526 235.92588 233.79751 231.67613 229.71376 227.88238
 226.17701 224.66063 223.30226 222.08589 220.97951 219.95114 219.06676 218.21939
 217.47301 216.66464 215.77426 215.14989 214.61151 214.72997 215.00980 214.55135
 213.59824 211.79501 211.33022 212.91667 216.39880 220.80411 226.13405 230.44543
 234.12247 238.21941 242.47615 246.67911 250.74216 254.52696 257.95615 261.06607
 263.97986 266.79578 269.56509 272.24707 274.58224 276.37714 277.62253 278.42358
 278.90131 279.16205 279.38544 279.92596 280.80124 281.85803 282.84915 283.75323
 284.59390 285.38385 286.07394 286.95337
 366.78100 356.34613 345.78926 334.66640 323.08053 311.28566 299.16679 286.98093
 274.70406 262.61219 250.63232 239.94445 230.07759 221.19272 213.38585 206.39898
 200.24412 195.19325 191.78638 189.83951 188.88765 188.96278 189.80891 191.12804
 192.86417 194.97031 197.24444 199.61457 202.07070 204.56184 206.66097 208.51410
 210.15123 211.30736 211.54750 211.78663 211.73476 211.45089 211.09503 210.73616
 210.36429 210.08542 209.90455 209.77969 209.71882 210.06095 210.45808 210.85822
 211.66235 212.85148 214.11261 215.90674 217.84588 219.90001 222.00614 224.10027
 226.17141 228.26654 230.37467 232.49180 234.63194 236.81507 239.08220 241.46333
 244.09546 246.35760 248.37073 250.14686 251.57499 252.70913 253.54226 253.86939
 253.91752 253.70265 253.07379 252.03292 250.65005 248.82218 246.74232 244.58645
 242.38858 240.20371 238.03484 235.88498 233.75611 231.63424 229.67137 227.83951
 226.13364 224.61677 223.25790 222.04104 220.93417 219.90530 219.02043 218.17256
 217.42570 216.61683 215.72596 215.10109 214.56223 214.70590 215.04536 214.50565
 213.70624 211.79021 211.14206 212.81094 216.38809 220.76633 226.12671 230.42851
 234.12099 238.21948 242.47578 246.67719 250.74556 254.53535 257.96729 261.07233
 263.97861 266.78247 269.54144 272.22610 274.55383 276.31473 277.51291 278.28220
 278.77100 279.09668 279.44196 279.98410 280.78976 281.83344 282.82312 283.68173
 284.46106 285.22141 285.90146 286.76813
 366.78100 356.34554 345.78808 334.66462 323.07817 311.28271 299.16325 286.97679
 274.69933 262.60687 250.62641 239.93795 230.07050 221.18504 213.37758 206.39012
 200.23466 195.18320 191.77574 189.82828 188.87583 188.95037 189.79591 191.11445
 192.84999 194.95553 197.22907 199.59861 202.05416 204.54470 206.64324 208.49578
 210.13232 211.28786 211.52740 211.76594 211.71349 211.42903 211.07257 210.71311
 210.34065 210.06119 209.87973 209.75428 209.69282 210.03436 210.43090 210.83044
 211.63398 212.82252 214.08306 215.87661 217.81515 219.86869 221.97423 224.06777
 226.13831 228.23285 230.34039 232.45694 234.59648 236.77902 239.04556 241.42610
 244.05764 246.31918 248.33172 250.10727 251.53481 252.66835 253.50089 253.82743
 253.87497 253.65951 253.03005 251.98860 250.60514 248.77668 246.69622 244.53976
 242.34130 240.15584 237.98639 235.83593 233.70647 231.58401 229.62055 227.78809
 226.08163 224.56417 223.20472 221.98726 220.87980 219.85034 218.96488 218.11642
 217.36896 216.55950 215.66805 215.04259 214.50313 214.67776 215.09036 214.45207
 213.78902 211.80629 211.08315 212.77602 216.35696 220.69934 226.07242 230.37019
 234.08817 238.19475 242.45831 246.66798 250.74832 254.55136 257.99792 261.10977
 264.01431 266.80438 269.54309 272.22122 274.53049 276.25424 277.40302 278.15204
 278.67255 279.06519 279.48151 280.06271 280.95279 281.98810 282.96283 283.77579
 284.55841 285.29526 285.97198 286.83444
 366.78100 356.34560 345.78821 334.66481 323.07841 311.28302 299.16362 286.97722
 274.69983 262.60743 250.62703 239.93864 230.07124 221.18584 213.37845 206.39105
 200.23565 195.18426 191.77686 189.82946 188.87707 188.95167 189.79727 191.11588
 192.85148 194.95708 197.23069 199.60029 202.05589 204.54650 206.64510 208.49770
 210.13431 211.28991 211.52952 211.76812 211.71572 211.43133 211.07493 210.71553
 210.34314 210.06374 209.88234 209.75695 209.69555 210.03715 210.43376 210.83336
 211.63696 212.82557 214.08617 215.87977 217.81838 219.87198 221.97758 224.07119
 226.14179 228.23639 230.34400 232.46060 234.60020 236.78281 239.04941 241.43001
 244.06162 246.32322 248.33582 250.11143 251.53903 252.67263 253.50524 253.83184
 253.87944 253.66405 253.03465 251.99325 250.60986 248.78146 246.70106 244.54467
 242.34627 240.16087 237.99148 235.84108 233.71168 231.58929 229.62589 227.79349
 226.08710 224.56970 223.21030 221.99291 220.88551 219.85611 218.97072 218.12232
 217.37492 216.56553 215.67413 215.04873 214.50934 214.68228 215.09088 214.45673
 213.81494 211.82285 211.08604 212.80173 216.30673 220.59781 225.97093 230.28073
 234.03297 238.15172 242.42888 246.65472 250.74889 254.56947 258.03741 261.16522
 264.07111 266.84628 269.56088 272.22104 274.49780 276.17899 277.27493 278.01456
 278.59619 279.08401 279.59201 280.22873 281.13181 282.18582 283.15915 283.92499
 284.68716 285.41696 286.08905 286.94556
 366.78100 356.34658 345.79017 334.66775 323.08234 311.28792 299.16950 286.98409
 274.70767 262.61625 250.63684 239.94942 230.08301 221.19859 213.39217 206.40576
 200.25134 195.20092 191.79451 189.84809 188.89668 188.97226 189.81884 191.13843
 192.87501 194.98159 197.25618 199.62676 202.08335 204.57493 206.67451 208.52810
 210.16568 211.32226 211.56285 211.80243 211.75102 211.46760 211.11218 210.75377
 210.38235 210.10393 209.92352 209.79910 209.73869 210.08127 210.47885 210.87944
 211.68402 212.87360 214.13519 215.92977 217.86936 219.92394 222.03052 224.12511
 226.19669 228.29227 230.40086 232.51844 234.65903 236.84261 239.11019 241.49178
 244.12436 246.38694 248.40053 250.17711 251.60570 252.74028 253.57386 253.90145
 253.95003 253.73561 253.10720 252.06678 250.68437 248.85695 246.77753 244.62212
 242.42470 240.24028 238.07187 235.92245 233.79404 231.67262 229.71020 227.87879
 226.17337 224.65695 223.29854 222.08212 220.97571 219.94729 219.06287 218.21546
 217.46904 216.66062 215.77021 215.14579 214.60738 214.73291 215.02950 214.53902
 213.76657 211.81366 211.13519 212.79533 216.21535 220.50403 225.87872 230.21887
 233.99139 238.12019 242.40913 246.64882 250.74928 254.58138 258.06995 261.21469
 264.12283 266.88461 269.57443 272.20407 274.42966 276.05762 277.11737 277.89001
 278.57596 279.18253 279.77377 280.44836 281.35825 282.39636 283.36118 284.01810
 284.76709 285.49847 286.17575 287.03885
 366.78100 356.34730 345.79161 334.66991 323.08521 311.29151 299.17382 286.98912
 274.71342 262.62273 250.64403 239.95733 230.09163 221.20794 213.40224 206.41654
 200.26285 195.21315 191.80745 189.86176 188.91106 188.98736 189.83466 191.15497
 192.89227 194.99957 197.27488 199.64618 202.10348 204.59578 206.69609 208.55039
 210.18869 211.34600 211.58730 211.82760 211.77690 211.49421 211.13951 210.78181
 210.41112 210.13342 209.95372 209.83003 209.77033 210.11363 210.51193 210.91324
 211.71854 212.90884 214.17115 215.96645 217.90675 219.96205 222.06936 224.16466
 226.23696 228.33327 230.44257 232.56087 234.70217 236.88648 239.15478 241.53708
 244.17039 246.43369 248.44799 250.22529 251.65460 252.78990 253.62420 253.95251
 254.00181 253.78811 253.16042 252.12072 250.73902 248.91232 246.83363 244.67893
 242.48223 240.29854 238.13084 235.98214 233.85444 231.73375 229.77205 227.94135
 226.23666 224.72096 223.36326 222.14756 221.04187 220.01417 219.13047 218.28378
 217.53808 216.73038 215.84068 215.21699 214.67929 214.76909 214.98123 214.60854
 213.73814 211.77570 211.11414 212.79248 216.18707 220.44704 225.81422 230.18585
 233.97279 238.10300 242.39740 246.64709 250.74832 254.58710 258.09326 261.25494
 264.16431 266.91125 269.57492 272.16541 274.32645 275.89240 276.93381 277.76282
 278.55530 279.28625 279.98224 280.70114 281.58389 282.60345 283.55945 284.22485
 284.97021 285.68658 286.34039 287.17358
 366.78100 356.34679 345.79058 334.66836 323.08315 311.28894 299.17073 286.98552
 274.70930 262.61809 250.63888 239.95167 230.08546 221.20124 213.39503 206.40882
 200.25461 195.20440 191.79819 189.85197 188.90076 188.97655 189.82334 191.14313
 192.87991 194.98670 197.26149 199.63228 202.08907 204.58085 206.68064 208.53443
 210.17222 211.32901 211.56979 211.80958 211.75837 211.47516 211.11995 210.76173
 210.39052 210.11231 209.93210 209.80789 209.74768 210.09046 210.48825 210.88904
 211.69383 212.88362 214.14540 215.94019 217.87998 219.93477 222.04156 224.13634
 226.20813 228.30392 230.41271 232.53050 234.67128 236.85507 239.12286 241.50465
 244.13744 246.40022 248.41401 250.19080 251.61959 252.75438 253.58817 253.91595
 253.96474 253.75053 253.12232 252.08211 250.69989 248.87268 246.79347 244.63826
 242.44105 240.25683 238.08862 235.93941 233.81120 231.68999 229.72777 227.89656
 226.19135 224.67514 223.31693 222.10071 220.99450 219.96629 219.08208 218.23487
 217.48866 216.68044 215.79023 215.16602 214.62781 214.74190 215.01146 214.59067
 213.76810 211.83400 211.09525 212.66525 216.10629 220.41801 225.75952 230.15889
 233.95602 238.08835 242.38644 246.64232 250.74121 254.58763 258.11719 261.30130
 264.21725 266.95178 269.58655 272.13477 274.22876 275.72888 276.73456 277.57895
 278.45203 279.31985 280.17841 281.00317 281.85162 282.83881 283.75470 284.40561
 285.12976 285.84070 286.49506 287.32898
 366.78100 356.34642 345.78983 334.66725 323.08167 311.28709 299.16850 286.98292
 274.70634 262.61476 250.63517 239.94759 230.08101 221.19642 213.38984 206.40326
 200.24868 195.19809 191.79151 189.84493 188.89335 188.96876 189.81518 191.13460
 192.87101 194.97743 197.25185 199.62227 202.07868 204.57010 206.66952 208.52294
 210.16035 211.31677 211.55719 211.79661 211.74502 211.46144 211.10586 210.74727
 210.37569 210.09711 209.91653 209.79194 209.73136 210.07378 210.47120 210.87161
 211.67603 212.86545 214.12686 215.92128 217.86070 219.91512 222.02153 224.11595
 226.18737 228.28279 230.39120 232.50862 234.64904 236.83245 239.09987 241.48129
 244.11371 246.37612 248.38954 250.16596 251.59438 252.72879 253.56221 253.88963
 253.93804 253.72346 253.09488 252.05430 250.67171 248.84413 246.76455 244.60897
 242.41138 240.22680 238.05822 235.90863 233.78005 231.65847 229.69589 227.86430
 226.15872 224.64214 223.28356 222.06697 220.96039 219.93181 219.04723 218.19964
 217.45306 216.64448 215.75389 215.12931 214.59073 214.72427 215.03978 214.56639
 213.84590 211.84326 211.04662 212.50966 215.99966 220.38908 225.69276 230.13312
 233.93102 238.06233 242.35966 246.62236 250.71907 254.57732 258.13690 261.35965
 264.29343 267.02228 269.62836 272.11044 274.13910 275.58316 276.56116 277.40527
 278.33963 279.34656 280.35205 281.27533 282.13367 283.07120 283.97491 284.61087
 285.38196 286.10605 286.76895 287.61377
 366.78100 356.34649 345.78997 334.66746 323.08194 311.28743 299.16891 286.98340
 274.70688 262.61537 250.63585 239.94834 230.08182 221.19731 213.39079 206.40428
 200.24976 195.19925 191.79273 189.84622 188.89470 188.97019 189.81667 191.13616
 192.87264 194.97913 197.25361 199.62410 202.08059 204.57207 206.67156 208.52504
 210.16253 211.31901 211.55950 211.79898 211.74747 211.46395 211.10844 210.74992
 210.37841 210.09989 209.91938 209.79486 209.73435 210.07683 210.47432 210.87480
 211.67929 212.86877 214.13026 215.92474 217.86423 219.91872 222.02520 224.11969
 226.19117 228.28666 230.39514 232.51263 234.65311 236.83660 239.10408 241.48557
 244.11805 246.38054 248.39402 250.17051 251.59899 252.73348 253.56696 253.89445
 253.94293 253.72842 253.09990 252.05939 250.67687 248.84936 246.76984 244.61433
 242.41682 240.23230 238.06379 235.91427 233.78576 231.66424 229.70173 227.87021
 226.16470 224.64818 223.28967 222.07315 220.96664 219.93812 219.05361 218.20609
 217.45958 216.65106 215.76055 215.13603 214.59752 214.73395 215.05626 214.56209
 213.90833 211.83115 211.02742 212.45114 215.89532 220.33435 225.61127 230.13033
 233.89027 238.04114 242.33948 246.60176 250.69341 254.56041 258.14282 261.39389
 264.34476 267.08243 269.69409 272.12473 274.09961 275.47791 276.41519 277.28485
 278.33658 279.47559 280.58948 281.57684 282.41556 283.30777 284.18906 285.00424
 285.81607 286.56152 287.21271 288.04260
 366.78100 356.34550 345.78801 334.66451 323.07801 311.28252 299.16302 286.97652
 274.69903 262.60653 250.62603 239.93754 230.07004 221.18454 213.37705 206.38955
 200.23405 195.18256 191.77506 189.82756 188.87507 188.94957 189.79507 191.11358
 192.84908 194.95458 197.22809 199.59759 202.05309 204.54360 206.64210 208.49460
 210.13111 211.28661 211.52611 211.76462 211.71212 211.42762 211.07112 210.71163
 210.33913 210.05963 209.87814 209.75264 209.69114 210.03265 210.42915 210.82865
 211.63216 212.82066 214.08116 215.87467 217.81317 219.86667 221.97218 224.06568
 226.13618 228.23069 230.33819 232.45469 234.59420 236.77670 239.04320 241.42371
 244.05521 246.31671 248.32922 250.10472 251.53222 252.66573 253.49823 253.82473
 253.87224 253.65674 253.02724 251.98575 250.60225 248.77375 246.69326 244.53676
 242.33826 240.15277 237.98327 235.83277 233.70328 231.58078 229.61728 227.78479
 226.07829 224.56079 223.20130 221.98380 220.87630 219.84681 218.96131 218.11281
 217.36532 216.55582 215.66432 215.03883 214.49933 214.69484 215.12988 214.53081
 213.73680 211.86609 211.05864 212.35674 215.83351 220.32126 225.58221 230.16124
 233.88400 238.02397 242.31264 246.57002 250.64980 254.51479 258.12970 261.43198
 264.41278 267.14273 269.72589 272.09586 274.02747 275.41733 276.39713 277.33249
 278.38525 279.52524 280.72937 281.89871 282.97247 283.97119 284.86707 285.70026
 286.44965 287.11697 287.69995 288.44287
 366.78100 356.34435 345.78569 334.66104 323.07339 311.27673 299.15608 286.96843
 274.68978 262.59612 250.61447 239.92482 230.05616 221.16951 213.36086 206.37220
 200.21555 195.16290 191.75425 189.80559 188.85194 188.92529 189.76963 191.08698
 192.82133 194.92567 197.19802 199.56637 202.02072 204.51006 206.60741 208.45876
 210.09410 211.24845 211.48680 211.72414 211.67049 211.38484 211.02719 210.66653
 210.29288 210.01223 209.82957 209.70292 209.64027 209.98061 210.37596 210.77431
 211.57665 212.76400 214.02335 215.81570 217.75304 219.80539 221.90974 224.00208
 226.07143 228.16478 230.27112 232.38647 234.52482 236.70617 238.97151 241.35086
 243.98121 246.24155 248.25290 250.02725 251.45359 252.58594 253.41729 253.74264
 253.78898 253.57233 252.94168 251.89902 250.51437 248.68472 246.60306 244.44541
 242.24576 240.05910 237.88845 235.73680 233.60615 231.48249 229.51784 227.68419
 225.97653 224.45788 223.09723 221.87857 220.76992 219.73927 218.85262 218.00296
 217.25431 216.44366 215.55100 214.92435 214.38370 214.61452 215.10318 214.49821
 213.67467 212.07391 211.19597 212.32123 215.81879 220.32675 225.57289 230.15799
 233.88303 237.99730 242.28299 246.54506 250.61331 254.47813 258.13330 261.50043
 264.49277 267.18732 269.68851 271.97952 273.85010 275.24286 276.25183 277.18390
 278.28647 279.53799 280.87436 282.15564 283.34848 284.48508 285.53699 286.48996
 287.34708 288.11032 288.77707 289.62677
 366.78100 356.34352 345.78405 334.65857 323.07009 311.27262 299.15114 286.96266
 274.68319 262.58871 250.60623 239.91576 230.04628 221.15880 213.34933 206.35985
 200.20237 195.14890 191.73942 189.78994 188.83547 188.90799 189.75151 191.06804
 192.80156 194.90508 197.17661 199.54413 201.99765 204.48618 206.58270 208.43322
 210.06775 211.22127 211.45879 211.69532 211.64084 211.35436 210.99589 210.63441
 210.25993 209.97846 209.79498 209.66750 209.60403 209.94355 210.33807 210.73560
 211.53712 212.72364 213.98217 215.77369 217.71021 219.76174 221.86526 223.95678
 226.02531 228.11783 230.22335 232.33788 234.47540 236.65592 238.92044 241.29897
 243.92849 246.18801 248.19854 249.97206 251.39758 252.52911 253.35963 253.68415
 253.72968 253.51220 252.88072 251.83725 250.45177 248.62129 246.53882 244.38034
 242.17986 239.99239 237.82091 235.66843 233.53696 231.41248 229.44700 227.61253
 225.90405 224.38457 223.02310 221.80362 220.69414 219.66267 218.77519 217.92471
 217.17524 216.36376 215.47028 214.84281 214.30133 214.52792 215.00226 214.46043
 213.65878 212.20483 211.27419 212.28462 215.78584 220.29828 225.52898 230.13289
 233.86755 237.97084 242.26457 246.53476 250.59050 254.45627 258.14236 261.55490
 264.53583 267.19614 269.64325 271.88174 273.71417 275.11273 276.09018 277.05252
 278.24066 279.59274 281.06030 282.45251 283.67191 284.79645 285.82245 286.75189
 287.58786 288.33228 288.98257 289.81131
 354.97500 345.04800 334.58700 324.11500 313.32600 302.53700 291.65000 280.76700
 269.93100 259.19300 248.62200 238.61700 229.08700 220.35500 212.54000 205.53500
 199.46400 194.49300 191.14300 189.19000 188.08900 188.01400 188.72400 189.90600
 191.46900 193.38200 195.40300 197.55600 199.80700 202.06000 204.28800 206.47900
 208.55200 210.37800 212.02500 213.65900 214.99800 216.11800 217.17200 218.25900
 219.49400 220.64500 221.67900 222.61400 223.54500 224.98200 226.57100 228.19000
 229.79700 231.81100 233.86500 235.97200 238.24200 240.55300 242.89900 245.25300
 247.48800 249.53500 251.36600 252.84800 254.09800 255.16700 256.02700 256.25300
 256.09500 255.54300 253.93500 252.56600 251.38400 250.24500 249.05200 247.70100
 246.01600 243.99600 241.78400 239.39300 236.81300 234.22300 231.65800 229.14400
 226.74000 224.47300 222.33500 220.32500 218.44000 216.67700 214.96200 213.47200
 212.20000 211.10800 210.26000 209.63900 209.24400 209.03100 209.05800 209.33300
 209.78400 210.62600 211.33100 212.39100 213.62500 214.84668 217.72949 219.47640
 220.32566 220.86828 220.88710 220.27371 219.43733 218.84250 219.04934 220.86203
 222.60583 225.72206 229.03064 232.61777 236.12270 239.51333 242.70767 245.68587
 248.41061 250.90679 253.19353 254.91714 256.48655 257.94920 259.39966 260.69384
 261.81714 262.77997 263.71679 264.54570 265.26305 265.89772 266.47676 267.00133
 267.47312 267.89325 268.26027 268.72800
