|-------------------------------------------------------------------------|
|   File Name : in_temp.dat
|   Subject   : temperature profiles used for initial guess atmosphere
|   File Type : input of gmtr
|   Data Type : atmospherical data
|   Author/s  : WRF-Chem
|   Date      : Fri Jul 26 15:39:24 2024
|-------------------------------------------------------------------------|

 WRF-Chem temperature
#
 values of T (K)    (8f10.5)
#
 354.97500 345.04800 334.58700 324.11500 313.32600 302.53700 291.65000 280.76700
 269.93100 259.19300 248.62200 238.61700 229.08700 220.35500 212.54000 205.53500
 199.46400 194.49300 191.14300 189.19000 188.08900 188.01400 188.72400 189.90600
 191.46900 193.38200 195.40300 197.55600 199.80700 202.06000 204.28800 206.47900
 208.55200 210.37800 212.02500 213.65900 214.99800 216.11800 217.17200 218.25900
 219.49400 220.64500 221.67900 222.61400 223.54500 224.98200 226.57100 228.19000
 229.79700 231.81100 233.86500 235.97200 238.24200 240.55300 242.89900 245.25300
 247.48800 249.53500 251.36600 252.84800 254.09800 255.16700 256.02700 256.25300
 256.09500 255.54300 253.93500 252.56600 251.38400 250.24500 249.05200 247.70100
 246.01600 243.99600 241.78400 239.39300 236.81300 234.22300 231.65800 229.14400
 226.74000 224.47300 222.33500 220.32500 218.44000 216.67700 214.96200 213.47200
 212.20000 211.10800 210.26000 209.63900 209.24400 209.03100 209.05800 209.33300
 209.78400 210.62600 211.33100 212.39100 213.62500 214.84668 217.72949 219.47640
 220.32566 220.86828 220.88710 220.27371 219.43733 218.84250 219.04934 220.86203
 222.60583 225.72206 229.03064 232.61777 236.12270 239.51333 242.70767 245.68587
 248.41061 250.90679 253.19353 254.91714 256.48655 257.94920 259.39966 260.69384
 261.81714 262.77997 263.71679 264.54570 265.26305 265.89772 266.47676 267.00133
 267.47312 267.89325 268.26027 268.72800
 366.78100 356.33500 345.76700 334.63300 323.03600 311.23000 299.10000 286.90300
 274.61500 262.51200 250.52100 239.82200 229.94400 221.04800 213.23000 206.23200
 200.06600 195.00400 191.58600 189.62800 188.66500 188.72900 189.56400 190.87200
 192.59700 194.69200 196.95500 199.31400 201.75900 204.23900 206.32700 208.16900
 209.79500 210.94000 211.16900 211.39700 211.33400 211.03900 210.67200 210.30200
 209.91900 209.62900 209.43700 209.30100 209.22900 209.56000 209.94600 210.33500
 211.12800 212.30600 213.55600 215.33900 217.26700 219.31000 221.40500 223.48800
 225.54800 227.63200 229.72900 231.83500 233.96400 236.13600 238.39200 240.76200
 243.38300 245.63400 247.63600 249.40100 250.81800 251.94100 252.76300 253.07900
 253.11600 252.89000 252.25000 251.19800 249.80400 247.96500 245.87400 243.70700
 241.49800 239.30200 237.12200 234.96100 232.82100 230.68800 228.71400 226.87100
 225.15400 223.62600 222.25600 221.02800 219.91000 218.87000 217.97400 217.11500
 216.35700 215.53700 214.63500 213.99900 213.44900 212.85855 212.01316 212.61654
 214.26826 216.08686 218.14273 220.53346 223.40855 226.78828 231.49734 235.90155
 239.42278 243.28576 247.23140 251.11907 254.80144 258.23331 261.38913 264.27520
 266.89312 269.26852 271.44504 273.08845 274.58484 275.98591 277.39845 278.65879
 279.75272 280.69038 281.56708 282.34086 283.01050 283.60295 284.14348 284.63317
 285.07358 285.46577 285.80838 286.24500
 381.81900 372.39900 361.20600 349.77600 337.62200 324.85300 311.81000 298.35300
 284.86000 271.32400 258.56100 246.30400 236.08700 226.79600 218.44800 211.29000
 205.52200 200.89400 197.38100 194.84800 193.01500 192.31500 192.25000 192.43100
 192.91200 193.53700 194.13600 194.71200 195.26200 195.83100 196.39300 196.97600
 197.60400 198.14900 198.58400 199.05700 199.69500 200.37800 201.05400 201.70800
 202.31300 202.85700 203.35500 203.86200 204.56900 205.29700 206.02600 206.98700
 208.19300 209.44100 210.96900 212.57600 214.46200 216.51300 218.63000 220.85300
 223.34100 225.96200 228.73900 231.69700 234.70600 237.70600 240.69200 243.65700
 246.73700 249.69900 252.52100 255.06300 257.29000 259.23300 260.63300 261.68000
 262.46100 262.79800 262.69100 262.22400 261.06900 259.52500 257.70700 255.50700
 253.00100 250.30200 247.39800 244.45200 241.65400 239.05400 236.73300 234.59000
 232.59500 230.72500 228.83400 226.82600 224.66600 222.38700 220.10400 217.71500
 215.45900 213.06600 210.54600 208.09300 205.35400 202.08130 196.05959 200.71215
 209.01611 216.90438 223.84126 229.78593 235.00632 240.20838 245.98943 250.68668
 254.32982 257.93487 261.55666 264.96801 268.15192 271.06452 273.76717 276.25691
 278.57680 280.74479 282.77456 284.60533 286.27232 287.81705 289.31715 290.65561
 291.81734 292.81312 293.70701 294.49387 295.17482 295.77730 296.32696 296.82492
 297.27278 297.67160 298.02000 298.46400
 399.33000 389.90700 379.81300 368.66800 357.52200 345.30100 333.07400 320.22700
 307.21600 293.84800 280.37600 267.29600 254.61000 242.98700 232.15100 221.97700
 212.67200 204.28600 197.66900 192.82100 189.48600 187.45200 186.81400 187.08900
 187.78100 189.05400 190.64800 192.54200 194.63000 196.75200 198.67100 200.15800
 201.53500 202.48700 202.97500 203.34000 203.53900 203.49700 203.38500 203.24700
 203.00500 202.78600 202.60300 202.43700 202.42600 202.88800 203.42000 203.95100
 204.89500 205.99200 207.30100 208.95800 210.73800 213.10000 215.56400 218.18000
 220.96600 223.91800 226.96100 230.09200 233.29300 236.55700 239.95500 243.53700
 246.84500 249.39000 251.54200 253.47400 255.19500 256.48400 257.43100 258.05900
 258.21200 258.04000 257.58200 256.64300 255.23900 253.50700 251.40800 249.05600
 246.57600 243.99400 241.38900 238.83000 236.34400 233.98600 231.96900 230.11800
 228.42300 226.89900 225.54800 224.29700 223.10500 221.96500 220.95800 220.11300
 219.49000 218.92000 218.32500 217.88100 217.42300 216.96366 216.35568 216.80261
 217.73415 218.28582 218.64258 219.10077 220.44626 222.53987 226.38451 230.35736
 233.59734 237.39164 241.29814 245.22796 248.98002 252.51130 255.78595 258.80109
 261.54781 264.05210 266.34239 268.04198 269.58951 271.01303 272.35754 273.55718
 274.59842 275.49092 276.28989 276.99307 277.60161 278.14001 278.63122 279.07623
 279.47646 279.83287 280.14422 280.54100
 399.73800 389.78500 379.66200 368.15100 356.64100 344.35000 331.79200 318.88800
 305.72600 292.49300 279.20900 266.73800 254.69600 244.21100 234.45700 225.43300
 217.56900 210.45100 204.30000 199.30600 195.45800 192.57600 191.02700 190.38600
 190.23900 190.53400 191.16600 191.92500 192.79500 193.76600 194.73200 195.31200
 195.80000 196.05200 196.11500 196.11500 196.03900 195.72300 195.34000 194.98900
 194.75100 194.79200 195.13300 195.59800 196.50600 198.13600 199.85800 201.56600
 204.17900 206.82300 209.89300 213.28400 216.82800 220.60500 224.38700 228.20900
 232.03200 235.82500 239.56000 243.25800 246.84500 250.20100 253.70900 257.46800
 261.53000 264.22100 266.60100 268.68100 270.32900 271.74100 272.83600 273.47400
 273.89800 274.00200 273.75700 273.28800 272.37100 271.10000 269.58900 267.77900
 265.81600 263.72100 261.39300 258.91600 256.29800 253.42300 250.33100 247.11400
 243.83700 240.52900 237.24900 233.99900 230.72800 227.51500 224.25400 220.95200
 217.62700 213.65600 210.12100 206.78900 204.01000 201.99491 199.07309 198.76551
 199.40006 200.48994 201.46112 202.31912 203.45100 204.96110 207.47502 210.85391
 213.70530 217.29629 220.99574 224.72316 228.28753 231.64854 234.68024 237.40893
 239.70644 241.60899 243.46854 245.67368 247.68154 249.52395 251.24767 252.78566
 254.12057 255.26479 256.23740 257.09036 257.82852 258.48160 259.07744 259.61723
 260.10271 260.53504 260.91270 261.39400
 399.73800 389.78500 379.66200 368.15100 356.64100 344.35000 331.79200 318.88800
 305.72600 292.49300 279.20900 266.73800 254.69600 244.21100 234.45700 225.43300
 217.56900 210.45100 204.30000 199.30600 195.45800 192.57600 191.02700 190.38600
 190.23900 190.53400 191.16600 191.92500 192.79500 193.76600 194.73200 195.31200
 195.80000 196.05200 196.11500 196.11500 196.03900 195.72300 195.34000 194.98900
 194.75100 194.79200 195.13300 195.59800 196.50600 198.13600 199.85800 201.56600
 204.17900 206.82300 209.89300 213.28400 216.82800 220.60500 224.38700 228.20900
 232.03200 235.82500 239.56000 243.25800 246.84500 250.20100 253.70900 257.46800
 261.53000 264.22100 266.60100 268.68100 270.32900 271.74100 272.83600 273.47400
 273.89800 274.00200 273.75700 273.28800 272.37100 271.10000 269.58900 267.77900
 265.81600 263.72100 261.39300 258.91600 256.29800 253.42300 250.33100 247.11400
 243.83700 240.52900 237.24900 233.99900 230.72800 227.51500 224.25400 220.95200
 217.62700 213.65600 210.12100 206.78900 204.01000 201.99491 199.07309 198.76551
 199.40006 200.48994 201.46112 202.31912 203.45100 204.96110 207.47502 210.85391
 213.70530 217.29629 220.99574 224.72316 228.28753 231.64854 234.68024 237.40893
 239.70644 241.60899 243.46854 245.67368 247.68154 249.52395 251.24767 252.78566
 254.12057 255.26479 256.23740 257.09036 257.82852 258.48160 259.07744 259.61723
 260.10271 260.53504 260.91270 261.39400
 399.33000 389.90700 379.81300 368.66800 357.52200 345.30100 333.07400 320.22700
 307.21600 293.84800 280.37600 267.29600 254.61000 242.98700 232.15100 221.97700
 212.67200 204.28600 197.66900 192.82100 189.48600 187.45200 186.81400 187.08900
 187.78100 189.05400 190.64800 192.54200 194.63000 196.75200 198.67100 200.15800
 201.53500 202.48700 202.97500 203.34000 203.53900 203.49700 203.38500 203.24700
 203.00500 202.78600 202.60300 202.43700 202.42600 202.88800 203.42000 203.95100
 204.89500 205.99200 207.30100 208.95800 210.73800 213.10000 215.56400 218.18000
 220.96600 223.91800 226.96100 230.09200 233.29300 236.55700 239.95500 243.53700
 246.84500 249.39000 251.54200 253.47400 255.19500 256.48400 257.43100 258.05900
 258.21200 258.04000 257.58200 256.64300 255.23900 253.50700 251.40800 249.05600
 246.57600 243.99400 241.38900 238.83000 236.34400 233.98600 231.96900 230.11800
 228.42300 226.89900 225.54800 224.29700 223.10500 221.96500 220.95800 220.11300
 219.49000 218.92000 218.32500 217.88100 217.42300 216.96366 216.35568 216.80261
 217.73415 218.28582 218.64258 219.10077 220.44626 222.53987 226.38451 230.35736
 233.59734 237.39164 241.29814 245.22796 248.98002 252.51130 255.78595 258.80109
 261.54781 264.05210 266.34239 268.04198 269.58951 271.01303 272.35754 273.55718
 274.59842 275.49092 276.28989 276.99307 277.60161 278.14001 278.63122 279.07623
 279.47646 279.83287 280.14422 280.54100
 381.81900 372.39900 361.20600 349.77600 337.62200 324.85300 311.81000 298.35300
 284.86000 271.32400 258.56100 246.30400 236.08700 226.79600 218.44800 211.29000
 205.52200 200.89400 197.38100 194.84800 193.01500 192.31500 192.25000 192.43100
 192.91200 193.53700 194.13600 194.71200 195.26200 195.83100 196.39300 196.97600
 197.60400 198.14900 198.58400 199.05700 199.69500 200.37800 201.05400 201.70800
 202.31300 202.85700 203.35500 203.86200 204.56900 205.29700 206.02600 206.98700
 208.19300 209.44100 210.96900 212.57600 214.46200 216.51300 218.63000 220.85300
 223.34100 225.96200 228.73900 231.69700 234.70600 237.70600 240.69200 243.65700
 246.73700 249.69900 252.52100 255.06300 257.29000 259.23300 260.63300 261.68000
 262.46100 262.79800 262.69100 262.22400 261.06900 259.52500 257.70700 255.50700
 253.00100 250.30200 247.39800 244.45200 241.65400 239.05400 236.73300 234.59000
 232.59500 230.72500 228.83400 226.82600 224.66600 222.38700 220.10400 217.71500
 215.45900 213.06600 210.54600 208.09300 205.35400 202.08130 196.05959 200.71215
 209.01611 216.90438 223.84126 229.78593 235.00632 240.20838 245.98943 250.68668
 254.32982 257.93487 261.55666 264.96801 268.15192 271.06452 273.76717 276.25691
 278.57680 280.74479 282.77456 284.60533 286.27232 287.81705 289.31715 290.65561
 291.81734 292.81312 293.70701 294.49387 295.17482 295.77730 296.32696 296.82492
 297.27278 297.67160 298.02000 298.46400
 366.78100 356.34557 345.78814 334.66471 323.07828 311.28285 299.16342 286.97699
 274.69956 262.60713 250.62670 239.93827 230.07084 221.18541 213.37798 206.39055
 200.23512 195.18369 191.77626 189.82883 188.87640 188.95097 189.79654 191.11511
 192.85068 194.95625 197.22982 199.59939 202.05496 204.54553 206.64410 208.49667
 210.13324 211.28881 211.52838 211.76695 211.71452 211.43009 211.07366 210.71423
 210.34180 210.06237 209.88095 209.75552 209.69409 210.03566 210.43223 210.83180
 211.63537 212.82394 214.08451 215.87808 217.81665 219.87022 221.97579 224.06936
 226.13993 228.23450 230.34207 232.45864 234.59821 236.78078 239.04735 241.42792
 244.05949 246.32106 248.33363 250.10920 251.53677 252.67034 253.50291 253.82948
 253.87705 253.66162 253.03219 251.99076 250.60733 248.77890 246.69847 244.54204
 242.34361 240.15818 237.98875 235.83832 233.70889 231.58646 229.62303 227.79060
 226.08417 224.56674 223.20731 221.98988 220.88245 219.85302 218.96759 218.11916
 217.37173 216.56230 215.67087 215.04544 214.50601 213.55713 211.31755 210.44864
 211.28777 213.08046 215.24309 216.92964 219.27272 223.36671 229.17169 234.27072
 238.11617 241.86171 245.58160 249.44849 253.53920 256.97485 259.60950 261.77582
 264.63156 267.43539 269.78705 271.73911 273.48901 275.17734 276.81265 278.49902
 280.23874 281.85361 283.33319 284.68707 285.86774 286.91550 287.87259 288.74826
 289.53778 290.24692 290.87234 291.70303
 366.78100 356.34492 345.78684 334.66276 323.07568 311.27959 299.15951 286.97243
 274.69435 262.60127 250.62019 239.93111 230.06303 221.17695 213.36886 206.38078
 200.22470 195.17262 191.76454 189.81646 188.86338 188.93730 189.78222 191.10013
 192.83505 194.93997 197.21289 199.58181 202.03673 204.52665 206.62457 208.47649
 210.11240 211.26732 211.50624 211.74416 211.69108 211.40600 211.04892 210.68884
 210.31575 210.03567 209.85359 209.72751 209.66543 210.00635 210.40227 210.80119
 211.60411 212.79202 214.05194 215.84486 217.78278 219.83570 221.94062 224.03354
 226.10346 228.19738 230.30429 232.42021 234.55913 236.74105 239.00697 241.38689
 244.01781 246.27873 248.29065 250.06556 251.49248 252.62540 253.45732 253.78324
 253.83016 253.61408 252.98400 251.94192 250.55783 248.72875 246.64767 244.49059
 242.29151 240.10543 237.93535 235.78427 233.65419 231.53110 229.56702 227.73394
 226.02686 224.50878 223.14870 221.93062 220.82254 219.79246 218.90637 218.05729
 217.30921 216.49913 215.60705 214.98097 214.44089 213.53978 211.41258 210.57794
 211.36290 213.19513 215.34744 216.94717 219.21332 223.29260 229.10941 234.18628
 238.01431 241.75397 245.48210 249.37436 253.50867 256.89420 259.47107 261.66116
 264.52704 267.35147 269.72607 271.66797 273.37946 275.03598 276.68915 278.39761
 280.13864 281.75174 283.23328 284.58917 285.76968 286.81717 287.77701 288.65073
 289.44336 290.15152 290.77750 291.60950
 366.78100 356.34425 345.78549 334.66074 323.07298 311.27623 299.15547 286.96772
 274.68896 262.59521 250.61345 239.92370 230.05494 221.16819 213.35943 206.37068
 200.21392 195.16117 191.75241 189.80366 188.84990 188.92315 189.76739 191.08464
 192.81888 194.92313 197.19537 199.56362 202.01786 204.50711 206.60435 208.45560
 210.09084 211.24509 211.48333 211.72058 211.66682 211.38107 211.02331 210.66256
 210.28880 210.00805 209.82529 209.69854 209.63578 209.97603 210.37127 210.76952
 211.57176 212.75901 214.01825 215.81050 217.74774 219.79999 221.90423 223.99648
 226.06572 228.15897 230.26521 232.38046 234.51870 236.69995 238.96519 241.34444
 243.97468 246.23493 248.24617 250.02042 251.44666 252.57891 253.41015 253.73540
 253.78164 253.56489 252.93413 251.89138 250.50662 248.67687 246.59511 244.43736
 242.23760 240.05085 237.88009 235.72834 233.59758 231.47383 229.50907 227.67532
 225.96756 224.44881 223.08805 221.86930 220.76054 219.72979 218.84303 217.99328
 217.24452 216.43377 215.54101 214.91426 214.37350 213.51987 211.50441 210.70088
 211.44775 213.31509 215.44530 216.99388 219.15181 223.21657 229.04619 234.10054
 237.91127 241.64427 245.38222 249.30225 253.47470 256.80862 259.32977 261.54410
 264.41788 267.26074 269.66016 271.59515 273.27365 274.90222 276.57294 278.30106
 280.04330 281.65436 283.13889 284.49515 285.67651 286.72409 287.68414 288.55817
 289.34985 290.05847 290.68787 291.51932
 366.78100 356.34349 345.78398 334.65847 323.06997 311.27246 299.15095 286.96244
 274.68293 262.58842 250.60591 239.91540 230.04590 221.15839 213.34888 206.35937
 200.20186 195.14835 191.73884 189.78933 188.83483 188.90732 189.75081 191.06730
 192.80079 194.90428 197.17577 199.54326 201.99676 204.48525 206.58174 208.43223
 210.06672 211.22021 211.45770 211.69419 211.63969 211.35318 210.99467 210.63316
 210.25865 209.97714 209.79363 209.66612 209.60262 209.94211 210.33660 210.73409
 211.53558 212.72207 213.98056 215.77205 217.70855 219.76004 221.86353 223.95502
 226.02351 228.11600 230.22149 232.33598 234.47348 236.65397 238.91846 241.29695
 243.92644 246.18593 248.19642 249.96991 251.39541 252.52690 253.35739 253.68188
 253.72737 253.50986 252.87835 251.83484 250.44934 248.61883 246.53632 244.37781
 242.17730 239.98979 237.81828 235.66577 233.53427 231.40976 229.44425 227.60974
 225.90123 224.38172 223.02021 221.80070 220.69120 219.65969 218.77218 217.92167
 217.17216 216.36065 215.46714 214.83963 214.29813 213.49457 211.59703 210.81676
 211.53912 213.43291 215.53755 217.05876 219.10503 223.14211 228.98473 234.01294
 237.80508 241.53084 245.28217 249.23204 253.43591 256.71927 259.18848 261.42715
 264.30240 267.16092 269.58286 271.51468 273.16895 274.77777 276.46606 278.21149
 279.95270 281.56378 283.04977 284.40591 285.58768 286.63596 287.59726 288.47083
 289.26172 289.97516 290.60004 291.43677
 366.78100 356.34269 345.78239 334.65608 323.06678 311.26847 299.14616 286.95686
 274.67655 262.58125 250.59794 239.90664 230.03633 221.14802 213.33772 206.34741
 200.18911 195.13480 191.72449 189.77419 188.81888 188.89058 189.73327 191.04897
 192.78166 194.88435 197.15505 199.52174 201.97444 204.46213 206.55782 208.40752
 210.04121 211.19391 211.43060 211.66630 211.61099 211.32368 210.96438 210.60207
 210.22677 209.94446 209.76015 209.63185 209.56754 209.90624 210.29993 210.69662
 211.49732 212.68301 213.94071 215.73140 217.66710 219.71779 221.82048 223.91118
 225.97887 228.07057 230.17526 232.28895 234.42565 236.60534 238.86904 241.24673
 243.87543 246.13412 248.14381 249.91651 251.34120 252.47190 253.30159 253.62528
 253.66998 253.45167 252.81937 251.77506 250.38875 248.55745 246.47414 244.31484
 242.11353 239.92523 237.75292 235.59961 233.46731 231.34200 229.37570 227.54039
 225.83108 224.31078 222.94847 221.72817 220.61786 219.58556 218.69725 217.84594
 217.09564 216.28333 215.38903 214.76072 214.21841 213.46629 211.68997 210.92879
 211.63303 213.54938 215.62689 217.12744 219.07802 223.07745 228.92812 233.92293
 237.69650 241.41664 245.18616 249.16579 253.38995 256.62570 259.04691 261.30853
 264.18045 267.04782 269.49139 271.42343 273.06583 274.66464 276.36819 278.13000
 279.86838 281.47852 282.96649 284.32220 285.50452 286.55338 287.51398 288.38821
 289.18002 289.89316 290.52008 291.35629
 366.78100 356.34197 345.78094 334.65392 323.06389 311.26486 299.14183 286.95180
 274.67077 262.57475 250.59072 239.89869 230.02766 221.13863 213.32761 206.33658
 200.17755 195.12252 191.71149 189.76046 188.80444 188.87541 189.71738 191.03235
 192.76432 194.86629 197.13627 199.50224 201.95421 204.44118 206.53615 208.38513
 210.01810 211.17007 211.40604 211.64101 211.58498 211.29696 210.93693 210.57390
 210.19787 209.91484 209.72982 209.60079 209.53576 209.87373 210.26670 210.66267
 211.46265 212.64762 213.90459 215.69456 217.62953 219.67950 221.78148 223.87145
 225.93842 228.02939 230.13336 232.24634 234.38231 236.56128 238.82425 241.20122
 243.82919 246.08717 248.09614 249.86811 251.29208 252.42205 253.25103 253.57400
 253.61797 253.39894 252.76591 251.72088 250.33386 248.50183 246.41780 244.25777
 242.05574 239.86672 237.69369 235.53966 233.40663 231.28060 229.31357 227.47755
 225.76752 224.24649 222.88346 221.66243 220.55140 219.51838 218.62935 217.77732
 217.02629 216.21326 215.31824 214.68921 214.14618 213.44136 211.77654 211.03963
 211.72696 213.66504 215.71979 217.19164 219.06929 223.02312 228.87215 233.83263
 237.58975 241.30739 245.09723 249.10316 253.33450 256.52478 258.90485 261.18900
 264.05228 266.92316 269.38290 271.31952 272.96228 274.56396 276.28271 278.05521
 279.79059 281.39777 282.88782 284.24548 285.42712 286.47726 287.43741 288.31244
 289.10507 289.81903 290.44522 291.28152
 366.78100 356.34133 345.77966 334.65198 323.06131 311.26164 299.13797 286.94730
 274.66563 262.56895 250.58428 239.89161 230.01994 221.13027 213.31860 206.32692
 200.16725 195.11158 191.69991 189.74824 188.79157 188.86189 189.70322 191.01755
 192.74888 194.85021 197.11954 199.48486 201.93619 204.42252 206.51685 208.36518
 209.99751 211.14883 211.38416 211.61849 211.56182 211.27315 210.91248 210.54880
 210.17213 209.88846 209.70279 209.57312 209.50745 209.84477 210.23710 210.63243
 211.43176 212.61609 213.87242 215.66174 217.59607 219.64540 221.74673 223.83606
 225.90239 227.99271 230.09604 232.20837 234.34370 236.52203 238.78436 241.16068
 243.78801 246.04534 248.05367 249.82500 251.24833 252.37765 253.20598 253.52831
 253.57164 253.35197 252.71830 251.67262 250.28495 248.45228 246.36761 244.20694
 242.00427 239.81459 237.64092 235.48625 233.35258 231.22591 229.25824 227.42156
 225.71089 224.18922 222.82555 221.60388 220.49221 219.45853 218.56886 217.71619
 216.96452 216.15085 215.25518 214.62550 214.08183 213.42068 211.85876 211.14352
 211.82722 213.77832 215.81731 217.25754 219.06100 222.98033 228.81737 233.74026
 237.48280 241.20189 245.01520 249.04564 253.27110 256.41885 258.76602 261.07227
 263.91977 266.78491 269.25702 271.19995 272.85669 274.47470 276.20901 277.98621
 279.71964 281.32162 282.81488 284.17227 285.35510 286.40417 287.36526 288.24042
 289.03476 289.74686 290.37561 291.21423
 366.78100 356.34079 345.77857 334.65036 323.05914 311.25893 299.13472 286.94350
 274.66129 262.56407 250.57886 239.88565 230.01343 221.12322 213.31100 206.31879
 200.15858 195.10236 191.69015 189.73793 188.78072 188.85051 189.69129 191.00508
 192.73586 194.83665 197.10544 199.47022 201.92101 204.40679 206.50058 208.34837
 209.98015 211.13094 211.36573 211.59951 211.54230 211.25308 210.89187 210.52766
 210.15044 209.86623 209.68001 209.54980 209.48359 209.82037 210.21216 210.60694
 211.40573 212.58952 213.84530 215.63409 217.56787 219.61666 221.71745 223.80623
 225.87202 227.96180 230.06459 232.17638 234.31116 236.48895 238.75073 241.12652
 243.75331 246.01009 248.01788 249.78866 251.21145 252.34024 253.16802 253.48981
 253.53259 253.31238 252.67817 251.63195 250.24374 248.41052 246.32531 244.16410
 241.96088 239.77067 237.59645 235.44124 233.30703 231.17981 229.21160 227.37438
 225.66317 224.14096 222.77674 221.55453 220.44231 219.40810 218.51789 217.66467
 216.91246 216.09825 215.20203 214.57182 214.02760 213.40529 211.93500 211.24814
 211.92661 213.89250 215.91791 217.31578 219.07436 222.94133 228.75616 233.64499
 237.37943 241.10419 244.94382 248.99336 253.20122 256.30750 258.62875 260.95807
 263.78278 266.63333 269.11343 271.06799 272.75217 274.40045 276.14761 277.92496
 279.65433 281.24942 282.74689 284.10507 285.28787 286.33850 287.30014 288.17627
 288.96878 289.68292 290.31198 291.15250
 366.78100 356.34039 345.77778 334.64918 323.05757 311.25696 299.13235 286.94074
 274.65814 262.56053 250.57492 239.88131 230.00870 221.11809 213.30549 206.31288
 200.15227 195.09566 191.68305 189.73045 188.77284 188.84223 189.68262 190.99601
 192.72641 194.82680 197.09519 199.45958 201.90997 204.39537 206.48876 208.33615
 209.96754 211.11793 211.35232 211.58572 211.52811 211.23850 210.87689 210.51228
 210.13468 209.85007 209.66346 209.53285 209.46624 209.80264 210.19403 210.58842
 211.38681 212.57020 213.82559 215.61399 217.54738 219.59577 221.69616 223.78455
 225.84995 227.93934 230.04173 232.15312 234.28751 236.46491 238.72630 241.10169
 243.72808 245.98447 247.99187 249.76226 251.18465 252.31304 253.14043 253.46182
 253.50422 253.28361 252.64900 251.60239 250.21378 248.38018 246.29457 244.13296
 241.92935 239.73874 237.56414 235.40853 233.27392 231.14631 229.17770 227.34010
 225.62849 224.10588 222.74127 221.51866 220.40605 219.37145 218.48084 217.62723
 216.87462 216.06001 215.16341 214.53280 213.98819 213.39748 212.00183 211.35056
 212.03780 214.00067 216.03319 217.37506 219.06180 222.91092 228.69800 233.55006
 237.27246 241.00529 244.87437 248.94290 253.12195 256.18826 258.49548 260.85107
 263.64606 266.47443 268.95895 270.92914 272.65149 274.33966 276.09842 277.87064
 279.59750 281.18277 282.68472 284.04373 285.22705 286.27744 287.23944 288.11588
 288.91055 289.62350 290.25418 291.09525
 366.78100 356.34035 345.77771 334.64906 323.05742 311.25677 299.13213 286.94048
 274.65784 262.56019 250.57455 239.88090 230.00825 221.11761 213.30496 206.31232
 200.15167 195.09503 191.68238 189.72974 188.77209 188.84144 189.68180 190.99515
 192.72551 194.82586 197.09422 199.45857 201.90893 204.39428 206.48764 208.33499
 209.96634 211.11670 211.35105 211.58441 211.52676 211.23712 210.87547 210.51083
 210.13318 209.84854 209.66189 209.53124 209.46460 209.80095 210.19231 210.58666
 211.38502 212.56837 213.82373 215.61208 217.54543 219.59379 221.69414 223.78250
 225.84785 227.93721 230.03956 232.15092 234.28527 236.46263 238.72398 241.09933
 243.72569 245.98204 247.98940 249.75975 251.18211 252.31046 253.13782 253.45917
 253.50152 253.28088 252.64623 251.59959 250.21094 248.37730 246.29165 244.13001
 241.92636 239.73572 237.56107 235.40542 233.27078 231.14313 229.17449 227.33684
 225.62520 224.10255 222.73791 221.51526 220.40262 219.36797 218.47732 217.62368
 216.87103 216.05639 215.15974 214.52910 213.98445 213.40871 212.04845 211.45166
 212.16740 214.12737 216.11159 217.40752 219.09355 222.87869 228.62851 233.44759
 237.16208 240.91055 244.81496 248.89992 253.04309 256.07486 258.37589 260.75577
 263.51175 266.30713 268.78983 270.77829 272.54657 274.28345 276.05020 277.81491
 279.53940 281.11502 282.62695 283.98718 285.17154 286.22110 287.18408 288.05978
 288.85645 289.56760 290.20087 291.04346
 366.78100 356.33929 345.77557 334.64586 323.05315 311.25143 299.12572 286.93301
 274.64929 262.55058 250.56387 239.86915 229.99544 221.10373 213.29001 206.29630
 200.13459 195.07687 191.66316 189.70945 188.75073 188.81902 189.65831 190.97059
 192.69988 194.79917 197.06645 199.42974 201.87903 204.36331 206.45560 208.30189
 209.93217 211.08146 211.31475 211.54703 211.48832 211.19761 210.83489 210.46918
 210.09047 209.80475 209.61704 209.48533 209.41761 209.75290 210.14319 210.53648
 211.33376 212.51605 213.77034 215.55762 217.48991 219.53720 221.63648 223.72377
 225.78806 227.87634 229.97763 232.08792 234.22120 236.39749 238.65778 241.03206
 243.65735 245.91264 247.91892 249.68821 251.10950 252.23678 253.06307 253.38336
 253.42464 253.20293 252.56722 251.51950 250.12979 248.29508 246.20836 244.04565
 241.84094 239.64922 237.47351 235.31680 233.18108 231.05237 229.08266 227.24394
 225.53123 224.00752 222.64180 221.41809 220.30438 219.26866 218.37695 217.52224
 216.76852 215.95281 215.05510 214.42338 213.87767 213.36794 212.16360 211.52458
 212.23611 214.25044 216.24760 217.46361 219.09393 222.85925 228.57112 233.35979
 237.06583 240.83147 244.77037 248.86519 252.96107 255.95679 258.25488 260.65817
 263.37045 266.12509 268.60205 270.61108 272.43430 274.22833 276.00696 277.76025
 279.47827 281.05423 282.57126 283.93314 285.11630 286.16821 287.13049 288.00806
 288.80273 289.51874 290.14847 290.99146
 366.78100 356.33831 345.77361 334.64292 323.04923 311.24653 299.11984 286.92615
 274.64145 262.54176 250.55407 239.85837 229.98368 221.09099 213.27629 206.28160
 200.11891 195.06021 191.64552 189.69083 188.73113 188.79844 189.63675 190.94805
 192.67636 194.77467 197.04097 199.40328 201.85159 204.33489 206.42620 208.27151
 209.90081 211.04912 211.28143 211.51273 211.45304 211.16135 210.79765 210.43096
 210.05127 209.76457 209.57588 209.44319 209.37449 209.70880 210.09811 210.49041
 211.28672 212.46802 213.72133 215.50764 217.43894 219.48525 221.58356 223.66986
 225.73317 227.82048 229.92078 232.03009 234.16240 236.33770 238.59701 240.97032
 243.59462 245.84893 247.85424 249.62254 251.04285 252.16916 252.99446 253.31377
 253.35408 253.13138 252.49469 251.44600 250.05530 248.21961 246.13192 243.96822
 241.76253 239.56984 237.39314 235.23545 233.09876 230.96906 228.99837 227.15868
 225.44498 223.92029 222.55360 221.32890 220.21421 219.17752 218.28482 217.42913
 216.67444 215.85774 214.95905 214.32636 213.77966 213.33122 212.27174 211.60201
 212.30167 214.34546 216.38564 217.56221 219.12807 222.85788 228.50768 233.25806
 236.95967 240.74648 244.72365 248.82869 252.86626 255.82658 258.13080 260.56143
 263.22998 265.94046 268.41049 270.44220 272.32434 274.17813 275.96826 277.70618
 279.41669 280.99698 282.52066 283.88388 285.06757 286.11935 287.08170 287.95984
 288.75494 289.46976 290.10034 290.95190
 366.78100 356.33704 345.77109 334.63913 323.04417 311.24021 299.11226 286.91730
 274.63134 262.53038 250.54143 239.84447 229.96851 221.07456 213.25860 206.26264
 200.09868 195.03873 191.62277 189.66681 188.70585 188.77190 189.60894 190.91898
 192.64603 194.74307 197.00811 199.36915 201.81620 204.29824 206.38828 208.23233
 209.86037 211.00741 211.23845 211.46850 211.40754 211.11458 210.74962 210.38167
 210.00071 209.71275 209.52280 209.38884 209.31888 209.65192 210.03997 210.43101
 211.22605 212.40609 213.65814 215.44318 217.37322 219.41827 221.51531 223.60035
 225.66239 227.74844 229.84748 231.95552 234.08656 236.26061 238.51865 240.89069
 243.51374 245.76678 247.77082 249.53786 250.95691 252.08195 252.90599 253.22403
 253.26308 253.03912 252.40116 251.35121 249.95925 248.12229 246.03333 243.86838
 241.66142 239.46746 237.28951 235.13055 232.99259 230.86163 228.88968 227.04872
 225.33376 223.80780 222.43985 221.21389 220.09793 219.05998 218.16602 217.30906
 216.55310 215.73515 214.83519 214.20123 213.65327 213.27966 212.39697 211.68234
 212.34721 214.48039 216.52559 217.64320 219.15314 222.78802 228.44547 233.16118
 236.85315 240.66643 244.68488 248.79800 252.77138 255.70241 258.02121 260.47864
 263.09961 265.76190 268.22031 270.27524 272.21539 274.13107 275.93008 277.65030
 279.35062 280.94318 282.47379 283.83759 285.02243 286.07550 287.03830 287.91595
 288.71173 289.42639 290.05731 290.90729
 366.78100 356.33621 345.76941 334.63662 323.04083 311.23604 299.10724 286.91145
 274.62466 262.52286 250.53307 239.83528 229.95849 221.06369 213.24690 206.25011
 200.08531 195.02452 191.60773 189.65094 188.68914 188.75435 189.59056 190.89977
 192.62597 194.72218 196.98639 199.34659 201.79280 204.27401 206.36322 208.20642
 209.83363 210.97984 211.21004 211.43925 211.37746 211.08367 210.71787 210.34908
 209.96729 209.67849 209.48770 209.35291 209.28212 209.61432 210.00153 210.39174
 211.18594 212.36515 213.61636 215.40057 217.32977 219.37398 221.47019 223.55439
 225.61560 227.70081 229.79902 231.90622 234.03643 236.20964 238.46684 240.83805
 243.46026 245.71247 247.71567 249.48188 250.90009 252.02430 252.84750 253.16471
 253.20292 252.97812 252.33933 251.28854 249.89575 248.05795 245.96816 243.80237
 241.59457 239.39978 237.22099 235.06120 232.92240 230.79061 228.81782 226.97602
 225.26023 223.73344 222.36465 221.13785 220.02106 218.98227 218.08747 217.22968
 216.47289 215.65410 214.75330 214.11851 213.56972 213.24911 212.49162 211.76936
 212.41731 214.61394 216.63574 217.71819 219.19884 222.72635 228.38318 233.06851
 236.75381 240.59703 244.65681 248.77417 252.67821 255.58148 257.91791 260.39862
 262.97073 265.58102 268.02420 270.10388 272.10556 274.08673 275.89636 277.59833
 279.28760 280.89014 282.42480 283.78989 284.97629 286.02841 286.99326 287.87222
 288.66788 289.38287 290.01401 290.86761
 366.78100 356.33543 345.76787 334.63430 323.03773 311.23216 299.10260 286.90603
 274.61846 262.51590 250.52533 239.82676 229.94920 221.05363 213.23606 206.23849
 200.07293 195.01136 191.59379 189.63623 188.67366 188.73809 189.57352 190.88196
 192.60739 194.70282 196.96626 199.32569 201.77112 204.25156 206.33999 208.18242
 209.80885 210.95429 211.18372 211.41215 211.34959 211.05502 210.68845 210.31888
 209.93632 209.64675 209.45518 209.31962 209.24805 209.57948 209.96592 210.35535
 211.14878 212.32721 213.57765 215.36108 217.28951 219.33295 221.42838 223.51181
 225.57224 227.65668 229.75411 231.86054 233.98998 236.16241 238.41884 240.78928
 243.41071 245.66214 247.66457 249.43001 250.84744 251.97087 252.79331 253.10974
 253.14717 252.92160 252.28204 251.23047 249.83690 247.99834 245.90777 243.74120
 241.53264 239.33707 237.15750 234.99693 232.85737 230.72480 228.75123 226.90867
 225.19210 223.66453 222.29496 221.06740 219.94983 218.91026 218.01470 217.15613
 216.39856 215.57900 214.67743 214.04186 213.49229 213.22270 212.58578 211.84613
 212.50203 214.73796 216.73386 217.79253 219.24037 222.69115 228.32227 232.97923
 236.66344 240.53708 244.63611 248.75325 252.58000 255.45183 257.80573 260.30923
 262.83688 265.39703 267.82715 269.93564 272.00247 274.04987 275.87045 277.55353
 279.23007 280.83908 282.37662 283.74258 284.92932 285.98373 286.94910 287.82724
 288.62305 289.33945 289.97208 290.82672
 366.78100 356.33469 345.76637 334.63206 323.03475 311.22844 299.09812 286.90081
 274.61250 262.50919 250.51787 239.81856 229.94025 221.04394 213.22562 206.22731
 200.06100 194.99869 191.58037 189.62206 188.65875 188.72244 189.55712 190.86481
 192.58950 194.68418 196.94687 199.30556 201.75025 204.22993 206.31762 208.15931
 209.78500 210.92968 211.15837 211.38606 211.32275 211.02743 210.66012 210.28981
 209.90650 209.61618 209.42387 209.28756 209.21525 209.54593 209.93162 210.32031
 211.11300 212.29068 213.54037 215.32306 217.25074 219.29343 221.38812 223.47081
 225.53049 227.61418 229.71087 231.81656 233.94524 236.11693 238.37262 240.74231
 243.36299 245.61368 247.61537 249.38006 250.79674 251.91943 252.74112 253.05681
 253.09349 252.86718 252.22687 251.17455 249.78024 247.94093 245.84962 243.68230
 241.47299 239.27668 237.09637 234.93505 232.79474 230.66143 228.68712 226.84380
 225.12649 223.59818 222.22787 220.99955 219.88124 218.84093 217.94462 217.08530
 216.32699 215.50668 214.60437 213.96805 213.41774 213.19852 212.68057 211.91962
 212.58949 214.85899 216.82346 217.86012 219.28169 222.67047 228.26689 232.89470
 236.58040 240.48424 244.61768 248.72972 252.47122 255.30653 257.67935 260.20978
 262.70270 265.21832 267.63980 269.78226 271.91055 274.01947 275.84900 277.51364
 279.17264 280.78769 282.32816 283.69543 284.88367 285.93808 286.90341 287.78262
 288.58127 289.29471 289.92899 290.78802
 366.78100 356.33395 345.76490 334.62984 323.03179 311.22474 299.09369 286.89563
 274.60658 262.50253 250.51047 239.81042 229.93137 221.03432 213.21526 206.21621
 200.04916 194.98611 191.56706 189.60800 188.64395 188.70690 189.54084 190.84779
 192.57174 194.66569 196.92764 199.28558 201.72953 204.20848 206.29542 208.13637
 209.76132 210.90527 211.13322 211.36016 211.29611 211.00006 210.63200 210.26095
 209.87690 209.58585 209.39280 209.25574 209.18269 209.51264 209.89758 210.28553
 211.07748 212.25443 213.50338 215.28532 217.21227 219.25422 221.34816 223.43011
 225.48906 227.57201 229.66796 231.77290 233.90085 236.07180 238.32674 240.69569
 243.31564 245.56559 247.56653 249.33048 250.74643 251.86838 252.68932 253.00427
 253.04022 252.81317 252.17211 251.11906 249.72401 247.88396 245.79190 243.62385
 241.41380 239.21675 237.03570 234.87364 232.73259 230.59854 228.62348 226.77943
 225.06138 223.53233 222.16127 220.93222 219.81317 218.77212 217.87506 217.01501
 216.25596 215.43491 214.53185 213.89480 213.34375 213.17491 212.77605 211.99123
 212.68190 214.98106 216.89479 217.92270 219.34196 222.65546 228.21710 232.81500
 236.50372 240.43625 244.59868 248.69884 252.34880 255.14549 257.54153 260.10403
 262.57333 265.05261 267.46884 269.64627 271.82959 273.99133 275.82620 277.47580
 279.11978 280.73853 282.28052 283.64801 284.83624 285.89215 286.85803 287.73801
 288.53482 289.25058 289.88556 290.74597
 366.78100 356.33312 345.76324 334.62736 323.02848 311.22060 299.08872 286.88984
 274.59996 262.49508 250.50220 239.80132 229.92144 221.02356 213.20368 206.20380
 200.03592 194.97204 191.55216 189.59228 188.62740 188.68952 189.52264 190.82876
 192.55188 194.64500 196.90612 199.26324 201.70636 204.18448 206.27061 208.11073
 209.73485 210.87797 211.10509 211.33121 211.26633 210.96945 210.60057 210.22869
 209.84381 209.55193 209.35805 209.22017 209.14629 209.47541 209.85953 210.24665
 211.03777 212.21389 213.46201 215.24313 217.16925 219.21037 221.30349 223.38461
 225.44273 227.52485 229.61997 231.72409 233.85121 236.02133 238.27545 240.64357
 243.26269 245.51181 247.51193 249.27505 250.69017 251.81129 252.63141 252.94553
 252.98065 252.75277 252.11089 251.05701 249.66113 247.82025 245.72737 243.55849
 241.34761 239.14973 236.96785 234.80497 232.66309 230.52821 228.55233 226.70745
 224.98857 223.45869 222.08682 220.85694 219.73706 218.69518 217.79730 216.93642
 216.17654 215.35466 214.45078 213.81290 213.26102 213.14709 212.87791 212.05969
 212.77805 215.10167 216.94551 217.98669 219.42245 222.64622 228.17123 232.74011
 236.43178 240.39059 244.57512 248.65625 252.21170 254.97195 257.39664 259.99466
 262.44980 264.89996 267.31540 269.52719 271.75845 273.96448 275.80310 277.43872
 279.06985 280.69070 282.23285 283.60095 284.79068 285.84689 286.81396 287.69247
 288.48959 289.20938 289.84015 290.70560
 366.78100 356.33223 345.76145 334.62468 323.02491 311.21613 299.08336 286.88359
 274.59282 262.48704 250.49327 239.79150 229.91072 221.01195 213.19118 206.19040
 200.02163 194.95686 191.53608 189.57531 188.60954 188.67077 189.50299 190.80822
 192.53045 194.62267 196.88290 199.23913 201.68135 204.15858 206.24381 208.08303
 209.70626 210.84849 211.07472 211.29994 211.23417 210.93640 210.56662 210.19385
 209.80808 209.51530 209.32053 209.18176 209.10698 209.43521 209.81844 210.20467
 210.99489 212.17012 213.41735 215.19757 217.12280 219.16303 221.25525 223.33548
 225.39271 227.47393 229.56816 231.67139 233.79762 235.96684 238.22007 240.58730
 243.20552 245.45375 247.45298 249.21520 250.62943 251.74966 252.56888 252.88211
 252.91634 252.68757 252.04479 250.99002 249.59325 247.75147 245.65770 243.48793
 241.27615 239.07738 236.89461 234.73083 232.58806 230.45229 228.47552 226.62974
 224.90997 223.37920 222.00642 220.77565 219.65488 218.61210 217.71333 216.85156
 216.09078 215.26801 214.36324 213.72446 213.17169 213.11560 212.98308 212.13362
 212.87370 215.21216 216.98312 218.05376 219.51181 222.64230 228.13048 232.67445
 236.36671 240.34723 244.54596 248.60155 252.06421 254.79204 257.24603 259.87845
 262.32819 264.75766 267.17542 269.42389 271.69763 273.94101 275.78152 277.40356
 279.01898 280.64362 282.18790 283.55621 284.74545 285.80197 286.76923 287.64948
 288.44760 289.16547 289.79730 290.66046
 366.78100 356.33132 345.75964 334.62196 323.02128 311.21160 299.07792 286.87724
 274.58556 262.47888 250.48419 239.78151 229.89983 221.00015 213.17847 206.17679
 200.00711 194.94143 191.51975 189.55807 188.59139 188.65171 189.48303 190.78735
 192.50867 194.59999 196.85931 199.21463 201.65595 204.13226 206.21658 208.05490
 209.67722 210.81854 211.04386 211.26818 211.20150 210.90282 210.53214 210.15846
 209.77178 209.47810 209.28242 209.14274 209.06706 209.39438 209.77670 210.16202
 210.95133 212.12565 213.37197 215.15129 217.07561 219.11493 221.20625 223.28557
 225.34189 227.42221 229.51553 231.61785 233.74317 235.91149 238.16381 240.53013
 243.14745 245.39477 247.39309 249.15441 250.56772 251.68704 252.50536 252.81768
 252.85100 252.62132 251.97764 250.92196 249.52428 247.68160 245.58692 243.41624
 241.20356 239.00388 236.82020 234.65552 232.51184 230.37516 228.39748 226.55079
 224.83011 223.29843 221.92475 220.69307 219.57139 218.52771 217.62803 216.76535
 216.00367 215.17999 214.27431 213.63463 213.08095 213.08267 213.08673 212.21985
 212.97049 215.30600 217.00354 218.12280 219.60213 222.64481 228.09793 232.62157
 236.31142 240.30908 244.51469 248.53844 251.90993 254.60547 257.08603 259.74936
 262.20312 264.62433 267.05219 269.33893 271.65128 273.92209 275.76550 277.37592
 278.98438 280.59674 282.14075 283.50906 284.70020 285.75717 286.72482 287.60367
 288.40399 289.12067 289.75369 290.61996
 366.78100 356.33039 345.75779 334.61918 323.01758 311.20697 299.07237 286.87076
 274.57815 262.47055 250.47494 239.77134 229.88873 220.98812 213.16552 206.16291
 199.99231 194.92570 191.50310 189.54049 188.57288 188.63228 189.46267 190.76607
 192.48646 194.57685 196.83525 199.18964 201.63004 204.10543 206.18883 208.02622
 209.64761 210.78801 211.01240 211.23580 211.16819 210.86858 210.49698 210.12237
 209.73477 209.44016 209.24356 209.10295 209.02634 209.35274 209.73413 210.11853
 210.90692 212.08032 213.32571 215.10410 217.02750 219.06589 221.15629 223.23468
 225.29007 227.36947 229.46186 231.56326 233.68765 235.85505 238.10644 240.47183
 243.08823 245.33462 247.33202 249.09241 250.50480 251.62320 252.44059 252.75199
 252.78438 252.55378 251.90917 250.85256 249.45396 247.61035 245.51475 243.34314
 241.12953 238.92893 236.74432 234.57872 232.43411 230.29651 228.31790 226.47029
 224.74869 223.21608 221.84148 220.60887 219.48627 218.44166 217.54105 216.67745
 215.91484 215.09024 214.18363 213.54302 212.98842 213.04805 213.18895 212.31944
 213.06895 215.38342 217.00937 218.18442 219.69099 222.64685 228.07448 232.58023
 236.26646 240.28069 244.48643 248.47247 251.75333 254.41321 256.91391 259.60300
 262.06982 264.49677 266.94498 269.27313 271.62012 273.91010 275.75146 277.35150
 278.96048 280.55368 282.09589 283.46494 284.65646 285.71451 286.68109 287.56149
 288.36118 289.07935 289.71039 290.57855
 366.78100 356.32942 345.75583 334.61625 323.01366 311.20208 299.06649 286.86391
 274.57032 262.46174 250.46515 239.76057 229.87698 220.97540 213.15181 206.14823
 199.97665 194.90906 191.48548 189.52189 188.55331 188.61172 189.44114 190.74355
 192.46297 194.55238 196.80980 199.16321 201.60263 204.07704 206.15946 207.99588
 209.61629 210.75571 210.97912 211.20154 211.13295 210.83237 210.45978 210.08420
 209.69561 209.40003 209.20244 209.06086 208.98327 209.30869 209.68911 210.07252
 210.85994 212.03235 213.27677 215.05418 216.97660 219.01401 221.10343 223.18084
 225.23526 227.31367 229.40509 231.50550 233.62892 235.79534 238.04575 240.41017
 243.02558 245.27100 247.26741 249.02683 250.43824 251.55566 252.37207 252.68249
 252.71390 252.48232 251.83673 250.77915 249.37957 247.53498 245.43840 243.26581
 241.05123 238.84964 236.66406 234.49747 232.35189 230.21330 228.23372 226.38513
 224.66255 223.12896 221.75338 220.51980 219.39621 218.35063 217.44904 216.58446
 215.82087 214.99529 214.08770 213.44612 212.89053 213.01031 213.29329 212.42702
 213.17473 215.44965 216.98672 218.22871 219.77779 222.65994 228.06059 232.54915
 236.23500 240.26494 244.46362 248.40326 251.59056 254.21011 256.72635 259.43759
 261.92804 264.37680 266.85522 269.23026 271.60706 273.90848 275.74283 277.32858
 278.93430 280.51437 282.05688 283.42728 284.61920 285.67596 286.64374 287.52380
 288.32239 289.03986 289.67322 290.54053
 366.78100 356.32858 345.75416 334.61374 323.01032 311.19790 299.06148 286.85806
 274.56364 262.45422 250.45680 239.75138 229.86696 220.96454 213.14012 206.13570
 199.96328 194.89486 191.47044 189.50602 188.53660 188.59418 189.42276 190.72434
 192.44292 194.53150 196.78808 199.14066 201.57924 204.05282 206.13440 207.96998
 209.58956 210.72814 210.95072 211.17230 211.10288 210.80146 210.42804 210.05162
 209.66220 209.36578 209.16736 209.02494 208.94652 209.27110 209.65068 210.03326
 210.81984 211.99142 213.23500 215.01158 216.93316 218.96974 221.05832 223.13490
 225.18848 227.26606 229.35664 231.45622 233.57880 235.74438 237.99396 240.35754
 242.97212 245.21670 247.21228 248.97086 250.38144 251.49802 252.31360 252.62318
 252.65376 252.42134 251.77493 250.71651 249.31609 247.47067 245.37325 243.19983
 240.98441 238.78199 236.59557 234.42815 232.28173 230.14231 228.16189 226.31247
 224.58905 223.05463 221.67821 220.44379 219.31937 218.27295 217.37053 216.50511
 215.74069 214.91427 214.00585 213.36343 212.80701 212.97990 213.38843 212.55417
 213.28607 215.50061 216.94637 218.25816 219.86490 222.66541 228.05124 232.52524
 236.21338 240.26086 244.44649 248.32977 251.42293 254.00204 256.53140 259.26193
 261.78442 264.26697 266.78488 269.20517 271.60629 273.91034 275.73340 277.30215
 278.89926 280.48096 282.02423 283.39490 284.58612 285.64456 286.61008 287.49115
 288.29007 289.00723 289.64081 290.50818
 366.78100 356.32720 345.75140 334.60960 323.00480 311.19100 299.05319 286.84839
 274.55259 262.44179 250.44299 239.73619 229.85039 220.94659 213.12079 206.11499
 199.94119 194.87139 191.44558 189.47978 188.50898 188.56518 189.39238 190.69258
 192.40978 194.49698 196.75218 199.10338 201.54058 204.01278 206.09297 207.92717
 209.54537 210.68257 210.90377 211.12397 211.05317 210.75037 210.37557 209.99777
 209.60697 209.30917 209.10936 208.96556 208.88576 209.20896 209.58716 209.96836
 210.75356 211.92376 213.16596 214.94116 216.86136 218.89655 220.98375 223.05895
 225.11115 227.18735 229.27655 231.37475 233.49595 235.66015 237.90835 240.27055
 242.88375 245.12694 247.12114 248.87834 250.28754 251.40274 252.21694 252.52514
 252.55434 252.32054 251.67274 250.61294 249.21114 247.36433 245.26553 243.09073
 240.87393 238.67013 236.48233 234.31353 232.16573 230.02493 228.04313 226.19233
 224.46753 222.93172 221.55392 220.31812 219.19232 218.14452 217.24072 216.37392
 215.60812 214.78032 213.87052 213.22672 212.66891 212.92284 213.52275 212.65379
 213.41759 215.56602 216.86940 218.24124 219.91974 222.68604 228.04422 232.50803
 236.20715 240.27432 244.44078 248.26189 251.26515 253.80400 256.34003 259.08173
 261.63745 264.15973 266.72018 269.18463 271.60638 273.90692 275.71310 277.26746
 278.85852 280.45343 281.99716 283.36761 284.55881 285.61716 286.58325 287.46371
 288.26205 288.97943 289.61273 290.47699
 366.78100 356.32626 345.74952 334.60678 323.00105 311.18631 299.04757 286.84183
 274.54509 262.43335 250.43361 239.72587 229.83914 220.93440 213.10766 206.10092
 199.92618 194.85544 191.42870 189.46197 188.49023 188.54549 189.37175 190.67101
 192.38727 194.47353 196.72779 199.07806 201.51432 203.98558 206.06484 207.89810
 209.51536 210.65162 210.87189 211.09115 211.01941 210.71567 210.33993 209.96119
 209.56945 209.27072 209.06998 208.92524 208.84450 209.16676 209.54402 209.92428
 210.70854 211.87781 213.11907 214.89333 216.81259 218.84685 220.93311 223.00737
 225.05864 227.13390 229.22216 231.31942 233.43968 235.60294 237.85020 240.21146
 242.82373 245.06599 247.05925 248.81551 250.22377 251.33803 252.15129 252.45856
 252.48682 252.25208 251.60334 250.54260 249.13986 247.29212 245.19238 243.01665
 240.79891 238.59417 236.40543 234.23569 232.08695 229.94521 227.96248 226.11074
 224.38500 222.84826 221.46952 220.23278 219.10604 218.05730 217.15257 216.28483
 215.51809 214.68935 213.77861 213.13387 212.57513 212.88411 213.61407 212.87383
 213.48907 215.54044 216.75020 218.23297 220.01591 222.70601 228.05583 232.52466
 236.22562 240.31029 244.44803 248.19794 251.10959 253.60281 256.13641 258.88284
 261.47397 264.04538 266.65503 269.16504 271.60776 273.90363 275.69354 277.23618
 278.82040 280.42810 281.97266 283.34302 284.53461 285.59186 286.55762 287.43762
 288.23608 288.95358 289.58606 290.44803
 366.78100 356.32932 345.75564 334.61596 323.01328 311.20160 299.06592 286.86324
 274.56956 262.46088 250.46420 239.75952 229.87584 220.97416 213.15048 206.14679
 199.97511 194.90743 191.48375 189.52007 188.55139 188.60971 189.43903 190.74135
 192.46067 194.54999 196.80731 199.16063 201.59995 204.07427 206.15659 207.99291
 209.61323 210.75255 210.97587 211.19819 211.12951 210.82883 210.45615 210.08047
 209.69179 209.39611 209.19843 209.05675 208.97907 209.30438 209.68470 210.06802
 210.85534 212.02766 213.27198 215.04930 216.97162 219.00894 221.09826 223.17558
 225.22990 227.30822 229.39954 231.49986 233.62318 235.78950 238.03982 240.40414
 243.01946 245.26478 247.26110 249.02042 250.43174 251.54906 252.36538 252.67570
 252.70702 252.47534 251.82965 250.77197 249.37229 247.52761 245.43093 243.25825
 241.04357 238.84189 236.65621 234.48953 232.34385 230.20517 228.22549 226.37681
 224.65413 223.12045 221.74477 220.51109 219.38741 218.34173 217.44005 216.57537
 215.81169 214.98601 214.07833 213.43665 212.88097 213.04001 213.41574 213.31792
 213.70482 215.30182 216.51527 218.22942 220.17659 222.83575 228.07907 232.54988
 236.25290 240.35172 244.45047 248.11595 250.92973 253.37573 255.90778 258.66229
 261.29846 263.93201 266.59964 269.15732 271.62006 273.90921 275.68326 277.21313
 278.78519 280.40848 281.95059 283.31998 284.51022 285.56668 286.53287 287.41122
 288.21042 288.92737 289.56079 290.41806
 366.78100 356.32966 345.75633 334.61699 323.01465 311.20332 299.06798 286.86565
 274.57231 262.46397 250.46764 239.76330 229.87996 220.97863 213.15529 206.15196
 199.98062 194.91328 191.48995 189.52661 188.55827 188.61694 189.44660 190.74927
 192.46893 194.55859 196.81626 199.16992 201.60958 204.08425 206.16691 208.00358
 209.62424 210.76390 210.98757 211.21023 211.14189 210.84156 210.46922 210.09389
 209.70555 209.41021 209.21288 209.07154 208.99420 209.31987 209.70053 210.08420
 210.87186 212.04452 213.28919 215.06685 216.98951 219.02718 221.11684 223.19451
 225.24917 227.32783 229.41950 231.52016 233.64382 235.81049 238.06115 240.42582
 243.04148 245.28714 247.28381 249.04347 250.45513 251.57280 252.38946 252.70013
 252.73179 252.50045 251.85512 250.79778 249.39844 247.55411 245.45777 243.28544
 241.07110 238.86976 236.68443 234.51809 232.37275 230.23442 228.25508 226.40675
 224.68441 223.15107 221.77574 220.54240 219.41906 218.37373 217.47239 216.60806
 215.84472 215.01938 214.11205 213.47071 212.91537 213.06804 213.42873 213.52858
 213.88734 215.15999 216.38879 218.25755 220.32394 222.97849 228.08911 232.56583
 236.27383 240.38477 244.43927 248.01215 250.72975 253.13495 255.67131 258.43994
 261.13034 263.83414 266.56128 269.16269 271.63934 273.91470 275.66916 277.18695
 278.74411 280.39240 281.93134 283.29755 284.48602 285.54233 286.50864 287.38766
 288.18564 288.90302 289.53363 290.39053
 366.78100 356.32907 345.75514 334.61521 323.01228 311.20035 299.06442 286.86149
 274.56757 262.45864 250.46171 239.75678 229.87285 220.97092 213.14699 206.14306
 199.97113 194.90320 191.47927 189.51534 188.54641 188.60448 189.43355 190.73562
 192.45470 194.54377 196.80084 199.15391 201.59298 204.06705 206.14912 207.98519
 209.60526 210.74433 210.96740 211.18947 211.12054 210.81961 210.44668 210.07075
 209.68183 209.38590 209.18797 209.04604 208.96811 209.29318 209.67325 210.05632
 210.84339 212.01546 213.25953 215.03660 216.95867 218.99574 221.08481 223.16189
 225.21596 227.29403 229.38510 231.48517 233.60824 235.77431 238.02438 240.38845
 243.00352 245.24859 247.24466 249.00373 250.41480 251.53187 252.34794 252.65802
 252.68909 252.45716 251.81123 250.75330 249.35337 247.50844 245.41151 243.23858
 241.02365 238.82172 236.63579 234.46886 232.32293 230.18400 228.20407 226.35515
 224.63222 223.09829 221.72236 220.48843 219.36450 218.31857 217.41664 216.55171
 215.78778 214.96185 214.05392 213.41199 212.85606 213.05080 213.51089 213.65413
 214.04544 215.12608 216.33969 218.25066 220.39726 223.09377 228.08611 232.57477
 236.29375 240.41597 244.42427 247.90091 250.52998 252.90059 255.44530 258.22800
 260.97598 263.75009 266.53165 269.17078 271.65439 273.91211 275.64435 277.15250
 278.69937 280.37186 281.91306 283.27734 284.46399 285.51816 286.48355 287.36136
 288.15817 288.87708 289.50729 290.35989
 366.78100 356.32901 345.75502 334.61502 323.01203 311.20004 299.06405 286.86105
 274.56706 262.45807 250.46108 239.75609 229.87209 220.97010 213.14611 206.14212
 199.97012 194.90213 191.47814 189.51415 188.54516 188.60316 189.43217 190.73418
 192.45319 194.54219 196.79920 199.15221 201.59122 204.06523 206.14723 207.98324
 209.60325 210.74226 210.96526 211.18727 211.11828 210.81729 210.44430 210.06830
 209.67931 209.38332 209.18533 209.04333 208.96534 209.29035 209.67036 210.05337
 210.84037 212.01238 213.25639 215.03340 216.95540 218.99241 221.08142 223.15843
 225.21244 227.29044 229.38145 231.48146 233.60447 235.77047 238.02048 240.38449
 242.99950 245.24451 247.24051 248.99952 250.41053 251.52754 252.34354 252.65355
 252.68456 252.45257 251.80658 250.74858 249.34859 247.50360 245.40661 243.23361
 241.01862 238.81663 236.63064 234.46365 232.31765 230.17866 228.19867 226.34968
 224.62668 223.09269 221.71670 220.48271 219.35872 218.31272 217.41073 216.54574
 215.78175 214.95575 214.04776 213.40577 212.84978 213.06139 213.56134 213.80338
 214.18758 215.12596 216.31612 218.21251 220.41997 223.18887 228.08353 232.58458
 236.31853 240.44879 244.40726 247.78630 250.33276 252.67401 255.22870 258.02570
 260.82983 263.67117 266.50293 269.17285 271.66257 273.90228 275.61307 277.11505
 278.64969 280.35315 281.89478 283.25787 284.44223 285.49738 286.45984 287.33768
 288.13403 288.84958 289.48282 290.32901
 366.78100 356.32934 345.75567 334.61601 323.01334 311.20168 299.06602 286.86335
 274.56969 262.46102 250.46436 239.75970 229.87603 220.97437 213.15070 206.14704
 199.97538 194.90771 191.48405 189.52038 188.55172 188.61006 189.43939 190.74173
 192.46106 194.55040 196.80774 199.16107 201.60041 204.07474 206.15708 207.99342
 209.61375 210.75309 210.97642 211.19876 211.13010 210.82943 210.45677 210.08110
 209.69244 209.39678 209.19911 209.05745 208.97978 209.30512 209.68546 210.06879
 210.85613 212.02846 213.27280 215.05014 216.97247 219.00981 221.09914 223.17648
 225.23082 227.30915 229.40049 231.50082 233.62416 235.79050 238.04083 240.40517
 243.02050 245.26584 247.26218 249.02151 250.43285 251.55018 252.36652 252.67686
 252.70819 252.47653 251.83086 250.77320 249.37354 247.52887 245.43221 243.25954
 241.04488 238.84322 236.65755 234.49089 232.34522 230.20656 228.22690 226.37823
 224.65557 223.12190 221.74624 220.51257 219.38891 218.34325 217.44158 216.57692
 215.81325 214.98759 214.07993 213.43826 212.88260 213.09338 213.59135 213.96893
 214.32657 215.13101 216.30806 218.17656 220.42274 223.26553 228.08220 232.59261
 236.34431 240.47861 244.38379 247.66287 250.13194 252.44856 255.01584 257.82828
 260.68787 263.59283 266.47015 269.16855 271.66559 273.89075 275.58560 277.08603
 278.63806 280.32175 281.86176 283.22662 284.41238 285.46701 286.43213 287.30823
 288.10498 288.82150 289.45096 290.29547
 366.78100 356.32977 345.75655 334.61732 323.01509 311.20387 299.06864 286.86641
 274.57319 262.46496 250.46873 239.76451 229.88128 220.98005 213.15683 206.15360
 199.98237 194.91515 191.49192 189.52869 188.56047 188.61924 189.44901 190.75179
 192.47156 194.56133 196.81911 199.17288 201.61265 204.08743 206.17020 208.00697
 209.62775 210.76752 210.99129 211.21407 211.14584 210.84561 210.47339 210.09816
 209.70993 209.41471 209.21748 209.07625 208.99903 209.32480 209.70557 210.08935
 210.87712 212.04989 213.29467 215.07244 216.99521 219.03299 221.12276 223.20053
 225.25531 227.33408 229.42585 231.52663 233.65040 235.81717 238.06794 240.43272
 243.04849 245.29426 247.29104 249.05081 250.46258 251.58036 252.39713 252.70790
 252.73968 252.50845 251.86322 250.80600 249.40677 247.56254 245.46632 243.29409
 241.07986 238.87864 236.69341 234.52718 232.38196 230.24373 228.26450 226.41628
 224.69405 223.16082 221.78560 220.55237 219.42914 218.38392 217.48269 216.61846
 215.85524 215.03001 214.12278 213.48156 212.92633 213.13295 213.62112 214.12485
 214.47749 215.14468 216.30612 218.15387 220.41995 223.32277 228.07925 232.59444
 236.36554 240.50122 244.34886 247.52716 249.92145 252.21907 254.80400 257.63620
 260.55103 263.51736 266.43643 269.16193 271.66721 273.88062 275.56113 277.05933
 278.63437 280.27927 281.82416 283.19345 284.38220 285.43674 286.40204 287.27866
 288.07446 288.79092 289.41846 290.26248
 366.78100 356.33019 345.75737 334.61856 323.01675 311.20593 299.07112 286.86931
 274.57649 262.46868 250.47287 239.76906 229.88624 220.98543 213.16262 206.15980
 199.98899 194.92218 191.49936 189.53655 188.56874 188.62792 189.45811 190.76130
 192.48148 194.57167 196.82986 199.18404 201.62423 204.09942 206.18260 208.01979
 209.64098 210.78117 211.00535 211.22854 211.16073 210.86091 210.48910 210.11429
 209.72647 209.43166 209.23485 209.09403 209.01722 209.34341 209.72459 210.10878
 210.89697 212.07015 213.31534 215.09353 217.01671 219.05490 221.14509 223.22328
 225.27846 227.35765 229.44984 231.55102 233.67521 235.84240 238.09358 240.45877
 243.07496 245.32114 247.31833 249.07852 250.49070 251.60889 252.42608 252.73726
 252.76945 252.53864 251.89382 250.83701 249.43820 247.59439 245.49857 243.32676
 241.11295 238.91213 236.72732 234.56151 232.41669 230.27888 228.30007 226.45225
 224.73044 223.19763 221.82281 220.59000 219.46719 218.42237 217.52156 216.65775
 215.89493 215.07012 214.16331 213.52250 212.96768 213.17334 213.65926 214.26366
 214.63887 215.17848 216.30507 218.14264 220.42146 223.37012 228.07645 232.59294
 236.38141 240.51222 244.29584 247.37015 249.69225 251.97899 254.59235 257.45358
 260.42581 263.44958 266.40414 269.15375 271.66721 273.87204 275.54422 277.04443
 278.62094 280.24081 281.78540 283.15430 284.34448 285.39761 286.36166 287.23898
 288.03455 288.74878 289.37875 290.21811
 366.78100 356.33052 345.75803 334.61955 323.01807 311.20758 299.07310 286.87161
 274.57913 262.47165 250.47616 239.77268 229.89020 220.98971 213.16723 206.16474
 199.99426 194.92778 191.50529 189.54281 188.57533 188.63484 189.46536 190.76887
 192.48939 194.57991 196.83842 199.19294 201.63346 204.10897 206.19249 208.03000
 209.65152 210.79204 211.01655 211.24007 211.17259 210.87310 210.50162 210.12713
 209.73965 209.44517 209.24868 209.10820 209.03172 209.35823 209.73975 210.12426
 210.91278 212.08630 213.33181 215.11033 217.03385 219.07236 221.16288 223.24139
 225.29691 227.37643 229.46894 231.57046 233.69498 235.86249 238.11401 240.47952
 243.09604 245.34256 247.34007 249.10059 250.51311 251.63162 252.44914 252.76065
 252.79317 252.56269 251.91820 250.86172 249.46324 247.61975 245.52427 243.35278
 241.13930 238.93882 236.75433 234.58885 232.44437 230.30688 228.32840 226.48091
 224.75943 223.22695 221.85246 220.61998 219.49750 218.45301 217.55253 216.68904
 215.92656 215.10208 214.19559 213.55511 213.00063 213.21101 213.70808 214.38896
 214.79729 215.23486 216.31052 218.14156 220.43091 223.41588 228.07329 232.58757
 236.38762 240.50468 244.21565 247.18292 249.44044 251.73186 254.38838 257.28909
 260.31903 263.39258 266.37448 269.14053 271.65723 273.85089 275.51508 277.02252
 278.59564 280.21179 281.75574 283.12595 284.31586 285.37164 286.33679 287.21881
 288.01840 288.73987 289.37140 290.21069
 366.78100 356.33082 345.75864 334.62047 323.01929 311.20911 299.07493 286.87376
 274.58158 262.47440 250.47922 239.77604 229.89387 220.99369 213.17151 206.16933
 199.99916 194.93298 191.51080 189.54862 188.58144 188.64127 189.47209 190.77591
 192.49673 194.58755 196.84638 199.20120 201.64202 204.11784 206.20167 208.03949
 209.66131 210.80213 211.02695 211.25078 211.18360 210.88442 210.51324 210.13907
 209.75189 209.45771 209.26153 209.12135 209.04518 209.37200 209.75382 210.13864
 210.92747 212.10129 213.34711 215.12593 217.04975 219.08858 221.17940 223.25822
 225.31404 227.39387 229.48669 231.58851 233.71333 235.88115 238.13298 240.49880
 243.11562 245.36244 247.36026 249.12109 250.53391 251.65273 252.47055 252.78238
 252.81520 252.58502 251.94084 250.88466 249.48649 247.64331 245.54813 243.37695
 241.16378 238.96360 236.77942 234.61424 232.47006 230.33289 228.35471 226.50753
 224.78635 223.25418 221.88000 220.64782 219.52564 218.48146 217.58129 216.71811
 215.95593 215.13175 214.22558 213.58540 213.03122 213.24869 213.76250 214.51277
 214.94229 215.30209 216.33723 218.15704 220.44662 223.45874 228.06999 232.58014
 236.38388 240.47423 244.10355 246.96506 249.17126 251.48393 254.19576 257.14545
 260.23199 263.34579 266.34546 269.12216 271.64313 273.82547 275.48398 276.99341
 278.56113 280.17752 281.72089 283.09039 284.28183 285.33698 286.30240 287.18295
 287.98544 288.70502 289.33853 290.17484
 366.78100 356.33100 345.75900 334.62100 323.01999 311.20999 299.07599 286.87499
 274.58299 262.47599 250.48099 239.77799 229.89598 220.99598 213.17398 206.17198
 200.00198 194.93598 191.51398 189.55198 188.58497 188.64497 189.47597 190.77997
 192.50097 194.59197 196.85097 199.20597 201.64696 204.12296 206.20696 208.04496
 209.66696 210.80796 211.03296 211.25696 211.18995 210.89095 210.51995 210.14595
 209.75895 209.46495 209.26895 209.12895 209.05294 209.37994 209.76194 210.14694
 210.93594 212.10994 213.35594 215.13494 217.05893 219.09793 221.18893 223.26793
 225.32393 227.40393 229.49693 231.59893 233.72392 235.89192 238.14392 240.50992
 243.12692 245.37392 247.37192 249.13292 250.54591 251.66491 252.48291 252.79491
 252.82791 252.59791 251.95391 250.89791 249.49990 247.65690 245.56190 243.39090
 241.17790 238.97790 236.79390 234.62890 232.48489 230.34789 228.36989 226.52289
 224.80189 223.26989 221.89589 220.66389 219.54188 218.49788 217.59788 216.73488
 215.97288 215.14888 214.24288 213.60288 213.04887 213.28094 213.82925 214.63139
 215.07281 215.37434 216.38875 218.19658 220.46831 223.49037 228.06367 232.56981
 236.37108 240.42267 243.96243 246.72301 248.89388 251.23987 254.01331 257.01764
 260.15768 263.30280 266.31143 269.09677 271.62759 273.81052 275.47217 276.97299
 278.52478 280.12671 281.66885 283.03836 284.22809 285.28510 286.24997 287.13080
 287.93246 288.65283 289.28735 290.11951
 366.78100 356.33103 345.75906 334.62109 323.02012 311.21015 299.07618 286.87521
 274.58324 262.47627 250.48130 239.77833 229.89635 220.99638 213.17441 206.17244
 200.00247 194.93650 191.51453 189.55256 188.58559 188.64562 189.47665 190.78068
 192.50171 194.59274 196.85177 199.20680 201.64783 204.12386 206.20789 208.04592
 209.66795 210.80898 211.03401 211.25803 211.19106 210.89209 210.52112 210.14715
 209.76018 209.46621 209.27024 209.13027 209.05430 209.38133 209.76336 210.14839
 210.93742 212.11145 213.35748 215.13651 217.06054 219.09957 221.19060 223.26963
 225.32566 227.40569 229.49871 231.60074 233.72577 235.89380 238.14583 240.51186
 243.12889 245.37592 247.37395 249.13498 250.54801 251.66704 252.48507 252.79710
 252.83013 252.60016 251.95619 250.90022 249.50225 247.65928 245.56431 243.39334
 241.18036 238.98039 236.79642 234.63145 232.48748 230.35051 228.37254 226.52557
 224.80460 223.27263 221.89866 220.66669 219.54472 218.50075 217.60078 216.73781
 215.97584 215.15187 214.24590 213.60593 213.05196 213.30670 213.90854 214.74403
 215.19701 215.44850 216.45721 218.24165 220.47945 223.51230 228.06519 232.56947
 236.35783 240.35847 243.80089 246.46268 248.60924 250.99533 253.83455 256.89850
 260.08920 263.25873 266.27048 269.06528 271.61066 273.80630 275.48422 276.97797
 278.49722 280.06000 281.59763 282.96777 284.15643 285.21216 286.17822 287.05807
 287.86124 288.58191 289.21545 290.05353
 366.78100 356.33103 345.75905 334.62108 323.02010 311.21013 299.07615 286.87518
 274.58320 262.47623 250.48126 239.77828 229.89631 220.99633 213.17436 206.17238
 200.00241 194.93644 191.51446 189.55249 188.58551 188.64554 189.47656 190.78059
 192.50161 194.59264 196.85167 199.20669 201.64772 204.12374 206.20777 208.04579
 209.66782 210.80884 211.03387 211.25790 211.19092 210.89195 210.52097 210.14700
 209.76002 209.46605 209.27007 209.13010 209.05413 209.38115 209.76318 210.14820
 210.93723 212.11125 213.35728 215.13631 217.06033 219.09936 221.19038 223.26941
 225.32543 227.40546 229.49848 231.60051 233.72554 235.89356 238.14559 240.51161
 243.12864 245.37566 247.37369 249.13471 250.54774 251.66677 252.48479 252.79682
 252.82984 252.59987 251.95589 250.89992 249.50195 247.65897 245.56400 243.39302
 241.18005 238.98007 236.79610 234.63112 232.48715 230.35018 228.37220 226.52523
 224.80425 223.27228 221.89830 220.66633 219.54435 218.50038 217.60041 216.73743
 215.97546 215.15148 214.24551 213.60553 213.05156 213.33188 213.99419 214.84525
 215.33772 215.52393 216.50412 218.28705 220.50653 223.55959 228.07466 232.57257
 236.33897 240.27225 243.60829 246.17307 248.30788 250.74623 253.66017 256.79178
 260.03357 263.22278 266.23422 269.03494 271.59421 273.80124 275.50369 277.00601
 278.49362 279.98557 281.51468 282.88339 284.07245 285.12820 286.09290 286.97644
 287.77579 288.49863 289.13190 289.96771
 366.78100 356.33203 345.76106 334.62409 323.02412 311.21515 299.08218 286.88221
 274.59124 262.48527 250.49130 239.78933 229.90836 221.00939 213.18842 206.18745
 200.01848 194.95351 191.53254 189.57157 188.60560 188.66663 189.49866 190.80369
 192.52572 194.61775 196.87778 199.23381 201.67584 204.15287 206.23790 208.07693
 209.69996 210.84199 211.06802 211.29305 211.22708 210.92911 210.55914 210.18617
 209.80020 209.50723 209.31226 209.17329 209.09832 209.42635 209.80938 210.19541
 210.98544 212.16047 213.40750 215.18753 217.11256 219.15259 221.24462 223.32465
 225.38168 227.46271 229.55674 231.65977 233.78580 235.95483 238.20786 240.57489
 243.19292 245.44095 247.43998 249.20201 250.61604 251.73607 252.55509 252.86812
 252.90215 252.67318 252.03021 250.97524 249.57827 247.73630 245.64233 243.47236
 241.26039 239.06142 236.87845 234.71448 232.57151 230.43554 228.45857 226.61260
 224.89263 223.36166 221.98869 220.75772 219.63675 218.59378 217.69481 216.83284
 216.07187 215.24890 214.34393 213.70496 213.15199 213.40784 214.01230 215.00578
 215.46771 215.59071 216.60214 218.35167 220.49222 223.56302 228.07724 232.57265
 236.30635 240.15875 243.38710 245.86534 248.00543 250.50778 253.50294 256.70969
 260.00113 263.20462 266.21066 269.01080 271.57559 273.78824 275.50897 277.02600
 278.49597 279.91528 281.43311 282.79956 283.98672 285.04208 286.00821 286.88760
 287.69119 288.41174 289.04630 289.88010
 366.78100 356.33309 345.76317 334.62726 323.02834 311.22043 299.08852 286.88960
 274.59969 262.49477 250.50186 239.80095 229.92103 221.02312 213.20320 206.20329
 200.03538 194.97146 191.55155 189.59163 188.62672 188.68881 189.52189 190.82798
 192.55106 194.64415 196.90524 199.26232 201.70541 204.18349 206.26958 208.10967
 209.73375 210.87684 211.10392 211.33001 211.26510 210.96818 210.59927 210.22735
 209.84244 209.55053 209.35661 209.21870 209.14478 209.47387 209.85796 210.24504
 211.03613 212.21221 213.46030 215.24139 217.16747 219.20856 221.30164 223.38273
 225.44082 227.52290 229.61799 231.72207 233.84916 236.01925 238.27333 240.64142
 243.26050 245.50959 247.50968 249.27276 250.68785 251.80893 252.62902 252.94311
 252.97819 252.75028 252.10836 251.05445 249.65854 247.81762 245.72471 243.55579
 241.34488 239.14697 236.96505 234.80214 232.66022 230.52531 228.54940 226.70448
 224.98557 223.45565 222.08374 220.85382 219.73391 218.69200 217.79408 216.93317
 216.17325 215.35134 214.44743 213.80951 213.25760 213.48737 214.03023 215.12329
 215.70670 215.68895 216.58554 218.30919 220.50659 223.60387 228.10474 232.58214
 236.26978 240.03529 243.15251 245.55132 247.70428 250.27589 253.35637 256.64227
 259.98071 263.19415 266.18973 268.98663 271.55884 273.77975 275.51309 277.03268
 278.47229 279.85110 281.34869 282.71182 283.89847 284.95337 285.91788 286.79913
 287.60205 288.32309 288.95746 289.79343
 366.78100 356.33301 345.76303 334.62704 323.02806 311.22007 299.08809 286.88910
 274.59912 262.49413 250.50115 239.80016 229.92018 221.02219 213.20221 206.20222
 200.03424 194.97025 191.55027 189.59028 188.62530 188.68731 189.52033 190.82634
 192.54936 194.64237 196.90339 199.26040 201.70342 204.18143 206.26745 208.10746
 209.73148 210.87449 211.10151 211.32752 211.26254 210.96555 210.59657 210.22458
 209.83960 209.54761 209.35363 209.21564 209.14165 209.47067 209.85468 210.24170
 211.03271 212.20873 213.45674 215.23776 217.16377 219.20479 221.29780 223.37882
 225.43683 227.51885 229.61386 231.71788 233.84489 236.01491 238.26892 240.63694
 243.25595 245.50497 247.50498 249.26800 250.68301 251.80403 252.62404 252.93806
 252.97307 252.74509 252.10310 251.04912 249.65313 247.81215 245.71916 243.55018
 241.33919 239.14121 236.95922 234.79624 232.65425 230.51927 228.54328 226.69829
 224.97931 223.44932 222.07734 220.84735 219.72737 218.68538 217.78740 216.92641
 216.16643 215.34444 214.44046 213.80247 213.25049 213.51265 214.13203 215.15611
 215.94734 215.60880 216.57535 218.56456 220.65950 223.62845 228.12320 232.56900
 236.21785 239.89290 242.89496 245.21977 247.39401 250.03932 253.20958 256.57730
 259.96021 263.17746 266.16141 268.95950 271.54642 273.78531 275.53754 277.05399
 278.45081 279.79544 281.24484 282.60477 283.79184 284.84763 285.81323 286.69666
 287.49664 288.22040 288.85455 289.69135
 366.78100 356.33344 345.76388 334.62832 323.02976 311.22220 299.09064 286.89208
 274.60252 262.49796 250.50540 239.80484 229.92528 221.02772 213.20816 206.20860
 200.04104 194.97748 191.55792 189.59836 188.63380 188.69624 189.52968 190.83612
 192.55956 194.65300 196.91444 199.27188 201.71532 204.19376 206.28020 208.12064
 209.74507 210.88851 211.11595 211.34239 211.27783 210.98127 210.61271 210.24115
 209.85659 209.56503 209.37147 209.23391 209.16035 209.48979 209.87423 210.26167
 211.05311 212.22955 213.47799 215.25943 217.18587 219.22731 221.32075 223.40219
 225.46063 227.54307 229.63851 231.74295 233.87039 236.04083 238.29527 240.66371
 243.28315 245.53259 247.53303 249.29647 250.71191 251.83335 252.65379 252.96823
 253.00367 252.77611 252.13455 251.08099 249.68543 247.84487 245.75231 243.58375
 241.37319 239.17563 236.99407 234.83151 232.68995 230.55539 228.57983 226.73527
 225.01671 223.48715 222.11559 220.88603 219.76647 218.72491 217.82734 216.96678
 216.20722 215.38566 214.48210 213.84454 213.29298 213.56403 214.20439 215.22234
 216.12645 215.59396 216.60226 218.80586 220.77129 223.63719 228.13622 232.53522
 236.16440 239.74518 242.63374 244.88814 247.08849 249.80711 253.06555 256.51447
 259.93698 263.15445 266.12726 268.92966 271.53433 273.79727 275.57468 277.09122
 278.46024 279.77310 281.13330 282.48660 283.67416 284.73169 285.69745 286.58179
 287.38318 288.10757 288.74295 289.58160
 366.78100 356.33492 345.76684 334.63276 323.03568 311.22960 299.09952 286.90244
 274.61436 262.51128 250.52019 239.82111 229.94303 221.04695 213.22887 206.23079
 200.06471 195.00263 191.58455 189.62647 188.66339 188.72731 189.56223 190.87015
 192.59507 194.68999 196.95291 199.31183 201.75675 204.23667 206.32458 208.16650
 209.79242 210.93734 211.16626 211.39418 211.33110 211.03602 210.66894 210.29886
 209.91578 209.62570 209.43362 209.29754 209.22546 209.55638 209.94230 210.33122
 211.12414 212.30205 213.55197 215.33489 217.26281 219.30573 221.40065 223.48357
 225.54349 227.62741 229.72433 231.83025 233.95917 236.13109 238.38701 240.75693
 243.37785 245.62877 247.63069 249.39561 250.81252 251.93544 252.75736 253.07328
 253.11020 252.88412 252.24404 251.19196 249.79788 247.95880 245.86772 243.70064
 241.49156 239.29548 237.11540 234.95432 232.81424 230.68116 228.70708 226.86400
 225.14691 223.61883 222.24875 221.02067 219.90259 218.86251 217.96643 217.10735
 216.34927 215.52919 214.62711 213.99103 213.44095 213.66997 214.21104 215.33809
 216.25101 215.67308 216.67041 218.94472 220.81961 223.66695 228.17004 232.50735
 236.11723 239.59479 242.36887 244.54935 246.77737 249.57161 252.91905 256.45041
 259.91040 263.12833 266.09531 268.90433 271.52695 273.81436 275.61313 277.13239
 278.48386 279.76669 281.03683 282.38077 283.57117 284.62796 285.59656 286.47977
 287.28503 288.00656 288.64642 289.48734
 366.78100 356.33720 345.77141 334.63961 323.04481 311.24101 299.11322 286.91842
 274.63262 262.53183 250.54303 239.84623 229.97043 221.07664 213.26084 206.26504
 200.10124 195.04145 191.62565 189.66985 188.70906 188.77526 189.61246 190.92266
 192.64987 194.74707 197.01227 199.37348 201.82068 204.30288 206.39308 208.23729
 209.86549 211.01269 211.24390 211.47410 211.41330 211.12050 210.75571 210.38791
 210.00711 209.71932 209.52952 209.39572 209.32592 209.65913 210.04733 210.43853
 211.23373 212.41394 213.66614 215.45134 217.38155 219.42675 221.52395 223.60915
 225.67136 227.75756 229.85676 231.96497 234.09617 236.27037 238.52857 240.90078
 243.52398 245.77718 247.78139 249.54859 250.96779 252.09299 252.91720 253.23540
 253.27460 253.05081 252.41301 251.36321 249.97141 248.13462 246.04582 243.88102
 241.67422 239.48043 237.30263 235.14383 233.00604 230.87524 228.90344 227.06264
 225.34785 223.82205 222.45425 221.22846 220.11266 219.07486 218.18106 217.32427
 216.56847 215.75067 214.85088 214.21708 213.66928 213.81786 214.16885 215.45247
 216.38329 215.82339 216.78241 219.01318 220.85435 223.72061 228.21730 232.48177
 236.04893 239.41562 242.07057 244.17906 246.44432 249.32594 252.76846 256.38586
 259.88181 263.10309 266.06888 268.88617 271.52911 273.84393 275.66489 277.19366
 278.52304 279.76715 280.95633 282.29514 283.48398 284.54044 285.50955 286.39502
 287.19855 287.92365 288.56024 289.40503
 366.78100 356.33914 345.77527 334.64541 323.05255 311.25068 299.12482 286.93196
 274.64809 262.54923 250.56237 239.86751 229.99364 221.10178 213.28792 206.29405
 200.13219 195.07433 191.66046 189.70660 188.74774 188.81587 189.65501 190.96715
 192.69628 194.79542 197.06256 199.42570 201.87483 204.35897 206.45111 208.29724
 209.92738 211.07652 211.30965 211.54179 211.48293 211.19206 210.82920 210.46334
 210.08447 209.79861 209.61075 209.47889 209.41102 209.74616 210.13630 210.52943
 211.32657 212.50871 213.76284 215.54998 217.48212 219.52925 221.62839 223.71553
 225.77966 227.86780 229.96894 232.07907 234.21221 236.38835 238.64849 241.02262
 243.64776 245.90290 247.90903 249.67817 251.09931 252.22644 253.05258 253.37272
 253.41385 253.19199 252.55613 251.50826 250.11840 248.28354 246.19668 244.03381
 241.82895 239.63709 237.46122 235.30436 233.16850 231.03963 229.06977 227.23091
 225.51804 223.99418 222.62832 221.40445 220.29059 219.25473 218.36286 217.50800
 216.75414 215.93828 215.04041 214.40855 213.86269 213.94926 214.15381 215.50885
 216.52977 216.02490 216.92485 219.05836 220.91043 223.77989 228.25539 232.44370
 235.94978 239.20743 241.75157 243.80179 246.11406 249.08789 252.62459 256.32260
 259.84912 263.07101 266.03915 268.86670 271.52979 273.87268 275.72668 277.27603
 278.58923 279.79816 280.91025 282.22733 283.41013 284.46454 285.42929 286.31323
 287.11768 287.84503 288.48441 289.32663
 366.78100 356.33993 345.77686 334.64778 323.05571 311.25464 299.12957 286.93750
 274.65443 262.55635 250.57028 239.87621 230.00314 221.11207 213.29899 206.30592
 200.14485 195.08778 191.67471 189.72164 188.76356 188.83249 189.67242 190.98535
 192.71528 194.81520 197.08313 199.44706 201.89699 204.38192 206.47485 208.32177
 209.95270 211.10263 211.33656 211.56949 211.51141 211.22134 210.85927 210.49420
 210.11613 209.83106 209.64398 209.51291 209.44584 209.78177 210.17270 210.56662
 211.36455 212.54748 213.80241 215.59034 217.52327 219.57119 221.67112 223.75905
 225.82398 227.91291 230.01483 232.12576 234.25969 236.43662 238.69755 241.07248
 243.69840 245.95433 247.96126 249.73119 251.15312 252.28104 253.10797 253.42890
 253.47083 253.24976 252.61469 251.56761 250.17854 248.34447 246.25840 244.09633
 241.89225 239.70118 237.52611 235.37004 233.23497 231.10690 229.13782 227.29975
 225.58768 224.06461 222.69954 221.47646 220.36339 219.32832 218.43725 217.58318
 216.83011 216.01503 215.11796 214.48689 213.94182 214.02338 214.21606 215.51280
 216.62663 216.23579 217.07097 219.10262 220.99426 223.85077 228.29257 232.40793
 235.85233 239.01164 241.46021 243.46350 245.81592 248.87090 252.49136 256.25818
 259.80548 263.02481 265.99796 268.83698 271.51688 273.88101 275.76785 277.34485
 278.65662 279.85074 280.98492 282.17023 283.34171 284.39746 285.36627 286.25247
 287.05933 287.78543 288.42825 289.27313
 366.78100 356.34060 345.77819 334.64979 323.05839 311.25799 299.13358 286.94218
 274.65978 262.56237 250.57697 239.88357 230.01117 221.12076 213.30836 206.31596
 200.15555 195.09915 191.68675 189.73435 188.77694 188.84654 189.68714 191.00073
 192.73133 194.83193 197.10053 199.46512 201.91572 204.40132 206.49491 208.34251
 209.97411 211.12471 211.35930 211.59290 211.53550 211.24609 210.88469 210.52029
 210.14289 209.85848 209.67208 209.54168 209.47527 209.81187 210.20347 210.59807
 211.39666 212.58026 213.83586 215.62445 217.55805 219.60665 221.70724 223.79584
 225.86144 227.95104 230.05363 232.16523 234.29983 236.47742 238.73902 241.11462
 243.74122 245.99781 248.00541 249.77601 251.19860 252.32720 253.15480 253.47640
 253.51899 253.29859 252.66419 251.61778 250.22938 248.39598 246.31058 244.14917
 241.94577 239.75537 237.58096 235.42556 233.29116 231.16376 229.19535 227.35795
 225.64655 224.12414 222.75974 221.53734 220.42494 219.39053 218.50013 217.64673
 216.89432 216.07992 215.18352 214.55312 214.00871 214.09172 214.28783 215.53169
 216.66124 216.42232 217.20482 219.14819 221.10049 223.94629 228.34216 232.39174
 235.76712 238.83185 241.18773 243.14484 245.53284 248.66409 252.36391 256.19046
 259.75391 262.97467 265.95496 268.80188 271.49405 273.87201 275.79163 277.39185
 278.70721 279.88937 281.00681 282.17908 283.35071 284.40735 285.37595 286.26233
 287.07016 287.79980 288.43814 289.28558
 366.78100 356.34179 345.78059 334.65338 323.06317 311.26396 299.14076 286.95055
 274.66934 262.57314 250.58893 239.89672 230.02551 221.13631 213.32510 206.33389
 200.17468 195.11948 191.70827 189.75706 188.80086 188.87165 189.71344 191.02823
 192.76003 194.86182 197.13161 199.49741 201.94920 204.43599 206.53078 208.37958
 210.01237 211.16416 211.39996 211.63475 211.57854 211.29033 210.93013 210.56692
 210.19071 209.90751 209.72230 209.59309 209.52788 209.86568 210.25847 210.65426
 211.45405 212.63885 213.89564 215.68543 217.62023 219.67002 221.77181 223.86160
 225.92840 228.01919 230.12298 232.23578 234.37157 236.55036 238.81315 241.18995
 243.81774 246.07553 248.08433 249.85612 251.27991 252.40970 253.23850 253.56129
 253.60508 253.38587 252.75267 251.70746 250.32025 248.48805 246.40384 244.24363
 242.04142 239.85222 237.67901 235.52480 233.39160 231.26539 229.29818 227.46197
 225.75177 224.23056 222.86735 221.64615 220.53494 219.50173 218.61252 217.76032
 217.00911 216.19590 215.30070 214.67149 214.12828 214.18573 214.32149 215.59573
 216.67442 216.58820 217.34076 219.20865 221.21713 224.05029 228.38741 232.37415
 235.66734 238.62039 240.87758 242.80550 245.25021 248.46732 252.24495 256.12485
 259.70605 262.93448 265.92264 268.77579 271.47672 273.86908 275.81866 277.42999
 278.73584 279.90924 281.01917 282.21503 283.38617 284.44046 285.40927 286.29199
 287.09955 287.82471 288.46439 289.30679
 366.78100 356.34216 345.78133 334.65449 323.06465 311.26582 299.14298 286.95315
 274.67231 262.57647 250.59264 239.90080 230.02996 221.14113 213.33029 206.33945
 200.18062 195.12578 191.71494 189.76411 188.80827 188.87944 189.72160 191.03676
 192.76893 194.87109 197.14125 199.50742 201.95958 204.44674 206.54191 208.39107
 210.02424 211.17640 211.41256 211.64773 211.59189 211.30405 210.94422 210.58138
 210.20554 209.92271 209.73787 209.60903 209.54420 209.88236 210.27553 210.67169
 211.47185 212.65702 213.91418 215.70434 217.63951 219.68967 221.79183 223.88200
 225.94916 228.04032 230.14449 232.25765 234.39382 236.57298 238.83614 241.21331
 243.84147 246.09963 248.10880 249.88096 251.30512 252.43529 253.26445 253.58762
 253.63178 253.41294 252.78011 251.73527 250.34843 248.51660 246.43276 244.27292
 242.07109 239.88225 237.70941 235.55558 233.42274 231.29691 229.33007 227.49423
 225.78440 224.26356 222.90072 221.67989 220.56905 219.53621 218.64738 217.79554
 217.04471 216.23187 215.33703 214.70820 214.16536 214.23515 214.40007 215.64758
 216.67874 216.73199 217.48917 219.28976 221.32779 224.14412 228.41472 232.34714
 235.54816 238.38054 240.55431 242.48438 245.00060 248.29720 252.14035 256.06134
 259.65714 262.89349 265.88992 268.75412 271.46542 273.87219 275.84216 277.45203
 278.72934 279.88702 281.00037 282.24875 283.42236 284.47485 285.44073 286.32281
 287.12817 287.84982 288.49091 289.32446
 366.78100 356.34109 345.77917 334.65126 323.06035 311.26043 299.13652 286.94561
 274.66370 262.56678 250.58187 239.88896 230.01704 221.12713 213.31522 206.32330
 200.16339 195.10748 191.69556 189.74365 188.78674 188.85683 189.69791 191.01200
 192.74309 194.84417 197.11326 199.47835 201.92943 204.41552 206.50961 208.35769
 209.98978 211.14087 211.37596 211.61004 211.55313 211.26422 210.90330 210.53939
 210.16248 209.87856 209.69265 209.56274 209.49683 209.83391 210.22600 210.62109
 211.42017 212.60426 213.86035 215.64943 217.58352 219.63261 221.73369 223.82278
 225.88887 227.97896 230.08204 232.19413 234.32922 236.50730 238.76939 241.14548
 243.77256 246.02965 248.03774 249.80882 251.23191 252.36100 253.18909 253.51117
 253.55426 253.33435 252.70043 251.65452 250.26661 248.43369 246.34878 244.18787
 241.98495 239.79504 237.62113 235.46622 233.33230 231.20539 229.23748 227.40056
 225.68965 224.16774 222.80382 221.58191 220.47000 219.43608 218.54617 217.69326
 216.94135 216.12743 215.23152 214.60161 214.05769 214.21007 214.57010 215.62608
 216.66592 216.88680 217.65892 219.36880 221.40984 224.22520 228.44519 232.34363
 235.43732 238.15459 240.26482 242.21130 244.79024 248.14958 252.04190 255.99031
 259.59317 262.83551 265.84732 268.72681 271.44791 273.86307 275.84457 277.44937
 278.69217 279.82571 280.95270 282.27026 283.45282 284.50479 285.46783 286.34927
 287.15051 287.87234 288.50897 289.33786
 366.78100 356.34046 345.77791 334.64937 323.05783 311.25728 299.13274 286.94120
 274.65865 262.56111 250.57557 239.88202 230.00948 221.11894 213.30639 206.31385
 200.15331 195.09676 191.68422 189.73168 188.77413 188.84359 189.68405 190.99751
 192.72796 194.82842 197.09688 199.46133 201.91179 204.39725 206.49070 208.33816
 209.96962 211.12007 211.35453 211.58799 211.53044 211.24090 210.87936 210.51481
 210.13727 209.85273 209.66618 209.53564 209.46910 209.80555 210.19701 210.59147
 211.38992 212.57338 213.82884 215.61729 217.55075 219.59921 221.69966 223.78812
 225.85358 227.94303 230.04549 232.15695 234.29140 236.46886 238.73032 241.10578
 243.73223 245.98869 247.99615 249.76660 251.18906 252.31752 253.14497 253.46643
 253.50889 253.28834 252.65380 251.60726 250.21871 248.38517 246.29963 244.13808
 241.93454 239.74400 237.56945 235.41391 233.27937 231.15182 229.18328 227.34574
 225.63419 224.11165 222.74711 221.52456 220.41202 219.37748 218.48693 217.63339
 216.88085 216.06630 215.16976 214.53922 213.99467 214.20798 214.71188 215.60466
 216.62650 217.06537 217.88100 219.43507 221.47383 224.32204 228.48915 232.34386
 235.32077 237.92451 239.97646 241.94258 244.58212 248.00285 251.94026 255.90938
 259.51642 262.77072 265.80420 268.69617 271.42105 273.83719 275.82797 277.43939
 278.67554 279.80411 280.94446 282.26962 283.45428 284.50677 285.47150 286.35080
 287.15176 287.87207 288.50452 289.33170
 366.78100 356.34076 345.77851 334.65027 323.05903 311.25878 299.13454 286.94330
 274.66105 262.56381 250.57856 239.88532 230.01308 221.12283 213.31059 206.31835
 200.15810 195.10186 191.68962 189.73737 188.78013 188.84989 189.69064 191.00440
 192.73515 194.83591 197.10467 199.46942 201.92018 204.40594 206.49969 208.34745
 209.97921 211.12996 211.36472 211.59848 211.54123 211.25199 210.89074 210.52650
 210.14926 209.86501 209.67877 209.54853 209.48228 209.81904 210.21080 210.60555
 211.40431 212.58807 213.84382 215.63258 217.56633 219.61509 221.71585 223.80460
 225.87036 227.96012 230.06287 232.17463 234.30939 236.48714 238.74890 241.12466
 243.75141 246.00817 248.01592 249.78668 251.20944 252.33819 253.16595 253.48771
 253.53046 253.31022 252.67598 251.62973 250.24149 248.40825 246.32300 244.16176
 241.95851 239.76827 237.59403 235.43878 233.30454 231.17730 229.20905 227.37181
 225.66057 224.13832 222.77408 221.55184 220.43959 219.40535 218.51510 217.66186
 216.90962 216.09537 215.19913 214.56889 214.02464 214.25206 214.78934 215.59901
 216.61786 217.27052 218.09894 219.52164 221.54311 224.38808 228.53036 232.31708
 235.18967 237.68314 239.67593 241.66010 244.36424 247.85269 251.83565 255.81989
 259.43286 262.70535 265.76355 268.66714 271.39307 273.81531 275.82971 277.45413
 278.66290 279.76547 280.93506 282.26700 283.45245 284.50714 285.46982 286.35110
 287.15213 287.87262 288.50485 289.32812
 366.78100 356.34148 345.77995 334.65243 323.06190 311.26238 299.13885 286.94833
 274.66681 262.57028 250.58576 239.89323 230.02171 221.13218 213.32066 206.32914
 200.16961 195.11409 191.70256 189.75104 188.79451 188.86499 189.70647 191.02094
 192.75242 194.85389 197.12337 199.48884 201.94032 204.42680 206.52127 208.36975
 210.00222 211.15370 211.38917 211.62365 211.56713 211.27860 210.91808 210.55455
 210.17803 209.89450 209.70898 209.57946 209.51393 209.85141 210.24388 210.63936
 211.43883 212.62331 213.87979 215.66926 217.60374 219.65321 221.75469 223.84417
 225.91064 228.00112 230.10459 232.21707 234.35254 236.53102 238.79350 241.16997
 243.79745 246.05492 248.06340 249.83487 251.25835 252.38783 253.21630 253.53878
 253.58225 253.36273 252.72920 251.68368 250.29616 248.46363 246.37911 244.21858
 242.01606 239.82653 237.65301 235.49849 233.36496 231.23844 229.27091 227.43439
 225.72386 224.20234 222.83882 221.61729 220.50577 219.47224 218.58272 217.73019
 216.97867 216.16515 215.26962 214.64010 214.09657 214.31438 214.82896 215.63651
 216.54182 217.50220 218.39435 219.56383 221.58647 224.51344 228.58955 232.25345
 235.04469 237.42874 239.35831 241.36427 244.14197 247.70641 251.73370 255.72974
 259.35114 262.64539 265.72781 268.63934 271.36569 273.80103 275.84436 277.47034
 278.63049 279.70139 280.91696 282.25470 283.44098 284.49515 285.46033 286.34232
 287.14139 287.86224 288.49664 289.31714
 366.78100 356.34254 345.78208 334.65562 323.06617 311.26771 299.14525 286.95579
 274.67533 262.57987 250.59641 239.90496 230.03450 221.14604 213.33558 206.34512
 200.18666 195.13220 191.72175 189.77129 188.81583 188.88737 189.72991 191.04545
 192.77799 194.88054 197.15108 199.51762 201.97016 204.45770 206.55324 208.40278
 210.03632 211.18887 211.42541 211.66095 211.60549 211.31803 210.95857 210.59611
 210.22066 209.93820 209.75374 209.62528 209.56082 209.89936 210.29290 210.68945
 211.48999 212.67553 213.93307 215.72361 217.65915 219.70969 221.81224 223.90278
 225.97032 228.06186 230.16640 232.27994 234.41648 236.59603 238.85957 241.23711
 243.86565 246.12419 248.13373 249.90627 251.33082 252.46136 253.29090 253.61444
 253.65898 253.44052 252.80806 251.76361 250.37715 248.54569 246.46223 244.30277
 242.10131 239.91285 237.74040 235.58694 233.45448 231.32902 229.36256 227.52710
 225.81764 224.29718 222.93473 221.71427 220.60381 219.57135 218.68289 217.83143
 217.08097 216.26852 215.37406 214.74560 214.20314 214.38985 214.83093 215.73242
 216.47148 217.57504 218.63406 219.88351 221.80750 224.52586 228.59364 232.13385
 234.86339 237.14407 239.02203 241.07288 243.93867 247.58102 251.64786 255.65521
 259.28860 262.60284 265.70282 268.61530 271.34259 273.78726 275.84912 277.46378
 278.58801 279.64911 280.88098 282.22162 283.40665 284.46106 285.42682 286.30753
 287.10815 287.83167 288.46005 289.28290
 366.78100 356.34333 345.78366 334.65798 323.06931 311.27164 299.14997 286.96129
 274.68162 262.58695 250.60428 239.91361 230.04393 221.15626 213.34659 206.35692
 200.19925 195.14557 191.73590 189.78623 188.83156 188.90388 189.74721 191.06354
 192.79687 194.90020 197.17152 199.53885 201.99218 204.48051 206.57684 208.42716
 210.06149 211.21482 211.45215 211.68847 211.63380 211.34713 210.98846 210.62679
 210.25211 209.97044 209.78677 209.65910 209.59542 209.93475 210.32908 210.72641
 211.52774 212.71406 213.97239 215.76372 217.70005 219.75138 221.85470 223.94603
 226.01436 228.10669 230.21201 232.32634 234.46367 236.64400 238.90833 241.28665
 243.91598 246.17531 248.18564 249.95897 251.38429 252.51562 253.34595 253.67028
 253.71560 253.49793 252.86626 251.82259 250.43692 248.60624 246.52357 244.36490
 242.16423 239.97656 237.80488 235.65221 233.52054 231.39587 229.43019 227.59552
 225.88685 224.36718 223.00551 221.78583 220.67616 219.64449 218.75682 217.90614
 217.15647 216.34480 215.45113 214.82346 214.28178 214.44859 214.84268 215.82248
 216.45740 217.61365 218.83736 220.20964 222.00873 224.50267 228.56566 231.98952
 234.66347 236.85524 238.70224 240.81740 243.77502 247.48578 251.58180 255.59608
 259.24072 262.57016 265.68265 268.59677 271.32303 273.77145 275.83856 277.44403
 278.55478 279.61719 280.83569 282.17392 283.36047 284.41409 285.37790 286.26044
 287.06082 287.78296 288.41711 289.23474
 366.78100 356.34327 345.78354 334.65782 323.06909 311.27136 299.14963 286.96090
 274.68117 262.58645 250.60372 239.91299 230.04326 221.15553 213.34580 206.35608
 200.19835 195.14462 191.73489 189.78516 188.83043 188.90271 189.74598 191.06225
 192.79552 194.89879 197.17006 199.53734 201.99061 204.47888 206.57515 208.42542
 210.05969 211.21297 211.45024 211.68651 211.63178 211.34505 210.98632 210.62460
 210.24987 209.96814 209.78441 209.65668 209.59295 209.93223 210.32650 210.72377
 211.52504 212.71131 213.96958 215.76086 217.69713 219.74840 221.85167 223.94294
 226.01121 228.10349 230.20876 232.32303 234.46030 236.64057 238.90484 241.28312
 243.91239 246.17166 248.18193 249.95520 251.38047 252.51175 253.34202 253.66629
 253.71156 253.49383 252.86210 251.81838 250.43265 248.60192 246.51919 244.36046
 242.15974 239.97201 237.80028 235.64755 233.51582 231.39109 229.42537 227.59064
 225.88191 224.36218 223.00045 221.78072 220.67100 219.63927 218.75154 217.90081
 217.15108 216.33935 215.44563 214.81790 214.27617 214.46295 214.90424 215.86308
 216.46858 217.67308 219.03293 220.49280 222.16922 224.49718 228.53230 231.85112
 234.46281 236.57695 238.40587 240.59187 243.63815 247.40706 251.52238 255.53761
 259.18683 262.52835 265.65698 268.57690 271.30518 273.75345 275.82846 277.43597
 278.53790 279.59470 280.79352 282.12930 283.31561 284.37015 285.33426 286.21497
 287.01764 287.73987 288.37253 289.19412
 366.78100 356.34259 345.78218 334.65577 323.06636 311.26794 299.14553 286.95612
 274.67571 262.58030 250.59689 239.90548 230.03507 221.14666 213.33624 206.34583
 200.18742 195.13301 191.72260 189.77219 188.81678 188.88837 189.73095 191.04654
 192.77913 194.88172 197.15231 199.51890 201.97149 204.45908 206.55467 208.40425
 210.03784 211.19043 211.42702 211.66261 211.60720 211.31979 210.96038 210.59797
 210.22255 209.94014 209.75573 209.62732 209.56291 209.90150 210.29509 210.69168
 211.49227 212.67785 213.93544 215.72603 217.66162 219.71221 221.81480 223.90539
 225.97298 228.06456 230.16915 232.28274 234.41933 236.59892 238.86251 241.24010
 243.86869 246.12728 248.13686 249.90945 251.33404 252.46463 253.29422 253.61781
 253.66240 253.44399 252.81158 251.76716 250.38075 248.54934 246.46593 244.30652
 242.10511 239.91670 237.74429 235.59088 233.45846 231.33305 229.36664 227.53123
 225.82182 224.30141 222.93900 221.71859 220.60817 219.57576 218.68735 217.83594
 217.08553 216.27312 215.37871 214.75030 214.20789 214.44389 215.00150 215.86615
 216.49249 217.74870 219.22055 220.74588 222.30943 224.51825 228.50644 231.73059
 234.26732 236.30748 238.12309 240.37971 243.51172 247.33293 251.46196 255.47125
 259.11816 262.47327 265.62241 268.55460 271.28589 273.73840 275.82977 277.45065
 278.53989 279.58246 280.76166 282.09506 283.28070 284.33575 285.30054 286.18118
 286.98291 287.70779 288.33984 289.16202
 366.78100 356.34168 345.78036 334.65305 323.06273 311.26341 299.14009 286.94977
 274.66845 262.57214 250.58782 239.89550 230.02418 221.13486 213.32354 206.33223
 200.17291 195.11759 191.70627 189.75495 188.79863 188.86932 189.71100 191.02568
 192.75736 194.85904 197.12872 199.49441 201.94609 204.43277 206.52745 208.37613
 210.00882 211.16050 211.39618 211.63086 211.57454 211.28622 210.92591 210.56259
 210.18627 209.90295 209.71763 209.58831 209.52300 209.86068 210.25336 210.64904
 211.44872 212.63340 213.89009 215.67977 217.61445 219.66413 221.76581 223.85549
 225.92218 228.01286 230.11654 232.22922 234.36490 236.54359 238.80627 241.18295
 243.81063 246.06831 248.07699 249.84868 251.27236 252.40204 253.23072 253.55340
 253.59708 253.37777 252.74445 251.69913 250.31181 248.47949 246.39517 244.23486
 242.03254 239.84322 237.66990 235.51558 233.38226 231.25595 229.28863 227.45231
 225.74199 224.22067 222.85736 221.63604 220.52472 219.49140 218.60208 217.74976
 216.99845 216.18513 215.28981 214.66049 214.11717 214.41179 215.10785 215.84975
 216.53171 217.83806 219.39551 220.96426 222.43552 224.56364 228.49300 231.62943
 234.07881 236.04161 237.84445 240.17310 243.38994 247.26018 251.39995 255.39795
 259.04022 262.41302 265.58511 268.52951 271.26431 273.72546 275.84152 277.47964
 278.55518 279.57855 280.74213 282.07349 283.25955 284.31400 285.27914 286.15802
 286.96326 287.68439 288.31903 289.13724
 366.78100 356.34104 345.77907 334.65111 323.06015 311.26018 299.13622 286.94525
 274.66329 262.56633 250.58136 239.88840 230.01644 221.12647 213.31451 206.32255
 200.16258 195.10662 191.69466 189.74269 188.78573 188.85576 189.69680 191.01084
 192.74187 194.84291 197.11195 199.47698 201.92802 204.41406 206.50809 208.35613
 209.98817 211.13920 211.37424 211.60827 211.55131 211.26235 210.90138 210.53742
 210.16046 209.87649 209.69053 209.56057 209.49460 209.83164 210.22368 210.61871
 211.41775 212.60178 213.85782 215.64686 217.58089 219.62993 221.73097 223.82000
 225.88604 227.97608 230.07911 232.19115 234.32619 236.50422 238.76626 241.14229
 243.76933 246.02637 248.03440 249.80544 251.22848 252.35751 253.18555 253.50759
 253.55062 253.33066 252.69670 251.65073 250.26277 248.42980 246.34484 244.18388
 241.98091 239.79095 237.61699 235.46202 233.32806 231.20110 229.23313 227.39617
 225.68521 224.16324 222.79928 221.57731 220.46535 219.43139 218.54142 217.68846
 216.93650 216.12253 215.22657 214.59661 214.05264 214.39055 215.18889 215.85231
 216.59000 217.91635 219.53540 221.17535 222.56197 224.59720 228.48116 231.54216
 233.89854 235.78091 237.57320 239.97655 243.27647 247.19263 251.33885 255.32365
 258.96368 262.35730 265.55008 268.50345 271.24176 273.71347 275.85318 277.50601
 278.56787 279.57410 280.73468 282.06720 283.25299 284.30658 285.27136 286.15292
 286.95471 287.67694 288.31024 289.13062
 366.78100 356.34105 345.77909 334.65114 323.06019 311.26023 299.13628 286.94532
 274.66337 262.56642 250.58146 239.88851 230.01656 221.12660 213.31465 206.32270
 200.16274 195.10679 191.69483 189.74288 188.78593 188.85597 189.69702 191.01107
 192.74211 194.84316 197.11221 199.47725 201.92830 204.41434 206.50839 208.35644
 209.98848 211.13953 211.37458 211.60862 211.55167 211.26271 210.90176 210.53781
 210.16085 209.87690 209.69095 209.56099 209.49504 209.83209 210.22413 210.61918
 211.41822 212.60227 213.85832 215.64736 217.58141 219.63046 221.73150 223.82055
 225.88660 227.97664 230.07969 232.19173 234.32678 236.50483 238.76687 241.14292
 243.76997 246.02701 248.03506 249.80611 251.22915 252.35820 253.18624 253.50829
 253.55134 253.33138 252.69743 251.65148 250.26352 248.43057 246.34562 244.18466
 241.98171 239.79175 237.61780 235.46285 233.32889 231.20194 229.23399 227.39703
 225.68608 224.16412 222.80017 221.57822 220.46626 219.43231 218.54236 217.68940
 216.93745 216.12350 215.22754 214.59759 214.05363 214.40042 215.21974 215.89471
 216.65976 218.02602 219.68092 221.21880 222.59482 224.69495 228.49152 231.47237
 233.73703 235.53763 237.31999 239.79936 243.17726 247.13344 251.28282 255.25470
 258.89639 262.30893 265.51691 268.47577 271.21698 273.69754 275.85376 277.52005
 278.58008 279.57922 280.73535 282.06702 283.25299 284.30695 285.26987 286.15109
 286.95108 287.67465 288.30545 289.12659
 366.78100 356.34139 345.77978 334.65217 323.06156 311.26195 299.13834 286.94773
 274.66612 262.56951 250.58490 239.89229 230.02068 221.13107 213.31946 206.32785
 200.16824 195.11263 191.70102 189.74941 188.79280 188.86319 189.70458 191.01897
 192.75036 194.85175 197.12114 199.48653 201.93792 204.42431 206.51870 208.36709
 209.99948 211.15087 211.38626 211.62065 211.56404 211.27543 210.91482 210.55121
 210.17461 209.89100 209.70539 209.57578 209.51017 209.84756 210.23995 210.63534
 211.43473 212.61912 213.87551 215.66490 217.59929 219.64868 221.75007 223.83946
 225.90585 227.99624 230.09963 232.21202 234.34741 236.52580 238.78819 241.16458
 243.79197 246.04936 248.05775 249.82914 251.25253 252.38192 253.21031 253.53270
 253.57609 253.35648 252.72287 251.67726 250.28965 248.45704 246.37243 244.21182
 242.00921 239.81960 237.64599 235.49138 233.35777 231.23116 229.26355 227.42694
 225.71633 224.19472 222.83111 221.60950 220.49789 219.46428 218.57467 217.72206
 216.97045 216.15684 215.26123 214.63162 214.08801 214.42572 215.22360 215.96693
 216.72961 218.10077 219.76985 221.27826 222.67480 224.79779 228.49780 231.40610
 233.58185 235.30573 237.08664 239.64302 243.09274 247.08170 251.23129 255.19107
 258.83701 262.26382 265.48114 268.44452 271.18854 273.67426 275.84213 277.52036
 278.59134 279.59509 280.74170 282.07083 283.25739 284.30988 285.27457 286.15332
 286.95648 287.67560 288.30872 289.12866
 366.78100 356.34149 345.77998 334.65247 323.06196 311.26245 299.13893 286.94842
 274.66691 262.57040 250.58589 239.89338 230.02187 221.13236 213.32085 206.32934
 200.16983 195.11432 191.70280 189.75129 188.79478 188.86527 189.70676 191.02125
 192.75274 194.85423 197.12372 199.48921 201.94070 204.42719 206.52167 208.37016
 210.00265 211.15414 211.38963 211.62412 211.56761 211.27910 210.91859 210.55508
 210.17857 209.89506 209.70954 209.58003 209.51452 209.85201 210.24450 210.63999
 211.43948 212.62397 213.88046 215.66995 217.60444 219.65393 221.75541 223.84490
 225.91139 228.00188 230.10537 232.21786 234.35335 236.53184 238.79433 241.17082
 243.79831 246.05580 248.06428 249.83577 251.25926 252.38875 253.21724 253.53973
 253.58322 253.36371 252.73020 251.68469 250.29718 248.46467 246.38015 244.21964
 242.01713 239.82762 237.65411 235.49960 233.36609 231.23958 229.27207 227.43556
 225.72505 224.20353 222.84002 221.61851 220.50700 219.47349 218.58398 217.73147
 216.97996 216.16645 215.27094 214.64143 214.09792 214.43787 215.24103 216.03592
 216.81227 218.16463 219.81837 221.34642 222.78978 224.88658 228.47867 231.32553
 233.42607 235.08623 236.87383 239.50777 243.02184 247.03612 251.18326 255.13277
 258.78244 262.21857 265.44254 268.41080 271.15756 273.64630 275.82101 277.50772
 278.59366 279.60953 280.75708 282.08743 283.27304 284.32599 285.29086 286.17084
 286.97272 287.69464 288.32721 289.14410
 366.78100 356.34111 345.77922 334.65133 323.06044 311.26055 299.13666 286.94577
 274.66388 262.56699 250.58210 239.88921 230.01732 221.12743 213.31554 206.32365
 200.16375 195.10786 191.69597 189.74408 188.78719 188.85730 189.69841 191.01252
 192.74363 194.84474 197.11385 199.47896 201.93007 204.41618 206.51029 208.35840
 209.99051 211.14162 211.37673 211.61084 211.55395 211.26506 210.90417 210.54028
 210.16339 209.87950 209.69361 209.56372 209.49783 209.83494 210.22704 210.62215
 211.42126 212.60537 213.86148 215.65059 217.58470 219.63381 221.73492 223.82403
 225.89014 227.98025 230.08336 232.19547 234.33058 236.50869 238.77080 241.14691
 243.77402 246.03113 248.03924 249.81035 251.23346 252.36257 253.19068 253.51279
 253.55590 253.33601 252.70212 251.65623 250.26833 248.43544 246.35055 244.18966
 241.98677 239.79688 237.62299 235.46810 233.33421 231.20732 229.23943 227.40254
 225.69165 224.16976 222.80587 221.58398 220.47209 219.43820 218.54831 217.69542
 216.94353 216.12964 215.23375 214.60386 214.05997 214.42462 215.28616 216.09140
 216.89580 218.22495 219.87006 221.41537 222.88252 224.95538 228.45795 231.24731
 233.27086 234.87906 236.68555 239.39613 242.96445 246.99593 251.13762 255.07581
 258.72598 262.16733 265.39673 268.37161 271.12207 273.61307 275.78833 277.48047
 278.58456 279.62039 280.78491 282.11575 283.30121 284.35443 285.31894 286.19992
 287.00214 287.72458 288.35583 289.18149
 366.78100 356.34040 345.77780 334.64920 323.05760 311.25700 299.13240 286.94080
 274.65820 262.56061 250.57501 239.88141 230.00881 221.11821 213.30561 206.31301
 200.15241 195.09581 191.68321 189.73061 188.77301 188.84241 189.68281 190.99621
 192.72661 194.82701 197.09542 199.45982 201.91022 204.39562 206.48902 208.33642
 209.96782 211.11822 211.35262 211.58602 211.52842 211.23882 210.87722 210.51262
 210.13502 209.85042 209.66382 209.53323 209.46663 209.80303 210.19443 210.58883
 211.38723 212.57063 213.82603 215.61443 217.54783 219.59623 221.69663 223.78503
 225.85043 227.93983 230.04223 232.15364 234.28804 236.46544 238.72684 241.10224
 243.72864 245.98504 247.99244 249.76284 251.18524 252.31364 253.14104 253.46244
 253.50484 253.28424 252.64964 251.60304 250.21445 248.38085 246.29525 244.13365
 241.93005 239.73945 237.56485 235.40925 233.27465 231.14705 229.17845 227.34085
 225.62925 224.10665 222.74205 221.51945 220.40685 219.37226 218.48166 217.62806
 216.87546 216.06086 215.16426 214.53366 213.98906 214.39316 215.34787 216.15729
 216.97188 218.27274 219.90622 221.46690 222.97246 225.02330 228.42006 231.16132
 233.12785 234.70198 236.53001 239.30791 242.91861 246.95975 251.09352 255.02008
 258.67001 262.11456 265.34683 268.32874 271.08331 273.57455 275.74420 277.43445
 278.55276 279.61679 280.80630 282.14401 283.32965 284.38245 285.34744 286.22858
 287.03098 287.75458 288.38574 289.20401
 366.78100 356.33951 345.77601 334.64652 323.05403 311.25253 299.12704 286.93455
 274.65105 262.55256 250.56607 239.87157 229.99808 221.10659 213.29309 206.29960
 200.13811 195.08061 191.66712 189.71363 188.75513 188.82364 189.66314 190.97565
 192.70516 194.80466 197.07217 199.43568 201.88518 204.36969 206.46220 208.30870
 209.93921 211.08872 211.32222 211.55473 211.49624 211.20574 210.84325 210.47776
 210.09926 209.81377 209.62628 209.49478 209.42729 209.76280 210.15330 210.54681
 211.34432 212.52682 213.78133 215.56884 217.50134 219.54885 221.64836 223.73586
 225.80037 227.88888 229.99038 232.10089 234.23439 236.41090 238.67141 241.04591
 243.67142 245.92693 247.93343 249.70294 251.12445 252.25195 253.07846 253.39897
 253.44047 253.21898 252.58349 251.53599 250.14650 248.31201 246.22551 244.06302
 241.85853 239.66703 237.49154 235.33505 233.19955 231.07106 229.10157 227.26307
 225.55058 224.02709 222.66159 221.43810 220.32461 219.28911 218.39762 217.54313
 216.78963 215.97414 215.07665 214.44515 213.89966 214.35229 215.42168 216.23558
 217.00998 218.31212 219.94402 221.48546 222.97392 225.04709 228.40213 231.11801
 232.99355 234.51219 236.37221 239.22571 242.87875 246.92877 251.05974 254.97986
 258.62872 262.07407 265.30637 268.29016 271.05276 273.54266 275.70416 277.38446
 278.50220 279.60031 280.83560 282.19867 283.38696 284.44199 285.41147 286.29688
 287.10239 287.82999 288.49554 289.37726
 366.78100 356.33920 345.77539 334.64559 323.05278 311.25098 299.12518 286.93237
 274.64857 262.54977 250.56296 239.86816 229.99435 221.10255 213.28875 206.29494
 200.13314 195.07534 191.66153 189.70773 188.74892 188.81712 189.65632 190.96851
 192.69771 194.79691 197.06410 199.42730 201.87649 204.36069 206.45289 208.29908
 209.92928 211.07848 211.31167 211.54387 211.48506 211.19426 210.83146 210.46565
 210.08685 209.80104 209.61324 209.48144 209.41363 209.74883 210.13903 210.53222
 211.32942 212.51161 213.76581 215.55301 217.48520 219.53240 221.63160 223.71879
 225.78299 227.87118 229.97238 232.08258 234.21577 236.39197 238.65217 241.02636
 243.65156 245.90675 247.91295 249.68215 251.10334 252.23054 253.05674 253.37693
 253.41813 253.19632 252.56052 251.51272 250.12291 248.28811 246.20131 244.03850
 241.83370 239.64189 237.46609 235.30929 233.17348 231.04468 229.07487 227.23607
 225.52327 223.99946 222.63366 221.40986 220.29605 219.26025 218.36844 217.51364
 216.75984 215.94403 215.04623 214.41443 213.86862 214.34035 215.45485 216.35756
 217.03879 218.31429 219.94398 221.47012 222.99533 225.09175 228.36421 231.05278
 232.84589 234.32870 236.22641 239.16176 242.85385 246.91045 251.03850 254.95450
 258.60330 262.04620 265.27661 268.26785 271.03204 273.51852 275.66232 277.32797
 278.52408 279.63879 280.89603 282.24100 283.42749 284.48309 285.45142 286.33749
 287.14618 287.88937 288.57346 289.44519
 366.78100 356.33916 345.77532 334.64548 323.05265 311.25081 299.12497 286.93213
 274.64829 262.54945 250.56261 239.86778 229.99394 221.10210 213.28826 206.29442
 200.13258 195.07474 191.66091 189.70707 188.74823 188.81639 189.65555 190.96771
 192.69687 194.79604 197.06320 199.42636 201.87552 204.35968 206.45184 208.29800
 209.92817 211.07733 211.31049 211.54265 211.48381 211.19297 210.83013 210.46430
 210.08546 209.79962 209.61178 209.47994 209.41210 209.74726 210.13743 210.53059
 211.32775 212.50991 213.76407 215.55123 217.48339 219.53056 221.62972 223.71688
 225.78104 227.86920 229.97036 232.08052 234.21369 236.38985 238.65001 241.02417
 243.64933 245.90449 247.91065 249.67982 251.10098 252.22814 253.05430 253.37446
 253.41562 253.19378 252.55795 251.51011 250.12027 248.28543 246.19859 244.03575
 241.83091 239.63908 237.46324 235.30640 233.17056 231.04172 229.07188 227.23304
 225.52021 223.99637 222.63053 221.40669 220.29285 219.25701 218.36517 217.51034
 216.75650 215.94066 215.04282 214.41098 213.86514 214.34142 215.46716 216.47531
 217.15028 218.36665 219.94884 221.39998 222.92389 225.06937 228.32680 230.98143
 232.68379 234.14404 236.08406 239.11009 242.84172 246.90193 251.02684 254.93829
 258.59039 262.03177 265.26300 268.26431 271.03317 273.51944 275.65497 277.32306
 278.56412 279.67477 280.94247 282.27496 283.46179 284.51971 285.49142 286.38354
 287.20084 287.96634 288.64163 289.50223
 366.78100 356.33892 345.77484 334.64477 323.05169 311.24961 299.12353 286.93045
 274.64637 262.54730 250.56022 239.86514 229.99106 221.09898 213.28491 206.29083
 200.12875 195.07067 191.65659 189.70252 188.74344 188.81136 189.65028 190.96220
 192.69112 194.79005 197.05697 199.41989 201.86881 204.35273 206.44466 208.29058
 209.92050 211.06942 211.30234 211.53427 211.47519 211.18411 210.82103 210.45495
 210.07587 209.78980 209.60172 209.46964 209.40156 209.73648 210.12641 210.51933
 211.31625 212.49817 213.75209 215.53902 217.47094 219.51786 221.61678 223.70370
 225.76762 227.85555 229.95647 232.06639 234.19931 236.37523 238.63516 241.00908
 243.63400 245.88892 247.89484 249.66376 251.08469 252.21161 253.03753 253.35745
 253.39837 253.17630 252.54022 251.49214 250.10206 248.26698 246.17991 244.01683
 241.81175 239.61967 237.44359 235.28651 233.15044 231.02136 229.05128 227.21220
 225.49912 223.97505 222.60897 221.38489 220.27081 219.23473 218.34266 217.48758
 216.73350 215.91742 215.01934 214.38726 213.84119 214.33379 215.49945 216.50661
 217.34578 218.52806 220.00040 221.24570 222.71895 225.02875 228.26793 230.85693
 232.46867 233.91951 235.92589 239.06244 242.85188 246.92300 251.03621 254.95062
 258.61075 262.05307 265.28339 268.29025 271.06232 273.55280 275.68964 277.36578
 278.60837 279.69272 280.93158 282.29416 283.48557 284.54453 285.52057 286.41544
 287.25275 288.03122 288.71124 289.57791
 366.78100 356.33997 345.77695 334.64792 323.05590 311.25487 299.12985 286.93782
 274.65480 262.55677 250.57075 239.87672 230.00370 221.11267 213.29965 206.30662
 200.14560 195.08857 191.67555 189.72252 188.76450 188.83347 189.67345 190.98642
 192.71640 194.81637 197.08435 199.44832 201.89830 204.38327 206.47625 208.32322
 209.95420 211.10417 211.33815 211.57112 211.51310 211.22307 210.86105 210.49602
 210.11799 209.83297 209.64594 209.51492 209.44789 209.78387 210.17484 210.56882
 211.36679 212.54977 213.80474 215.59272 217.52569 219.57367 221.67364 223.76162
 225.82659 227.91557 230.01754 232.12852 234.26249 236.43947 238.70044 241.07542
 243.70139 245.95737 247.96434 249.73432 251.15629 252.28427 253.11124 253.43222
 253.47419 253.25317 252.61814 251.57112 250.18209 248.34807 246.26204 244.10002
 241.89599 239.70496 237.52994 235.37391 233.23889 231.11086 229.14184 227.30381
 225.59179 224.06876 222.70374 221.48071 220.36769 219.33266 218.44164 217.58761
 216.83459 216.01956 215.12254 214.49151 213.94649 214.39249 215.45403 216.56613
 217.52922 218.67073 220.07523 221.15451 222.55556 225.00378 228.19556 230.69388
 232.21465 233.66498 235.77473 239.04591 242.87340 246.94212 251.04440 254.95891
 258.62677 262.07431 265.30807 268.32434 271.10809 273.61227 275.76981 277.48520
 278.72351 279.80685 281.01883 282.33627 283.52527 284.58951 285.57413 286.48096
 287.37048 288.16263 288.85461 289.73645
 366.78100 356.34142 345.77984 334.65226 323.06168 311.26210 299.13852 286.94794
 274.66636 262.56978 250.58520 239.89262 230.02104 221.13146 213.31988 206.32830
 200.16872 195.11314 191.70156 189.74998 188.79340 188.86382 189.70524 191.01966
 192.75108 194.85250 197.12192 199.48735 201.93877 204.42519 206.51961 208.36803
 210.00045 211.15187 211.38729 211.62171 211.56513 211.27655 210.91597 210.55239
 210.17581 209.89223 209.70665 209.57707 209.51149 209.84891 210.24133 210.63675
 211.43617 212.62059 213.87701 215.66643 217.60085 219.65027 221.75169 223.84111
 225.90753 227.99795 230.10137 232.21379 234.34921 236.52763 238.79005 241.16647
 243.79389 246.05131 248.05973 249.83115 251.25457 252.38399 253.21241 253.53483
 253.57825 253.35867 252.72509 251.67951 250.29193 248.45935 246.37477 244.21419
 242.01161 239.82204 237.64846 235.49388 233.36030 231.23372 229.26614 227.42956
 225.71898 224.19740 222.83382 221.61224 220.50066 219.46708 218.57750 217.72492
 216.97334 216.15976 215.26418 214.63460 214.09102 214.46509 215.36089 216.70572
 217.64998 218.76007 220.21169 221.21611 222.56252 225.03400 228.20897 230.51546
 231.99458 233.45813 235.60793 238.97055 242.83372 246.89975 250.99026 254.89473
 258.55920 262.00641 265.24896 268.29007 271.10394 273.64157 275.83997 277.61942
 278.93228 279.99905 281.11688 282.38846 283.57574 284.63632 285.61591 286.52237
 287.39432 288.18542 288.87653 289.75726
 366.78100 356.34125 345.77949 334.65174 323.06098 311.26123 299.13747 286.94672
 274.66496 262.56821 250.58345 239.89070 230.01895 221.12919 213.31744 206.32568
 200.16593 195.11017 191.69842 189.74666 188.78991 188.86015 189.70140 191.01565
 192.74689 194.84814 197.11738 199.48263 201.93387 204.42012 206.51436 208.36261
 209.99486 211.14610 211.38135 211.61559 211.55884 211.27008 210.90933 210.54557
 210.16882 209.88506 209.69931 209.56956 209.50380 209.84105 210.23329 210.62854
 211.42778 212.61203 213.86827 215.65752 217.59176 219.64101 221.74226 223.83150
 225.89775 227.98799 230.09124 232.20348 234.33873 236.51697 238.77922 241.15546
 243.78271 246.03996 248.04820 249.81945 251.24269 252.37194 253.20018 253.52243
 253.56567 253.34592 252.71217 251.66641 250.27866 248.44590 246.36115 244.20039
 241.99764 239.80788 237.63413 235.47937 233.34562 231.21887 229.25111 227.41436
 225.70360 224.18185 222.81809 221.59634 220.48458 219.45083 218.56107 217.70832
 216.95657 216.14281 215.24706 214.61730 214.07355 214.44957 215.33798 216.85449
 217.77826 218.89519 220.35107 221.33487 222.65556 225.07153 228.23178 230.34610
 231.82304 233.35231 235.58943 238.93648 242.79494 246.83713 250.90060 254.78300
 258.43207 261.86844 265.11392 268.18100 271.02042 273.57233 275.78491 277.60162
 279.02225 280.17474 281.26230 282.44168 283.61621 284.66675 285.63116 286.51248
 287.31635 288.05066 288.73029 289.59644
 366.78100 356.34013 345.77727 334.64840 323.05654 311.25567 299.13081 286.93894
 274.65608 262.55821 250.57235 239.87848 230.00562 221.11475 213.30189 206.30902
 200.14816 195.09129 191.67843 189.72556 188.76770 188.83683 189.67697 190.99010
 192.72024 194.82037 197.08851 199.45264 201.90278 204.38791 206.48105 208.32818
 209.95932 211.10945 211.34359 211.57672 211.51886 211.22899 210.86713 210.50226
 210.12440 209.83953 209.65267 209.52180 209.45494 209.79107 210.18221 210.57634
 211.37448 212.55761 213.81275 215.60088 217.53402 219.58215 221.68229 223.77042
 225.83556 227.92469 230.02683 232.13796 234.27210 236.44923 238.71037 241.08550
 243.71164 245.96777 247.97491 249.74504 251.16718 252.29531 253.12245 253.44358
 253.48572 253.26485 252.62999 251.58312 250.19426 248.36039 246.27453 244.11266
 241.90880 239.71793 237.54306 235.38720 233.25233 231.12447 229.15560 227.31774
 225.60587 224.08301 222.71814 221.49528 220.38241 219.34755 218.45668 217.60282
 216.84995 216.03509 215.13822 214.50736 213.96249 214.38719 215.39056 216.95355
 217.88832 219.01146 220.43530 221.37451 222.65935 225.04753 228.19176 230.20767
 231.64427 233.23589 235.54233 238.93166 242.80643 246.83154 250.86761 254.73203
 258.36938 261.79218 265.03094 268.10312 270.94171 273.47983 275.67514 277.49255
 278.93805 280.15179 281.27988 282.45255 283.62137 284.67285 285.63480 286.51257
 287.30994 288.02768 288.65662 289.46085
 366.78100 356.33992 345.77684 334.64776 323.05568 311.25460 299.12952 286.93744
 274.65436 262.55628 250.57020 239.87612 230.00304 221.11196 213.29888 206.30580
 200.14472 195.08764 191.67456 189.72148 188.76340 188.83232 189.67224 190.98516
 192.71507 194.81499 197.08291 199.44683 201.89675 204.38167 206.47459 208.32151
 209.95243 211.10235 211.33627 211.56919 211.51111 211.22103 210.85895 210.49387
 210.11579 209.83071 209.64363 209.51255 209.44547 209.78139 210.17231 210.56623
 211.36415 212.54707 213.80199 215.58991 217.52283 219.57075 221.67067 223.75859
 225.82351 227.91243 230.01435 232.12527 234.25919 236.43611 238.69703 241.07195
 243.69787 245.95379 247.96071 249.73063 251.15255 252.28047 253.10739 253.42831
 253.47022 253.24914 252.61406 251.56698 250.17790 248.34382 246.25774 244.09566
 241.89158 239.70050 237.52542 235.36934 233.23426 231.10618 229.13710 227.29902
 225.58694 224.06386 222.69878 221.47570 220.36262 219.32754 218.43646 217.58238
 216.82930 216.01422 215.11714 214.48606 213.94098 214.37468 215.39932 217.01340
 217.99298 219.11548 220.50284 221.37352 222.60007 224.99139 228.11766 230.06923
 231.48347 233.10332 235.48447 238.95129 242.84985 246.86430 250.88329 254.73781
 258.37021 261.78305 265.00446 268.07220 270.90601 273.43076 275.59906 277.40192
 278.84402 280.08429 281.24661 282.45294 283.62372 284.67441 285.63739 286.51633
 287.31375 288.03253 288.66190 289.46030
 366.78100 356.34079 345.77858 334.65036 323.05915 311.25894 299.13473 286.94352
 274.66130 262.56409 250.57888 239.88567 230.01345 221.12324 213.31103 206.31882
 200.15861 195.10239 191.69018 189.73797 188.78076 188.85055 189.69133 191.00512
 192.73591 194.83670 197.10548 199.47027 201.92106 204.40685 206.50064 208.34842
 209.98021 211.13100 211.36579 211.59958 211.54236 211.25315 210.89194 210.52773
 210.15051 209.86630 209.68009 209.54988 209.48367 209.82045 210.21224 210.60703
 211.40582 212.58961 213.84539 215.63418 217.56797 219.61676 221.71754 223.80633
 225.87212 227.96191 230.06470 232.17648 234.31127 236.48906 238.75085 241.12664
 243.75342 246.01021 248.01800 249.78879 251.21157 252.34036 253.16815 253.48994
 253.53273 253.31251 252.67830 251.63209 250.24388 248.41067 246.32545 244.16424
 241.96103 239.77082 237.59660 235.44139 233.30718 231.17997 229.21176 227.37454
 225.66333 224.14112 222.77691 221.55470 220.44248 219.40827 218.51806 217.66485
 216.91263 216.09842 215.20221 214.57200 214.02779 214.41866 215.34212 217.07394
 218.16219 219.25529 220.56694 221.36687 222.53423 224.90703 228.00755 229.90718
 231.31299 232.96596 235.42262 238.97075 242.89197 246.89470 250.89642 254.73911
 258.36557 261.76843 264.97644 268.03934 270.87003 273.38544 275.53262 277.32767
 278.77780 280.04428 281.23108 282.44519 283.61646 284.66870 285.63147 286.51108
 287.31100 288.03061 288.65979 289.46045
 366.78100 356.34202 345.78104 334.65406 323.06407 311.26509 299.14211 286.95213
 274.67115 262.57517 250.59119 239.89921 230.02822 221.13924 213.32826 206.33728
 200.17830 195.12332 191.71234 189.76135 188.80537 188.87639 189.71841 191.03343
 192.76545 194.86747 197.13748 199.50350 201.95552 204.44254 206.53756 208.38658
 210.01960 211.17162 211.40763 211.64265 211.58667 211.29869 210.93871 210.57573
 210.19975 209.91676 209.73178 209.60280 209.53782 209.87584 210.26886 210.66488
 211.46489 212.64991 213.90693 215.69695 217.63197 219.68199 221.78401 223.87403
 225.94104 228.03206 230.13608 232.24910 234.38512 236.56414 238.82716 241.20417
 243.83219 246.09021 248.09923 249.87125 251.29527 252.42529 253.25430 253.57732
 253.62134 253.40236 252.76938 251.72440 250.33742 248.50544 246.42145 244.26147
 242.05949 239.87051 237.69753 235.54355 233.41057 231.28458 229.31760 227.48162
 225.77164 224.25066 222.88768 221.66670 220.55571 219.52273 218.63375 217.78177
 217.03079 216.21781 215.32283 214.69385 214.15086 214.48199 215.26433 217.11438
 218.37157 219.43585 220.64850 221.36775 222.47153 224.80283 227.86615 229.72273
 231.12947 232.81749 235.35019 238.98016 242.92386 246.91475 250.89847 254.72784
 258.34842 261.74310 264.94064 267.99908 270.82742 273.33533 275.46524 277.25360
 278.71701 280.00745 281.21887 282.43115 283.60236 284.65475 285.61819 286.49872
 287.29639 288.01541 288.64493 289.44736
 366.78100 356.34296 345.78291 334.65687 323.06783 311.26979 299.14774 286.95870
 274.67866 262.58361 250.60057 239.90953 230.03948 221.15144 213.34140 206.35136
 200.19331 195.13927 191.72923 189.77918 188.82414 188.89610 189.73906 191.05501
 192.78797 194.89093 197.16188 199.52884 201.98180 204.46975 206.56571 208.41567
 210.04963 211.20258 211.43954 211.67550 211.62045 211.33341 210.97437 210.61233
 210.23728 209.95524 209.77120 209.64315 209.57911 209.91807 210.31202 210.70898
 211.50994 212.69590 213.95385 215.74481 217.68077 219.73172 221.83468 223.92564
 225.99359 228.08555 230.19051 232.30447 234.44142 236.62138 238.88534 241.26329
 243.89225 246.15121 248.16117 249.93412 251.35908 252.49004 253.31999 253.64395
 253.68891 253.47086 252.83882 251.79478 250.40874 248.57769 246.49465 244.33561
 242.13456 239.94652 237.77448 235.62144 233.48939 231.36435 229.39831 227.56326
 225.85422 224.33418 222.97213 221.75209 220.64205 219.61001 218.72196 217.87092
 217.12088 216.30883 215.41479 214.78675 214.24471 214.53072 215.20642 217.12549
 218.56047 219.62210 220.73825 221.37796 222.41843 224.70288 227.72755 229.55330
 230.96654 232.68831 235.29225 238.99817 242.96162 246.93927 250.90234 254.71675
 258.33002 261.71704 264.90451 267.95584 270.77951 273.27945 275.39529 277.17999
 278.65515 279.96729 281.20206 282.40762 283.57941 284.63351 285.59732 286.47614
 287.27505 287.99234 288.62347 289.42520
 366.78100 356.34355 345.78411 334.65866 323.07021 311.27277 299.15132 286.96287
 274.68343 262.58898 250.60654 239.91609 230.04664 221.15920 213.34975 206.36030
 200.20286 195.14941 191.73996 189.79052 188.83607 188.90862 189.75218 191.06873
 192.80228 194.90584 197.17739 199.54494 201.99850 204.48705 206.58361 208.43416
 210.06871 211.22227 211.45982 211.69637 211.64193 211.35548 210.99703 210.63559
 210.26114 209.97969 209.79625 209.66880 209.60535 209.94491 210.33946 210.73702
 211.53857 212.72512 213.98368 215.77523 217.71178 219.76334 221.86689 223.95844
 226.02700 228.11955 230.22510 232.33966 234.47721 236.65776 238.92232 241.30087
 243.93043 246.18998 248.20053 249.97409 251.39964 252.53119 253.36175 253.68630
 253.73185 253.51441 252.88296 251.83951 250.45407 248.62362 246.54117 244.38273
 242.18228 239.99483 237.82339 235.67094 233.53950 231.41505 229.44960 227.61516
 225.90671 224.38726 223.02582 221.80637 220.69692 219.66548 218.77803 217.92758
 217.17814 216.36669 215.47324 214.84580 214.30435 214.56081 215.16670 217.12854
 218.72774 219.79817 220.81857 221.38835 222.37354 224.60292 227.58907 229.39700
 230.82202 232.57767 235.24934 239.02522 243.00620 246.96933 250.90672 254.70428
 258.30862 261.68723 264.86450 267.90671 270.72293 273.21249 275.31500 277.09735
 278.58429 279.91562 281.17151 282.39032 283.56403 284.61768 285.58307 286.46695
 287.26639 287.98886 288.61816 289.43643
 366.78100 356.34403 345.78507 334.66010 323.07213 311.27517 299.15420 286.96623
 274.68727 262.59330 250.61134 239.92137 230.05240 221.16544 213.35647 206.36750
 200.21054 195.15757 191.74860 189.79964 188.84567 188.91870 189.76274 191.07977
 192.81381 194.91784 197.18987 199.55791 202.01194 204.50097 206.59801 208.44904
 210.08407 211.23811 211.47614 211.71317 211.65921 211.37324 211.01528 210.65431
 210.28034 209.99938 209.81641 209.68944 209.62648 209.96651 210.36154 210.75958
 211.56161 212.74864 214.00768 215.79971 217.73675 219.78878 221.89281 223.98485
 226.05388 228.14691 230.25295 232.36798 234.50601 236.68705 238.95208 241.33111
 243.96115 246.22118 248.23221 250.00625 251.43228 252.56432 253.39535 253.72038
 253.76642 253.54945 252.91848 251.87552 250.49055 248.66058 246.57862 244.42065
 242.22068 240.03372 237.86275 235.71079 233.57982 231.45585 229.49089 227.65692
 225.94895 224.42999 223.06902 221.85005 220.74109 219.71012 218.82315 217.97319
 217.22422 216.41326 215.52029 214.89332 214.35236 214.58383 215.13072 217.11977
 218.88878 219.98013 220.90268 221.39870 222.32080 224.50253 227.45151 229.24179
 230.67986 232.47397 235.21518 239.05853 243.05641 247.00330 250.91202 254.69034
 258.28378 261.65414 264.82230 267.85318 270.65869 273.13556 275.22812 277.01132
 278.51013 279.86096 281.13708 282.36819 283.54315 284.60095 285.56802 286.45078
 287.25244 287.97397 288.60623 289.42371
 366.78100 356.34458 345.78616 334.66174 323.07432 311.27790 299.15748 286.97005
 274.69163 262.59821 250.61679 239.92737 230.05895 221.17253 213.36411 206.37569
 200.21927 195.16685 191.75843 189.81001 188.85658 188.93016 189.77474 191.09232
 192.82690 194.93148 197.20406 199.57264 202.02722 204.51680 206.61438 208.46596
 210.10153 211.25611 211.49469 211.73227 211.67885 211.39343 211.03601 210.67559
 210.30217 210.02175 209.83933 209.71291 209.65049 209.99106 210.38664 210.78522
 211.58780 212.77538 214.03496 215.82754 217.76512 219.81770 221.92228 224.01486
 226.08444 228.17802 230.28459 232.40017 234.53875 236.72033 238.98591 241.36549
 243.99607 246.25665 248.26823 250.04281 251.46939 252.60197 253.43354 253.75912
 253.80570 253.58928 252.95886 251.91644 250.53202 248.70260 246.62118 244.46376
 242.26434 240.07792 237.90750 235.75607 233.62565 231.50223 229.53781 227.70439
 225.99697 224.47855 223.11813 221.89971 220.79129 219.76087 218.87445 218.02503
 217.27660 216.46618 215.57376 214.94734 214.40692 214.61035 215.09097 217.10075
 219.04752 220.16283 220.98820 221.42148 222.28542 224.38481 227.29787 229.08676
 230.54395 232.38007 235.19115 239.09900 243.11307 247.04262 250.92030 254.67706
 258.25858 261.62054 264.78055 267.79733 270.58960 273.05267 275.13602 276.92258
 278.43442 279.80453 281.04636 282.36838 283.54752 284.59589 285.55826 286.43918
 287.24091 287.96115 288.59235 289.40857
 366.78100 356.34520 345.78741 334.66361 323.07681 311.28102 299.16122 286.97442
 274.69663 262.60383 250.62303 239.93423 230.06644 221.18064 213.37284 206.38505
 200.22925 195.17745 191.76966 189.82186 188.86906 188.94327 189.78847 191.10667
 192.84188 194.94708 197.22028 199.58948 202.04469 204.53489 206.63309 208.48530
 210.12150 211.27670 211.51591 211.75411 211.70131 211.41652 211.05972 210.69992
 210.32713 210.04733 209.86553 209.73974 209.67794 210.01914 210.41534 210.81455
 211.61775 212.80595 214.06616 215.85936 217.79756 219.85077 221.95597 224.04917
 226.11938 228.21358 230.32078 232.43699 234.57619 236.75839 239.02460 241.40480
 244.03600 246.29720 248.30941 250.08461 251.51181 252.64502 253.47722 253.80342
 253.85063 253.63483 253.00503 251.96324 250.57944 248.75064 246.66985 244.51305
 242.31425 240.12845 237.95866 235.80786 233.67806 231.55527 229.59147 227.75867
 226.05188 224.53408 223.17428 221.95649 220.84869 219.81889 218.93310 218.08430
 217.33650 216.52671 215.63491 215.00911 214.46931 214.64188 215.04956 217.07248
 219.20038 220.34940 221.08685 221.42265 222.20926 224.28218 227.15581 228.92870
 230.40694 232.29208 235.17546 239.14598 243.17607 247.08853 250.93365 254.66617
 258.23447 261.58698 264.73895 267.73856 270.51550 272.96356 275.03918 276.82953
 278.35608 279.74008 280.99808 282.33978 283.52655 284.58148 285.54739 286.42941
 287.23016 287.95245 288.58258 289.39975
 366.78100 356.34579 345.78857 334.66536 323.07914 311.28393 299.16471 286.97850
 274.70128 262.60907 250.62886 239.94064 230.07343 221.18821 213.38100 206.39378
 200.23857 195.18735 191.78014 189.83293 188.88071 188.95550 189.80128 191.12007
 192.85585 194.96164 197.23542 199.60521 202.06100 204.55178 206.65057 208.50335
 210.14014 211.29592 211.53571 211.77450 211.72228 211.43807 211.08185 210.72264
 210.35042 210.07121 209.88999 209.76478 209.70357 210.04535 210.44214 210.84192
 211.64571 212.83449 214.09528 215.88906 217.82785 219.88164 221.98742 224.08121
 226.15199 228.24678 230.35456 232.47135 234.61113 236.79392 239.06071 241.44149
 244.07328 246.33506 248.34785 250.12363 251.55142 252.68520 253.51799 253.84478
 253.89256 253.67735 253.04813 252.00692 250.62370 248.79549 246.71527 244.55906
 242.36085 240.17563 238.00642 235.85620 233.72699 231.60477 229.64156 227.80934
 226.10313 224.58592 223.22670 222.00949 220.90227 219.87306 218.98784 218.13963
 217.39242 216.58320 215.69199 215.06677 214.52756 214.67242 215.01471 217.04156
 219.33739 220.51347 221.15790 221.50122 222.23264 224.10249 226.96211 228.78160
 230.28555 232.21721 235.17252 239.20184 243.24704 247.14218 250.95207 254.65810
 258.21091 261.55283 264.69666 267.67734 270.43521 272.86755 274.93890 276.73361
 278.27493 279.66901 280.96387 282.31030 283.50311 284.56232 285.53210 286.41653
 287.21799 287.93884 288.56897 289.38474
 366.78100 356.34632 345.78965 334.66697 323.08130 311.28662 299.16794 286.98227
 274.70559 262.61391 250.63424 239.94656 230.07989 221.19521 213.38853 206.40186
 200.24718 195.19650 191.78983 189.84315 188.89148 188.96680 189.81312 191.13245
 192.86877 194.97509 197.24942 199.61974 202.07607 204.56739 206.66671 208.52004
 210.15736 211.31368 211.55401 211.79333 211.74166 211.45798 211.10230 210.74363
 210.37195 210.09327 209.91260 209.78792 209.72725 210.06957 210.46689 210.86722
 211.67154 212.86086 214.12219 215.91651 217.85584 219.91016 222.01648 224.11081
 226.18213 228.27745 230.38578 232.50310 234.64343 236.82675 239.09407 241.47540
 244.10772 246.37004 248.38337 250.15969 251.58802 252.72234 253.55566 253.88299
 253.93131 253.71663 253.08796 252.04728 250.66461 248.83693 246.75725 244.60158
 242.40390 240.21922 238.05055 235.90087 233.77220 231.65052 229.68784 227.85617
 226.15049 224.63381 223.27514 222.05846 220.95179 219.92311 219.03843 218.19076
 217.44408 216.63540 215.74473 215.12005 214.58138 214.70116 214.98418 217.01201
 219.45595 220.67654 221.23618 221.55652 222.25121 223.92926 226.76738 228.64160
 230.17848 232.15697 235.18047 239.26389 243.32201 247.19913 250.97241 254.65105
 258.18640 261.51706 264.65253 267.61423 270.35144 272.77057 274.83759 276.63779
 278.18948 279.59543 280.93539 282.28793 283.48111 284.54099 285.51297 286.39761
 287.20044 287.92239 288.55109 289.36758
 366.78100 356.34675 345.79051 334.66826 323.08301 311.28877 299.17052 286.98528
 274.70903 262.61778 250.63854 239.95129 230.08504 221.20080 213.39455 206.40831
 200.25406 195.20381 191.79757 189.85132 188.90007 188.97583 189.82258 191.14234
 192.87909 194.98584 197.26060 199.63135 202.08810 204.57986 206.67961 208.53337
 210.17112 211.32787 211.56863 211.80838 211.75713 211.47389 211.11864 210.76040
 210.38915 210.11090 209.93066 209.80641 209.74616 210.08892 210.48667 210.88743
 211.69218 212.88193 214.14369 215.93844 217.87819 219.93295 222.03970 224.13446
 226.20621 228.30196 230.41072 232.52847 234.66922 236.85298 239.12073 241.50249
 244.13524 246.39799 248.41175 250.18850 251.61725 252.75201 253.58576 253.91352
 253.96227 253.74802 253.11978 252.07953 250.69728 248.87004 246.79079 244.63555
 242.43830 240.25405 238.08581 235.93656 233.80831 231.68707 229.72482 227.89358
 226.18833 224.67208 223.31384 222.09759 220.99134 219.96310 219.07885 218.23161
 217.48536 216.67711 215.78687 215.16262 214.62437 214.72467 214.96165 216.98224
 219.55049 220.82529 221.34030 221.59550 222.24905 223.79402 226.58318 228.49304
 230.06787 232.09863 235.19296 239.32799 243.39819 247.25761 250.99512 254.64558
 258.16238 261.48227 264.60855 267.54953 270.26630 272.67291 274.73654 276.54172
 278.10184 279.52106 280.90823 282.26535 283.45905 284.52039 285.49194 286.37665
 287.17981 287.89813 288.53040 289.34448
 366.78100 356.34700 345.79099 334.66899 323.08398 311.28998 299.17198 286.98697
 274.71097 262.61996 250.64096 239.95395 230.08795 221.20395 213.39794 206.41194
 200.25793 195.20793 191.80193 189.85592 188.90492 188.98091 189.82791 191.14791
 192.88490 194.99190 197.26689 199.63789 202.09489 204.58688 206.68688 208.54087
 210.17887 211.33586 211.57686 211.81686 211.76585 211.48285 211.12784 210.76984
 210.39884 210.12083 209.94083 209.81682 209.75682 210.09982 210.49781 210.89881
 211.70380 212.89380 214.15580 215.95079 217.89079 219.94578 222.05278 224.14777
 226.21977 228.31577 230.42476 232.54276 234.68375 236.86775 239.13575 241.51774
 244.15074 246.41373 248.42773 250.20473 251.63372 252.76872 253.60271 253.93071
 253.97970 253.76570 253.13770 252.09769 250.71569 248.88868 246.80968 244.65468
 242.45767 240.27367 238.10566 235.95666 233.82866 231.70765 229.74565 227.91464
 226.20964 224.69364 223.33563 222.11963 221.01362 219.98562 219.10161 218.25461
 217.50861 216.70060 215.81060 215.18659 214.64859 214.73848 214.95087 216.95297
 219.62128 220.94911 221.45343 221.64018 222.23328 223.66739 226.40506 228.34473
 229.95882 232.04681 235.21330 239.39778 243.47966 247.32248 251.02480 254.64412
 258.14032 261.44751 264.56415 267.48322 270.17966 272.57489 274.63696 276.44296
 278.01031 279.40405 280.89911 282.26117 283.44824 284.50494 285.47360 286.35611
 287.15668 287.87692 288.50235 289.32501
 366.78100 356.34705 345.79111 334.66916 323.08421 311.29027 299.17232 286.98738
 274.71143 262.62048 250.64154 239.95459 230.08864 221.20470 213.39875 206.41280
 200.25886 195.20891 191.80296 189.85702 188.90607 188.98213 189.82918 191.14923
 192.88629 194.99334 197.26839 199.63945 202.09650 204.58855 206.68861 208.54266
 210.18071 211.33777 211.57882 211.81888 211.76793 211.48498 211.13004 210.77209
 210.40114 210.12320 209.94325 209.81930 209.75936 210.10241 210.50046 210.90152
 211.70657 212.89663 214.15868 215.95373 217.89379 219.94884 222.05589 224.15095
 226.22300 228.31905 230.42811 232.54616 234.68721 236.87127 239.13932 241.52138
 244.15443 246.41748 248.43154 250.20859 251.63764 252.77270 253.60675 253.93480
 253.98386 253.76991 253.14196 252.10202 250.72007 248.89313 246.81418 244.65923
 242.46229 240.27834 238.11039 235.96145 233.83350 231.71255 229.75061 227.91966
 226.21471 224.69877 223.34082 222.12488 221.01893 219.99098 219.10704 218.26009
 217.51414 216.70620 215.81625 215.19230 214.65436 214.74194 214.94888 216.92545
 219.67346 221.05400 221.55815 221.68785 222.20477 223.53793 226.23605 228.20593
 229.85788 232.00568 235.24431 239.47415 243.56721 247.39310 251.05936 254.64522
 258.11832 261.41208 264.51859 267.41611 270.09320 272.48007 274.53973 276.34586
 277.91827 279.34595 280.86295 282.23117 283.42148 284.48010 285.44843 286.33154
 287.13220 287.84723 288.47659 289.29059
 366.78100 356.34699 345.79098 334.66897 323.08396 311.28995 299.17194 286.98693
 274.71092 262.61991 250.64090 239.95389 230.08788 221.20387 213.39786 206.41184
 200.25783 195.20782 191.80181 189.85580 188.90479 188.98078 189.82777 191.14776
 192.88475 194.99174 197.26673 199.63772 202.09471 204.58670 206.68669 208.54068
 210.17867 211.33566 211.57665 211.81664 211.76563 211.48262 211.12761 210.76960
 210.39859 210.12058 209.94057 209.81655 209.75654 210.09953 210.49752 210.89851
 211.70350 212.89349 214.15548 215.95047 217.89046 219.94545 222.05244 224.14743
 226.21942 228.31541 230.42440 232.54239 234.68338 236.86737 239.13536 241.51735
 244.15034 246.41333 248.42732 250.20431 251.63330 252.76829 253.60228 253.93026
 253.97925 253.76524 253.13723 252.09722 250.71521 248.88820 246.80919 244.65418
 242.45717 240.27316 238.10515 235.95614 233.82813 231.70712 229.74511 227.91410
 226.20909 224.69308 223.33507 222.11906 221.01305 219.98504 219.10103 218.25402
 217.50801 216.70000 215.80999 215.18597 214.64796 214.73991 214.95717 216.90375
 219.70921 221.14381 221.64857 221.73068 222.16594 223.41080 226.07973 228.07826
 229.76387 231.97330 235.28323 239.55415 243.65706 247.46603 251.09598 254.64709
 258.09573 261.37558 264.47244 267.34921 270.00842 272.38812 274.44461 276.24884
 277.82999 279.30258 280.82791 282.19934 283.39166 284.45062 285.41986 286.29974
 287.09952 287.81525 288.43719 289.25348
 366.78100 356.34686 345.79073 334.66859 323.08346 311.28932 299.17118 286.98605
 274.70991 262.61878 250.63964 239.95250 230.08637 221.20223 213.39610 206.40996
 200.25583 195.20569 191.79955 189.85342 188.90228 188.97815 189.82501 191.14487
 192.88174 194.98860 197.26347 199.63433 202.09119 204.58306 206.68292 208.53679
 210.17465 211.33151 211.57238 211.81224 211.76111 211.47797 211.12283 210.76470
 210.39356 210.11543 209.93529 209.81115 209.75102 210.09388 210.49175 210.89261
 211.69748 212.88734 214.14920 215.94407 217.88393 219.93880 222.04566 224.14052
 226.21239 228.30825 230.41712 232.53498 234.67584 236.85971 239.12757 241.50944
 244.14230 246.40516 248.41903 250.19589 251.62476 252.75962 253.59348 253.92135
 253.97021 253.75608 253.12794 252.08780 250.70567 248.87853 246.79940 244.64426
 242.44713 240.26299 238.09485 235.94572 233.81758 231.69645 229.73431 227.90317
 226.19804 224.68190 223.32377 222.10763 221.00149 219.97336 219.08922 218.24209
 217.49595 216.68781 215.79768 215.17354 214.63541 214.73807 214.98061 216.89130
 219.72360 221.21216 221.72385 221.76447 222.12259 223.29373 225.93704 227.95688
 229.67288 231.94818 235.32849 239.63577 243.74716 247.53958 251.13420 254.65102
 258.07394 261.33963 264.42664 267.28351 269.92725 272.30026 274.35141 276.15326
 277.74799 279.26254 280.79251 282.16403 283.35562 284.41321 285.38016 286.26105
 287.05637 287.76788 288.39215 289.20383
 366.78100 356.34667 345.79033 334.66800 323.08266 311.28833 299.17000 286.98466
 274.70833 262.61700 250.63766 239.95033 230.08399 221.19966 213.39333 206.40699
 200.25266 195.20232 191.79599 189.84966 188.89832 188.97399 189.82066 191.14032
 192.87699 194.98365 197.25832 199.62899 202.08565 204.57732 206.67698 208.53065
 210.16832 211.32498 211.56565 211.80532 211.75398 211.47065 211.11531 210.75698
 210.38565 210.10731 209.92698 209.80264 209.74231 210.08498 210.48264 210.88331
 211.68798 212.87764 214.13931 215.93397 217.87364 219.92831 222.03497 224.12964
 226.20130 228.29697 230.40564 232.52330 234.66397 236.84764 239.11530 241.49697
 244.12963 246.39230 248.40597 250.18263 251.61130 252.74596 253.57963 253.90730
 253.95596 253.74163 253.11330 252.07296 250.69063 248.86329 246.78396 244.62863
 242.43129 240.24696 238.07862 235.92929 233.80096 231.67962 229.71729 227.88596
 226.18062 224.66429 223.30595 222.08962 220.98329 219.95495 219.07062 218.22329
 217.47695 216.66862 215.77828 215.15395 214.61562 214.73448 215.01530 216.89140
 219.70984 221.25230 221.78847 221.79710 222.08582 223.19548 225.80891 227.84148
 229.58575 231.93056 235.37939 239.71863 243.83673 247.61374 251.17462 254.65656
 258.05341 261.30371 264.37918 267.21814 269.84796 272.21460 274.26282 276.06674
 277.68005 279.22513 280.75632 282.12729 283.31775 284.37479 285.34042 286.21967
 287.01450 287.72485 288.34940 289.16220
 366.78100 356.34638 345.78976 334.66714 323.08153 311.28691 299.16829 286.98267
 274.70605 262.61443 250.63481 239.94720 230.08058 221.19596 213.38934 206.40272
 200.24810 195.19748 191.79087 189.84425 188.89263 188.96801 189.81439 191.13377
 192.87015 194.97654 197.25092 199.62130 202.07768 204.56906 206.66844 208.52182
 210.15921 211.31559 211.55597 211.79535 211.74373 211.46011 211.10449 210.74588
 210.37426 210.09564 209.91502 209.79040 209.72978 210.07216 210.46955 210.86993
 211.67431 212.86369 214.12507 215.91945 217.85883 219.91322 222.01960 224.11398
 226.18536 228.28074 230.38912 232.50650 234.64689 236.83027 239.09765 241.47903
 244.11141 246.37379 248.38717 250.16356 251.59194 252.72632 253.55970 253.88708
 253.93546 253.72084 253.09223 252.05161 250.66899 248.84137 246.76175 244.60613
 242.40851 240.22390 238.05528 235.90566 233.77704 231.65542 229.69280 227.86118
 226.15557 224.63895 223.28033 222.06371 220.95709 219.92847 219.04385 218.19624
 217.44962 216.64100 215.75038 215.12576 214.58714 214.72519 215.05136 216.90565
 219.67036 221.26610 221.84390 221.82739 222.05711 223.11354 225.69307 227.73129
 229.50404 231.92279 235.43753 239.80362 243.92673 247.68898 251.21730 254.66406
 258.03271 261.26614 264.32993 267.15268 269.77106 272.13007 274.17297 275.97754
 277.61130 279.19055 280.72556 282.09625 283.28525 284.34109 285.30637 286.18469
 286.98245 287.69785 288.32309 289.13599
 366.78100 356.34599 345.78899 334.66598 323.07998 311.28497 299.16597 286.97996
 274.70296 262.61095 250.63095 239.94294 230.07594 221.19093 213.38393 206.39692
 200.24192 195.19091 191.78391 189.83690 188.88490 188.95989 189.80588 191.12488
 192.86087 194.96687 197.24086 199.61086 202.06685 204.55785 206.65684 208.50984
 210.14683 211.30283 211.54282 211.78182 211.72981 211.44581 211.08980 210.73080
 210.35879 210.07979 209.89878 209.77378 209.71277 210.05476 210.45176 210.85175
 211.65575 212.84474 214.10574 215.89973 217.83873 219.89272 221.99872 224.09271
 226.16371 228.25870 230.36670 232.48369 234.62369 236.80668 239.07368 241.45467
 244.08667 246.34866 248.36165 250.13765 251.56564 252.69964 253.53263 253.85963
 253.90762 253.69262 253.06361 252.02261 250.63960 248.81160 246.73159 244.57559
 242.37758 240.19258 238.02357 235.87357 233.74456 231.62256 229.65955 227.82755
 226.12154 224.60453 223.24553 222.02852 220.92152 219.89251 219.00751 218.15950
 217.41250 216.60349 215.71249 215.08748 214.54848 214.70993 215.09140 216.93463
 219.60931 221.25642 221.89404 221.85521 222.02606 223.04089 225.58202 227.61911
 229.42531 231.92499 235.50362 239.89207 244.01991 247.76918 251.26692 254.67722
 258.01532 261.22934 264.27982 267.08810 269.69516 272.04672 274.08795 275.90302
 277.56000 279.15503 280.69000 282.05908 283.24542 284.29910 285.26248 286.14160
 286.93732 287.65405 288.27878 289.07571
 366.78100 356.34549 345.78799 334.66448 323.07797 311.28246 299.16296 286.97645
 274.69894 262.60643 250.62593 239.93742 230.06991 221.18440 213.37690 206.38939
 200.23388 195.18237 191.77487 189.82736 188.87485 188.94934 189.79484 191.11333
 192.84882 194.95432 197.22781 199.59730 202.05279 204.54329 206.64178 208.49427
 210.13076 211.28626 211.52575 211.76424 211.71173 211.42723 211.07072 210.71121
 210.33870 210.05920 209.87769 209.75218 209.69067 210.03217 210.42866 210.82815
 211.63165 212.82014 214.08063 215.87412 217.81262 219.86611 221.97160 224.06509
 226.13559 228.23008 230.33757 232.45406 234.59356 236.77605 239.04254 241.42303
 244.05453 246.31602 248.32851 250.10400 251.53150 252.66499 253.49748 253.82397
 253.87147 253.65596 253.02645 251.98495 250.60144 248.77293 246.69242 244.53592
 242.33741 240.15190 237.98239 235.83189 233.70238 231.57987 229.61636 227.78386
 226.07735 224.55984 223.20033 221.98283 220.87532 219.84581 218.96030 218.11180
 217.36429 216.55478 215.66328 215.03777 214.49826 214.68979 215.14229 216.96912
 219.53664 221.22960 221.92577 221.87248 221.99779 222.97195 225.47543 227.51012
 229.35286 231.93715 235.57726 239.98213 244.11203 247.84937 251.31882 254.69363
 258.00119 261.19559 264.23300 267.02942 269.62589 271.96729 274.00143 275.81873
 277.49597 279.11578 280.65213 282.01855 283.20541 284.25650 285.21671 286.09293
 286.89139 287.61084 288.23126 289.02435
 366.78100 356.34506 345.78712 334.66319 323.07625 311.28031 299.16037 286.97344
 274.69550 262.60256 250.62162 239.93268 230.06475 221.17881 213.37087 206.38293
 200.22699 195.17506 191.76712 189.81918 188.86624 188.94031 189.78537 191.10343
 192.83849 194.94355 197.21662 199.58568 202.04074 204.53080 206.62886 208.48093
 210.11699 211.27205 211.51111 211.74918 211.69624 211.41130 211.05436 210.69442
 210.32149 210.04155 209.85961 209.73367 209.67173 210.01280 210.40886 210.80792
 211.61098 212.79905 214.05911 215.85217 217.79023 219.84329 221.94836 224.04142
 226.11148 228.20554 230.31260 232.42867 234.56773 236.74979 239.01585 241.39592
 244.02698 246.28804 248.30010 250.07516 251.50223 252.63529 253.46735 253.79341
 253.84048 253.62454 252.99460 251.95266 250.56872 248.73979 246.65885 244.50191
 242.30297 240.11703 237.94710 235.79616 233.66622 231.54328 229.57935 227.74641
 226.03947 224.52153 223.16159 221.94366 220.83572 219.80578 218.91984 218.07090
 217.32297 216.51303 215.62109 214.99515 214.45522 214.67331 215.18858 217.00656
 219.48378 221.20280 221.95450 221.86699 221.93365 222.89279 225.35977 227.38641
 229.27766 231.95741 235.66010 240.07878 244.20975 247.93681 251.37973 254.71637
 257.98911 261.15900 264.17966 266.96457 269.55154 271.88593 273.92245 275.75809
 277.46136 279.06827 280.59680 281.96039 283.14316 284.18979 285.14682 286.02167
 286.82275 287.54639 288.15936 288.95129
 366.78100 356.34439 345.78579 334.66118 323.07357 311.27696 299.15636 286.96875
 274.69014 262.59654 250.61493 239.92532 230.05671 221.17011 213.36150 206.37289
 200.21629 195.16368 191.75507 189.80647 188.85286 188.92625 189.77064 191.08804
 192.82243 194.92682 197.19922 199.56761 202.02200 204.51139 206.60879 208.46018
 210.09557 211.24997 211.48836 211.72575 211.67214 211.38654 211.02893 210.66832
 210.29472 210.01411 209.83150 209.70489 209.64229 209.98268 210.37807 210.77647
 211.57886 212.76625 214.02565 215.81804 217.75543 219.80782 221.91222 224.00461
 226.07400 228.16740 230.27379 232.38918 234.52757 236.70897 238.97436 241.35375
 243.98415 246.24454 248.25593 250.03032 251.45672 252.58911 253.42050 253.74590
 253.79229 253.57568 252.94507 251.90247 250.51786 248.68825 246.60665 244.44904
 242.24943 240.06283 237.89222 235.74061 233.61000 231.48640 229.52179 227.68818
 225.98058 224.46197 223.10136 221.88275 220.77415 219.74354 218.85693 218.00733
 217.25872 216.44811 215.55550 214.92890 214.38829 214.64111 215.23845 217.04965
 219.45525 221.18678 221.97034 221.86647 221.88019 222.79031 225.22372 227.24388
 229.18649 231.96783 235.74091 240.16920 244.29922 248.01942 251.44182 254.74391
 257.98553 261.13174 264.13358 266.90445 269.47531 271.79108 273.82080 275.66446
 277.38266 279.01147 280.54590 281.90918 283.08990 284.13708 285.09009 285.96567
 286.76843 287.49487 288.10406 288.89566
 366.78100 356.34310 345.78320 334.65730 323.06840 311.27051 299.14861 286.95971
 274.67981 262.58491 250.60201 239.91111 230.04121 221.15332 213.34342 206.35352
 200.19562 195.14172 191.73182 189.78192 188.82702 188.89913 189.74223 191.05833
 192.79143 194.89453 197.16563 199.53273 201.98583 204.47394 206.57004 208.42014
 210.05424 211.20734 211.44444 211.68054 211.62564 211.33875 210.97985 210.61795
 210.24305 209.96115 209.77725 209.64935 209.58545 209.92456 210.31866 210.71576
 211.51686 212.70296 213.96106 215.75216 217.68826 219.73937 221.84247 223.93357
 226.00167 228.09377 230.19887 232.31297 234.45007 236.63018 238.89428 241.27238
 243.90148 246.16058 248.17068 249.94378 251.36888 252.49999 253.33009 253.65419
 253.69929 253.48139 252.84949 251.80559 250.41969 248.58880 246.50590 244.34700
 242.14610 239.95820 237.78630 235.63340 233.50150 231.37661 229.41071 227.57581
 225.86691 224.34701 222.98511 221.76521 220.65531 219.62342 218.73552 217.88462
 217.13472 216.32282 215.42892 214.80102 214.25912 214.57698 215.32799 217.09869
 219.38628 221.14677 221.99908 221.84850 221.81026 222.73642 225.11751 227.10974
 229.10892 231.99370 235.83058 240.26051 244.37958 248.08768 251.48714 254.75461
 257.96497 261.08902 264.07852 266.84891 269.41736 271.73090 273.76447 275.62241
 277.36874 278.98999 280.48682 281.81418 282.95190 283.98492 284.93231 285.80411
 286.61615 287.33978 287.94943 288.73950
 366.78100 356.34278 345.78256 334.65633 323.06711 311.26889 299.14667 286.95745
 274.67723 262.58200 250.59878 239.90756 230.03734 221.14912 213.33890 206.34867
 200.19045 195.13623 191.72601 189.77579 188.82056 188.89234 189.73512 191.05090
 192.78368 194.88646 197.15723 199.52401 201.97679 204.46457 206.56035 208.41012
 210.04390 211.19668 211.43346 211.66924 211.61402 211.32679 210.96757 210.60535
 210.23013 209.94791 209.76369 209.63546 209.57124 209.91002 210.30380 210.70058
 211.50135 212.68713 213.94491 215.73569 217.67147 219.72225 221.82502 223.91580
 225.98358 228.07536 230.18014 232.29391 234.43069 236.61047 238.87425 241.25203
 243.88081 246.13958 248.14936 249.92214 251.34692 252.47770 253.30748 253.63125
 253.67603 253.45781 252.82559 251.78137 250.39514 248.56392 246.48070 244.32148
 242.12026 239.93204 237.75981 235.60659 233.47437 231.34915 229.38293 227.54771
 225.83848 224.31826 222.95604 221.73582 220.62560 219.59337 218.70515 217.85393
 217.10371 216.29149 215.39727 214.76904 214.22682 214.57562 215.39973 217.11674
 219.32591 221.09631 221.98756 221.86018 221.75600 222.57758 224.96977 227.00183
 229.06766 232.05478 235.95744 240.38887 244.51294 248.21904 251.59613 254.81743
 257.97736 261.05646 264.00598 266.74594 269.28171 271.56827 273.61349 275.51270
 277.28748 278.92310 280.41940 281.76642 282.93808 283.98373 284.95071 285.83102
 286.61417 287.30435 287.90973 288.68939
 366.78100 356.34426 345.78552 334.66077 323.07303 311.27629 299.15555 286.96781
 274.68907 262.59532 250.61358 239.92384 230.05510 221.16836 213.35962 206.37087
 200.21413 195.16139 191.75265 189.80391 188.85017 188.92342 189.76768 191.08494
 192.81920 194.92346 197.19572 199.56397 202.01823 204.50749 206.60475 208.45601
 210.09127 211.24552 211.48378 211.72104 211.66730 211.38156 211.02382 210.66307
 210.28933 210.00859 209.82585 209.69911 209.63637 209.97662 210.37188 210.77014
 211.57240 212.75966 214.01892 215.81117 217.74843 219.80069 221.90495 223.99721
 226.06647 228.15972 230.26598 232.38124 234.51950 236.70076 238.96602 241.34527
 243.97553 246.23579 248.24705 250.02131 251.44757 252.57982 253.41108 253.73634
 253.78260 253.56586 252.93512 251.89237 250.50763 248.67789 246.59615 244.43841
 242.23867 240.05192 237.88118 235.72944 233.59870 231.47496 229.51022 227.67647
 225.96873 224.44999 223.08925 221.87051 220.76177 219.73102 218.84428 217.99454
 217.24580 216.43506 215.54232 214.91557 214.37483 214.67340 215.37881 217.10417
 219.36716 221.10770 221.97702 221.85786 221.66492 222.33963 224.74791 226.80104
 228.95673 232.07593 236.07344 240.52699 244.66043 248.39145 251.78595 254.97922
 258.09344 261.12424 264.02893 266.72803 269.20331 271.40250 273.37198 275.24954
 277.15503 278.80356 280.23816 281.54944 282.71072 283.75443 284.71469 285.58542
 286.36099 287.03696 287.63989 288.42990
 366.78100 356.34587 345.78875 334.66562 323.07949 311.28436 299.16524 286.97911
 274.70198 262.60985 250.62973 239.94160 230.07447 221.18935 213.38222 206.39509
 200.23996 195.18884 191.78171 189.83458 188.88245 188.95733 189.80320 191.12207
 192.85794 194.96382 197.23769 199.60756 202.06344 204.55431 206.65318 208.50605
 210.14293 211.29880 211.53867 211.77754 211.72542 211.44129 211.08516 210.72604
 210.35391 210.07478 209.89365 209.76853 209.70740 210.04927 210.44614 210.84602
 211.64989 212.83876 214.09964 215.89351 217.83238 219.88625 221.99213 224.08600
 226.15687 228.25174 230.35962 232.47649 234.61636 236.79923 239.06611 241.44698
 244.07885 246.34073 248.35360 250.12947 251.55734 252.69122 253.52409 253.85096
 253.89883 253.68371 253.05458 252.01345 250.63033 248.80220 246.72207 244.56594
 242.36782 240.18269 238.01356 235.86343 233.73431 231.61218 229.64905 227.81693
 226.11080 224.59367 223.23454 222.01742 220.91029 219.88116 218.99603 218.14791
 217.40078 216.59165 215.70052 215.07540 214.53627 214.78047 215.35742 217.06024
 219.42780 221.18292 221.98871 221.83984 221.57320 222.12694 224.53087 226.59073
 228.82011 232.06450 236.14653 240.59282 244.72757 248.47594 251.87691 255.07233
 258.18259 261.21652 264.12299 266.83423 269.31924 271.53229 273.48868 275.34927
 277.20551 278.75977 280.13040 281.34744 282.34097 283.25497 284.20663 285.06763
 285.82797 286.49683 287.10434 287.90491
 366.78100 356.34619 345.78937 334.66656 323.08074 311.28593 299.16711 286.98130
 274.70449 262.61267 250.63286 239.94504 230.07823 221.19342 213.38660 206.39979
 200.24497 195.19416 191.78734 189.84053 188.88872 188.96390 189.81009 191.12927
 192.86546 194.97165 197.24583 199.61602 202.07220 204.56339 206.66257 208.51576
 210.15295 211.30913 211.54932 211.78850 211.73669 211.45288 211.09706 210.73825
 210.36643 210.08762 209.90680 209.78199 209.72118 210.06336 210.46055 210.86073
 211.66492 212.85410 214.11529 215.90948 217.84866 219.90285 222.00903 224.10322
 226.17441 228.26959 230.37778 232.49496 234.63515 236.81833 239.08552 241.46671
 244.09889 246.36108 248.37426 250.15045 251.57864 252.71282 253.54601 253.87319
 253.92138 253.70656 253.07775 252.03694 250.65412 248.82631 246.74649 244.59068
 242.39286 240.20805 238.03924 235.88942 233.76061 231.63879 229.67598 227.84417
 226.13835 224.62154 223.26272 222.04591 220.93909 219.91028 219.02547 218.17765
 217.43084 216.62202 215.73121 215.10640 214.56758 214.83427 215.46439 216.96170
 219.33897 221.30499 222.13205 221.86549 221.45174 221.87035 224.28845 226.30324
 228.64256 232.01741 236.20599 240.65417 244.77429 248.53497 251.97777 255.19044
 258.30887 261.33154 264.23105 266.95151 269.44504 271.67279 273.63217 275.46136
 277.22043 278.74902 280.08627 281.23456 282.13806 282.98795 283.92691 284.78180
 285.54425 286.23206 286.85837 287.67169
 366.78100 356.34562 345.78825 334.66487 323.07849 311.28312 299.16374 286.97736
 274.69999 262.60761 250.62723 239.93886 230.07148 221.18610 213.37873 206.39135
 200.23597 195.18460 191.77722 189.82984 188.87747 188.95209 189.79771 191.11634
 192.85196 194.95758 197.23121 199.60083 202.05645 204.54708 206.64570 208.49832
 210.13495 211.29057 211.53019 211.76882 211.71644 211.43206 211.07569 210.71631
 210.34393 210.06456 209.88318 209.75781 209.69643 210.03805 210.43468 210.83430
 211.63792 212.82655 214.08717 215.88079 217.81942 219.87304 221.97866 224.07229
 226.14291 228.23753 230.34516 232.46178 234.60140 236.78403 239.05065 241.43127
 244.06290 246.32452 248.33714 250.11277 251.54039 252.67401 253.50664 253.83326
 253.88088 253.66551 253.03613 251.99475 250.61138 248.78300 246.70262 244.54625
 242.34787 240.16249 237.99312 235.84274 233.71336 231.59099 229.62761 227.79523
 226.08886 224.57148 223.21210 221.99473 220.88735 219.85797 218.97260 218.12422
 217.37684 216.56747 215.67609 215.05071 214.51134 214.84573 215.63577 216.83868
 219.05130 221.28127 222.34093 222.05750 221.44745 221.61166 224.02983 226.01718
 228.44518 231.93013 236.21803 240.70042 244.80180 248.61052 252.10023 255.34995
 258.42053 261.41580 264.27991 266.98309 269.45651 271.66364 273.63675 275.48892
 277.15417 278.59210 279.86179 280.94214 281.79910 282.64273 283.57523 284.42224
 285.14679 285.84702 286.45874 287.23831
 366.78100 356.34441 345.78582 334.66123 323.07364 311.27705 299.15646 286.96887
 274.69028 262.59669 250.61510 239.92551 230.05692 221.17033 213.36174 206.37315
 200.21656 195.16398 191.75539 189.80680 188.85321 188.92662 189.77103 191.08844
 192.82285 194.92726 197.19967 199.56808 202.02249 204.51190 206.60931 208.46072
 210.09613 211.25054 211.48895 211.72636 211.67277 211.38718 211.02959 210.66900
 210.29541 210.01482 209.83223 209.70564 209.64305 209.98346 210.37887 210.77728
 211.57969 212.76710 214.02651 215.81893 217.75634 219.80875 221.91316 224.00557
 226.07498 228.16839 230.27480 232.39021 234.52862 236.71003 238.97544 241.35485
 243.98526 246.24567 248.25708 250.03149 251.45790 252.59031 253.42172 253.74713
 253.79354 253.57695 252.94636 251.90377 250.51918 248.68959 246.60800 244.45041
 242.25082 240.06423 237.89364 235.74205 233.61147 231.48788 229.52329 227.68970
 225.98211 224.46352 223.10293 221.88434 220.77575 219.74516 218.85857 218.00898
 217.26039 216.44980 215.55721 214.93062 214.39003 214.81360 215.81860 216.86136
 218.66084 220.98326 222.35098 222.27634 221.69055 221.60760 223.95740 225.95767
 228.34573 231.91092 236.23914 240.66866 244.75334 248.58240 252.08130 255.30112
 258.38263 261.37930 264.25049 266.96976 269.46490 271.68814 273.68408 275.56369
 277.16855 278.57706 279.82632 280.90747 281.78470 282.66772 283.62537 284.50186
 285.29828 286.00748 286.62704 287.41656
 366.78100 356.34318 345.78336 334.65755 323.06873 311.27091 299.14909 286.96027
 274.68045 262.58564 250.60282 239.91200 230.04218 221.15436 213.34455 206.35473
 200.19691 195.14309 191.73327 189.78345 188.82864 188.90082 189.74400 191.06018
 192.79336 194.89655 197.16773 199.53491 201.98809 204.47627 206.57245 208.42264
 210.05682 211.21000 211.44718 211.68336 211.62855 211.34173 210.98291 210.62109
 210.24627 209.96445 209.78064 209.65282 209.58900 209.92818 210.32236 210.71955
 211.52073 212.70691 213.96509 215.75627 217.69245 219.74364 221.84682 223.93800
 226.00618 228.09836 230.20355 232.31773 234.45491 236.63509 238.89927 241.27745
 243.90664 246.16582 248.17600 249.94918 251.37436 252.50555 253.33573 253.65991
 253.70509 253.48727 252.85545 251.81164 250.42582 248.59500 246.51218 244.35336
 242.15255 239.96473 237.79291 235.64009 233.50827 231.38345 229.41764 227.58282
 225.87400 224.35418 222.99236 221.77255 220.66273 219.63091 218.74309 217.89227
 217.14245 216.33064 215.43682 214.80900 214.26718 214.76544 215.94337 216.97740
 218.42950 220.62617 222.13564 222.30707 221.94133 221.87218 224.10428 226.09097
 228.40878 231.96480 236.27203 240.63304 244.69814 248.50317 251.96089 255.20334
 258.31049 261.32401 264.20346 266.93542 269.44916 271.70389 273.74326 275.63785
 277.27646 278.69635 279.96198 281.06036 281.95004 282.88074 283.84225 284.70563
 285.48669 286.19455 286.81296 287.60101
 366.78100 356.34371 345.78441 334.65912 323.07083 311.27353 299.15224 286.96395
 274.68465 262.59036 250.60807 239.91777 230.04848 221.16119 213.35189 206.36260
 200.20531 195.15201 191.74272 189.79342 188.83913 188.91184 189.75554 191.07225
 192.80596 194.90966 197.18137 199.54908 202.00278 204.49149 206.58820 208.43890
 210.07361 211.22732 211.46502 211.70173 211.64744 211.36114 211.00285 210.64156
 210.26726 209.98597 209.80268 209.67538 209.61209 209.95180 210.34650 210.74421
 211.54592 212.73262 213.99133 215.78303 217.71974 219.77145 221.87515 223.96686
 226.03557 228.12827 230.23398 232.34869 234.48639 236.66710 238.93181 241.31051
 243.94022 246.19993 248.21063 249.98434 251.41005 252.54175 253.37246 253.69717
 253.74287 253.52558 252.89429 251.85099 250.46570 248.63541 246.55311 244.39482
 242.19453 240.00723 237.83594 235.68364 233.55235 231.42806 229.46276 227.62847
 225.92018 224.40088 223.03959 221.82030 220.71100 219.67971 218.79242 217.94212
 217.19283 216.38154 215.48824 214.86095 214.31966 214.81012 215.96887 217.07085
 218.43678 220.43761 221.89130 222.12238 221.88646 221.99149 224.18654 226.16107
 228.49083 232.05582 236.32875 240.60834 244.68051 248.47572 251.98148 255.26683
 258.34912 261.35867 264.20682 266.91660 269.41571 271.67578 273.72427 275.63281
 277.30557 278.73505 279.99472 281.08429 281.97064 282.89682 283.84131 284.48483
 285.13440 285.82278 286.43903 287.22433
 366.78100 356.34436 345.78572 334.66107 323.07343 311.27679 299.15615 286.96851
 274.68987 262.59622 250.61458 239.92494 230.05630 221.16966 213.36102 206.37237
 200.21573 195.16309 191.75445 189.80581 188.85217 188.92552 189.76988 191.08724
 192.82160 194.92596 197.19831 199.56667 202.02103 204.51039 206.60775 208.45911
 210.09446 211.24882 211.48718 211.72454 211.67090 211.38526 211.02761 210.66697
 210.29333 210.01269 209.83005 209.70341 209.64076 209.98112 210.37648 210.77484
 211.57720 212.76456 214.02391 215.81627 217.75363 219.80599 221.91035 224.00270
 226.07206 228.16542 230.27178 232.38714 234.52550 236.70685 238.97221 241.35157
 243.98193 246.24229 248.25365 250.02800 251.45436 252.58672 253.41808 253.74344
 253.78980 253.57315 252.94251 251.89987 250.51523 248.68559 246.60394 244.44630
 242.24666 240.06002 237.88938 235.73774 233.60709 231.48345 229.51881 227.68517
 225.97753 224.45889 223.09824 221.87960 220.77096 219.74032 218.85368 218.00404
 217.25539 216.44475 215.55211 214.92547 214.38483 214.87506 216.03325 217.04648
 218.39528 220.28383 221.67677 221.91525 221.68880 221.81346 224.09892 226.14519
 228.46783 232.10242 236.43076 240.65997 244.73917 248.53452 252.12158 255.44876
 258.53360 261.51160 264.33475 267.00513 269.45883 271.67880 273.71866 275.61047
 277.26450 278.69125 279.94635 281.04059 282.02734 282.98727 283.72263 284.23752
 284.78546 285.48273 286.09183 286.86804
 366.78100 356.34320 345.78341 334.65761 323.06882 311.27102 299.14923 286.96043
 274.68064 262.58584 250.60305 239.91225 230.04246 221.15466 213.34487 206.35507
 200.19728 195.14348 191.73369 189.78389 188.82910 188.90130 189.74451 191.06071
 192.79392 194.89712 197.16833 199.53553 201.98874 204.47694 206.57315 208.42335
 210.05756 211.21076 211.44797 211.68417 211.62937 211.34258 210.98378 210.62199
 210.24719 209.96540 209.78160 209.65381 209.59001 209.92922 210.32342 210.72063
 211.52183 212.70804 213.96624 215.75745 217.69365 219.74486 221.84806 223.93927
 226.00747 228.09968 230.20488 232.31909 234.45629 236.63650 238.90070 241.27891
 243.90811 246.16732 248.17752 249.95073 251.37593 252.50713 253.33734 253.66154
 253.70675 253.48895 252.85716 251.81336 250.42757 248.59677 246.51398 244.35518
 242.15439 239.96659 237.79480 235.64200 233.51021 231.38541 229.41962 227.58482
 225.87603 224.35623 222.99444 221.77464 220.66485 219.63305 218.74526 217.89446
 217.14467 216.33287 215.43908 214.81128 214.26949 214.84349 216.19795 217.03487
 218.19331 220.10036 221.45810 221.69221 221.52814 221.63828 224.01701 226.15395
 228.43022 232.18062 236.55894 240.78316 244.86623 248.69925 252.34993 255.69914
 258.76224 261.69110 264.46368 267.07394 269.46823 271.63824 273.66516 275.53482
 277.15332 278.57413 279.82291 280.95203 282.01056 282.80807 283.38428 283.96719
 284.72574 285.40121 285.99130 286.74332
 366.78100 356.34252 345.78204 334.65556 323.06608 311.26759 299.14511 286.95563
 274.67515 262.57967 250.59619 239.90471 230.03423 221.14575 213.33527 206.34478
 200.18630 195.13182 191.72134 189.77086 188.81538 188.88690 189.72942 191.04494
 192.77746 194.87997 197.15049 199.51701 201.96953 204.45705 206.55257 208.40209
 210.03561 211.18813 211.42465 211.66016 211.60468 211.31720 210.95772 210.59524
 210.21976 209.93728 209.75280 209.62432 209.55983 209.89835 210.29187 210.68839
 211.48891 212.67443 213.93195 215.72247 217.65799 219.70851 221.81102 223.90154
 225.96906 228.06058 230.16510 232.27862 234.41514 236.59466 238.85818 241.23570
 243.86421 246.12273 248.13225 249.90477 251.32929 252.45981 253.28933 253.61285
 253.65737 253.43888 252.80640 251.76192 250.37544 248.54396 246.46048 244.30100
 242.09952 239.91104 237.73856 235.58507 233.45259 231.32711 229.36063 227.52515
 225.81567 224.29519 222.93271 221.71223 220.60175 219.56926 218.68078 217.82930
 217.07882 216.26634 215.37186 214.74338 214.20090 214.82962 216.30722 217.07310
 218.06126 219.90013 221.29141 221.51793 221.40335 221.47812 223.90982 226.17899
 228.44873 232.25378 236.65231 240.90649 244.99219 248.89075 252.58914 255.91867
 258.93134 261.80505 264.52768 267.06644 269.40973 271.56128 273.58246 275.42236
 276.98218 278.39032 279.64301 280.79352 281.77710 282.44620 283.09567 283.92606
 284.69403 285.37790 285.97534 286.73666
 366.78100 356.34263 345.78226 334.65589 323.06652 311.26815 299.14578 286.95641
 274.67604 262.58067 250.59729 239.90592 230.03555 221.14718 213.33681 206.34644
 200.18807 195.13370 191.72333 189.77296 188.81759 188.88922 189.73185 191.04748
 192.78011 194.88274 197.15337 199.52000 201.97262 204.46025 206.55588 208.40551
 210.03914 211.19177 211.42840 211.66403 211.60866 211.32129 210.96192 210.59955
 210.22418 209.94181 209.75744 209.62907 209.56470 209.90333 210.29695 210.69358
 211.49421 212.67984 213.93747 215.72810 217.66373 219.71436 221.81699 223.90762
 225.97525 228.06688 230.17151 232.28514 234.42177 236.60140 238.86503 241.24266
 243.87128 246.12991 248.13954 249.91217 251.33680 252.46743 253.29706 253.62069
 253.66532 253.44695 252.81458 251.77021 250.38384 248.55247 246.46910 244.30973
 242.10836 239.91999 237.74761 235.59424 233.46187 231.33650 229.37013 227.53476
 225.82539 224.30502 222.94265 221.72228 220.61191 219.57954 218.69117 217.83980
 217.08943 216.27706 215.38269 214.75432 214.21194 214.86533 216.37886 217.10666
 218.01816 219.77542 221.28560 221.61368 221.50513 221.66200 223.72223 226.07191
 228.49641 232.30289 236.64101 240.89044 244.95636 248.91083 252.69717 256.09357
 259.11325 261.93109 264.59271 267.05374 269.29825 271.39499 273.41095 275.18317
 276.75323 278.15277 279.40698 280.45490 281.46289 282.50211 283.45026 284.30920
 285.08173 285.76968 286.37064 287.13651
 366.78100 356.34323 345.78345 334.65768 323.06890 311.27113 299.14935 286.96058
 274.68080 262.58603 250.60325 239.91248 230.04270 221.15493 213.34515 206.35538
 200.19760 195.14383 191.73405 189.78428 188.82950 188.90173 189.74495 191.06118
 192.79440 194.89763 197.16885 199.53608 201.98930 204.47753 206.57375 208.42398
 210.05820 211.21143 211.44866 211.68488 211.63011 211.34333 210.98456 210.62278
 210.24801 209.96623 209.78246 209.65468 209.59091 209.93013 210.32436 210.72158
 211.52281 212.70903 213.96726 215.75848 217.69471 219.74593 221.84916 223.94038
 226.00861 228.10083 230.20606 232.32028 234.45751 236.63773 238.90196 241.28018
 243.90941 246.16863 248.17886 249.95208 251.37731 252.50854 253.33876 253.66299
 253.70821 253.49044 252.85866 251.81489 250.42911 248.59834 246.51556 244.35679
 242.15601 239.96824 237.79646 235.64369 233.51191 231.38714 229.42136 227.58659
 225.87781 224.35804 222.99626 221.77649 220.66671 219.63494 218.74716 217.89639
 217.14661 216.33484 215.44106 214.81329 214.27151 214.92798 216.42569 217.11801
 217.98682 219.74030 221.33888 221.79465 221.59773 221.83586 223.76404 225.90056
 228.44334 232.32277 236.67336 240.89995 244.92879 248.87909 252.69243 256.15152
 259.20474 262.01895 264.66867 267.10922 269.28589 271.33942 273.29349 275.02332
 276.58499 277.96051 279.28104 280.69595 281.92615 283.01456 284.00754 284.90714
 285.71622 286.43674 287.06613 287.86826
 366.78100 356.34434 345.78569 334.66103 323.07337 311.27672 299.15606 286.96840
 274.68975 262.59609 250.61443 239.92477 230.05612 221.16946 213.36080 206.37215
 200.21549 195.16283 191.75418 189.80552 188.85186 188.92521 189.76955 191.08689
 192.82124 194.92558 197.19792 199.56627 202.02061 204.50995 206.60729 208.45864
 210.09398 211.24832 211.48667 211.72401 211.67035 211.38470 211.02704 210.66638
 210.29273 210.01207 209.82941 209.70276 209.64010 209.98044 210.37579 210.77413
 211.57647 212.76381 214.02316 215.81550 217.75284 219.80519 221.90953 224.00187
 226.07122 228.16456 230.27090 232.38625 234.52459 236.70593 238.97128 241.35062
 243.98096 246.24131 248.25265 250.02699 251.45333 252.58568 253.41702 253.74236
 253.78871 253.57205 252.94139 251.89874 250.51408 248.68442 246.60277 244.44511
 242.24545 240.05880 237.88814 235.73648 233.60583 231.48217 229.51751 227.68385
 225.97620 224.45754 223.09688 221.87823 220.76957 219.73891 218.85226 218.00260
 217.25394 216.44329 215.55063 214.92397 214.38332 215.00812 216.43706 217.13741
 217.91702 219.61432 221.24130 221.75824 221.55020 221.83170 223.76991 225.87169
 228.45520 232.39211 236.77129 240.97198 245.00461 248.96902 252.77594 256.19821
 259.25131 262.11310 264.78214 267.20392 269.35892 271.35034 273.26907 274.98407
 276.53656 277.90686 279.45572 280.90033 282.15054 283.25665 284.26581 285.18005
 286.00229 286.73450 287.37415 288.18930
 366.78100 356.34574 345.78849 334.66523 323.07897 311.28371 299.16446 286.97820
 274.70094 262.60868 250.62843 239.94017 230.07291 221.18766 213.38040 206.39314
 200.23788 195.18663 191.77937 189.83211 188.87985 188.95460 189.80034 191.11908
 192.85482 194.96057 197.23431 199.60405 202.05980 204.55054 206.64928 208.50202
 210.13877 211.29451 211.53425 211.77299 211.72074 211.43648 211.08022 210.72097
 210.34871 210.06945 209.88819 209.76294 209.70168 210.04342 210.44016 210.83991
 211.64365 212.83239 214.09313 215.88688 217.82562 219.87936 221.98511 224.07885
 226.14959 228.24433 230.35208 232.46882 234.60856 236.79130 239.05805 241.43879
 244.07053 246.33228 248.34502 250.12076 251.54850 252.68225 253.51499 253.84173
 253.88947 253.67422 253.04496 252.00370 250.62044 248.79219 246.71193 244.55567
 242.35742 240.17216 238.00290 235.85264 233.72339 231.60113 229.63787 227.80561
 226.09936 224.58210 223.22284 222.00559 220.89833 219.86907 218.98381 218.13556
 217.38830 216.57904 215.68778 215.06253 214.52327 215.08983 216.41510 217.21404
 217.85301 219.41212 221.06580 221.58865 221.37355 221.71884 223.74524 225.82843
 228.45592 232.47421 236.94070 241.12164 245.14691 249.12175 252.91936 256.34860
 259.39465 262.22482 264.88049 267.29300 269.42371 271.42325 273.37314 275.12424
 276.65884 278.16397 279.82361 281.32086 282.61661 283.76300 284.80890 285.75641
 286.60861 287.36749 288.03043 288.87527
 366.78100 356.34619 345.78937 334.66656 323.08075 311.28593 299.16712 286.98130
 274.70449 262.61268 250.63286 239.94505 230.07824 221.19342 213.38661 206.39980
 200.24498 195.19417 191.78736 189.84054 188.88873 188.96391 189.81010 191.12929
 192.86547 194.97166 197.24585 199.61603 202.07222 204.56341 206.66259 208.51578
 210.15297 211.30915 211.54934 211.78852 211.73671 211.45290 211.09708 210.73827
 210.36646 210.08764 209.90683 209.78202 209.72120 210.06339 210.46058 210.86076
 211.66495 212.85413 214.11532 215.90951 217.84869 219.90288 222.00907 224.10325
 226.17444 228.26963 230.37781 232.49500 234.63519 236.81837 239.08556 241.46674
 244.09893 246.36112 248.37430 250.15049 251.57868 252.71286 253.54605 253.87324
 253.92142 253.70661 253.07780 252.03698 250.65417 248.82635 246.74654 244.59073
 242.39291 240.20810 238.03929 235.88947 233.76066 231.63885 229.67603 227.84422
 226.13841 224.62159 223.26278 222.04596 220.93915 219.91034 219.02552 218.17771
 217.43090 216.62208 215.73127 215.10646 214.56764 215.11568 216.41045 217.28468
 217.87798 219.14272 220.60689 221.17268 221.20979 221.77773 223.74217 226.04935
 228.67531 232.61554 237.03261 241.22321 245.26991 249.23843 253.03622 256.44901
 259.49002 262.28098 264.93066 267.34711 269.54031 271.59311 273.57648 275.38809
 276.94760 278.30930 279.74075 281.10403 282.29089 283.34097 284.29898 285.16690
 285.94748 286.64261 287.24985 288.02371
 366.78100 356.34517 345.78735 334.66352 323.07669 311.28087 299.16104 286.97421
 274.69639 262.60356 250.62274 239.93391 230.06608 221.18026 213.37243 206.38460
 200.22878 195.17695 191.76912 189.82130 188.86847 188.94264 189.78782 191.10599
 192.84117 194.94634 197.21951 199.58869 202.04386 204.53403 206.63221 208.48438
 210.12055 211.27573 211.51490 211.75307 211.70025 211.41542 211.05859 210.69877
 210.32594 210.04612 209.86429 209.73846 209.67664 210.01781 210.41398 210.81316
 211.61633 212.80450 214.06468 215.85785 217.79602 219.84920 221.95437 224.04754
 226.11772 228.21189 230.31907 232.43524 234.57441 236.75659 239.02276 241.40293
 244.03411 246.29528 248.30745 250.08263 251.50980 252.64297 253.47515 253.80132
 253.84850 253.63267 253.00284 251.96102 250.57719 248.74836 246.66754 244.51071
 242.31188 240.12606 237.95623 235.80540 233.67558 231.55275 229.58892 227.75610
 226.04927 224.53145 223.17162 221.95379 220.84597 219.81614 218.93031 218.08149
 217.33366 216.52383 215.63201 215.00618 214.46635 215.07771 216.49249 217.25505
 217.93111 219.12453 220.42815 220.91940 221.03383 221.69911 223.68506 226.01025
 228.68263 232.65221 237.09444 241.28793 245.31760 249.28835 253.09903 256.50821
 259.56677 262.34012 264.97949 267.39310 269.54544 271.54007 273.51935 275.34109
 276.81531 278.13614 279.39929 280.77798 282.00974 283.09952 284.09375 284.99448
 285.80460 286.52600 287.15619 287.95932
 366.78100 356.34456 345.78612 334.66169 323.07425 311.27781 299.15737 286.96994
 274.69150 262.59806 250.61662 239.92719 230.05875 221.17231 213.36387 206.37543
 200.21900 195.16656 191.75812 189.80968 188.85625 188.92981 189.77437 191.09193
 192.82649 194.93106 197.20362 199.57218 202.02674 204.51631 206.61387 208.46543
 210.10099 211.25556 211.49412 211.73168 211.67824 211.39280 211.03537 210.67493
 210.30149 210.02105 209.83862 209.71218 209.64974 209.99030 210.38586 210.78443
 211.58699 212.77455 214.03411 215.82668 217.76424 219.81680 221.92136 224.01393
 226.08349 228.17705 230.28361 232.39917 234.53774 236.71930 238.98486 241.36442
 243.99499 246.25555 248.26711 250.04167 251.46823 252.60080 253.43236 253.75792
 253.80448 253.58805 252.95761 251.91517 250.53073 248.70130 246.61986 244.46242
 242.26298 240.07654 237.90611 235.75467 233.62423 231.50079 229.53636 227.70292
 225.99548 224.47704 223.11660 221.89817 220.78973 219.75929 218.87285 218.02342
 217.27498 216.46454 215.57210 214.94567 214.40523 215.07397 216.56639 217.20389
 217.92381 219.28059 220.54636 220.88795 220.77646 221.37598 223.62685 225.90192
 228.70850 232.72633 237.15103 241.38904 245.46709 249.46957 253.27028 256.74545
 259.78564 262.47104 264.97192 267.29083 269.40076 271.42300 273.38623 275.09311
 276.63660 278.52365 280.21680 281.70352 282.99014 284.12848 285.16702 286.10791
 286.95410 287.70764 288.36594 289.20483
 366.78100 356.34554 345.78809 334.66463 323.07818 311.28272 299.16327 286.97681
 274.69936 262.60690 250.62645 239.93799 230.07054 221.18508 213.37763 206.39017
 200.23472 195.18326 191.77581 189.82835 188.87590 188.95044 189.79599 191.11453
 192.85008 194.95562 197.22917 199.59871 202.05426 204.54480 206.64335 208.49589
 210.13244 211.28798 211.52753 211.76607 211.71362 211.42916 211.07271 210.71325
 210.34080 210.06134 209.87989 209.75443 209.69298 210.03452 210.43107 210.83061
 211.63416 212.82270 214.08325 215.87679 217.81534 219.86888 221.97443 224.06797
 226.13852 228.23306 230.34061 232.45715 234.59670 236.77924 239.04579 241.42633
 244.05788 246.31942 248.33197 250.10751 251.53506 252.66860 253.50115 253.82769
 253.87524 253.65978 253.03033 251.98887 250.60542 248.77696 246.69651 244.54005
 242.34160 240.15614 237.98669 235.83623 233.70678 231.58432 229.62087 227.78841
 226.08195 224.56450 223.20504 221.98759 220.88013 219.85068 218.96522 218.11677
 217.36931 216.55986 215.66840 215.04295 214.50349 215.14090 216.55710 217.21072
 217.84975 219.23933 220.52338 220.73665 220.46909 220.89067 223.45990 225.92644
 228.90273 232.91771 237.30472 241.57457 245.69154 249.73123 253.57686 257.07822
 260.14236 262.84015 265.30078 267.50568 269.50372 271.45670 273.61865 275.50226
 277.94583 280.04034 281.85281 283.44431 284.82159 286.04013 287.15186 288.15903
 289.06485 289.87149 290.57617 291.47418
 366.78100 356.34666 345.79033 334.66799 323.08266 311.28832 299.16999 286.98465
 274.70831 262.61698 250.63764 239.95031 230.08397 221.19964 213.39330 206.40696
 200.25263 195.20229 191.79596 189.84962 188.89829 188.97395 189.82062 191.14028
 192.87694 194.98361 197.25827 199.62894 202.08560 204.57727 206.67693 208.53059
 210.16826 211.32492 211.56559 211.80525 211.75392 211.47058 211.11524 210.75691
 210.38557 210.10724 209.92690 209.80257 209.74223 210.08489 210.48256 210.88322
 211.68789 212.87755 214.13922 215.93388 217.87355 219.92821 222.03487 224.12954
 226.20120 228.29687 230.40553 232.52320 234.66386 236.84752 239.11519 241.49685
 244.12952 246.39218 248.40585 250.18251 251.61117 252.74584 253.57950 253.90717
 253.95583 253.74150 253.11316 252.07282 250.69049 248.86315 246.78382 244.62848
 242.43115 240.24681 238.07847 235.92914 233.80080 231.67947 229.71713 227.88580
 226.18046 224.66413 223.30579 222.08945 220.98312 219.95478 219.07045 218.22311
 217.47678 216.66844 215.77810 215.15377 214.61543 215.20157 216.51971 217.27072
 217.83676 219.06599 220.45691 220.61665 220.28476 220.76562 223.19652 225.76538
 228.84869 232.98537 237.42395 241.65353 245.76201 249.83443 253.77391 257.36981
 260.49747 263.29611 265.83450 268.06683 270.01279 271.72537 273.61044 276.45111
 279.18100 281.52094 283.54578 285.32373 286.86240 288.22372 289.46573 290.59091
 291.60287 292.50403 293.29126 294.29449
 366.78100 356.34688 345.79077 334.66865 323.08354 311.28942 299.17131 286.98619
 274.71008 262.61896 250.63985 239.95273 230.08661 221.20250 213.39638 206.41027
 200.25615 195.20604 191.79992 189.85381 188.90269 188.97857 189.82546 191.14534
 192.88223 194.98911 197.26400 199.63488 202.09177 204.58365 206.68354 208.53742
 210.17530 211.33219 211.57307 211.81296 211.76184 211.47873 211.12361 210.76550
 210.39438 210.11626 209.93615 209.81203 209.75192 210.09480 210.49269 210.89357
 211.69846 212.88834 214.15023 215.94511 217.88499 219.93988 222.04676 224.14165
 226.21353 228.30942 230.41830 232.53619 234.67707 236.86096 239.12884 241.51072
 244.14361 246.40649 248.42038 250.19726 251.62615 252.76103 253.59492 253.92280
 253.97168 253.75757 253.12945 252.08934 250.70722 248.88011 246.80099 244.64588
 242.44876 240.26465 238.09653 235.94741 233.81930 231.69818 229.73607 227.90495
 226.19984 224.68372 223.32561 222.10949 221.00338 219.97526 219.09114 218.24403
 217.49791 216.68980 215.79968 215.17557 214.63745 215.20551 216.48819 217.25476
 217.99040 219.03831 220.27457 220.46663 220.13974 220.90144 222.92754 225.76105
 228.89017 233.03352 237.44453 241.66100 245.75787 249.81273 253.69556 257.20612
 260.35239 263.25339 265.92343 268.29114 270.37540 272.28159 274.12885 276.37250
 278.57285 280.54947 282.25992 283.76181 285.06158 286.21152 287.26068 288.21115
 289.06601 289.82724 290.49225 291.33972
 366.78100 356.34640 345.78980 334.66719 323.08159 311.28699 299.16839 286.98278
 274.70618 262.61458 250.63498 239.94738 230.08077 221.19617 213.38957 206.40297
 200.24836 195.19776 191.79116 189.84456 188.89296 188.96835 189.81475 191.13415
 192.87055 194.97694 197.25134 199.62174 202.07814 204.56953 206.66893 208.52233
 210.15973 211.31613 211.55652 211.79592 211.74432 211.46072 211.10511 210.74651
 210.37491 210.09631 209.91571 209.79110 209.73050 210.07290 210.47030 210.87069
 211.67509 212.86449 214.12589 215.92029 217.85968 219.91408 222.02048 224.11488
 226.18627 228.28167 230.39007 232.50747 234.64787 236.83126 239.09866 241.48006
 244.11246 246.37485 248.38825 250.16465 251.59305 252.72745 253.56084 253.88824
 253.93664 253.72204 253.09343 252.05283 250.67023 248.84263 246.76302 244.60742
 242.40982 240.22522 238.05662 235.90701 233.77841 231.65681 229.69421 227.86260
 226.15700 224.64040 223.28180 222.06520 220.95859 219.92999 219.04539 218.19779
 217.45118 216.64258 215.75198 215.12738 214.58878 215.16020 216.48044 217.22664
 217.99837 218.99409 219.86446 220.08548 220.13286 221.04420 222.97675 225.80507
 228.97433 233.12251 237.57315 241.80331 245.87375 249.88889 253.68845 257.09735
 260.14087 262.97241 265.65948 268.12970 270.37256 272.43887 274.38754 276.21259
 277.88571 279.25266 280.38312 281.72629 282.91599 283.96857 284.92886 285.79883
 286.58127 287.27805 287.88675 288.66245
 366.78100 356.34606 345.78913 334.66619 323.08025 311.28531 299.16638 286.98044
 274.70350 262.61157 250.63163 239.94369 230.07676 221.19182 213.38488 206.39794
 200.24301 195.19207 191.78513 189.83820 188.88626 188.96132 189.80739 191.12645
 192.86251 194.96857 197.24264 199.61270 202.06876 204.55983 206.65889 208.51195
 210.14902 211.30508 211.54514 211.78420 211.73227 211.44833 211.09239 210.73346
 210.36152 210.08258 209.90165 209.77671 209.71577 210.05783 210.45490 210.85496
 211.65902 212.84809 214.10915 215.90321 217.84227 219.89634 222.00240 224.09646
 226.16753 228.26259 230.37065 232.48772 234.62778 236.81084 239.07790 241.45897
 244.09103 246.35309 248.36616 250.14222 251.57028 252.70435 253.53741 253.86447
 253.91253 253.69760 253.06866 252.02772 250.64479 248.81685 246.73691 244.58098
 242.38304 240.19810 238.02916 235.87923 233.75029 231.62835 229.66542 227.83348
 226.12754 224.61061 223.25167 222.03473 220.92779 219.89886 219.01392 218.16598
 217.41905 216.61011 215.71917 215.09423 214.55530 215.12988 216.47398 217.28500
 217.91119 218.93161 219.84604 219.93559 219.83459 220.72568 222.86769 225.66251
 229.00269 233.19551 237.68430 241.93420 246.01721 250.06325 253.95927 257.41962
 260.39572 263.06900 265.60034 267.98895 270.22470 272.33475 274.33871 276.17825
 277.82059 279.09479 279.78720 280.54675 281.77707 282.87186 283.87064 284.77548
 285.58929 286.31400 286.94708 287.75388
 366.78100 356.34697 345.79094 334.66891 323.08388 311.28985 299.17182 286.98679
 274.71076 262.61973 250.64070 239.95367 230.08765 221.20362 213.39759 206.41156
 200.25753 195.20750 191.80147 189.85544 188.90441 188.98038 189.82735 191.14732
 192.88429 194.99126 197.26623 199.63720 202.09417 204.58614 206.68611 208.54008
 210.17805 211.33502 211.57599 211.81596 211.76494 211.48191 211.12688 210.76885
 210.39782 210.11979 209.93976 209.81573 209.75570 210.09867 210.49664 210.89761
 211.70258 212.89255 214.15452 215.94949 217.88946 219.94443 222.05140 224.14637
 226.21834 228.31431 230.42328 232.54125 234.68223 236.86620 239.13417 241.51614
 244.14911 246.41208 248.42605 250.20302 251.63199 252.76696 253.60093 253.92890
 253.97787 253.76384 253.13581 252.09578 250.71375 248.88672 246.80769 244.65266
 242.45563 240.27160 238.10357 235.95454 233.82652 231.70549 229.74346 227.91243
 226.20740 224.69137 223.33334 222.11731 221.01128 219.98325 219.09922 218.25219
 217.50616 216.69813 215.80810 215.18407 214.64604 215.18289 216.44502 217.28960
 217.98442 219.05428 219.99913 219.90105 219.58046 220.40988 222.53712 225.47334
 228.89041 233.24997 237.78508 242.05946 246.19954 250.28073 254.19699 257.71167
 260.74854 263.43661 265.88635 268.15085 270.28229 272.34998 274.33450 276.16763
 277.57904 278.28903 279.78400 281.26102 282.53925 283.67017 284.70193 285.63666
 286.47736 287.22598 287.87997 288.71341
 366.78100 356.34692 345.79084 334.66876 323.08368 311.28960 299.17152 286.98644
 274.71035 262.61927 250.64019 239.95311 230.08703 221.20295 213.39687 206.41079
 200.25671 195.20663 191.80055 189.85447 188.90339 188.97931 189.82622 191.14614
 192.88306 194.98998 197.26490 199.63582 202.09274 204.58466 206.68458 208.53850
 210.17642 211.33334 211.57426 211.81418 211.76309 211.48001 211.12493 210.76685
 210.39577 210.11769 209.93761 209.81353 209.75345 210.09637 210.49429 210.89521
 211.70013 212.89005 214.15197 215.94688 217.88680 219.94172 222.04864 224.14356
 226.21548 228.31140 230.42032 232.53824 234.67916 236.86308 239.13100 241.51292
 244.14584 246.40875 248.42267 250.19959 251.62851 252.76343 253.59735 253.92527
 253.97419 253.76011 253.13203 252.09195 250.70987 248.88279 246.80371 244.64862
 242.45154 240.26746 238.09938 235.95030 233.82222 231.70114 229.73906 227.90798
 226.20290 224.68682 223.32874 222.11266 221.00658 219.97850 219.09441 218.24733
 217.50125 216.69317 215.80309 215.17901 214.64093 215.19417 216.45689 217.23247
 218.07887 219.14806 219.99828 219.71141 219.23322 220.03476 222.32205 225.46170
 228.95300 233.33687 237.88603 242.20930 246.37865 250.49826 254.47200 258.05942
 261.15109 263.87900 266.32858 268.52856 270.57706 272.56268 274.48141 276.19672
 277.27335 279.22134 280.99301 282.54865 283.89493 285.08603 286.17273 287.15720
 288.04263 288.83112 289.51990 290.39771
 366.78100 356.34586 345.78871 334.66557 323.07942 311.28428 299.16513 286.97899
 274.70184 262.60970 250.62955 239.94141 230.07426 221.18912 213.38197 206.39483
 200.23968 195.18854 191.78139 189.83425 188.88210 188.95696 189.80281 191.12167
 192.85752 194.96338 197.23723 199.60709 202.06294 204.55380 206.65265 208.50551
 210.14236 211.29822 211.53807 211.77693 211.72478 211.44064 211.08449 210.72535
 210.35320 210.07406 209.89291 209.76777 209.70662 210.04848 210.44533 210.84519
 211.64904 212.83790 214.09875 215.89261 217.83146 219.88532 221.99117 224.08503
 226.15588 228.25074 230.35859 232.47545 234.61530 236.79816 239.06501 241.44587
 244.07772 246.33958 248.35243 250.12829 251.55614 252.69000 253.52285 253.84971
 253.89756 253.68242 253.05327 252.01213 250.62898 248.80084 246.72069 244.56455
 242.36640 240.18126 238.01211 235.86197 233.73282 231.61068 229.64753 227.81539
 226.10924 224.59210 223.23295 222.01581 220.90866 219.87952 218.99437 218.14623
 217.39908 216.58994 215.69879 215.07365 214.53450 215.14030 216.49672 217.15265
 218.16528 219.26698 219.81390 219.40970 219.03531 219.91301 222.13472 225.37012
 228.94989 233.43971 238.01935 242.30994 246.45589 250.57372 254.53145 258.08774
 261.20056 263.99899 266.53998 268.81760 270.90457 272.92300 274.88501 276.68240
 278.03110 279.19626 280.77798 282.17819 283.38998 284.46210 285.44025 286.32635
 287.12335 287.83304 288.45303 289.24313
 366.78100 356.34518 345.78736 334.66354 323.07672 311.28090 299.16108 286.97426
 274.69644 262.60362 250.62280 239.93398 230.06616 221.18034 213.37252 206.38469
 200.22887 195.17705 191.76923 189.82141 188.86859 188.94277 189.78795 191.10613
 192.84131 194.94649 197.21967 199.58885 202.04403 204.53421 206.63239 208.48457
 210.12075 211.27593 211.51511 211.75329 211.70047 211.41565 211.05883 210.69901
 210.32619 210.04637 209.86455 209.73872 209.67690 210.01808 210.41426 210.81344
 211.61662 212.80480 214.06498 215.85816 217.79634 219.84952 221.95470 224.04788
 226.11806 228.21224 230.31942 232.43560 234.57478 236.75696 239.02314 241.40332
 244.03450 246.29568 248.30786 250.08304 251.51022 252.64340 253.47558 253.80175
 253.84893 253.63311 253.00329 251.96147 250.57765 248.74883 246.66801 244.51119
 242.31237 240.12655 237.95673 235.80591 233.67609 231.55327 229.58945 227.75663
 226.04981 224.53199 223.17217 221.95435 220.84653 219.81671 218.93089 218.08207
 217.33425 216.52443 215.63261 215.00679 214.46696 215.09131 216.51816 217.11487
 218.03543 219.34850 219.78189 219.19490 218.83330 219.71373 222.09377 225.37811
 229.06871 233.51250 238.08406 242.38681 246.51816 250.59000 254.49738 257.96146
 261.01096 263.80917 266.41205 268.78680 270.98340 273.09149 275.13037 277.01129
 278.58835 279.70245 280.33206 281.17438 282.26059 283.22794 284.11050 284.91006
 285.62918 286.26953 286.82895 287.54187
 366.78100 356.34559 345.78817 334.66476 323.07835 311.28293 299.16352 286.97711
 274.69970 262.60728 250.62687 239.93846 230.07104 221.18563 213.37822 206.39080
 200.23539 195.18398 191.77656 189.82915 188.87674 188.95132 189.79691 191.11550
 192.85109 194.95667 197.23026 199.59985 202.05543 204.54602 206.64461 208.49719
 210.13378 211.28937 211.52895 211.76754 211.71513 211.43072 211.07430 210.71489
 210.34248 210.06306 209.88165 209.75624 209.69482 210.03641 210.43300 210.83258
 211.63617 212.82476 214.08535 215.87893 217.81752 219.87111 221.97669 224.07028
 226.14087 228.23545 230.34304 232.45963 234.59921 236.78180 239.04839 241.42897
 244.06056 246.32215 248.33474 250.11032 251.53791 252.67150 253.50408 253.83067
 253.87826 253.66284 253.03343 251.99202 250.60860 248.78019 246.69978 244.54337
 242.34495 240.15954 237.99013 235.83971 233.71030 231.58789 229.62447 227.79206
 226.08565 224.56823 223.20882 221.99141 220.88400 219.85458 218.96917 218.12076
 217.37334 216.56393 215.67252 215.04710 214.50769 215.09389 216.46721 217.22180
 217.84309 219.16409 219.76294 219.06813 218.55573 219.34132 222.00459 225.24068
 229.12790 233.57501 238.18166 242.51619 246.66182 250.71849 254.55952 257.98669
 261.01035 263.79739 266.41080 268.79980 271.02670 273.17584 275.23679 277.12479
 278.69775 279.84491 280.52698 280.81186 281.15790 281.88486 282.86050 283.74435
 284.53931 285.24719 285.86560 286.65369
 366.78100 356.34658 345.79016 334.66773 323.08231 311.28789 299.16947 286.98405
 274.70762 262.61620 250.63678 239.94936 230.08294 221.19852 213.39209 206.40567
 200.25125 195.20083 191.79441 189.84798 188.89656 188.97214 189.81872 191.13830
 192.87487 194.98145 197.25603 199.62661 202.08319 204.57477 206.67434 208.52792
 210.16550 211.32208 211.56266 211.80223 211.75081 211.46739 211.11197 210.75355
 210.38212 210.10370 209.92328 209.79886 209.73844 210.08102 210.47859 210.87917
 211.68375 212.87333 214.13491 215.92948 217.86906 219.92364 222.03022 224.12480
 226.19637 228.29195 230.40053 232.51811 234.65869 236.84227 239.10984 241.49142
 244.12400 246.38658 248.40016 250.17673 251.60531 252.73989 253.57347 253.90105
 253.94962 253.73520 253.10678 252.06636 250.68394 248.85651 246.77709 244.62167
 242.42425 240.23983 238.07141 235.92198 233.79356 231.67214 229.70972 227.87830
 226.17287 224.65645 223.29803 222.08161 220.97519 219.94676 219.06234 218.21492
 217.46850 216.66008 215.76966 215.14523 214.60681 215.13216 216.37567 217.35730
 217.90974 219.02650 219.71060 218.97752 218.30035 218.95840 221.84962 225.13222
 229.17604 233.65622 238.29509 242.64604 246.81566 250.87781 254.69954 258.10580
 261.11386 263.89383 266.50708 268.90808 271.14441 273.30267 275.37766 277.26614
 278.80804 279.89905 280.50552 280.69867 280.90692 281.30237 281.98865 282.86530
 283.66638 284.37976 285.00296 285.79715
 366.78100 356.34660 345.79021 334.66781 323.08241 311.28801 299.16962 286.98422
 274.70782 262.61643 250.63703 239.94963 230.08323 221.19884 213.39244 206.40604
 200.25165 195.20125 191.79485 189.84845 188.89706 188.97266 189.81926 191.13887
 192.87547 194.98207 197.25667 199.62728 202.08388 204.57548 206.67509 208.52869
 210.16629 211.32289 211.56350 211.80310 211.75170 211.46830 211.11291 210.75451
 210.38311 210.10472 209.92432 209.79992 209.73952 210.08213 210.47973 210.88033
 211.68494 212.87454 214.13614 215.93074 217.87035 219.92495 222.03155 224.12616
 226.19776 228.29336 230.40196 232.51957 234.66017 236.84377 239.11138 241.49298
 244.12558 246.38818 248.40179 250.17839 251.60699 252.74160 253.57520 253.90280
 253.95140 253.73701 253.10861 252.06821 250.68582 248.85842 246.77902 244.62362
 242.42623 240.24183 238.07343 235.92404 233.79564 231.67424 229.71184 227.88045
 226.17505 224.65865 223.30026 222.08386 220.97746 219.94906 219.06467 218.21727
 217.47087 216.66247 215.77208 215.14768 214.60928 215.12933 216.36002 217.38074
 218.01947 219.00426 219.63918 218.88898 218.10471 218.63574 221.66626 225.08594
 229.22235 233.74156 238.39494 242.75818 246.95395 251.01808 254.81493 258.19342
 261.19235 263.96921 266.57956 268.98639 271.24701 273.43387 275.53296 277.42545
 278.96060 279.98123 280.44788 280.49771 280.58493 280.99786 281.76477 282.60593
 283.38708 284.08273 284.69040 285.46484
 366.78100 356.34634 345.78967 334.66701 323.08134 311.28668 299.16802 286.98235
 274.70569 262.61402 250.63436 239.94670 230.08003 221.19537 213.38871 206.40204
 200.24738 195.19671 191.79005 189.84339 188.89172 188.96706 189.81339 191.13273
 192.86907 194.97540 197.24974 199.62007 202.07641 204.56775 206.66708 208.52042
 210.15776 211.31409 211.55443 211.79376 211.74210 211.45844 211.10277 210.74411
 210.37244 210.09378 209.91312 209.78845 209.72779 210.07012 210.46746 210.86780
 211.67213 212.86147 214.12281 215.91714 217.85648 219.91081 222.01715 224.11149
 226.18282 228.27816 230.38649 232.50383 234.64417 236.82750 239.09484 241.47617
 244.10851 246.37085 248.38418 250.16052 251.58886 252.72319 253.55653 253.88386
 253.93220 253.71754 253.08887 252.04821 250.66554 248.83788 246.75822 244.60255
 242.40489 240.22022 238.05156 235.90190 233.77323 231.65157 229.68891 227.85724
 226.15158 224.63491 223.27625 222.05959 220.95292 219.92426 219.03959 218.19193
 217.44527 216.63660 215.74594 215.12127 214.58261 215.11372 216.36960 217.40306
 218.07094 218.98047 219.53075 218.75325 217.92900 218.43196 221.52032 225.06435
 229.27588 233.83403 238.49969 242.87685 247.09395 251.15067 254.91647 258.26285
 261.25192 264.03021 266.64136 269.05536 271.34125 273.56183 275.68942 277.58868
 279.13519 280.06189 280.38440 280.30566 280.39432 280.82587 281.62589 282.44733
 283.20499 283.88004 284.46976 285.22131
 366.78100 356.34598 345.78895 334.66593 323.07990 311.28488 299.16586 286.97983
 274.70281 262.61079 250.63076 239.94274 230.07571 221.19069 213.38367 206.39664
 200.24162 195.19059 191.78357 189.83655 188.88452 188.95950 189.80548 191.12445
 192.86043 194.96640 197.24038 199.61036 202.06633 204.55731 206.65628 208.50926
 210.14624 211.30221 211.54219 211.78117 211.72914 211.44512 211.08909 210.73007
 210.35805 210.07902 209.89800 209.77297 209.71195 210.05393 210.45090 210.85088
 211.65486 212.84383 214.10481 215.89878 217.83776 219.89174 221.99771 224.09169
 226.16266 228.25764 230.36562 232.48259 234.62257 236.80555 239.07252 241.45350
 244.08547 246.34745 248.36043 250.13640 251.56438 252.69835 253.53133 253.85831
 253.90628 253.69126 253.06224 252.02121 250.63819 248.81016 246.73014 244.57412
 242.37609 240.19107 238.02204 235.87202 233.74300 231.62097 229.65795 227.82593
 226.11990 224.60288 223.24385 222.02683 220.91981 219.89078 219.00576 218.15773
 217.41071 216.60169 215.71066 215.08564 214.54662 215.09413 216.38768 217.41956
 218.14830 218.97472 219.38495 218.57401 217.74631 218.26385 221.38130 225.04459
 229.34721 233.94112 238.61787 243.01189 247.24782 251.29626 255.03073 258.34805
 261.32608 264.10114 266.70734 269.11984 271.42966 273.69214 275.83191 277.71652
 279.19678 280.08801 280.33670 280.15964 280.27924 280.73788 281.54123 282.39313
 283.18127 283.88824 284.50580 285.29285
 366.78100 356.34526 345.78751 334.66377 323.07703 311.28129 299.16154 286.97480
 274.69706 262.60431 250.62357 239.93483 230.06709 221.18134 213.37360 206.38586
 200.23011 195.17837 191.77063 189.82289 188.87014 188.94440 189.78966 191.10791
 192.84317 194.94843 197.22169 199.59094 202.04620 204.53646 206.63471 208.48697
 210.12323 211.27849 211.51774 211.75600 211.70326 211.41851 211.06177 210.70203
 210.32929 210.04954 209.86780 209.74206 209.68032 210.02157 210.41783 210.81709
 211.62034 212.80860 214.06886 215.86212 217.80037 219.85363 221.95889 224.05214
 226.12240 228.21666 230.32392 232.44017 234.57943 236.76169 239.02794 241.40820
 244.03946 246.30072 248.31297 250.08823 251.51549 252.64874 253.48100 253.80726
 253.85452 253.63877 253.00903 251.96729 250.58354 248.75480 246.67406 244.51732
 242.31857 240.13283 237.96309 235.81234 233.68260 231.55986 229.59612 227.76337
 226.05663 224.53889 223.17914 221.96140 220.85366 219.82392 218.93817 218.08943
 217.34169 216.53194 215.64020 215.01446 214.47472 215.05878 216.43867 217.41039
 218.20598 219.00417 219.22969 218.32019 217.48999 218.07819 221.27904 225.05074
 229.39778 234.02760 238.72069 243.13435 247.38928 251.43930 255.17961 258.48523
 261.44318 264.20343 266.80502 269.21310 271.52505 273.80206 275.96390 277.86111
 279.30463 280.07059 280.14594 279.87790 280.02283 280.53888 281.33109 282.16959
 282.96088 283.69037 284.32764 285.13974
 354.97500 345.04800 334.58700 324.11500 313.32600 302.53700 291.65000 280.76700
 269.93100 259.19300 248.62200 238.61700 229.08700 220.35500 212.54000 205.53500
 199.46400 194.49300 191.14300 189.19000 188.08900 188.01400 188.72400 189.90600
 191.46900 193.38200 195.40300 197.55600 199.80700 202.06000 204.28800 206.47900
 208.55200 210.37800 212.02500 213.65900 214.99800 216.11800 217.17200 218.25900
 219.49400 220.64500 221.67900 222.61400 223.54500 224.98200 226.57100 228.19000
 229.79700 231.81100 233.86500 235.97200 238.24200 240.55300 242.89900 245.25300
 247.48800 249.53500 251.36600 252.84800 254.09800 255.16700 256.02700 256.25300
 256.09500 255.54300 253.93500 252.56600 251.38400 250.24500 249.05200 247.70100
 246.01600 243.99600 241.78400 239.39300 236.81300 234.22300 231.65800 229.14400
 226.74000 224.47300 222.33500 220.32500 218.44000 216.67700 214.96200 213.47200
 212.20000 211.10800 210.26000 209.63900 209.24400 209.03100 209.05800 209.33300
 209.78400 210.62600 211.33100 212.39100 213.62500 214.84668 217.72949 219.47640
 220.32566 220.86828 220.88710 220.27371 219.43733 218.84250 219.04934 220.86203
 222.60583 225.72206 229.03064 232.61777 236.12270 239.51333 242.70767 245.68587
 248.41061 250.90679 253.19353 254.91714 256.48655 257.94920 259.39966 260.69384
 261.81714 262.77997 263.71679 264.54570 265.26305 265.89772 266.47676 267.00133
 267.47312 267.89325 268.26027 268.72800
