|-------------------------------------------------------------------------|
|   File Name : in_temp.dat
|   Subject   : temperature profiles used for initial guess atmosphere
|   File Type : input of gmtr
|   Data Type : atmospherical data
|   Author/s  : WRF-Chem
|   Date      : Fri Jul 26 15:39:24 2024
|-------------------------------------------------------------------------|

 WRF-Chem temperature
#
 values of T (K)    (8f10.5)
#
 354.97500 345.04800 334.58700 324.11500 313.32600 302.53700 291.65000 280.76700
 269.93100 259.19300 248.62200 238.61700 229.08700 220.35500 212.54000 205.53500
 199.46400 194.49300 191.14300 189.19000 188.08900 188.01400 188.72400 189.90600
 191.46900 193.38200 195.40300 197.55600 199.80700 202.06000 204.28800 206.47900
 208.55200 210.37800 212.02500 213.65900 214.99800 216.11800 217.17200 218.25900
 219.49400 220.64500 221.67900 222.61400 223.54500 224.98200 226.57100 228.19000
 229.79700 231.81100 233.86500 235.97200 238.24200 240.55300 242.89900 245.25300
 247.48800 249.53500 251.36600 252.84800 254.09800 255.16700 256.02700 256.25300
 256.09500 255.54300 253.93500 252.56600 251.38400 250.24500 249.05200 247.70100
 246.01600 243.99600 241.78400 239.39300 236.81300 234.22300 231.65800 229.14400
 226.74000 224.47300 222.33500 220.32500 218.44000 216.67700 214.96200 213.47200
 212.20000 211.10800 210.26000 209.63900 209.24400 209.03100 209.05800 209.33300
 209.78400 210.62600 211.33100 212.39100 213.62500 214.84668 217.72949 219.47640
 220.32566 220.86828 220.88710 220.27371 219.43733 218.84250 219.04934 220.86203
 222.60583 225.72206 229.03064 232.61777 236.12270 239.51333 242.70767 245.68587
 248.41061 250.90679 253.19353 254.91714 256.48655 257.94920 259.39966 260.69384
 261.81714 262.77997 263.71679 264.54570 265.26305 265.89772 266.47676 267.00133
 267.47312 267.89325 268.26027 268.72800
 366.78100 356.33500 345.76700 334.63300 323.03600 311.23000 299.10000 286.90300
 274.61500 262.51200 250.52100 239.82200 229.94400 221.04800 213.23000 206.23200
 200.06600 195.00400 191.58600 189.62800 188.66500 188.72900 189.56400 190.87200
 192.59700 194.69200 196.95500 199.31400 201.75900 204.23900 206.32700 208.16900
 209.79500 210.94000 211.16900 211.39700 211.33400 211.03900 210.67200 210.30200
 209.91900 209.62900 209.43700 209.30100 209.22900 209.56000 209.94600 210.33500
 211.12800 212.30600 213.55600 215.33900 217.26700 219.31000 221.40500 223.48800
 225.54800 227.63200 229.72900 231.83500 233.96400 236.13600 238.39200 240.76200
 243.38300 245.63400 247.63600 249.40100 250.81800 251.94100 252.76300 253.07900
 253.11600 252.89000 252.25000 251.19800 249.80400 247.96500 245.87400 243.70700
 241.49800 239.30200 237.12200 234.96100 232.82100 230.68800 228.71400 226.87100
 225.15400 223.62600 222.25600 221.02800 219.91000 218.87000 217.97400 217.11500
 216.35700 215.53700 214.63500 213.99900 213.44900 212.85855 212.01316 212.61654
 214.26826 216.08686 218.14273 220.53346 223.40855 226.78828 231.49734 235.90155
 239.42278 243.28576 247.23140 251.11907 254.80144 258.23331 261.38913 264.27520
 266.89312 269.26852 271.44504 273.08845 274.58484 275.98591 277.39845 278.65879
 279.75272 280.69038 281.56708 282.34086 283.01050 283.60295 284.14348 284.63317
 285.07358 285.46577 285.80838 286.24500
 381.81900 372.39900 361.20600 349.77600 337.62200 324.85300 311.81000 298.35300
 284.86000 271.32400 258.56100 246.30400 236.08700 226.79600 218.44800 211.29000
 205.52200 200.89400 197.38100 194.84800 193.01500 192.31500 192.25000 192.43100
 192.91200 193.53700 194.13600 194.71200 195.26200 195.83100 196.39300 196.97600
 197.60400 198.14900 198.58400 199.05700 199.69500 200.37800 201.05400 201.70800
 202.31300 202.85700 203.35500 203.86200 204.56900 205.29700 206.02600 206.98700
 208.19300 209.44100 210.96900 212.57600 214.46200 216.51300 218.63000 220.85300
 223.34100 225.96200 228.73900 231.69700 234.70600 237.70600 240.69200 243.65700
 246.73700 249.69900 252.52100 255.06300 257.29000 259.23300 260.63300 261.68000
 262.46100 262.79800 262.69100 262.22400 261.06900 259.52500 257.70700 255.50700
 253.00100 250.30200 247.39800 244.45200 241.65400 239.05400 236.73300 234.59000
 232.59500 230.72500 228.83400 226.82600 224.66600 222.38700 220.10400 217.71500
 215.45900 213.06600 210.54600 208.09300 205.35400 202.08130 196.05959 200.71215
 209.01611 216.90438 223.84126 229.78593 235.00632 240.20838 245.98943 250.68668
 254.32982 257.93487 261.55666 264.96801 268.15192 271.06452 273.76717 276.25691
 278.57680 280.74479 282.77456 284.60533 286.27232 287.81705 289.31715 290.65561
 291.81734 292.81312 293.70701 294.49387 295.17482 295.77730 296.32696 296.82492
 297.27278 297.67160 298.02000 298.46400
 399.33000 389.90700 379.81300 368.66800 357.52200 345.30100 333.07400 320.22700
 307.21600 293.84800 280.37600 267.29600 254.61000 242.98700 232.15100 221.97700
 212.67200 204.28600 197.66900 192.82100 189.48600 187.45200 186.81400 187.08900
 187.78100 189.05400 190.64800 192.54200 194.63000 196.75200 198.67100 200.15800
 201.53500 202.48700 202.97500 203.34000 203.53900 203.49700 203.38500 203.24700
 203.00500 202.78600 202.60300 202.43700 202.42600 202.88800 203.42000 203.95100
 204.89500 205.99200 207.30100 208.95800 210.73800 213.10000 215.56400 218.18000
 220.96600 223.91800 226.96100 230.09200 233.29300 236.55700 239.95500 243.53700
 246.84500 249.39000 251.54200 253.47400 255.19500 256.48400 257.43100 258.05900
 258.21200 258.04000 257.58200 256.64300 255.23900 253.50700 251.40800 249.05600
 246.57600 243.99400 241.38900 238.83000 236.34400 233.98600 231.96900 230.11800
 228.42300 226.89900 225.54800 224.29700 223.10500 221.96500 220.95800 220.11300
 219.49000 218.92000 218.32500 217.88100 217.42300 216.96366 216.35568 216.80261
 217.73415 218.28582 218.64258 219.10077 220.44626 222.53987 226.38451 230.35736
 233.59734 237.39164 241.29814 245.22796 248.98002 252.51130 255.78595 258.80109
 261.54781 264.05210 266.34239 268.04198 269.58951 271.01303 272.35754 273.55718
 274.59842 275.49092 276.28989 276.99307 277.60161 278.14001 278.63122 279.07623
 279.47646 279.83287 280.14422 280.54100
 399.73800 389.78500 379.66200 368.15100 356.64100 344.35000 331.79200 318.88800
 305.72600 292.49300 279.20900 266.73800 254.69600 244.21100 234.45700 225.43300
 217.56900 210.45100 204.30000 199.30600 195.45800 192.57600 191.02700 190.38600
 190.23900 190.53400 191.16600 191.92500 192.79500 193.76600 194.73200 195.31200
 195.80000 196.05200 196.11500 196.11500 196.03900 195.72300 195.34000 194.98900
 194.75100 194.79200 195.13300 195.59800 196.50600 198.13600 199.85800 201.56600
 204.17900 206.82300 209.89300 213.28400 216.82800 220.60500 224.38700 228.20900
 232.03200 235.82500 239.56000 243.25800 246.84500 250.20100 253.70900 257.46800
 261.53000 264.22100 266.60100 268.68100 270.32900 271.74100 272.83600 273.47400
 273.89800 274.00200 273.75700 273.28800 272.37100 271.10000 269.58900 267.77900
 265.81600 263.72100 261.39300 258.91600 256.29800 253.42300 250.33100 247.11400
 243.83700 240.52900 237.24900 233.99900 230.72800 227.51500 224.25400 220.95200
 217.62700 213.65600 210.12100 206.78900 204.01000 201.99491 199.07309 198.76551
 199.40006 200.48994 201.46112 202.31912 203.45100 204.96110 207.47502 210.85391
 213.70530 217.29629 220.99574 224.72316 228.28753 231.64854 234.68024 237.40893
 239.70644 241.60899 243.46854 245.67368 247.68154 249.52395 251.24767 252.78566
 254.12057 255.26479 256.23740 257.09036 257.82852 258.48160 259.07744 259.61723
 260.10271 260.53504 260.91270 261.39400
 399.73800 389.78500 379.66200 368.15100 356.64100 344.35000 331.79200 318.88800
 305.72600 292.49300 279.20900 266.73800 254.69600 244.21100 234.45700 225.43300
 217.56900 210.45100 204.30000 199.30600 195.45800 192.57600 191.02700 190.38600
 190.23900 190.53400 191.16600 191.92500 192.79500 193.76600 194.73200 195.31200
 195.80000 196.05200 196.11500 196.11500 196.03900 195.72300 195.34000 194.98900
 194.75100 194.79200 195.13300 195.59800 196.50600 198.13600 199.85800 201.56600
 204.17900 206.82300 209.89300 213.28400 216.82800 220.60500 224.38700 228.20900
 232.03200 235.82500 239.56000 243.25800 246.84500 250.20100 253.70900 257.46800
 261.53000 264.22100 266.60100 268.68100 270.32900 271.74100 272.83600 273.47400
 273.89800 274.00200 273.75700 273.28800 272.37100 271.10000 269.58900 267.77900
 265.81600 263.72100 261.39300 258.91600 256.29800 253.42300 250.33100 247.11400
 243.83700 240.52900 237.24900 233.99900 230.72800 227.51500 224.25400 220.95200
 217.62700 213.65600 210.12100 206.78900 204.01000 201.99491 199.07309 198.76551
 199.40006 200.48994 201.46112 202.31912 203.45100 204.96110 207.47502 210.85391
 213.70530 217.29629 220.99574 224.72316 228.28753 231.64854 234.68024 237.40893
 239.70644 241.60899 243.46854 245.67368 247.68154 249.52395 251.24767 252.78566
 254.12057 255.26479 256.23740 257.09036 257.82852 258.48160 259.07744 259.61723
 260.10271 260.53504 260.91270 261.39400
 399.33000 389.90700 379.81300 368.66800 357.52200 345.30100 333.07400 320.22700
 307.21600 293.84800 280.37600 267.29600 254.61000 242.98700 232.15100 221.97700
 212.67200 204.28600 197.66900 192.82100 189.48600 187.45200 186.81400 187.08900
 187.78100 189.05400 190.64800 192.54200 194.63000 196.75200 198.67100 200.15800
 201.53500 202.48700 202.97500 203.34000 203.53900 203.49700 203.38500 203.24700
 203.00500 202.78600 202.60300 202.43700 202.42600 202.88800 203.42000 203.95100
 204.89500 205.99200 207.30100 208.95800 210.73800 213.10000 215.56400 218.18000
 220.96600 223.91800 226.96100 230.09200 233.29300 236.55700 239.95500 243.53700
 246.84500 249.39000 251.54200 253.47400 255.19500 256.48400 257.43100 258.05900
 258.21200 258.04000 257.58200 256.64300 255.23900 253.50700 251.40800 249.05600
 246.57600 243.99400 241.38900 238.83000 236.34400 233.98600 231.96900 230.11800
 228.42300 226.89900 225.54800 224.29700 223.10500 221.96500 220.95800 220.11300
 219.49000 218.92000 218.32500 217.88100 217.42300 216.96366 216.35568 216.80261
 217.73415 218.28582 218.64258 219.10077 220.44626 222.53987 226.38451 230.35736
 233.59734 237.39164 241.29814 245.22796 248.98002 252.51130 255.78595 258.80109
 261.54781 264.05210 266.34239 268.04198 269.58951 271.01303 272.35754 273.55718
 274.59842 275.49092 276.28989 276.99307 277.60161 278.14001 278.63122 279.07623
 279.47646 279.83287 280.14422 280.54100
 381.81900 372.39900 361.20600 349.77600 337.62200 324.85300 311.81000 298.35300
 284.86000 271.32400 258.56100 246.30400 236.08700 226.79600 218.44800 211.29000
 205.52200 200.89400 197.38100 194.84800 193.01500 192.31500 192.25000 192.43100
 192.91200 193.53700 194.13600 194.71200 195.26200 195.83100 196.39300 196.97600
 197.60400 198.14900 198.58400 199.05700 199.69500 200.37800 201.05400 201.70800
 202.31300 202.85700 203.35500 203.86200 204.56900 205.29700 206.02600 206.98700
 208.19300 209.44100 210.96900 212.57600 214.46200 216.51300 218.63000 220.85300
 223.34100 225.96200 228.73900 231.69700 234.70600 237.70600 240.69200 243.65700
 246.73700 249.69900 252.52100 255.06300 257.29000 259.23300 260.63300 261.68000
 262.46100 262.79800 262.69100 262.22400 261.06900 259.52500 257.70700 255.50700
 253.00100 250.30200 247.39800 244.45200 241.65400 239.05400 236.73300 234.59000
 232.59500 230.72500 228.83400 226.82600 224.66600 222.38700 220.10400 217.71500
 215.45900 213.06600 210.54600 208.09300 205.35400 202.08130 196.05959 200.71215
 209.01611 216.90438 223.84126 229.78593 235.00632 240.20838 245.98943 250.68668
 254.32982 257.93487 261.55666 264.96801 268.15192 271.06452 273.76717 276.25691
 278.57680 280.74479 282.77456 284.60533 286.27232 287.81705 289.31715 290.65561
 291.81734 292.81312 293.70701 294.49387 295.17482 295.77730 296.32696 296.82492
 297.27278 297.67160 298.02000 298.46400
 366.78100 356.33602 345.76904 334.63606 323.04009 311.23511 299.10613 286.91015
 274.62317 262.52119 250.53122 239.83324 229.95626 221.06128 213.24430 206.24732
 200.08235 195.02137 191.60439 189.64741 188.68543 188.75045 189.58648 190.89550
 192.62152 194.71754 196.98156 199.34158 201.78761 204.26863 206.35765 208.20067
 209.82769 210.97371 211.20374 211.43276 211.37078 211.07680 210.71082 210.34184
 209.95987 209.67089 209.47991 209.34493 209.27395 209.60597 209.99299 210.38302
 211.17704 212.35606 213.60708 215.39110 217.32012 219.36415 221.46017 223.54419
 225.60521 227.69023 229.78825 231.89528 234.02530 236.19832 238.45534 240.82636
 243.44838 245.70041 247.70343 249.46945 250.88747 252.01149 252.83451 253.15154
 253.18956 252.96458 252.32560 251.27462 249.88164 248.04367 245.95369 243.78771
 241.57973 239.38475 237.20577 235.04580 232.90682 230.77484 228.80186 226.95988
 225.24390 223.71692 222.34795 221.12097 220.00399 218.96501 218.07003 217.21205
 216.45508 215.63610 214.73512 214.10014 213.55116 213.07152 211.95203 213.02658
 214.86728 216.66940 217.67741 217.94749 218.96709 222.83208 228.40106 233.16388
 236.92715 240.68669 244.40775 248.02919 251.46959 254.33783 256.87439 259.52866
 262.37756 264.92163 267.14645 269.16315 271.15207 273.11255 274.77328 276.34503
 277.94345 279.58792 281.12253 282.48654 283.67154 284.72162 285.68375 286.55969
 287.35062 288.06122 288.69067 289.52719
 366.78100 356.33588 345.76875 334.63563 323.03950 311.23438 299.10526 286.90913
 274.62201 262.51988 250.52976 239.83163 229.95451 221.05939 213.24226 206.24514
 200.08001 195.01889 191.60177 189.64464 188.68252 188.74739 189.58327 190.89215
 192.61802 194.71390 196.97777 199.33765 201.78353 204.26440 206.35328 208.19615
 209.82303 210.96890 211.19878 211.42766 211.36553 211.07141 210.70528 210.33616
 209.95404 209.66491 209.47379 209.33866 209.26754 209.59942 209.98629 210.37617
 211.17004 212.34892 213.59980 215.38367 217.31255 219.35642 221.45230 223.53617
 225.59705 227.68193 229.77980 231.88668 234.01655 236.18943 238.44631 240.81718
 243.43906 245.69093 247.69381 249.45969 250.87756 252.00144 252.82431 253.14119
 253.17907 252.95394 252.31482 251.26369 249.87057 248.03244 245.94232 243.77620
 241.56807 239.37295 237.19382 235.03370 232.89458 230.76245 228.78933 226.94720
 225.23108 223.70396 222.33483 221.10771 219.99058 218.95146 218.05634 217.19821
 216.44109 215.62196 214.72084 214.08571 213.53659 213.08141 212.01836 213.16113
 214.97891 216.75397 217.74911 218.07915 219.10805 222.84033 228.33949 233.06387
 236.81073 240.57085 244.29695 247.90167 251.27171 254.09421 256.67899 259.42618
 262.23160 264.71942 266.95691 269.01886 271.03226 272.99075 274.64285 276.21658
 277.81918 279.49597 281.03333 282.39810 283.58127 284.63339 285.59439 286.47165
 287.26300 287.97552 288.60318 289.44031
 366.78100 356.33556 345.76812 334.63468 323.03824 311.23280 299.10337 286.90693
 274.61949 262.51705 250.52661 239.82817 229.95073 221.05529 213.23785 206.24041
 200.07498 195.01354 191.59610 189.63866 188.67622 188.74078 189.57634 190.88490
 192.61046 194.70602 196.96959 199.32915 201.77471 204.25527 206.34383 208.18639
 209.81295 210.95851 211.18807 211.41663 211.35419 211.05976 210.69332 210.32388
 209.94144 209.65200 209.46056 209.32512 209.25368 209.58524 209.97180 210.36137
 211.15493 212.33349 213.58405 215.36761 217.29617 219.33973 221.43529 223.51885
 225.57941 227.66397 229.76154 231.86810 233.99766 236.17022 238.42678 240.79734
 243.41890 245.67046 247.67302 249.43858 250.85615 251.97971 252.80227 253.11883
 253.15639 252.93095 252.29151 251.24007 249.84663 248.00819 245.91776 243.75132
 241.54288 239.34744 237.16800 235.00756 232.86812 230.73568 228.76224 226.91980
 225.20336 223.67593 222.30649 221.07905 219.96161 218.92217 218.02673 217.16829
 216.41085 215.59141 214.68997 214.05454 213.50510 213.08469 212.10211 213.28244
 215.07982 216.82826 217.84982 218.20328 219.24886 222.85481 228.29184 232.96696
 236.68997 240.44633 244.17699 247.76811 251.07060 253.85123 256.48676 259.32336
 262.08392 264.51282 266.75861 268.86545 270.90637 272.86542 274.51071 276.08832
 277.70178 279.40601 280.94659 282.31009 283.49557 284.54684 285.50864 286.38306
 287.17731 287.89017 288.51797 289.35638
 366.78100 356.33535 345.76771 334.63406 323.03741 311.23177 299.10212 286.90548
 274.61783 262.51518 250.52454 239.82589 229.94824 221.05260 213.23495 206.23730
 200.07166 195.01001 191.59236 189.63472 188.67207 188.73643 189.57178 190.88013
 192.60549 194.70084 196.96419 199.32355 201.76890 204.24925 206.33761 208.17996
 209.80632 210.95167 211.18102 211.40938 211.34673 211.05208 210.68544 210.31579
 209.93314 209.64350 209.45185 209.31620 209.24456 209.57591 209.96227 210.35162
 211.14497 212.32333 213.57368 215.35703 217.28539 219.32874 221.42409 223.50745
 225.56780 227.65216 229.74951 231.85586 233.98522 236.15757 238.41392 240.78428
 243.40563 245.65698 247.65934 249.42469 250.84204 251.96540 252.78775 253.10411
 253.14146 252.91581 252.27617 251.22452 249.83087 247.99223 245.90158 243.73493
 241.52629 239.33064 237.15099 234.99035 232.85070 230.71806 228.74441 226.90176
 225.18512 223.65747 222.28782 221.06018 219.94253 218.90288 218.00724 217.14859
 216.39095 215.57130 214.66965 214.03401 213.48436 213.09537 212.18529 213.40395
 215.16751 216.89153 217.95921 218.33464 219.39104 222.87927 228.25667 232.87437
 236.56908 240.32007 244.05562 247.62880 250.86320 253.60614 256.29428 259.21609
 261.93408 264.30368 266.55316 268.70285 270.77426 272.73560 274.37772 275.95810
 277.59583 279.31335 280.85571 282.22076 283.40573 284.45874 285.42175 286.29849
 287.09125 287.80392 288.43301 289.27213
 366.78100 356.33528 345.76757 334.63385 323.03713 311.23141 299.10170 286.90498
 274.61726 262.51455 250.52383 239.82511 229.94739 221.05168 213.23396 206.23624
 200.07052 195.00881 191.59109 189.63337 188.67066 188.73494 189.57022 190.87850
 192.60379 194.69907 196.96235 199.32164 201.76692 204.24720 206.33548 208.17777
 209.80405 210.94933 211.17862 211.40690 211.34418 211.04946 210.68275 210.31303
 209.93031 209.64059 209.44888 209.31316 209.24144 209.57273 209.95901 210.34829
 211.14157 212.31986 213.57014 215.35342 217.28171 219.32499 221.42027 223.50355
 225.56384 227.64812 229.74540 231.85169 233.98097 236.15325 238.40953 240.77982
 243.40110 245.65238 247.65466 249.41995 250.83723 251.96051 252.78280 253.09908
 253.13636 252.91064 252.27093 251.21921 249.82549 247.98678 245.89606 243.72934
 241.52062 239.32491 237.14519 234.98447 232.84475 230.71204 228.73832 226.89560
 225.17889 223.65117 222.28145 221.05373 219.93602 218.89630 218.00058 217.14187
 216.38415 215.56443 214.66271 214.02700 213.47728 213.11488 212.26595 213.52554
 215.24493 216.94484 218.06570 218.47539 219.54585 222.91238 228.22775 232.78806
 236.45049 240.19748 243.93460 247.48184 250.64818 253.35896 256.10028 259.10120
 261.78091 264.09436 266.34296 268.53226 270.63620 272.60275 274.24515 275.82950
 277.49402 279.21884 280.76337 282.12881 283.31509 284.36819 285.33090 286.20819
 287.00143 287.71460 288.34375 289.18402
 366.78100 356.33522 345.76744 334.63367 323.03689 311.23111 299.10133 286.90456
 274.61678 262.51400 250.52322 239.82445 229.94667 221.05089 213.23311 206.23534
 200.06956 195.00778 191.59000 189.63223 188.66945 188.73367 189.56889 190.87711
 192.60234 194.69756 196.96078 199.32000 201.76523 204.24545 206.33367 208.17589
 209.80212 210.94734 211.17656 211.40478 211.34201 211.04723 210.68045 210.31067
 209.92789 209.63812 209.44634 209.31056 209.23878 209.57001 209.95623 210.34545
 211.13867 212.31690 213.56712 215.35034 217.27856 219.32179 221.41701 223.50023
 225.56045 227.64468 229.74190 231.84812 233.97734 236.14956 238.40579 240.77601
 243.39723 245.64845 247.65068 249.41590 250.83312 251.95634 252.77857 253.09479
 253.13201 252.90623 252.26646 251.21468 249.82090 247.98212 245.89135 243.72457
 241.51579 239.32001 237.14023 234.97946 232.83968 230.70690 228.73312 226.89035
 225.17357 223.64579 222.27601 221.04824 219.93046 218.89068 217.99490 217.13613
 216.37835 215.55857 214.65679 214.02101 213.47124 213.13660 212.35144 213.64197
 215.31142 216.99199 218.16837 218.62181 219.71558 222.95078 228.20200 232.70995
 236.33876 240.08253 243.81415 247.32864 250.43056 253.11354 255.90396 258.97519
 261.62161 263.88513 266.12891 268.35364 270.49149 272.46597 274.11227 275.70071
 277.39310 279.12589 280.66965 282.03619 283.22290 284.27667 285.23972 286.11569
 286.91058 287.62408 288.25433 289.09366
 366.78100 356.33511 345.76722 334.63334 323.03645 311.23056 299.10067 286.90378
 274.61590 262.51301 250.52212 239.82323 229.94534 221.04946 213.23157 206.23368
 200.06779 195.00590 191.58802 189.63013 188.66724 188.73135 189.56647 190.87458
 192.59969 194.69480 196.95791 199.31703 201.76214 204.24225 206.33036 208.17247
 209.79859 210.94370 211.17281 211.40092 211.33803 211.04315 210.67626 210.30637
 209.92348 209.63359 209.44171 209.30582 209.23393 209.56504 209.95115 210.34027
 211.13338 212.31149 213.56160 215.34471 217.27283 219.31594 221.41105 223.49416
 225.55427 227.63839 229.73550 231.84161 233.97072 236.14284 238.39895 240.76906
 243.39017 245.64128 247.64340 249.40851 250.82562 251.94873 252.77084 253.08696
 253.12407 252.89818 252.25829 251.20640 249.81252 247.97363 245.88274 243.71585
 241.50696 239.31108 237.13119 234.97030 232.83041 230.69752 228.72364 226.88075
 225.16386 223.63597 222.26608 221.03820 219.92031 218.88042 217.98453 217.12564
 216.36776 215.54787 214.64598 214.01009 213.46021 213.15707 212.44456 213.75319
 215.36771 217.03712 218.27185 218.76640 219.89589 222.99016 228.17783 232.63814
 236.23695 239.97516 243.69363 247.17015 250.21199 252.87273 255.70511 258.83527
 261.45380 263.67453 265.91373 268.17096 270.34204 272.32901 273.98291 275.57959
 277.29422 279.02771 280.57251 281.93906 283.12555 284.18018 285.14291 286.01956
 286.81445 287.52829 288.15875 288.99869
 366.78100 356.33497 345.76694 334.63290 323.03587 311.22984 299.09981 286.90277
 274.61474 262.51171 250.52068 239.82164 229.94361 221.04758 213.22955 206.23152
 200.06548 195.00345 191.58542 189.62739 188.66435 188.72832 189.56329 190.87126
 192.59622 194.69119 196.95416 199.31313 201.75810 204.23806 206.32603 208.16800
 209.79397 210.93893 211.16790 211.39587 211.33284 211.03780 210.67077 210.30074
 209.91771 209.62768 209.43564 209.29961 209.22758 209.55855 209.94451 210.33348
 211.12645 212.30442 213.55439 215.33735 217.26532 219.30829 221.40326 223.48622
 225.54619 227.63016 229.72713 231.83309 233.96206 236.13403 238.39000 240.75997
 243.38093 245.63190 247.63387 249.39884 250.81580 251.93877 252.76074 253.07671
 253.11367 252.88764 252.24761 251.19558 249.80155 247.96251 245.87148 243.70445
 241.49542 239.29938 237.11935 234.95832 232.81829 230.68525 228.71122 226.86819
 225.15116 223.62313 222.25309 221.02506 219.90703 218.86700 217.97096 217.11193
 216.35390 215.53387 214.63183 213.99580 213.44577 213.17683 212.54335 213.85963
 215.41328 217.08163 218.38112 218.90526 220.08507 223.03012 228.15564 232.56877
 236.14276 239.87694 243.57628 247.00848 249.99200 252.63481 255.50418 258.68134
 261.27734 263.46527 265.70172 267.98953 270.19351 272.19614 273.86334 275.47141
 277.19083 278.92380 280.46860 281.83389 283.02173 284.07626 285.03836 285.91794
 286.71228 287.42642 288.05527 288.89908
 366.78100 356.33479 345.76658 334.63238 323.03517 311.22896 299.09875 286.90155
 274.61334 262.51013 250.51892 239.81972 229.94151 221.04530 213.22709 206.22889
 200.06268 195.00047 191.58226 189.62406 188.66085 188.72464 189.55943 190.86722
 192.59202 194.68681 196.94960 199.30839 201.75319 204.23298 206.32077 208.16256
 209.78836 210.93315 211.16194 211.38973 211.32653 211.03132 210.66411 210.29390
 209.91070 209.62049 209.42828 209.29207 209.21986 209.55066 209.93645 210.32524
 211.11803 212.29583 213.54562 215.32841 217.25620 219.29900 221.39379 223.47658
 225.53637 227.62017 229.71696 231.82275 233.95154 236.12334 238.37913 240.74892
 243.36971 245.62050 247.62230 249.38709 250.80388 251.92667 252.74847 253.06426
 253.10105 252.87484 252.23464 251.18243 249.78822 247.94901 245.85781 243.69060
 241.48139 239.28518 237.10498 234.94377 232.80356 230.67035 228.69614 226.85294
 225.13573 223.60752 222.23731 221.00911 219.89090 218.85069 217.95448 217.09528
 216.33707 215.51686 214.61465 213.97845 213.42824 213.19588 212.64709 213.96243
 215.44708 217.12637 218.49625 219.03983 220.27734 223.07545 228.13130 232.50359
 236.05417 239.78653 243.46236 246.84326 249.76958 252.40048 255.30270 258.51569
 261.09448 263.25662 265.49396 267.81042 270.04865 272.07089 273.75504 275.37491
 277.08652 278.81641 280.36050 281.72607 282.91422 283.96844 284.93347 285.81082
 286.60681 287.32193 287.95239 288.79584
 366.78100 356.33463 345.76625 334.63188 323.03450 311.22813 299.09775 286.90038
 274.61200 262.50863 250.51725 239.81788 229.93950 221.04313 213.22475 206.22638
 200.06000 194.99763 191.57926 189.62088 188.65751 188.72113 189.55576 190.86338
 192.58801 194.68263 196.94526 199.30388 201.74851 204.22813 206.31576 208.15738
 209.78301 210.92763 211.15626 211.38389 211.32051 211.02514 210.65776 210.28739
 209.90401 209.61364 209.42126 209.28489 209.21251 209.54314 209.92876 210.31739
 211.11001 212.28764 213.53726 215.31989 217.24752 219.29014 221.38477 223.46739
 225.52702 227.61064 229.70727 231.81289 233.94152 236.11314 238.36877 240.73839
 243.35902 245.60964 247.61127 249.37589 250.79252 251.91515 252.73677 253.05240
 253.08902 252.86265 252.22227 251.16990 249.77552 247.93615 245.84477 243.67740
 241.46802 239.27165 237.09127 234.92990 232.78952 230.65615 228.68178 226.83840
 225.12103 223.59265 222.22228 220.99390 219.87553 218.83515 217.93878 217.07940
 216.32103 215.50065 214.59828 213.96190 213.41153 213.21616 212.75458 214.06587
 215.47507 217.16476 218.61703 219.17078 220.48068 223.11513 228.10945 232.44235
 235.96552 239.70039 243.35342 246.67883 249.54727 252.16862 255.09778 258.33456
 260.89963 263.04834 265.29416 267.64069 269.91190 271.95709 273.66034 275.28705
 276.98163 278.70663 280.25058 281.61697 282.80469 283.85901 284.82452 285.70264
 286.49835 287.21558 287.84747 288.69217
 366.78100 356.33449 345.76598 334.63147 323.03396 311.22744 299.09693 286.89942
 274.61091 262.50740 250.51589 239.81638 229.93787 221.04136 213.22284 206.22433
 200.05782 194.99531 191.57680 189.61829 188.65478 188.71827 189.55276 190.86024
 192.58473 194.67922 196.94171 199.30020 201.74469 204.22418 206.31167 208.15316
 209.77864 210.92313 211.15162 211.37911 211.31560 211.02009 210.65258 210.28207
 209.89856 209.60804 209.41553 209.27902 209.20651 209.53700 209.92249 210.31098
 211.10347 212.28096 213.53044 215.31293 217.24042 219.28291 221.37740 223.45989
 225.51938 227.60287 229.69936 231.80484 233.93333 236.10482 238.36031 240.72980
 243.35029 245.60078 247.60227 249.36676 250.78324 251.90573 252.72722 253.04271
 253.07920 252.85269 252.21218 251.15967 249.76516 247.92564 245.83413 243.66662
 241.45711 239.26060 237.08009 234.91858 232.77807 230.64455 228.67004 226.82653
 225.10902 223.58051 222.21000 220.98149 219.86298 218.82247 217.92595 217.06644
 216.30793 215.48742 214.58491 213.94840 213.39789 213.23828 212.86122 214.17377
 215.49435 217.20131 218.73207 219.30809 220.67062 223.17833 228.08334 232.38187
 235.88258 239.62340 243.25150 246.51299 249.31949 251.93237 254.88620 258.13806
 260.69690 262.84796 265.10864 267.48047 269.78290 271.85294 273.57812 275.20917
 276.88126 278.59882 280.14124 281.50723 282.69489 283.74933 284.71588 285.59470
 286.39240 287.10898 287.74115 288.58783
 366.78100 356.33445 345.76589 334.63134 323.03378 311.22723 299.09667 286.89912
 274.61057 262.50701 250.51546 239.81590 229.93735 221.04079 213.22224 206.22369
 200.05713 194.99458 191.57602 189.61747 188.65391 188.71736 189.55181 190.85925
 192.58370 194.67814 196.94059 199.29903 201.74348 204.22293 206.31037 208.15182
 209.77726 210.92171 211.15015 211.37760 211.31405 211.01849 210.65094 210.28038
 209.89683 209.60627 209.41372 209.27717 209.20461 209.53506 209.92050 210.30895
 211.10139 212.27884 213.52828 215.31073 217.23818 219.28062 221.37507 223.45751
 225.51696 227.60040 229.69685 231.80230 233.93074 236.10219 238.35763 240.72708
 243.34752 245.59797 247.59942 249.36386 250.78031 251.90275 252.72420 253.03964
 253.07609 252.84954 252.20898 251.15643 249.76187 247.92232 245.83076 243.66321
 241.45366 239.25710 237.07655 234.91499 232.77444 230.64088 228.66633 226.82278
 225.10522 223.57667 222.20611 220.97756 219.85900 218.81845 217.92190 217.06234
 216.30379 215.48323 214.58068 213.94412 213.39357 213.26485 212.96072 214.29726
 215.51352 217.19939 218.85402 219.44110 220.92053 223.20596 228.06850 232.34877
 235.81665 239.55092 243.14354 246.33237 249.07744 251.68747 254.66818 257.93124
 260.49619 262.66348 264.93805 267.33105 269.66028 271.75418 273.49881 275.13132
 276.78220 278.49750 280.03964 281.40594 282.59222 283.64780 284.61520 285.49469
 286.29425 287.01117 287.64426 288.49136
 366.78100 356.33439 345.76577 334.63116 323.03355 311.22693 299.09632 286.89870
 274.61009 262.50648 250.51486 239.81525 229.93664 221.04002 213.22141 206.22280
 200.05618 194.99357 191.57495 189.61634 188.65273 188.71611 189.55050 190.85789
 192.58227 194.67666 196.93904 199.29743 201.74182 204.22120 206.30859 208.14998
 209.77536 210.91975 211.14814 211.37552 211.31191 211.01629 210.64868 210.27807
 209.89445 209.60384 209.41123 209.27461 209.20200 209.53239 209.91777 210.30616
 211.09854 212.27593 213.52532 215.30770 217.23509 219.27748 221.37186 223.45425
 225.51364 227.59702 229.69341 231.79879 233.92718 236.09857 238.35395 240.72334
 243.34373 245.59411 247.59550 249.35988 250.77627 251.89866 252.72004 253.03543
 253.07182 252.84520 252.20459 251.15198 249.75736 247.91775 245.82613 243.65852
 241.44891 239.25229 237.07168 234.91007 232.76945 230.63584 228.66123 226.81761
 225.10000 223.57138 222.20077 220.97216 219.85354 218.81293 217.91632 217.05670
 216.29809 215.47748 214.57486 213.93825 213.38763 213.29118 213.06328 214.39111
 215.62080 217.17105 218.84816 219.65289 221.08237 223.42358 228.04790 232.25894
 235.71771 239.45216 243.01079 246.13310 248.82642 251.44205 254.45045 257.72446
 260.30679 262.49728 264.78690 267.19690 269.55048 271.66962 273.43542 275.06479
 276.69327 278.39401 279.93399 281.30026 282.48724 283.54376 284.50934 285.38876
 286.18939 286.90805 287.54037 288.39249
 366.78100 356.33385 345.76471 334.62956 323.03142 311.22427 299.09313 286.89498
 274.60584 262.50169 250.50955 239.80940 229.93026 221.03311 213.21397 206.21482
 200.04768 194.98453 191.56539 189.60624 188.64209 188.70495 189.53880 190.84566
 192.56951 194.66337 196.92522 199.28308 201.72693 204.20579 206.29264 208.13350
 209.75835 210.90221 211.13006 211.35692 211.29277 210.99662 210.62848 210.25733
 209.87319 209.58204 209.38890 209.25175 209.17861 209.50846 209.89332 210.28117
 211.07303 212.24988 213.49874 215.28059 217.20745 219.24930 221.34316 223.42501
 225.48386 227.56672 229.66257 231.76743 233.89528 236.06614 238.32099 240.68985
 243.30970 245.55956 247.56041 249.32427 250.74012 251.86198 252.68283 252.99769
 253.03354 252.80640 252.16525 251.11210 249.71696 247.87681 245.78467 243.61652
 241.40638 239.20923 237.02809 234.86594 232.72480 230.59065 228.61551 226.77136
 225.05322 223.52407 222.15293 220.92378 219.80463 218.76349 217.86634 217.00620
 216.24705 215.42591 214.52276 213.88562 213.33447 213.29373 213.19746 214.48593
 215.65813 217.17769 218.89093 219.86372 221.23163 223.62096 228.01987 232.15428
 235.61482 239.35501 242.87843 245.92947 248.56897 251.19316 254.23213 257.51489
 260.12137 262.34079 264.64807 267.07507 269.45126 271.59784 273.38745 275.01917
 276.61020 278.30197 279.84222 281.20834 282.39633 283.45169 284.42111 285.30902
 286.11575 286.84552 287.48416 288.33087
 366.78100 356.33342 345.76384 334.62827 323.02969 311.22211 299.09053 286.89196
 274.60238 262.49780 250.50522 239.80465 229.92507 221.02749 213.20791 206.20834
 200.04076 194.97718 191.55760 189.59803 188.63345 188.69587 189.52929 190.83572
 192.55914 194.65256 196.91398 199.27141 201.71483 204.19325 206.27967 208.12010
 209.74452 210.88794 211.11536 211.34179 211.27721 210.98063 210.61205 210.24048
 209.85590 209.56432 209.37074 209.23317 209.15959 209.48901 209.87343 210.26085
 211.05228 212.22870 213.47712 215.25854 217.18497 219.22639 221.31981 223.40123
 225.45966 227.54208 229.63750 231.74192 233.86935 236.03977 238.29419 240.66261
 243.28204 245.53146 247.53188 249.29530 250.71073 251.83215 252.65257 252.96699
 253.00242 252.77484 252.13326 251.07968 249.68411 247.84353 245.75095 243.58237
 241.37180 239.17422 236.99264 234.83006 232.68849 230.55391 228.57833 226.73375
 225.01518 223.48560 222.11402 220.88444 219.76486 218.72329 217.82571 216.96513
 216.20555 215.38398 214.48040 213.84282 213.29124 213.30081 213.32341 214.59082
 215.69246 217.19543 218.95731 220.06319 221.38963 223.77724 227.99237 232.06546
 235.52739 239.26714 242.74107 245.70937 248.29660 250.93687 254.01154 257.30225
 259.93729 262.19229 264.52255 266.96475 269.36102 271.53262 273.34653 274.97705
 276.52847 278.22763 279.76837 281.13449 282.32275 283.38037 284.35046 285.23810
 286.04977 286.77826 287.41922 288.27072
 366.78100 356.33308 345.76316 334.62723 323.02831 311.22039 299.08847 286.88955
 274.59962 262.49470 250.50178 239.80086 229.92093 221.02301 213.20309 206.20317
 200.03525 194.97132 191.55140 189.59148 188.62656 188.68864 189.52171 190.82779
 192.55087 194.64395 196.90503 199.26210 201.70518 204.18326 206.26934 208.10941
 209.73349 210.87657 211.10365 211.32973 211.26480 210.96788 210.59896 210.22704
 209.84212 209.55019 209.35627 209.21835 209.14443 209.47351 209.85758 210.24466
 211.03574 212.21182 213.45990 215.24097 217.16705 219.20813 221.30121 223.38228
 225.44036 227.52244 229.61752 231.72160 233.84867 236.01875 238.27283 240.64091
 243.25999 245.50906 247.50914 249.27222 250.68730 251.80838 252.62845 252.94253
 252.97761 252.74969 252.10776 251.05384 249.65792 247.81700 245.72408 243.55515
 241.34423 239.14631 236.96439 234.80147 232.65954 230.52462 228.54870 226.70378
 224.98486 223.45493 222.08301 220.85309 219.73317 218.69124 217.79332 216.93240
 216.17248 215.35056 214.44663 213.80871 213.25679 213.31140 213.44043 214.70015
 215.74332 217.22087 219.03152 220.25002 221.55016 223.90675 227.96301 231.99223
 235.44878 239.17300 242.58307 245.46991 248.01770 250.68336 253.79579 257.09320
 259.76294 262.05914 264.41351 266.86914 269.28177 271.47714 273.31357 274.94785
 276.46182 278.15860 279.69922 281.06537 282.25339 283.31100 284.28207 285.16904
 285.98294 286.71152 287.35135 288.20404
 366.78100 356.33270 345.76240 334.62610 323.02680 311.21850 299.08620 286.88689
 274.59659 262.49129 250.49799 239.79669 229.91639 221.01809 213.19779 206.19749
 200.02919 194.96489 191.54459 189.58428 188.61898 188.68068 189.51338 190.81908
 192.54178 194.63448 196.89518 199.25188 201.69458 204.17228 206.25798 208.09767
 209.72137 210.86407 211.09077 211.31647 211.25117 210.95387 210.58457 210.21227
 209.82697 209.53467 209.34037 209.20206 209.12776 209.45646 209.84016 210.22686
 211.01756 212.19326 213.44096 215.22166 217.14736 219.18806 221.28076 223.36145
 225.41915 227.50085 229.59555 231.69925 233.82595 235.99565 238.24935 240.61705
 243.23575 245.48445 247.48415 249.24684 250.66154 251.78224 252.60194 252.91564
 252.95034 252.72204 252.07974 251.02544 249.62914 247.78784 245.69454 243.52524
 241.31393 239.11563 236.93333 234.77003 232.62773 230.49243 228.51613 226.67083
 224.95153 223.42123 222.04893 220.81863 219.69832 218.65602 217.75772 216.89642
 216.13612 215.31382 214.40952 213.77122 213.21892 213.31842 213.55348 214.81876
 215.80249 217.25827 219.11226 220.42513 221.71710 224.01700 227.93541 231.92194
 235.36206 239.05586 242.39909 245.21553 247.73624 250.43199 253.58362 256.88785
 259.59854 261.94330 264.32373 266.79169 269.21671 271.43219 273.28833 274.92871
 276.40756 278.09531 279.63586 281.00137 282.18942 283.24658 284.21817 285.10550
 285.91858 286.64868 287.28937 288.13959
 366.78100 356.33214 345.76129 334.62443 323.02457 311.21571 299.08286 286.88300
 274.59214 262.48629 250.49243 239.79057 229.90971 221.01086 213.19000 206.18914
 200.02029 194.95543 191.53457 189.57371 188.60786 188.66900 189.50114 190.80629
 192.52843 194.62057 196.88071 199.23686 201.67900 204.15614 206.24129 208.08043
 209.70357 210.84571 211.07186 211.29700 211.23114 210.93329 210.56343 210.19057
 209.80471 209.51186 209.31700 209.17814 209.10329 209.43143 209.81457 210.20071
 210.99086 212.16600 213.41314 215.19328 217.11843 219.15857 221.25071 223.33086
 225.38800 227.46914 229.56328 231.66643 233.79257 235.96171 238.21486 240.58200
 243.20014 245.44828 247.44743 249.20957 250.62371 251.74386 252.56300 252.87614
 252.91028 252.68143 252.03857 250.98371 249.58686 247.74500 245.65114 243.48128
 241.26943 239.07057 236.88771 234.72386 232.58100 230.44514 228.46828 226.62243
 224.90257 223.37171 221.99886 220.76800 219.64714 218.60428 217.70543 216.84357
 216.08271 215.25986 214.35500 213.71614 213.16328 213.31361 213.66879 214.94722
 215.86818 217.30569 219.19746 220.58659 221.88902 224.11755 227.91600 231.84514
 235.26099 238.91466 242.19078 244.94794 247.45103 250.18103 253.37509 256.68994
 259.44382 261.83917 264.24829 266.72842 269.16391 271.39691 273.27530 274.93204
 276.39600 278.03918 279.57007 280.93500 282.12158 283.17828 284.14822 285.03763
 285.85031 286.58072 287.22189 288.07217
 366.78100 356.33142 345.75983 334.62225 323.02167 311.21208 299.07850 286.87792
 274.58633 262.47975 250.48517 239.78258 229.90100 221.00142 213.17983 206.17825
 200.00867 194.94308 191.52150 189.55992 188.59333 188.65375 189.48517 190.78958
 192.51100 194.60242 196.86183 199.21725 201.65867 204.13508 206.21950 208.05792
 209.68033 210.82175 211.04717 211.27158 211.20500 210.90642 210.53583 210.16225
 209.77567 209.48208 209.28650 209.14692 209.07133 209.39875 209.78117 210.16658
 210.95600 212.13042 213.37683 215.15625 217.08067 219.12008 221.21150 223.29092
 225.34733 227.42775 229.52117 231.62358 233.74900 235.91742 238.16983 240.53625
 243.15367 245.40108 247.39950 249.16092 250.57433 251.69375 252.51217 252.82458
 252.85800 252.62842 251.98483 250.92925 249.53167 247.68908 245.59450 243.42392
 241.21133 239.01175 236.82817 234.66358 232.52000 230.38342 228.40583 226.55925
 224.83867 223.30708 221.93350 220.70192 219.58033 218.53675 217.63717 216.77458
 216.01300 215.18942 214.28383 213.64425 213.09067 213.29822 213.78859 215.08032
 215.94576 217.36473 219.29112 220.73712 222.06084 224.21400 227.90318 231.76012
 235.14725 238.75015 241.95212 244.65358 247.15025 249.92635 253.17056 256.50259
 259.30338 261.74796 264.18555 266.67725 269.11774 271.36401 273.26395 274.94495
 276.46768 277.97906 279.49982 280.86795 282.05826 283.11649 284.08871 284.97922
 285.79343 286.52466 287.16666 288.01797
 366.78100 356.33054 345.75808 334.61962 323.01816 311.20769 299.07323 286.87177
 274.57931 262.47185 250.47639 239.77293 229.89047 220.99000 213.16754 206.16508
 199.99462 194.92816 191.50570 189.54324 188.57578 188.63532 189.46585 190.76939
 192.48993 194.58047 196.83901 199.19355 201.63409 204.10963 206.19317 208.03070
 209.65224 210.79278 211.01732 211.24086 211.17340 210.87394 210.50248 210.12801
 209.74055 209.44609 209.24963 209.10917 209.03271 209.35925 209.74079 210.12533
 210.91386 212.08740 213.33294 215.11148 217.03502 219.07356 221.16410 223.24264
 225.29817 227.37771 229.47025 231.57179 233.69633 235.86387 238.11541 240.48095
 243.09749 245.34402 247.34156 249.10210 250.51464 251.63318 252.45072 252.76226
 252.79480 252.56434 251.91987 250.86341 249.46495 247.62149 245.52603 243.35457
 241.14111 238.94065 236.75618 234.59072 232.44626 230.30880 228.33034 226.48288
 224.76142 223.22896 221.85450 220.62203 219.49957 218.45511 217.55465 216.69119
 215.92873 215.10427 214.19781 213.55735 213.00288 213.27370 213.91354 215.21629
 216.03154 217.43105 219.38855 220.88379 222.23906 224.31844 227.90265 231.68321
 235.03313 238.56873 241.68445 244.33287 246.83919 249.67458 252.97290 256.32776
 259.16788 261.67093 264.14096 266.64258 269.08237 271.33029 273.24121 274.93262
 276.46622 277.96335 279.48209 280.85153 282.04074 283.10043 284.07196 284.96527
 285.77887 286.51218 287.15829 288.00537
 366.78100 356.33104 345.75907 334.62111 323.02015 311.21019 299.07622 286.87526
 274.58330 262.47633 250.48137 239.77841 229.89645 220.99648 213.17452 206.17256
 200.00260 194.93663 191.51467 189.55271 188.58574 188.64578 189.47682 190.78086
 192.50189 194.59293 196.85197 199.20700 201.64804 204.12408 206.20812 208.04615
 209.66819 210.80923 211.03426 211.25830 211.19134 210.89238 210.52141 210.14745
 209.76049 209.46652 209.27056 209.13060 209.05464 209.38167 209.76371 210.14875
 210.93779 212.11182 213.35786 215.13690 217.06093 219.09997 221.19101 223.27005
 225.32608 227.40612 229.49916 231.60119 233.72623 235.89427 238.14631 240.51234
 243.12938 245.37642 247.37445 249.13549 250.54853 251.66757 252.48560 252.79764
 252.83068 252.60071 251.95675 250.90079 249.50283 247.65986 245.56490 243.39394
 241.18098 238.98101 236.79705 234.63209 232.48812 230.35116 228.37320 226.52624
 224.80527 223.27331 221.89935 220.66738 219.54542 218.50146 217.60150 216.73853
 215.97657 215.15261 214.24664 213.60668 213.05272 213.32361 213.96524 215.31407
 216.18021 217.52217 219.49109 221.00899 222.38541 224.37856 227.86060 231.61060
 234.90656 238.35609 241.36497 243.95741 246.48543 249.40175 252.78040 256.18393
 259.10983 261.62540 264.11322 266.62027 269.05792 271.30115 273.21448 274.89041
 276.39322 277.97339 279.51877 280.88797 282.07950 283.13992 284.11542 285.01138
 285.83231 286.57617 287.24429 288.10037
 366.78100 356.33287 345.76274 334.62661 323.02748 311.21935 299.08722 286.88809
 274.59796 262.49283 250.49970 239.79857 229.91844 221.02031 213.20018 206.20005
 200.03192 194.96779 191.54766 189.58753 188.62240 188.68427 189.51714 190.82301
 192.54588 194.63875 196.89962 199.25649 201.69936 204.17723 206.26310 208.10297
 209.72684 210.86971 211.09658 211.32245 211.25732 210.96019 210.59106 210.21893
 209.83380 209.54167 209.34754 209.20941 209.13528 209.46415 209.84802 210.23489
 211.02576 212.20163 213.44950 215.23037 217.15624 219.19711 221.28998 223.37085
 225.42872 227.51059 229.60546 231.70933 233.83620 236.00607 238.25994 240.62781
 243.24668 245.49555 247.49542 249.25828 250.67315 251.79402 252.61389 252.92776
 252.96263 252.73450 252.09237 251.03824 249.64211 247.80098 245.70785 243.53872
 241.32759 239.12946 236.94733 234.78420 232.64207 230.50694 228.53081 226.68568
 224.96655 223.43642 222.06429 220.83416 219.71403 218.67190 217.77377 216.91264
 216.15251 215.33038 214.42625 213.78812 213.23599 213.45256 213.99658 215.30736
 216.32594 217.65106 219.58774 221.13376 222.54071 224.42340 227.76155 231.55728
 234.74529 238.09961 240.99300 243.54662 246.13554 249.15631 252.59784 256.01111
 258.96158 261.66425 264.22751 266.70831 269.08182 271.25372 273.16751 274.75708
 276.30997 277.92197 279.46509 280.83459 282.02536 283.08804 284.06644 284.96848
 285.84201 286.61987 287.29944 288.16544
 366.78100 356.33245 345.76191 334.62536 323.02582 311.21727 299.08473 286.88518
 274.59463 262.48909 250.49554 239.79400 229.91345 221.01491 213.19436 206.19381
 200.02527 194.96072 191.54018 189.57963 188.61409 188.67554 189.50799 190.81345
 192.53590 194.62836 196.88881 199.24527 201.68772 204.16517 206.25063 208.09008
 209.71354 210.85599 211.08245 211.30790 211.24235 210.94481 210.57526 210.20272
 209.81717 209.52463 209.33008 209.19153 209.11699 209.44544 209.82890 210.21535
 211.00581 212.18126 213.42871 215.20917 217.13462 219.17508 221.26753 223.34799
 225.40544 227.48689 229.58135 231.68480 233.81126 235.98071 238.23417 240.60162
 243.22007 245.46853 247.46798 249.23044 250.64489 251.76534 252.58480 252.89825
 252.93271 252.70416 252.06162 251.00707 249.61052 247.76898 245.67543 243.50589
 241.29434 239.09580 236.91325 234.74970 232.60716 230.47161 228.49507 226.64952
 224.92998 223.39943 222.02688 220.79634 219.67579 218.63325 217.73470 216.87316
 216.11261 215.29006 214.38552 213.74697 213.19443 213.46405 214.14690 215.33243
 216.34937 217.69937 219.61684 221.24890 222.74883 224.62384 227.83723 231.57402
 234.62010 237.81052 240.61113 243.17281 245.85661 248.97734 252.46448 255.81784
 258.88168 261.69788 264.27164 266.73196 269.08054 271.22006 273.09329 274.70441
 276.25891 277.86578 279.41943 280.79614 282.00201 283.08829 284.14053 285.12073
 286.00232 286.78738 287.47318 288.34717
 366.78100 356.33192 345.76084 334.62376 323.02368 311.21461 299.08153 286.88145
 274.59037 262.48429 250.49021 239.78813 229.90705 221.00797 213.18690 206.18582
 200.01674 194.95166 191.53058 189.56950 188.60342 188.66434 189.49626 190.80119
 192.52311 194.61503 196.87495 199.23087 201.67279 204.14971 206.23463 208.07356
 209.69648 210.83840 211.06432 211.28924 211.22316 210.92508 210.55500 210.18192
 209.79585 209.50277 209.30769 209.16861 209.09353 209.42145 209.80437 210.19029
 210.98021 212.15514 213.40206 215.18198 217.10690 219.14682 221.23874 223.31866
 225.37558 227.45650 229.55043 231.65335 233.77927 235.94819 238.20111 240.56803
 243.18595 245.43387 247.43279 249.19472 250.60864 251.72856 252.54748 252.86040
 252.89432 252.66524 252.02216 250.96708 249.57001 247.72793 245.63385 243.46377
 241.25169 239.05261 236.86953 234.70545 232.56238 230.42630 228.44922 226.60314
 224.88306 223.35198 221.97890 220.74782 219.62674 218.58367 217.68459 216.82251
 216.06143 215.23835 214.33327 213.69419 213.14111 213.46046 214.26834 215.46930
 216.46625 217.83951 219.75824 221.44171 222.99472 224.84650 227.94264 231.58859
 234.52750 237.55540 240.23666 242.76649 245.50644 248.71803 252.26375 255.50092
 258.81244 261.70523 264.25827 266.71246 269.05090 271.17749 273.05334 274.68304
 276.28137 277.84317 279.39999 280.78412 282.00613 283.14185 284.22348 285.20337
 286.08469 286.86948 287.55505 288.42877
 366.78100 356.33066 345.75833 334.61999 323.01866 311.20832 299.07398 286.87265
 274.58031 262.47297 250.47764 239.77430 229.89197 220.99163 213.16929 206.16696
 199.99662 194.93028 191.50795 189.54561 188.57828 188.63794 189.46860 190.77227
 192.49293 194.58360 196.84226 199.19692 201.63759 204.11325 206.19691 208.03458
 209.65624 210.79691 211.02157 211.24523 211.17790 210.87856 210.50722 210.13289
 209.74555 209.45122 209.25488 209.11454 209.03821 209.36487 209.74654 210.13120
 210.91986 212.09353 213.33919 215.11785 217.04152 219.08018 221.17085 223.24951
 225.30517 227.38484 229.47750 231.57916 233.70383 235.87149 238.12316 240.48882
 243.10548 245.35215 247.34981 249.11048 250.52314 251.64180 252.45947 252.77113
 252.80379 252.57346 251.92912 250.87279 249.47445 247.63111 245.53578 243.36444
 241.15110 238.95077 236.76643 234.60110 232.45676 230.31942 228.34109 226.49375
 224.77242 223.24008 221.86574 220.63341 219.51107 218.46673 217.56640 216.70306
 215.94073 215.11639 214.21005 213.56972 213.01538 213.40901 214.38654 215.65373
 216.53137 217.88234 219.85452 221.55470 223.13235 224.99893 228.02274 231.59418
 234.44000 237.31104 239.83636 242.31946 245.11394 248.40562 252.05594 255.43036
 258.68774 261.58420 264.17737 266.67453 269.03091 271.13849 273.01431 274.68893
 276.30414 277.93860 279.49829 280.88599 282.11383 283.24881 284.34613 285.34021
 286.23431 287.03049 287.72601 288.61240
 366.78100 356.32910 345.75520 334.61530 323.01241 311.20051 299.06461 286.86171
 274.56781 262.45891 250.46201 239.75711 229.87322 220.97132 213.14742 206.14352
 199.97162 194.90372 191.47982 189.51592 188.54703 188.60513 189.43423 190.73633
 192.45543 194.54453 196.80163 199.15474 201.59384 204.06794 206.15004 207.98614
 209.60624 210.74534 210.96844 211.19055 211.12165 210.82075 210.44785 210.07195
 209.68305 209.38715 209.18925 209.04736 208.96946 209.29456 209.67466 210.05776
 210.84486 212.01696 213.26107 215.03817 216.96027 218.99737 221.08647 223.16357
 225.21767 227.29577 229.38688 231.48698 233.61008 235.77618 238.02628 240.39038
 243.00548 245.25059 247.24669 249.00579 250.41689 251.53399 252.35009 252.66019
 252.69129 252.45940 251.81350 250.75560 249.35570 247.51080 245.41390 243.24100
 241.02610 238.82421 236.63831 234.47141 232.32551 230.18661 228.20671 226.35781
 224.63492 223.10102 221.72512 220.49122 219.36732 218.32142 217.41952 216.55462
 215.79073 214.96483 214.05693 213.41503 212.85913 213.34222 214.51538 215.80997
 216.70290 217.85951 219.79475 221.62488 223.32788 225.19583 228.10696 231.60666
 234.34166 237.01782 239.36340 241.80687 244.67455 248.08464 251.86829 255.39268
 258.55164 261.46484 264.13760 266.69543 269.06754 271.16788 273.04510 274.76541
 276.35733 277.97552 279.53610 280.92126 282.13733 283.23645 284.31085 285.30490
 286.19891 286.99509 287.69058 288.57690
 366.78100 356.32763 345.75225 334.61088 323.00650 311.19313 299.05575 286.85138
 274.55600 262.44563 250.44725 239.74088 229.85550 220.95213 213.12675 206.12138
 199.94800 194.87863 191.45325 189.48788 188.51750 188.57413 189.40175 190.70238
 192.42000 194.50763 196.76325 199.11488 201.55250 204.02513 206.10575 207.94038
 209.55900 210.69663 210.91825 211.13888 211.06850 210.76613 210.39175 210.01438
 209.62400 209.32663 209.12725 208.98388 208.90450 209.22813 209.60675 209.98838
 210.77400 211.94463 213.18725 214.96288 216.88350 218.91913 221.00675 223.08238
 225.13500 227.21163 229.30125 231.39988 233.52150 235.68613 237.93475 240.29738
 242.91100 245.15463 247.14925 248.90688 250.31650 251.43213 252.24675 252.55538
 252.58500 252.35163 251.70425 250.64488 249.24350 247.39713 245.29875 243.12438
 240.90800 238.70463 236.51725 234.34888 232.20150 230.06113 228.07975 226.22938
 224.50500 222.96963 221.59225 220.35688 219.23150 218.18413 217.28075 216.41438
 215.64900 214.82163 213.91225 213.26888 212.71150 213.28207 214.65625 215.93697
 216.78537 218.05989 219.97897 221.80836 223.53285 225.37999 228.17839 231.60423
 234.19836 236.68474 238.90730 241.35072 244.30754 247.83224 251.68616 255.29132
 258.43045 261.30682 264.04596 266.69012 269.10309 271.22113 273.12769 274.86328
 276.47577 278.08353 279.64172 281.03442 282.26483 283.40665 284.51077 285.51102
 286.41061 287.21170 287.91153 288.80341
 366.78100 356.32705 345.75110 334.60915 323.00421 311.19026 299.05231 286.84736
 274.55141 262.44046 250.44152 239.73457 229.84862 220.94467 213.11872 206.11277
 199.93883 194.86888 191.44293 189.47698 188.50603 188.56208 189.38914 190.68919
 192.40624 194.49329 196.74834 199.09939 201.53644 204.00850 206.08855 207.92260
 209.54065 210.67770 210.89875 211.11881 211.04786 210.74491 210.36996 209.99201
 209.60106 209.30312 209.10317 208.95922 208.87927 209.20232 209.58037 209.96142
 210.74648 211.91653 213.15858 214.93363 216.85368 218.88873 220.97579 223.05084
 225.10289 227.17894 229.26799 231.36604 233.48710 235.65115 237.89920 240.26125
 242.87430 245.11735 247.11141 248.86846 250.27751 251.39256 252.20661 252.51466
 252.54371 252.30977 251.66182 250.60187 249.19992 247.35297 245.25402 243.07908
 240.86213 238.65818 236.47023 234.30128 232.15333 230.01239 228.03044 226.17949
 224.45454 222.91859 221.54064 220.30470 219.17875 218.13080 217.22685 216.35990
 215.59395 214.76600 213.85606 213.21211 212.65416 213.26897 214.75787 216.09688
 216.87059 218.28235 220.20952 221.93619 223.57939 225.46014 228.32925 231.56894
 234.04594 236.39992 238.53792 240.95255 243.98138 247.62024 251.53526 255.18694
 258.31454 261.23245 264.04379 266.71158 269.12323 271.23727 273.13535 274.88498
 276.48520 278.26050 279.83591 281.25345 282.54877 283.77527 284.89429 285.90802
 286.81979 287.63168 288.34097 289.24487
 366.78100 356.32860 345.75420 334.61379 323.01039 311.19799 299.06159 286.85819
 274.56378 262.45438 250.45698 239.75158 229.86718 220.96477 213.14037 206.13597
 199.96357 194.89517 191.47077 189.50636 188.53696 188.59456 189.42316 190.72476
 192.44335 194.53195 196.78855 199.14115 201.57975 204.05334 206.13494 207.97054
 209.59014 210.72874 210.95133 211.17293 211.10353 210.80213 210.42873 210.05232
 209.66292 209.36652 209.16812 209.02572 208.94732 209.27191 209.65151 210.03411
 210.82071 211.99231 213.23590 215.01250 216.93410 218.97070 221.05930 223.13589
 225.18949 227.26709 229.35769 231.45729 233.57988 235.74548 237.99508 240.35868
 242.97328 245.21787 247.21347 248.97207 250.38267 251.49927 252.31487 252.62446
 252.65506 252.42266 251.77626 250.71786 249.31745 247.47205 245.37465 243.20125
 240.98585 238.78344 236.59704 234.42964 232.28324 230.14384 228.16343 226.31403
 224.59063 223.05623 221.67983 220.44542 219.32102 218.27462 217.37222 216.50682
 215.74242 214.91601 214.00761 213.36521 212.80881 213.36644 214.76012 216.20950
 217.06581 218.59958 220.41794 222.01418 223.58057 225.50455 228.41795 231.47534
 233.88814 236.10699 238.12627 240.50818 243.64644 247.41742 251.42307 255.11697
 258.30414 261.28397 264.08673 266.72867 269.10254 271.16986 273.03036 274.77368
 276.61108 278.41818 280.01224 281.47745 282.82135 284.01038 285.09515 286.07791
 286.96179 287.74890 288.43649 289.31274
 366.78100 356.32803 345.75305 334.61208 323.00811 311.19513 299.05816 286.85419
 274.55921 262.44924 250.45127 239.74529 229.86032 220.95735 213.13237 206.12740
 199.95443 194.88546 191.46048 189.49551 188.52554 188.58256 189.41059 190.71162
 192.42964 194.51767 196.77370 199.12572 201.56375 204.03678 206.11780 207.95283
 209.57186 210.70988 210.93191 211.15294 211.08296 210.78099 210.40702 210.03004
 209.64007 209.34310 209.14412 209.00115 208.92218 209.24621 209.62523 210.00726
 210.79329 211.96431 213.20734 214.98337 216.90439 218.94042 221.02845 223.10447
 225.15750 227.23453 229.32455 231.42358 233.54561 235.71063 237.95966 240.32269
 242.93671 245.18074 247.17577 248.93379 250.34382 251.45985 252.27487 252.58390
 252.61393 252.38096 251.73398 250.67501 249.27404 247.42806 245.33009 243.15612
 240.94014 238.73717 236.55020 234.38222 232.23525 230.09528 228.11430 226.26433
 224.54036 223.00538 221.62841 220.39344 219.26846 218.22149 217.31852 216.45254
 215.68757 214.86060 213.95162 213.30865 212.75168 213.35596 214.84532 216.27667
 217.17427 218.77361 220.59029 222.17374 223.70740 225.62289 228.48044 231.43097
 233.75146 235.79958 237.67535 240.05989 243.33282 247.28171 251.33890 255.05240
 258.30066 261.27432 264.09436 266.74646 269.10516 271.13876 272.98004 274.75079
 276.74933 278.55563 280.14700 281.59839 282.96002 284.16470 285.26379 286.25952
 287.15506 287.95251 288.64917 289.53699
 366.78100 356.32236 345.74173 334.59509 322.98546 311.16682 299.02418 286.81455
 274.51391 262.39828 250.39464 239.68300 229.79237 220.88373 213.05310 206.04246
 199.86382 194.78919 191.35855 189.38791 188.41228 188.46364 189.28601 190.58137
 192.29373 194.37610 196.62646 198.97283 201.40519 203.87255 205.94792 207.77728
 209.39065 210.52301 210.73937 210.95474 210.87910 210.57147 210.19183 209.80919
 209.41356 209.11092 208.90629 208.75765 208.67301 208.99138 209.36474 209.74111
 210.52147 211.68683 212.92420 214.69456 216.60993 218.64029 220.72265 222.79302
 224.84038 226.91174 228.99611 231.08947 233.20584 235.36520 237.60856 239.96593
 242.57429 244.81266 246.80202 248.55438 249.95875 251.06911 251.87848 252.18184
 252.20620 251.96757 251.31493 250.25030 248.84366 246.99202 244.88839 242.70875
 240.48712 238.27848 236.08584 233.91221 231.75957 229.61394 227.62730 225.77166
 224.04203 222.50139 221.11875 219.87812 218.74748 217.69485 216.78621 215.91457
 215.14394 214.31130 213.39667 212.74803 212.18539 213.07420 215.16409 216.46028
 216.96478 218.47345 220.52194 222.32829 223.94202 225.82323 228.63870 231.46837
 233.72295 235.61090 237.28404 239.64954 243.06523 247.10646 251.14955 254.87500
 258.17325 261.19937 264.05646 266.76617 269.17606 271.21793 273.05386 274.78897
 276.75491 278.55954 280.12753 281.51556 282.73230 283.85791 284.94809 285.93570
 286.82397 287.61496 288.30597 289.18655
 366.78100 356.32013 345.73726 334.58838 322.97651 311.15564 299.01077 286.79889
 274.49602 262.37815 250.37228 239.65840 229.76553 220.85466 213.02179 206.00891
 199.82804 194.75117 191.31830 189.34542 188.36755 188.41668 189.23681 190.52994
 192.24006 194.32019 196.56832 198.91245 201.34257 203.80770 205.88083 207.70796
 209.31908 210.44921 210.66334 210.87647 210.79859 210.48872 210.10685 209.72198
 209.32410 209.01923 208.81236 208.66149 208.57462 208.89074 209.26187 209.63600
 210.41413 211.57725 212.81238 214.58051 216.49364 218.52176 220.60189 222.67002
 224.71515 226.78427 228.86640 230.95753 233.07166 235.22878 237.46991 239.82504
 242.43117 244.66729 246.65442 248.40455 249.80668 250.91481 251.72193 252.02306
 252.04519 251.80432 251.14944 250.08257 248.67370 246.81983 244.71395 242.53208
 240.30821 238.09734 235.90246 233.72659 231.57172 229.42385 227.43497 225.57710
 223.84523 222.30236 220.91749 219.67461 218.54174 217.48687 216.57600 215.70212
 214.92925 214.09438 213.17751 212.52663 211.96176 212.94797 215.27415 216.77948
 217.03232 218.39174 220.49161 222.41559 224.05119 225.91458 228.81982 231.49501
 233.77690 235.43193 236.84273 239.11893 242.67390 246.90521 251.00151 254.72479
 258.05554 261.11600 264.04596 266.79208 269.25531 271.36829 273.24023 274.99127
 276.69366 278.45465 280.02097 281.39645 282.59082 283.65540 284.63843 285.52023
 286.33865 287.07806 287.72400 288.54715
 366.78100 356.32131 345.73962 334.59194 322.98125 311.16156 299.01787 286.80719
 274.50550 262.38881 250.38412 239.67144 229.77975 220.87006 213.03837 206.02669
 199.84700 194.77131 191.33962 189.36794 188.39125 188.44156 189.26287 190.55719
 192.26850 194.34981 196.59912 198.94444 201.37575 203.84206 205.91637 207.74469
 209.35700 210.48831 210.70362 210.91794 210.84125 210.53256 210.15187 209.76819
 209.37150 209.06781 208.86212 208.71244 208.62675 208.94406 209.31637 209.69169
 210.47100 211.63531 212.87162 214.64094 216.55525 218.58456 220.66587 222.73519
 224.78150 226.85181 228.93512 231.02744 233.14275 235.30106 237.54337 239.89968
 242.50700 244.74431 246.73262 248.48393 249.88725 250.99656 251.80487 252.10718
 252.13050 251.89081 251.23712 250.17143 248.76375 246.91106 244.80637 242.62568
 240.40300 238.19331 235.99962 233.82493 231.67125 229.52456 227.53687 225.68018
 223.94950 222.40781 221.02412 219.78243 218.65075 217.59706 216.68737 215.81468
 215.04300 214.20931 213.29362 212.64393 212.08025 213.00317 215.18365 216.99132
 217.40746 218.60910 220.59647 222.43631 224.04533 225.96191 228.88803 231.42410
 233.44467 235.02631 236.52425 238.93283 242.55244 246.79944 250.93529 254.70963
 258.07114 261.14124 264.06076 266.79163 269.22964 271.33325 273.23502 275.03723
 276.78214 278.41840 279.97147 281.34338 282.53479 283.59924 284.58054 285.43777
 286.19708 286.89679 287.53134 288.36493
 366.78100 356.32102 345.73904 334.59106 322.98008 311.16010 299.01612 286.80514
 274.50315 262.38617 250.38119 239.66821 229.77623 220.86625 213.03427 206.02229
 199.84231 194.76633 191.33435 189.36237 188.38539 188.43541 189.25643 190.55044
 192.26146 194.34248 196.59150 198.93652 201.36754 203.83356 205.90758 207.73560
 209.34762 210.47864 210.69366 210.90768 210.83070 210.52172 210.14073 209.75675
 209.35977 209.05579 208.84981 208.69983 208.61385 208.93087 209.30289 209.67791
 210.45693 211.62095 212.85697 214.62599 216.54001 218.56902 220.65004 222.71906
 224.76508 226.83510 228.91812 231.01014 233.12516 235.28318 237.52520 239.88122
 242.48824 244.72526 246.71328 248.46430 249.86732 250.97633 251.78435 252.08637
 252.10939 251.86941 251.21543 250.14945 248.74147 246.88849 244.78351 242.60253
 240.37955 238.16957 235.97559 233.80061 231.64662 229.49964 227.51166 225.65468
 223.92370 222.38172 220.99774 219.75576 218.62378 217.56980 216.65982 215.78684
 215.01486 214.18088 213.26490 212.61491 212.05093 212.99428 215.22304 217.06232
 217.64268 218.79507 220.74648 222.54230 224.10262 226.00337 228.87704 231.31001
 233.16658 234.62444 236.13898 238.67650 242.44339 246.72411 250.87883 254.71436
 258.11880 261.20038 264.09674 266.79956 269.19055 271.25912 273.14456 274.96619
 276.75964 278.39325 279.92709 281.29553 282.48447 283.54718 284.52393 285.40228
 286.17856 286.87076 287.48047 288.30435
 366.78100 356.31971 345.73642 334.58713 322.97485 311.15356 299.00827 286.79598
 274.49269 262.37440 250.36811 239.65382 229.76054 220.84925 213.01596 206.00267
 199.82138 194.74409 191.31080 189.33752 188.35923 188.40794 189.22765 190.52036
 192.23007 194.30978 196.55750 198.90121 201.33092 203.79563 205.86834 207.69505
 209.30576 210.43547 210.64919 210.86190 210.78361 210.47332 210.09103 209.70574
 209.30745 209.00217 208.79488 208.64359 208.55630 208.87201 209.24272 209.61643
 210.39415 211.55686 212.79157 214.55928 216.47199 218.49970 220.57941 222.64712
 224.69184 226.76055 228.84226 230.93297 233.04668 235.20339 237.44410 239.79882
 242.40453 244.64024 246.62695 248.37666 249.77837 250.88608 251.69279 251.99351
 252.01522 251.77393 251.11864 250.05135 248.64206 246.78777 244.68149 242.49920
 240.27491 238.06362 235.86833 233.69204 231.53675 229.38847 227.39918 225.54089
 223.80860 222.26531 220.88002 219.63673 218.50344 217.44816 216.53687 215.66258
 214.88929 214.05400 213.13671 212.48542 211.92014 212.93439 215.33069 217.14990
 217.77609 218.91377 220.87076 222.65535 224.19029 226.06438 228.88701 231.23267
 232.94756 234.27306 235.77570 238.41516 242.32364 246.62059 250.79303 254.67549
 258.11453 261.21536 264.11108 266.80768 269.19373 271.25717 273.11285 274.90057
 276.69089 278.31921 279.85614 281.22504 282.41425 283.47318 284.44666 285.32550
 286.10434 286.79907 287.41077 288.23776
 366.78100 356.31918 345.73536 334.58553 322.97271 311.15089 299.00507 286.79225
 274.48843 262.36960 250.36278 239.64796 229.75414 220.84232 213.00849 205.99467
 199.81285 194.73503 191.30121 189.32739 188.34856 188.39674 189.21592 190.50810
 192.21728 194.29646 196.54363 198.88681 201.31599 203.78017 205.85235 207.67852
 209.28870 210.41788 210.63106 210.84324 210.76442 210.45359 210.07077 209.68495
 209.28613 208.98031 208.77248 208.62066 208.53284 208.84802 209.21820 209.59138
 210.36855 211.53073 212.76491 214.53209 216.44427 218.47145 220.55062 222.61780
 224.66198 226.73016 228.81134 230.90151 233.01469 235.17087 237.41105 239.76523
 242.37041 244.60558 246.59176 248.34094 249.74212 250.84930 251.65547 251.95565
 251.97683 251.73501 251.07919 250.01137 248.60154 246.74672 244.63990 242.45708
 240.23226 238.02044 235.82461 233.64779 231.49197 229.34315 227.35333 225.49450
 223.76168 222.21786 220.83204 219.58822 218.45440 217.39857 216.48675 215.61193
 214.83811 214.00229 213.08446 212.43264 211.86682 212.91612 215.39523 217.25449
 217.94977 219.03281 220.95908 222.74689 224.28505 226.13005 228.88098 231.14720
 232.70874 233.90651 235.41074 238.17621 242.20334 246.51917 250.71930 254.64014
 258.10651 261.22510 264.12204 266.81207 269.19888 271.26398 273.08499 274.82629
 276.59967 278.25650 279.79935 281.17081 282.36176 283.42126 284.39639 285.27628
 286.05893 286.75467 287.36969 288.19986
 366.78100 356.31917 345.73533 334.58550 322.97267 311.15084 299.00500 286.79217
 274.48834 262.36950 250.36267 239.64784 229.75400 220.84217 213.00834 205.99451
 199.81267 194.73484 191.30101 189.32717 188.34834 188.39651 189.21568 190.50784
 192.21701 194.29618 196.54334 198.88651 201.31568 203.77985 205.85201 207.67818
 209.28835 210.41751 210.63068 210.84285 210.76401 210.45318 210.07035 209.68452
 209.28568 208.97985 208.77202 208.62018 208.53235 208.84752 209.21769 209.59085
 210.36802 211.53019 212.76435 214.53152 216.44369 218.47085 220.55002 222.61719
 224.66136 226.72952 228.81069 230.90086 233.01402 235.17019 237.41036 239.76453
 242.36969 244.60486 246.59103 248.34019 249.74136 250.84853 251.65470 251.95486
 251.97603 251.73420 251.07836 250.01053 248.60070 246.74586 244.63903 242.45620
 240.23137 238.01953 235.82370 233.64687 231.49103 229.34220 227.35237 225.49354
 223.76070 222.21687 220.83104 219.58720 218.45337 217.39754 216.48570 215.61087
 214.83704 214.00121 213.08337 212.43154 211.86571 212.92538 215.42897 217.36525
 218.14676 219.16148 221.02908 222.83022 224.39137 226.20152 228.86696 231.06705
 232.43994 233.48822 235.04202 237.98575 242.09665 246.44229 250.67154 254.62128
 258.11093 261.24017 264.12640 266.79703 269.17694 271.24673 273.04785 274.76151
 276.48935 278.21637 279.76382 281.13025 282.31992 283.37885 284.35477 285.23831
 286.02325 286.72083 287.33554 288.17355
 366.78100 356.31937 345.73573 334.58610 322.97347 311.15183 299.00620 286.79357
 274.48993 262.37130 250.36467 239.65003 229.75640 220.84476 213.01113 205.99750
 199.81586 194.73823 191.30460 189.33096 188.35233 188.40070 189.22006 190.51243
 192.22180 194.30116 196.54853 198.89190 201.32126 203.78563 205.85800 207.68436
 209.29473 210.42409 210.63746 210.84983 210.77119 210.46056 210.07793 209.69229
 209.29366 208.98803 208.78039 208.62876 208.54113 208.85649 209.22686 209.60023
 210.37759 211.53996 212.77433 214.54169 216.45406 218.48142 220.56079 222.62816
 224.67252 226.74089 228.82226 230.91262 233.02599 235.18236 237.42272 239.77709
 242.38246 244.61782 246.60419 248.35356 249.75492 250.86229 251.66866 251.96902
 251.99039 251.74875 251.09312 250.02549 248.61585 246.76122 244.65459 242.47195
 240.24732 238.03569 235.84005 233.66342 231.50779 229.35915 227.36952 225.51089
 223.77825 222.23462 220.84899 219.60535 218.47172 217.41609 216.50445 215.62982
 214.85618 214.02055 213.10292 212.45128 211.88565 212.94246 215.43927 217.50340
 218.33064 219.27742 221.10063 222.93275 224.52872 226.28281 228.85252 230.96600
 232.13261 233.03098 234.69572 237.81944 241.98792 246.37407 250.63809 254.61046
 258.12311 261.25937 264.12903 266.77423 269.14917 271.23727 273.03540 274.72604
 276.47031 278.11752 279.65414 281.02106 282.20807 283.25998 284.21402 285.09357
 285.91125 286.62323 287.24164 288.08694
 366.78100 356.31910 345.73521 334.58531 322.97241 311.15052 299.00462 286.79172
 274.48783 262.36893 250.36203 239.64714 229.75324 220.84134 213.00745 205.99355
 199.81165 194.73376 191.29986 189.32596 188.34707 188.39517 189.21427 190.50638
 192.21548 194.29458 196.54169 198.88479 201.31389 203.77800 205.85010 207.67620
 209.28631 210.41541 210.62851 210.84062 210.76172 210.45082 210.06793 209.68203
 209.28313 208.97723 208.76934 208.61744 208.52954 208.84465 209.21475 209.58785
 210.36496 211.52706 212.76116 214.52827 216.44037 218.46747 220.54658 222.61368
 224.65778 226.72589 228.80699 230.89709 233.01020 235.16630 237.40640 239.76051
 242.36561 244.60071 246.58682 248.33592 249.73702 250.84413 251.65023 251.95033
 251.97144 251.72954 251.07364 250.00575 248.59585 246.74095 244.63406 242.45116
 240.22626 238.01437 235.81847 233.64157 231.48568 229.33678 227.34688 225.48799
 223.75509 222.21119 220.82530 219.58140 218.44750 217.39161 216.47971 215.60481
 214.83092 213.99502 213.07712 212.42523 211.85933 212.93681 215.48253 217.58966
 218.53484 219.41747 221.21204 223.01967 224.59326 226.35645 228.88460 230.80614
 231.78384 232.58653 234.33751 237.65482 241.89272 246.32951 250.61989 254.60573
 258.13498 261.27524 264.12759 266.75064 269.12408 271.22922 273.01114 274.66766
 276.40097 278.04315 279.57935 280.94714 282.13477 283.18634 284.14224 285.02246
 285.83990 286.56485 287.18637 288.03729
 366.78100 356.31849 345.73398 334.58346 322.96995 311.14744 299.00093 286.78742
 274.48290 262.36339 250.35588 239.64037 229.74585 220.83334 212.99883 205.98432
 199.80181 194.72329 191.28878 189.31427 188.33476 188.38225 189.20073 190.49222
 192.20071 194.27920 196.52569 198.86817 201.29666 203.76015 205.83164 207.65713
 209.26661 210.39510 210.60759 210.81908 210.73956 210.42805 210.04454 209.65803
 209.25852 208.95200 208.74349 208.59098 208.50247 208.81696 209.18644 209.55893
 210.33542 211.49691 212.73040 214.49688 216.40837 218.43486 220.51335 222.57983
 224.62332 226.69081 228.77130 230.86079 232.97327 235.12876 237.36825 239.72174
 242.32623 244.56071 246.54620 248.29469 249.69518 250.80167 251.60715 251.90664
 251.92713 251.68462 251.02810 249.95959 248.54908 246.69357 244.58606 242.40254
 240.17703 237.96452 235.76801 233.59050 231.43398 229.28447 227.29396 225.43445
 223.70094 222.15642 220.76991 219.52540 218.39089 217.33438 216.42186 215.54635
 214.77184 213.93533 213.01681 212.36430 211.79779 212.91508 215.55481 217.67282
 218.58493 219.75414 221.41469 223.00339 224.61679 226.37798 228.90417 230.71574
 231.39211 232.00687 234.05310 237.57219 241.84349 246.30620 250.60028 254.59059
 258.13580 261.28467 264.12903 266.73010 269.09967 271.21701 272.97580 274.59436
 276.27075 278.00500 279.55527 280.92126 282.10846 283.16217 284.12207 285.00262
 285.81760 286.55118 287.17786 288.03201
 366.78100 356.31834 345.73368 334.58302 322.96936 311.14671 299.00005 286.78639
 274.48173 262.36207 250.35441 239.63875 229.74409 220.83143 212.99678 205.98212
 199.79946 194.72080 191.28614 189.31148 188.33182 188.37916 189.19750 190.48885
 192.19719 194.27553 196.52187 198.86421 201.29255 203.75589 205.82723 207.65257
 209.26192 210.39026 210.60260 210.81394 210.73428 210.42262 210.03896 209.65230
 209.25264 208.94599 208.73733 208.58467 208.49601 208.81035 209.17969 209.55203
 210.32837 211.48971 212.72306 214.48940 216.40074 218.42708 220.50542 222.57176
 224.61510 226.68244 228.76278 230.85213 232.96447 235.11981 237.35915 239.71249
 242.31683 244.55117 246.53651 248.28485 249.68520 250.79154 251.59688 251.89622
 251.91656 251.67390 251.01724 249.94858 248.53792 246.68227 244.57461 242.39095
 240.16529 237.95263 235.75597 233.57831 231.42165 229.27199 227.28134 225.42168
 223.68802 222.14336 220.75670 219.51204 218.37738 217.32072 216.40806 215.53241
 214.75775 213.92109 213.00243 212.34977 211.78311 212.91884 215.60214 217.78311
 218.63281 219.99788 221.63623 223.08839 224.60526 226.31920 228.88287 230.64088
 231.05676 231.51025 233.82355 237.49776 241.80467 246.27530 250.56819 254.56602
 258.12967 261.29242 264.13281 266.70676 269.06656 271.19672 272.93903 274.53308
 276.21368 277.96561 279.52191 280.89139 282.08157 283.13882 284.10104 284.98358
 285.79907 286.53558 287.16382 288.02762
 366.78100 356.31854 345.73407 334.58361 322.97014 311.14768 299.00122 286.78775
 274.48329 262.36383 250.35636 239.64090 229.74643 220.83397 212.99951 205.98504
 199.80258 194.72411 191.28965 189.31519 188.33572 188.38326 189.20179 190.49333
 192.20187 194.28040 196.52694 198.86948 201.29801 203.76155 205.83308 207.65862
 209.26816 210.39669 210.60923 210.82076 210.74130 210.42984 210.04637 209.65991
 209.26044 208.95398 208.74552 208.59305 208.50459 208.81913 209.18866 209.56120
 210.33773 211.49927 212.73281 214.49934 216.41088 218.43741 220.51595 222.58249
 224.62602 226.69356 228.77410 230.86363 232.97617 235.13170 237.37124 239.72478
 242.32931 244.56385 246.54938 248.29792 249.69846 250.80499 251.61053 251.91006
 251.93060 251.68814 251.03167 249.96321 248.55275 246.69728 244.58982 242.40635
 240.18089 237.96843 235.77196 233.59450 231.43803 229.28857 227.29811 225.43864
 223.70518 222.16071 220.77425 219.52979 218.39532 217.33886 216.42640 215.55093
 214.77647 213.94000 213.02154 212.36908 211.80261 212.94283 215.63669 217.87396
 218.73590 220.16777 221.84236 223.26758 224.63132 226.24084 228.80084 230.49350
 230.74095 231.10452 233.61479 237.41530 241.76178 246.24142 250.53781 254.54463
 258.12460 261.29913 264.13351 266.67563 269.02588 271.17438 272.91010 274.48907
 276.17456 277.92532 279.48276 280.85202 282.04367 283.10233 284.06589 284.95145
 285.76715 286.50180 287.13980 288.00699
 366.78100 356.31883 345.73467 334.58450 322.97133 311.14917 299.00300 286.78983
 274.48567 262.36650 250.35933 239.64417 229.75000 220.83783 213.00366 205.98950
 199.80733 194.72916 191.29500 189.32083 188.34166 188.38950 189.20833 190.50016
 192.20900 194.28783 196.53466 198.87750 201.30633 203.77016 205.84200 207.66783
 209.27766 210.40650 210.61933 210.83116 210.75200 210.44083 210.05766 209.67150
 209.27233 208.96616 208.75799 208.60583 208.51766 208.83249 209.20233 209.57516
 210.35199 211.51383 212.74766 214.51449 216.42633 218.45316 220.53199 222.59883
 224.64266 226.71049 228.79133 230.88116 232.99399 235.14983 237.38966 239.74349
 242.34833 244.58316 246.56899 248.31783 249.71866 250.82549 251.63132 251.93116
 251.95199 251.70982 251.05366 249.98549 248.57532 246.72016 244.61299 242.42982
 240.20466 237.99249 235.79632 233.61916 231.46299 229.31382 227.32366 225.46449
 223.73132 222.18716 220.80099 219.55682 218.42266 217.36649 216.45432 215.57916
 214.80499 213.96882 213.05065 212.39849 211.83232 212.97403 215.67140 217.93964
 218.87711 220.31175 221.99068 223.45065 224.73946 226.21535 228.67929 230.25290
 230.42152 230.77406 233.41867 237.33521 241.72388 246.21359 250.50909 254.52148
 258.11404 261.29614 264.12381 266.63635 268.98193 271.15317 272.88553 274.44714
 276.14029 277.89700 279.45706 280.82901 282.02240 283.08411 284.05249 284.93976
 285.75781 286.49954 287.15079 288.04950
 366.78100 356.31912 345.73525 334.58537 322.97249 311.15062 299.00474 286.79186
 274.48799 262.36911 250.36223 239.64735 229.75348 220.84160 213.00772 205.99385
 199.81197 194.73409 191.30022 189.32634 188.34746 188.39559 189.21471 190.50683
 192.21596 194.29508 196.54220 198.88532 201.31445 203.77857 205.85069 207.67682
 209.28694 210.41606 210.62919 210.84131 210.76243 210.45156 210.06868 209.68280
 209.28393 208.97805 208.77017 208.61829 208.53042 208.84554 209.21566 209.58879
 210.36591 211.52803 212.76216 214.52928 216.44140 218.46853 220.54765 222.61477
 224.65890 226.72702 228.80814 230.89826 233.01139 235.16751 237.40763 239.76176
 242.36688 244.60200 246.58813 248.33725 249.73837 250.84550 251.65162 251.95174
 251.97287 251.73099 251.07511 250.00723 248.59736 246.74248 244.63560 242.45273
 240.22785 238.01597 235.82010 233.64322 231.48734 229.33847 227.34859 225.48971
 223.75684 222.21296 220.82708 219.58320 218.44933 217.39345 216.48157 215.60670
 214.83282 213.99694 213.07907 212.42719 211.86131 213.00433 215.70485 217.99770
 219.02068 220.45697 222.10019 223.59941 224.88245 226.24059 228.55962 229.96492
 230.09218 230.49152 233.22797 237.25537 241.69322 246.19092 250.48100 254.49632
 258.10059 261.28986 264.11258 266.59674 268.93851 271.12274 272.83661 274.40479
 276.15936 277.86859 279.42236 280.79633 281.99295 283.05701 284.02972 284.91916
 285.73596 286.47751 287.13028 288.03726
 366.78100 356.31946 345.73592 334.58638 322.97383 311.15229 299.00675 286.79421
 274.49067 262.37213 250.36558 239.65104 229.75750 220.84596 213.01242 205.99888
 199.81733 194.73979 191.30625 189.33271 188.35417 188.40263 189.22208 190.51454
 192.22400 194.30346 196.55092 198.89438 201.32383 203.78829 205.86075 207.68721
 209.29767 210.42713 210.64058 210.85304 210.77450 210.46396 210.08142 209.69588
 209.29733 208.99179 208.78425 208.63271 208.54517 208.86063 209.23108 209.60454
 210.38200 211.54446 212.77892 214.54638 216.45883 218.48629 220.56575 222.63321
 224.67767 226.74613 228.82759 230.91804 233.03150 235.18796 237.42842 239.78288
 242.38834 244.62379 246.61025 248.35971 249.76117 250.86863 251.67509 251.97554
 251.99700 251.75546 251.09992 250.03238 248.62284 246.76829 244.66175 242.47921
 240.25467 238.04313 235.84759 233.67104 231.51550 229.36696 227.37742 225.51888
 223.78634 222.24279 220.85725 219.61371 218.48017 217.42463 216.51309 215.63854
 214.86500 214.02946 213.11192 212.46038 211.89484 213.03789 215.73846 218.05856
 219.14705 220.60451 222.20906 223.72398 225.01338 226.28862 228.46297 229.68237
 229.76395 230.23457 233.03896 237.17195 241.66302 246.15955 250.44377 254.45996
 258.07239 261.27039 264.09464 266.56259 268.91174 271.12106 272.84705 274.20895
 276.15903 277.89191 279.43799 280.80771 281.99841 283.05792 284.02795 284.91547
 285.72803 286.46967 287.12173 288.03336
 366.78100 356.31987 345.73674 334.58761 322.97548 311.15434 299.00921 286.79708
 274.49395 262.37582 250.36969 239.65556 229.76243 220.85129 213.01816 206.00503
 199.82390 194.74677 191.31364 189.34051 188.36238 188.41125 189.23111 190.52398
 192.23385 194.31372 196.56159 198.90546 201.33533 203.80020 205.87306 207.69993
 209.31080 210.44067 210.65454 210.86741 210.78928 210.47915 210.09702 209.71188
 209.31375 209.00862 208.80149 208.65036 208.56323 208.87910 209.24997 209.62383
 210.40170 211.56457 212.79944 214.56731 216.48018 218.50805 220.58792 222.65579
 224.70065 226.76952 228.85139 230.94226 233.05613 235.21300 237.45387 239.80874
 242.41460 244.65047 246.63734 248.38721 249.78908 250.89695 251.70382 252.00469
 252.02656 251.78542 251.13029 250.06316 248.65403 246.79990 244.69377 242.51164
 240.28751 238.07637 235.88124 233.70511 231.54998 229.40185 227.41272 225.55459
 223.82246 222.27933 220.89419 219.65106 218.51793 217.46280 216.55167 215.67754
 214.90441 214.06928 213.15214 212.50101 211.93588 213.07709 215.77333 218.11887
 219.26122 220.74483 222.32961 223.83574 225.11772 226.33784 228.38251 229.42091
 229.44533 229.99800 232.86250 237.09303 241.63272 246.12465 250.40543 254.42331
 258.04416 261.25269 264.08167 266.53732 268.88757 271.10275 272.79123 274.26172
 276.12796 277.89731 279.44635 280.81165 281.99918 283.05600 284.02393 284.90933
 285.71964 286.45480 287.10684 288.01532
 366.78100 356.32033 345.73766 334.58899 322.97731 311.15664 299.01197 286.80030
 274.49763 262.37996 250.37429 239.66062 229.76794 220.85727 213.02460 206.01193
 199.83126 194.75459 191.32192 189.34925 188.37157 188.42090 189.24123 190.53456
 192.24489 194.32522 196.57355 198.91788 201.34820 203.81353 205.88686 207.71419
 209.32552 210.45585 210.67018 210.88351 210.80583 210.49616 210.11449 209.72982
 209.33215 209.02748 208.82081 208.67014 208.58346 208.89979 209.27112 209.64545
 210.42378 211.58711 212.82244 214.59077 216.50409 218.53242 220.61275 222.68108
 224.72641 226.79574 228.87807 230.96939 233.08372 235.24105 237.48238 239.83771
 242.44404 244.68037 246.66770 248.41802 249.82035 250.92868 251.73601 252.03734
 252.05967 251.81900 251.16433 250.09765 248.68898 246.83531 244.72964 242.54797
 240.32430 238.11363 235.91896 233.74328 231.58861 229.44094 227.45227 225.59460
 223.86293 222.32026 220.93559 219.69291 218.56024 217.50557 216.59490 215.72123
 214.94856 214.11389 213.19722 212.54654 211.98187 213.11916 215.80614 218.17387
 219.37306 220.87485 222.45895 223.93930 225.20198 226.37769 228.30301 229.17300
 229.14223 229.78810 232.70659 237.01654 241.59447 246.08319 250.36198 254.37944
 258.00690 261.22549 264.06192 266.51071 268.86447 271.07953 272.68021 274.19083
 276.10526 277.88480 279.43607 280.80234 281.99042 283.04697 284.01572 284.89819
 285.70352 286.43018 287.07550 287.98572
 366.78100 356.32092 345.73883 334.59075 322.97966 311.15958 299.01550 286.80441
 274.50233 262.38525 250.38016 239.66708 229.77499 220.86491 213.03283 206.02074
 199.84066 194.76458 191.33249 189.36041 188.38332 188.43324 189.25416 190.54807
 192.25899 194.33990 196.58882 198.93374 201.36465 203.83057 205.90449 207.73240
 209.34432 210.47523 210.69015 210.90407 210.82698 210.51790 210.13682 209.75273
 209.35565 209.05156 208.84548 208.69540 208.60931 208.92623 209.29814 209.67306
 210.45198 211.61589 212.85181 214.62073 216.53464 218.56356 220.64447 222.71339
 224.75931 226.82922 228.91214 231.00406 233.11897 235.27689 237.51880 239.87472
 242.48164 244.71855 246.70647 248.45738 249.86030 250.96922 251.77713 252.07905
 252.10197 251.86188 251.20780 250.14171 248.73363 246.88055 244.77546 242.59438
 240.37130 238.16121 235.96713 233.79204 231.63796 229.49088 227.50279 225.64571
 223.91462 222.37254 220.98846 219.74637 218.61429 217.56021 216.65012 215.77704
 215.00495 214.17087 213.25479 212.60470 212.04062 213.16788 215.83116 218.21930
 219.48518 221.00525 222.59846 224.04613 225.27908 226.40814 228.21786 228.91621
 228.83859 229.60054 232.57286 236.94580 241.55418 246.04373 250.32149 254.33640
 257.96857 261.20230 264.05273 266.50430 268.86172 271.07761 272.78448 274.16483
 276.08301 277.86398 279.41367 280.77936 281.96860 283.02853 283.99698 284.88263
 285.69406 286.42844 287.08264 287.99673
 366.78100 356.32171 345.74042 334.59313 322.98283 311.16354 299.02025 286.80996
 274.50867 262.39238 250.38808 239.67579 229.78450 220.87521 213.04392 206.03263
 199.85333 194.77804 191.34675 189.37546 188.39917 188.44988 189.27159 190.56629
 192.27800 194.35971 196.60942 198.95513 201.38684 203.85354 205.92825 207.75696
 209.36967 210.50138 210.71709 210.93179 210.85550 210.54721 210.16692 209.78363
 209.38734 209.08405 208.87875 208.72946 208.64417 208.96188 209.33459 209.71030
 210.49000 211.65471 212.89142 214.66113 216.57584 218.60555 220.68725 222.75696
 224.80367 226.87438 228.95809 231.05080 233.16651 235.32521 237.56792 239.92463
 242.53234 244.77005 246.75876 248.51046 249.91417 251.02388 251.83259 252.13530
 252.15901 251.91972 251.26642 250.20113 248.79384 246.94155 244.83726 242.65697
 240.43467 238.22538 236.03209 233.85780 231.70451 229.55822 227.57092 225.71463
 223.98434 222.44305 221.05976 219.81847 218.68718 217.63388 216.72459 215.85230
 215.08101 214.24772 213.33243 212.68313 212.11984 213.23004 215.85301 218.25859
 219.59430 221.13942 222.74324 224.15663 225.35387 226.43387 228.13222 228.65515
 228.54332 229.44121 232.45982 236.87727 241.51021 246.00085 250.27745 254.28596
 257.91733 261.16284 264.02594 266.48618 268.84613 271.04880 272.76007 274.25250
 276.11209 277.88220 279.43130 280.79626 281.98566 283.04337 284.01154 284.89853
 285.71121 286.44577 287.09891 288.02112
 366.78100 356.32252 345.74204 334.59556 322.98608 311.16760 299.02512 286.81564
 274.51516 262.39968 250.39620 239.68472 229.79423 220.88575 213.05527 206.04479
 199.86631 194.79183 191.36135 189.39087 188.41539 188.46691 189.28943 190.58495
 192.29747 194.37999 196.63051 198.97703 201.40955 203.87707 205.95259 207.78211
 209.39563 210.52815 210.74467 210.96019 210.88470 210.57722 210.19774 209.81526
 209.41978 209.11730 208.91282 208.76434 208.67986 208.99838 209.37190 209.74842
 210.52894 211.69446 212.93198 214.70250 216.61802 218.64854 220.73106 222.80158
 224.84910 226.92062 229.00514 231.09866 233.21517 235.37469 237.61821 239.97573
 242.58425 244.82277 246.81229 248.56481 249.96933 251.07985 251.88937 252.19289
 252.21741 251.97893 251.32645 250.26197 248.85549 247.00401 244.90053 242.72105
 240.49957 238.29109 236.09861 233.92513 231.77264 229.62716 227.64068 225.78520
 224.05572 222.51524 221.13276 219.89228 218.76180 217.70932 216.80084 215.92936
 215.15888 214.32640 213.41192 212.76344 212.20096 213.29301 215.87311 218.28766
 219.69368 221.27481 222.88451 224.26912 225.42213 226.45859 228.04359 228.38077
 228.25261 229.30350 232.36227 236.80948 241.46301 245.95618 250.23404 254.23657
 257.86557 261.12198 264.00232 266.47986 268.84283 271.03638 272.74020 274.29175
 276.12201 277.89862 279.45605 280.82458 282.01569 283.07413 284.04269 284.93109
 285.74435 286.48123 287.13168 288.06168
 366.78100 356.32334 345.74368 334.59802 322.98937 311.17171 299.03005 286.82139
 274.52173 262.40707 250.40442 239.69376 229.80410 220.89644 213.06678 206.05712
 199.87947 194.80581 191.37615 189.40649 188.43183 188.48417 189.30751 190.60386
 192.31720 194.40054 196.65188 198.99922 201.43256 203.90091 205.97725 207.80759
 209.42193 210.55527 210.77261 210.98896 210.91430 210.60764 210.22898 209.84732
 209.45266 209.15100 208.94735 208.79969 208.71603 209.03537 209.40971 209.78705
 210.56840 211.73474 212.97308 214.74442 216.66076 218.69210 220.77544 222.84679
 224.89513 226.96747 229.05281 231.14715 233.26449 235.42484 237.66918 240.02752
 242.63686 244.87620 246.86654 248.61989 250.02523 251.13657 251.94691 252.25125
 252.27659 252.03893 251.38728 250.32362 248.91796 247.06730 244.96464 242.78598
 240.56533 238.35767 236.16601 233.99335 231.84169 229.69703 227.71138 225.85672
 224.12806 222.58840 221.20674 219.96708 218.83742 217.78577 216.87811 216.00745
 215.23779 214.40613 213.49247 212.84482 212.28316 213.35626 215.89156 218.31422
 219.78368 221.40691 223.02509 224.38792 225.49377 226.49008 227.95984 228.11043
 227.97487 229.18491 232.27623 236.74275 241.41396 245.90955 250.18843 254.18407
 257.80936 261.07666 263.97806 266.48050 268.84393 271.02094 272.70670 274.25623
 276.14920 277.93259 279.48941 280.85931 282.04871 283.10849 284.07907 284.96494
 285.77728 286.51584 287.16486 288.09424
 366.78100 356.32407 345.74514 334.60021 322.99228 311.17534 299.03441 286.82648
 274.52755 262.41362 250.41169 239.70176 229.81283 220.90590 213.07697 206.06803
 199.89110 194.81817 191.38924 189.42031 188.44638 188.49945 189.32352 190.62059
 192.33466 194.41872 196.67079 199.01886 201.45293 203.92200 205.99907 207.83014
 209.44521 210.57928 210.79734 211.01441 210.94048 210.63455 210.25662 209.87569
 209.48176 209.18083 208.97790 208.83097 208.74803 209.06810 209.44317 209.82124
 210.60331 211.77038 213.00945 214.78152 216.69859 218.73065 220.81472 222.88679
 224.93586 227.00893 229.09500 231.19007 233.30814 235.46921 237.71428 240.07334
 242.68341 244.92348 246.91455 248.66862 250.07469 251.18676 251.99783 252.30290
 252.32897 252.09203 251.44110 250.37817 248.97324 247.12331 245.02138 242.84345
 240.62352 238.41659 236.22565 234.05372 231.90279 229.75886 227.77393 225.92000
 224.19207 222.65314 221.27221 220.03328 218.90434 217.85341 216.94648 216.07655
 215.30762 214.47669 213.56376 212.91683 212.35590 213.41518 215.91785 218.33705
 219.87459 221.54134 223.17055 224.51595 225.55904 226.51457 227.86179 227.84180
 227.71210 229.06978 232.20349 236.68376 241.36502 245.86372 250.14603 254.13884
 257.76294 261.04092 263.96362 266.48654 268.83902 270.97861 272.62772 274.29858
 276.18451 277.96475 279.52124 280.89093 282.08084 283.14124 284.11011 284.99750
 285.81064 286.54852 287.19974 288.12256
 366.78100 356.32488 345.74677 334.60265 322.99553 311.17942 299.03930 286.83218
 274.53407 262.42095 250.41983 239.71071 229.82260 220.91648 213.08836 206.08025
 199.90413 194.83201 191.40390 189.43578 188.46266 188.51655 189.34143 190.63931
 192.35420 194.43908 196.69196 199.04085 201.47573 203.94561 206.02350 207.85538
 209.47126 210.60614 210.82503 211.04291 210.96979 210.66468 210.28756 209.90744
 209.51433 209.21421 209.01209 208.86598 208.78386 209.10474 209.48063 209.85951
 210.64239 211.81028 213.05016 214.82304 216.74092 218.77381 220.85869 222.93157
 224.98146 227.05534 229.14222 231.23811 233.35699 235.51887 237.76476 240.12464
 242.73552 244.97641 246.96829 248.72317 250.13006 251.24294 252.05482 252.36070
 252.38759 252.15147 251.50135 250.43924 249.03512 247.18600 245.08489 242.90777
 240.68865 238.48254 236.29242 234.12130 231.97119 229.82807 227.84395 225.99084
 224.26372 222.72560 221.34549 220.10737 218.97925 217.92913 217.02302 216.15390
 215.38578 214.55567 213.64355 212.99743 212.43732 213.47910 215.94040 218.34167
 219.96581 221.67612 223.30339 224.63434 225.64839 226.57397 227.77478 227.54427
 227.42442 228.98007 232.14079 236.62018 241.31099 245.81259 250.09962 254.08820
 257.70715 260.99292 263.93469 266.48654 268.83679 270.95398 272.60065 274.34158
 276.21347 277.99570 279.55545 280.92737 282.11938 283.17963 284.14960 285.03574
 285.84869 286.58746 287.23560 288.16852
 366.78100 356.32581 345.74862 334.60543 322.99924 311.18406 299.04487 286.83868
 274.54149 262.42930 250.42911 239.72092 229.83373 220.92854 213.10135 206.09417
 199.91898 194.84779 191.42060 189.45341 188.48122 188.53603 189.36184 190.66065
 192.37647 194.46228 196.71609 199.06590 201.50171 203.97252 206.05133 207.88414
 209.50095 210.63676 210.85658 211.07539 211.00320 210.69901 210.32282 209.94363
 209.55144 209.25225 209.05106 208.90588 208.82469 209.14650 209.52331 209.90312
 210.68693 211.85574 213.09655 214.87036 216.78917 218.82299 220.90880 222.98261
 225.03342 227.10823 229.19604 231.29285 233.41266 235.57547 237.82229 240.18310
 242.79491 245.03672 247.02953 248.78534 250.19315 251.30696 252.11977 252.42658
 252.45440 252.21921 251.57002 250.50883 249.10564 247.25745 245.15726 242.98107
 240.76288 238.55770 236.36851 234.19832 232.04913 229.90694 227.92375 226.07156
 224.34537 222.80818 221.42900 220.19181 219.06462 218.01543 217.11024 216.24205
 215.47486 214.64567 213.73448 213.08929 212.53011 213.54874 215.95534 218.36034
 220.03000 221.80417 223.46530 224.77104 225.69543 226.59738 227.70937 227.36813
 227.19073 228.79927 232.07286 236.57948 241.26498 245.77107 250.06110 254.04198
 257.65472 260.94586 263.90695 266.48535 268.82379 270.90591 272.49863 274.21982
 276.21622 278.01437 279.57596 280.94925 282.14337 283.20490 284.17633 285.06339
 285.87387 286.60913 287.25735 288.18500
 366.78100 356.32680 345.75060 334.60840 323.00320 311.18900 299.05080 286.84560
 274.54940 262.43820 250.43900 239.73180 229.84561 220.94141 213.11521 206.10901
 199.93481 194.86461 191.43841 189.47221 188.50101 188.55681 189.38361 190.68341
 192.40021 194.48701 196.74181 199.09261 201.52941 204.00121 206.08101 207.91481
 209.53261 210.66941 210.89021 211.11002 211.03882 210.73562 210.36042 209.98222
 209.59102 209.29282 209.09262 208.94842 208.86822 209.19102 209.56882 209.94962
 210.73442 211.90422 213.14602 214.92082 216.84062 218.87542 220.96222 223.03702
 225.08882 227.16462 229.25343 231.35123 233.47203 235.63583 237.88363 240.24543
 242.85823 245.10103 247.09483 248.85163 250.26043 251.37523 252.18903 252.49683
 252.52563 252.29143 251.64323 250.58303 249.18083 247.33363 245.23443 243.05923
 240.84203 238.63784 236.44964 234.28044 232.13224 229.99104 228.00884 226.15764
 224.43244 222.89624 221.51804 220.28184 219.15564 218.10744 217.20324 216.33604
 215.56984 214.74164 213.83144 213.18724 212.62904 213.62061 215.96326 218.39110
 220.09129 221.92543 223.62683 224.90105 225.73112 226.58945 227.61919 227.22508
 227.00404 228.62958 232.01567 236.54628 241.22079 245.72913 250.01953 253.99339
 257.60220 260.90146 263.88437 266.49042 268.81693 270.86780 272.52368 274.35681
 276.22513 278.01718 279.58688 280.96420 282.16171 283.22406 284.19495 285.08246
 285.89404 286.62863 287.27411 288.20337
 366.78100 356.32758 345.75216 334.61074 323.00632 311.19290 299.05548 286.85106
 274.55564 262.44522 250.44680 239.74038 229.85496 220.95154 213.12612 206.12070
 199.94728 194.87786 191.45244 189.48702 188.51660 188.57318 189.40076 190.70134
 192.41892 194.50650 196.76208 199.11366 201.55124 204.02382 206.10440 207.93898
 209.55757 210.69515 210.91673 211.13731 211.06689 210.76447 210.39005 210.01263
 209.62221 209.32479 209.12537 208.98195 208.90253 209.22611 209.60469 209.98627
 210.77185 211.94243 213.18501 214.96059 216.88117 218.91675 221.00433 223.07991
 225.13249 227.20907 229.29865 231.39723 233.51881 235.68339 237.93197 240.29455
 242.90813 245.15171 247.14629 248.90387 250.31345 251.42903 252.24361 252.55219
 252.58177 252.34835 251.70093 250.64151 249.24009 247.39367 245.29525 243.12083
 240.90441 238.70099 236.51357 234.34515 232.19773 230.05731 228.07589 226.22547
 224.50105 222.96563 221.58821 220.35279 219.22737 218.17995 217.27654 216.41012
 215.64470 214.81728 213.90786 213.26444 212.70702 213.67986 215.97827 218.40926
 220.16502 222.02119 223.75267 225.02765 225.80688 226.60579 227.52748 227.09114
 226.84554 228.49377 231.96880 236.51390 241.17613 245.68205 249.96986 253.93575
 257.53751 260.83990 263.83673 266.46030 268.76144 270.77426 272.53882 274.48080
 276.24274 278.02277 279.59500 280.97559 282.17416 283.23752 284.20920 285.09665
 285.90604 286.63953 287.28473 288.21402
 366.78100 356.32813 345.75325 334.61238 323.00850 311.19563 299.05875 286.85488
 274.56000 262.45013 250.45225 239.74638 229.86150 220.95863 213.13375 206.12888
 199.95600 194.88713 191.46225 189.49738 188.52750 188.58463 189.41275 190.71388
 192.43200 194.52013 196.77625 199.12838 201.56650 204.03963 206.12075 207.95588
 209.57500 210.71313 210.93525 211.15638 211.08650 210.78463 210.41075 210.03388
 209.64400 209.34713 209.14825 209.00538 208.92650 209.25063 209.62975 210.01188
 210.79800 211.96913 213.21225 214.98838 216.90950 218.94563 221.03375 223.10988
 225.16300 227.24013 229.33025 231.42938 233.55150 235.71663 237.96575 240.32888
 242.94300 245.18713 247.18225 248.94038 250.35050 251.46663 252.28175 252.59088
 252.62100 252.38813 251.74125 250.68238 249.28150 247.43563 245.33775 243.16388
 240.94800 238.74513 236.55825 234.39038 232.24350 230.10363 228.12275 226.27288
 224.54900 223.01413 221.63725 220.40238 219.27750 218.23063 217.32775 216.46188
 215.69700 214.87013 213.96126 213.31838 212.76151 213.72684 216.00752 218.42462
 220.25694 222.09914 223.82982 225.13225 225.90245 226.64386 227.43544 226.95097
 226.69876 228.39037 231.93675 236.48735 241.13747 245.64026 249.92757 253.88873
 257.48697 260.79605 263.81473 266.47153 268.77618 270.76462 272.38876 274.25674
 276.27600 278.07193 279.63083 281.00244 282.19446 283.25333 284.22226 285.10806
 285.91553 286.64691 287.29593 288.21930
 366.78100 356.32895 345.75489 334.61484 323.01178 311.19973 299.06367 286.86062
 274.56656 262.45751 250.46045 239.75540 229.87134 220.96929 213.14523 206.14118
 199.96912 194.90107 191.47701 189.51296 188.54390 188.60185 189.43079 190.73274
 192.45168 194.54063 196.79757 199.15052 201.58946 204.06341 206.14535 207.98130
 209.60124 210.74019 210.96313 211.18508 211.11602 210.81497 210.44191 210.06586
 209.67680 209.38075 209.18269 209.04064 208.96258 209.28753 209.66747 210.05042
 210.83736 212.00931 213.25325 215.03020 216.95214 218.98909 221.07803 223.15498
 225.20892 227.28687 229.37781 231.47776 233.60070 235.76665 238.01659 240.38054
 242.99548 245.24043 247.23637 248.99532 250.40626 251.52321 252.33915 252.64910
 252.68004 252.44799 251.80193 250.74388 249.34382 247.49877 245.40171 243.22866
 241.01360 238.81155 236.62549 234.45844 232.31238 230.17333 228.19328 226.34422
 224.62117 223.08711 221.71106 220.47700 219.35295 218.30689 217.40484 216.53978
 215.77573 214.94967 214.04162 213.39956 212.84351 213.78720 216.01678 218.43289
 220.35880 222.19479 223.88802 225.21104 225.99782 226.69048 227.33447 226.79745
 226.55524 228.30490 231.91440 236.46478 241.10248 245.60289 249.89047 253.84874
 257.44141 260.75037 263.78012 266.45175 268.72949 270.68436 272.38708 274.26657
 276.26382 278.06464 279.62918 281.00308 282.19708 283.25629 284.22629 285.11136
 285.91995 286.64926 287.29688 288.22137
 366.78100 356.33010 345.75720 334.61830 323.01640 311.20550 299.07060 286.86870
 274.57580 262.46789 250.47199 239.76809 229.88519 220.98429 213.16139 206.15849
 199.98759 194.92069 191.49779 189.53489 188.56699 188.62609 189.45619 190.75929
 192.47939 194.56948 196.82758 199.18168 201.62178 204.09688 206.17998 208.01708
 209.63818 210.77828 211.00238 211.22548 211.15758 210.85768 210.48578 210.11088
 209.72298 209.42807 209.23117 209.09027 209.01337 209.33947 209.72057 210.10467
 210.89277 212.06587 213.31097 215.08907 217.01217 219.05027 221.14037 223.21847
 225.27357 227.35267 229.44476 231.54586 233.66996 235.83706 238.08816 240.45326
 243.06936 245.31546 247.31256 249.07266 250.48476 251.60286 252.41996 252.73106
 252.76316 252.53226 251.88735 250.83045 249.43155 247.58765 245.49175 243.31985
 241.10595 238.90505 236.72015 234.55425 232.40935 230.27145 228.29255 226.44465
 224.72275 223.18985 221.81494 220.58204 219.45914 218.41424 217.51334 216.64944
 215.88654 215.06164 214.15474 213.51384 212.95894 213.86540 216.00699 218.43431
 220.46030 222.31570 223.95917 225.27753 226.09628 226.75587 227.24127 226.64534
 226.41101 228.21342 231.88657 236.43652 241.06175 245.56032 249.84819 253.80325
 257.39163 260.70184 263.74512 266.43979 268.71085 270.62994 272.19452 274.29150
 276.32956 278.10022 279.64993 281.01578 282.20389 283.26022 284.22763 285.11325
 285.92044 286.65305 287.30310 288.22250
 366.78100 356.33109 345.75919 334.62128 323.02037 311.21047 299.07656 286.87565
 274.58375 262.47684 250.48193 239.77903 229.89712 220.99722 213.17531 206.17340
 200.00350 194.93759 191.51568 189.55378 188.58687 188.64696 189.47806 190.78215
 192.50324 194.59434 196.85343 199.20852 201.64962 204.12571 206.20980 208.04790
 209.66999 210.81109 211.03618 211.26027 211.19337 210.89446 210.52355 210.14965
 209.76274 209.46883 209.27293 209.13302 209.05711 209.38421 209.76630 210.15139
 210.94049 212.11458 213.36067 215.13977 217.06386 219.10296 221.19405 223.27314
 225.32924 227.40933 229.50242 231.60452 233.72961 235.89770 238.14980 240.51589
 243.13298 245.38008 247.37817 249.13926 250.55236 251.67145 252.48954 252.80164
 252.83473 252.60483 251.96092 250.90501 249.50711 247.66420 245.56929 243.39839
 241.18548 238.98557 236.80167 234.63676 232.49285 230.35595 228.37804 226.53113
 224.81023 223.27832 221.90441 220.67251 219.55060 218.50670 217.60679 216.74388
 215.98198 215.15807 214.25216 213.61226 213.05835 213.93372 216.00186 218.43669
 220.54514 222.42917 224.03410 225.33101 226.19119 226.83913 227.17557 226.52446
 226.28796 228.12306 231.85503 236.40698 241.02055 245.51479 249.79865 253.74695
 257.32910 260.63739 263.69220 266.41068 268.67670 270.56339 272.22885 274.33398
 276.33829 278.08929 279.63657 281.00269 282.18994 283.24591 284.21277 285.09720
 285.90646 286.64130 287.28900 288.20950
 366.78100 356.33174 345.76047 334.62321 323.02295 311.21368 299.08042 286.88016
 274.58889 262.48263 250.48837 239.78610 229.90484 221.00557 213.18431 206.18305
 200.01378 194.94852 191.52726 189.56599 188.59973 188.66047 189.49220 190.79694
 192.51868 194.61041 196.87015 199.22589 201.66762 204.14436 206.22910 208.06783
 209.69057 210.83230 211.05804 211.28278 211.21651 210.91825 210.54799 210.17472
 209.78846 209.49520 209.29993 209.16067 209.08541 209.41314 209.79588 210.18162
 210.97135 212.14609 213.39283 215.17256 217.09730 219.13703 221.22877 223.30851
 225.36524 227.44598 229.53972 231.64245 233.76819 235.93693 238.18966 240.55640
 243.17414 245.42187 247.42061 249.18235 250.59608 251.71582 252.53456 252.84729
 252.88103 252.65176 252.00850 250.95324 249.55597 247.71371 245.61945 243.44918
 241.23692 239.03766 236.85439 234.69013 232.54687 230.41060 228.43334 226.58708
 224.86681 223.33555 221.96229 220.73102 219.60976 218.56649 217.66723 216.80497
 216.04370 215.22044 214.31518 213.67591 213.12265 213.98279 216.01497 218.44992
 220.61485 222.51683 224.09479 225.36641 226.27473 226.93100 227.14680 226.44794
 226.19635 228.04230 231.82367 236.37941 240.98146 245.46808 249.74365 253.68112
 257.25220 260.55252 263.61005 266.33942 268.59671 270.46735 272.31613 274.29019
 276.29828 278.07019 279.61224 280.97495 282.15985 283.21487 284.18130 285.06470
 285.87167 286.60541 287.25198 288.17249
 366.78100 356.33217 345.76135 334.62452 323.02470 311.21587 299.08304 286.88322
 274.59239 262.48657 250.49274 239.79091 229.91009 221.01126 213.19044 206.18961
 200.02078 194.95596 191.53513 189.57431 188.60848 188.66965 189.50183 190.80700
 192.52918 194.62135 196.88152 199.23770 201.67987 204.15705 206.24222 208.08139
 209.70457 210.84674 211.07292 211.29809 211.23226 210.93444 210.56461 210.19178
 209.80596 209.51313 209.31831 209.17948 209.10465 209.43283 209.81600 210.20218
 210.99235 212.16752 213.41470 215.19487 217.12005 219.16022 221.25239 223.33257
 225.38974 227.47092 229.56509 231.66826 233.79444 235.96361 238.21679 240.58396
 243.20213 245.45031 247.44948 249.21166 250.62583 251.74600 252.56518 252.87835
 252.91253 252.68370 252.04087 250.98605 249.58922 247.74740 245.65357 243.48374
 241.27192 239.07309 236.89027 234.72644 232.58361 230.44779 228.47096 226.62514
 224.90531 223.37448 222.00166 220.77083 219.65001 218.60718 217.70835 216.84653
 216.08570 215.26288 214.35805 213.71922 213.16640 214.02007 216.03696 218.46915
 220.68092 222.58298 224.13132 225.38237 226.34181 227.02121 227.14803 226.40396
 226.12856 227.97629 231.79880 236.36063 240.95166 245.42586 249.68892 253.61302
 257.16913 260.45654 263.51270 266.25153 268.49557 270.34409 272.36337 274.22620
 276.24219 278.02396 279.56973 280.93292 282.11868 283.17136 284.13708 285.02121
 285.82553 286.55984 287.20752 288.12256
 366.78100 356.33263 345.76226 334.62589 323.02652 311.21815 299.08578 286.88641
 274.59604 262.49067 250.49730 239.79593 229.91556 221.01719 213.19682 206.19645
 200.02808 194.96371 191.54334 189.58297 188.61760 188.67923 189.51186 190.81749
 192.54012 194.63275 196.89338 199.25001 201.69264 204.17027 206.25590 208.09553
 209.71916 210.86179 211.08842 211.31405 211.24868 210.95131 210.58194 210.20957
 209.82420 209.53183 209.33746 209.19909 209.12472 209.45335 209.83698 210.22361
 211.01424 212.18987 213.43750 215.21813 217.14375 219.18438 221.27701 223.35764
 225.41527 227.49690 229.59153 231.69516 233.82179 235.99142 238.24505 240.61268
 243.23131 245.47994 247.47957 249.24220 250.65683 251.77746 252.59709 252.91072
 252.94535 252.71698 252.07461 251.02024 249.62387 247.78250 245.68913 243.51976
 241.30839 239.11002 236.92765 234.76428 232.62191 230.48654 228.51017 226.66480
 224.94543 223.41506 222.04269 220.81232 219.69195 218.64958 217.75121 216.88984
 216.12947 215.30710 214.40273 213.76436 213.21199 214.05739 216.05476 218.50050
 220.75256 222.64027 224.14734 225.37683 226.38907 227.10211 227.16689 226.37842
 226.07471 227.92130 231.77791 236.34694 240.92792 245.38617 249.63353 253.54269
 257.08270 260.35645 263.41379 266.17294 268.42029 270.24405 272.30112 274.16766
 276.18268 277.96252 279.50790 280.86942 282.05521 283.10880 284.07449 284.95862
 285.76346 286.49927 287.14581 288.05838
 366.78100 356.33307 345.76314 334.62722 323.02829 311.22036 299.08843 286.88951
 274.59958 262.49465 250.50172 239.80080 229.92087 221.02294 213.20301 206.20309
 200.03516 194.97123 191.55130 189.59138 188.62645 188.68852 189.52159 190.82767
 192.55074 194.64381 196.90488 199.26196 201.70503 204.18310 206.26917 208.10924
 209.73332 210.87639 211.10346 211.32953 211.26461 210.96768 210.59875 210.22682
 209.84190 209.54997 209.35604 209.21811 209.14419 209.47326 209.85733 210.24440
 211.03548 212.21155 213.45962 215.24069 217.16677 219.20784 221.30091 223.38198
 225.44005 227.52213 229.61720 231.72127 233.84834 236.01842 238.27249 240.64056
 243.25963 245.50871 247.50878 249.27185 250.68692 251.80800 252.62807 252.94214
 252.97721 252.74929 252.10736 251.05343 249.65750 247.81658 245.72365 243.55472
 241.34379 239.14587 236.96394 234.80101 232.65908 230.52415 228.54823 226.70330
 224.98437 223.45444 222.08252 220.85259 219.73266 218.69073 217.79281 216.93188
 216.17195 215.35002 214.44610 213.80817 213.25624 214.09163 216.06531 218.53613
 220.83813 222.69078 224.14899 225.35649 226.41220 227.16873 227.19847 226.36591
 226.03175 227.87843 231.76373 236.34154 240.91301 245.35312 249.58109 253.47430
 256.99725 260.25531 263.31055 266.08957 268.34601 270.16400 272.23621 274.10010
 276.10843 277.88071 279.42319 280.78632 281.97092 283.02576 283.99335 284.87604
 285.68341 286.41785 287.06683 287.97458
 366.78100 356.33353 345.76406 334.62859 323.03012 311.22264 299.09117 286.89270
 274.60323 262.49876 250.50629 239.80582 229.92635 221.02888 213.20941 206.20993
 200.04246 194.97899 191.55952 189.60005 188.63558 188.69811 189.53164 190.83817
 192.56169 194.65522 196.91675 199.27428 201.71781 204.19634 206.28287 208.12340
 209.74793 210.89146 211.11898 211.34551 211.28104 210.98457 210.61610 210.24463
 209.86016 209.56869 209.37522 209.23774 209.16427 209.49380 209.87833 210.26586
 211.05739 212.23392 213.48245 215.26398 217.19051 219.23203 221.32556 223.40709
 225.46562 227.54815 229.64368 231.74821 233.87574 236.04627 238.30079 240.66932
 243.28885 245.53838 247.53891 249.30244 250.71797 251.83950 252.66003 252.97456
 253.01008 252.78261 252.14114 251.08767 249.69220 247.85173 245.75926 243.59079
 241.38032 239.18285 237.00137 234.83890 232.69743 230.56296 228.58749 226.74302
 225.02455 223.49508 222.12361 220.89413 219.77466 218.73319 217.83572 216.97525
 216.21578 215.39431 214.49084 213.85337 213.30190 214.12534 216.07079 218.57640
 220.92836 222.74583 224.13496 225.31955 226.42546 227.22713 227.23207 226.36046
 225.99889 227.84567 231.75375 236.34207 240.90549 245.32620 249.53412 253.41185
 256.91867 260.15680 263.20322 265.99802 268.26529 270.08420 272.16025 274.02078
 276.02594 277.78781 279.32837 280.69019 281.87695 282.93274 283.89926 284.78378
 285.59158 286.32648 286.97382 287.88138
 366.78100 356.33417 345.76534 334.63051 323.03268 311.22585 299.09503 286.89720
 274.60837 262.50454 250.51271 239.81288 229.93405 221.03722 213.21839 206.21956
 200.05273 194.98991 191.57108 189.61225 188.64842 188.71159 189.54576 190.85293
 192.57710 194.67127 196.93344 199.29161 201.73578 204.21496 206.30213 208.14330
 209.76847 210.91264 211.14081 211.36798 211.30415 211.00832 210.64049 210.26966
 209.88584 209.59501 209.40218 209.26535 209.19252 209.52269 209.90786 210.29603
 211.08820 212.26537 213.51454 215.29672 217.22389 219.26606 221.36023 223.44240
 225.50157 227.58474 229.68091 231.78608 233.91425 236.08542 238.34060 240.70977
 243.32994 245.58011 247.58128 249.34545 250.76162 251.88379 252.70496 253.02013
 253.05630 252.82947 252.18865 251.13582 249.74099 247.90116 245.80933 243.64150
 241.43167 239.23484 237.05401 234.89218 232.75135 230.61753 228.64270 226.79887
 225.08104 223.55221 222.18138 220.95255 219.83372 218.79289 217.89606 217.03623
 216.27741 215.45658 214.55375 213.91692 213.36609 214.16795 216.06244 218.63144
 221.02238 222.78218 224.12613 225.28014 226.41273 227.27391 227.27216 226.36002
 225.97110 227.81850 231.74742 236.34943 240.90543 245.30501 249.49260 253.35416
 256.84109 260.05380 263.08777 265.89999 268.18854 270.02332 272.07532 273.94131
 275.93741 277.67673 279.21503 280.57916 281.76669 282.82324 283.79086 284.67630
 285.48447 286.22079 286.87045 287.77374
 366.78100 356.33466 345.76632 334.63198 323.03464 311.22831 299.09797 286.90063
 274.61229 262.50895 250.51761 239.81827 229.93993 221.04359 213.22525 206.22692
 200.06058 194.99824 191.57990 189.62156 188.65822 188.72188 189.55654 190.86420
 192.58886 194.68353 196.94619 199.30485 201.74951 204.22917 206.31683 208.15849
 209.78415 210.92881 211.15747 211.38514 211.32180 211.02646 210.65912 210.28878
 209.90544 209.61510 209.42276 209.28642 209.21408 209.54475 209.93041 210.31907
 211.11173 212.28939 213.53905 215.32171 217.24937 219.29203 221.38669 223.46936
 225.52902 227.61268 229.70934 231.81500 233.94366 236.11532 238.37098 240.74064
 243.36130 245.61197 247.61363 249.37829 250.79495 251.91761 252.73927 253.05493
 253.09159 252.86525 252.22491 251.17258 249.77824 247.93890 245.84756 243.68022
 241.47088 239.27454 237.09420 234.93286 232.79252 230.65919 228.68485 226.84151
 225.12417 223.59583 222.22549 220.99715 219.87881 218.83847 217.94213 217.08280
 216.32446 215.50412 214.60178 213.96544 213.41510 214.20178 216.06042 218.67390
 221.14073 222.82285 224.07028 225.23436 226.42039 227.31815 227.30159 226.35799
 225.95201 227.80391 231.74606 236.36362 240.91443 245.29190 249.45767 253.30316
 256.76910 259.95471 262.97290 265.80145 268.11108 269.96442 272.01328 273.85861
 275.82428 277.55273 279.09113 280.45609 281.64551 282.70319 283.67197 284.55670
 285.36584 286.10229 286.75208 287.65140
 366.78100 356.33494 345.76687 334.63281 323.03575 311.22968 299.09962 286.90256
 274.61449 262.51143 250.52037 239.82130 229.94324 221.04718 213.22911 206.23105
 200.06499 195.00292 191.58486 189.62680 188.66373 188.72767 189.56261 190.87054
 192.59548 194.69042 196.95335 199.31229 201.75723 204.23717 206.32510 208.16704
 209.79298 210.93791 211.16685 211.39479 211.33172 211.03666 210.66960 210.29953
 209.91647 209.62641 209.43434 209.29828 209.22622 209.55715 209.94309 210.33203
 211.12496 212.30290 213.55284 215.33577 217.26371 219.30665 221.40158 223.48452
 225.54446 227.62839 229.72533 231.83127 233.96020 236.13214 238.38808 240.75801
 243.37895 245.62989 247.63182 249.39676 250.81370 251.93663 252.75857 253.07451
 253.11144 252.88538 252.24532 251.19325 249.79919 247.96013 245.86906 243.70200
 241.49294 239.29687 237.11681 234.95575 232.81569 230.68262 228.70856 226.86550
 225.14843 223.62037 222.25031 221.02224 219.90418 218.86412 217.96805 217.10899
 216.35093 215.53086 214.62880 213.99274 213.44267 214.22374 216.06911 218.70364
 221.25658 222.89745 224.03343 225.18140 226.40005 227.31750 227.30064 226.36478
 225.96049 227.80830 231.75150 236.38393 240.93199 245.28699 249.43016 253.25969
 256.70554 259.86188 262.86014 265.70212 268.03198 269.90765 271.96432 273.75415
 275.69220 277.42395 278.96338 280.32938 281.51892 282.57709 283.54593 284.43280
 285.24121 285.98026 286.63107 287.53012
 366.78100 356.33535 345.76770 334.63405 323.03740 311.23175 299.10211 286.90546
 274.61781 262.51516 250.52451 239.82586 229.94821 221.05256 213.23491 206.23726
 200.07161 195.00996 191.59232 189.63467 188.67202 188.73637 189.57172 190.88007
 192.60542 194.70077 196.96412 199.32347 201.76882 204.24917 206.33753 208.17988
 209.80623 210.95158 211.18093 211.40928 211.34663 211.05198 210.68533 210.31568
 209.93303 209.64338 209.45174 209.31609 209.24444 209.57579 209.96214 210.35149
 211.14484 212.32319 213.57354 215.35689 217.28524 219.32860 221.42395 223.50730
 225.56765 227.65200 229.74935 231.85570 233.98505 236.15740 238.41375 240.78410
 243.40545 245.65681 247.65916 249.42451 250.84186 251.96521 252.78756 253.10391
 253.14126 252.91561 252.27596 251.22431 249.83066 247.99202 245.90137 243.73472
 241.52607 239.33042 237.15077 234.99012 232.85047 230.71782 228.74417 226.90152
 225.18487 223.65723 222.28758 221.05993 219.94228 218.90263 218.00698 217.14833
 216.39068 215.57103 214.66938 214.03373 213.48409 214.25317 216.07025 218.73717
 221.36188 222.97780 224.01651 225.12109 226.34431 227.27254 227.27469 226.39696
 226.01094 227.83014 231.76082 236.40794 240.95433 245.28616 249.40668 253.22243
 256.64789 259.77032 262.74576 265.60715 267.96188 269.85614 271.88843 273.66812
 275.57190 277.29883 278.83832 280.20511 281.39478 282.45309 283.42303 284.30673
 285.11755 285.85672 286.51318 287.41211
 366.78100 356.33590 345.76880 334.63569 323.03959 311.23449 299.10539 286.90929
 274.62219 262.52008 250.52998 239.83188 229.95478 221.05968 213.24257 206.24547
 200.08037 195.01927 191.60217 189.64507 188.68296 188.74786 189.58376 190.89266
 192.61856 194.71445 196.97835 199.33825 201.78415 204.26505 206.35395 208.19684
 209.82374 210.96964 211.19954 211.42844 211.36633 211.07223 210.70613 210.33703
 209.95493 209.66583 209.47472 209.33962 209.26852 209.60042 209.98732 210.37721
 211.17111 212.35001 213.60091 215.38481 217.31371 219.35760 221.45350 223.53740
 225.59830 227.68320 229.78109 231.88799 234.01789 236.19079 238.44769 240.81859
 243.44048 245.69238 247.69528 249.46118 250.87908 252.00297 252.82587 253.14277
 253.18067 252.95557 252.31647 251.26536 249.87226 248.03416 245.94406 243.77796
 241.56985 239.37475 237.19565 235.03555 232.89645 230.76435 228.79124 226.94914
 225.23304 223.70594 222.33684 221.10973 219.99263 218.95353 218.05843 217.20033
 216.44323 215.62412 214.72302 214.08792 213.53882 214.28908 216.06165 218.77704
 221.46652 223.05589 224.01486 225.06430 226.27097 227.20663 227.23488 226.42307
 226.06337 227.85782 231.77386 236.43770 240.98631 245.29752 249.39824 253.20470
 256.61444 259.70413 262.64856 265.52310 267.89014 269.77591 271.83423 273.59857
 275.44995 277.17578 278.71475 280.08139 281.26965 282.32849 283.29602 284.18134
 284.99054 285.72824 286.38690 287.27258
 366.78100 356.33636 345.76971 334.63707 323.04142 311.23678 299.10813 286.91249
 274.62584 262.52420 250.53455 239.83691 229.96026 221.06562 213.24897 206.25233
 200.08768 195.02704 191.61039 189.65375 188.69210 188.75746 189.59381 190.90317
 192.62952 194.72588 196.99023 199.35059 201.79695 204.27830 206.36766 208.21101
 209.83837 210.98472 211.21508 211.44443 211.38279 211.08914 210.72350 210.35485
 209.97321 209.68456 209.49392 209.35927 209.28863 209.62098 210.00834 210.39869
 211.19305 212.37240 213.62376 215.40811 217.33747 219.38182 221.47818 223.56254
 225.62389 227.70925 229.80760 231.91496 234.04531 236.21867 238.47602 240.84738
 243.46973 245.72209 247.72544 249.49180 250.91015 252.03451 252.85786 253.17522
 253.21357 252.98893 252.35028 251.29964 249.90699 248.06935 245.97970 243.81406
 241.60641 239.41177 237.23313 235.07348 232.93484 230.80319 228.83055 226.98890
 225.27326 223.74661 222.37797 221.15132 220.03468 218.99603 218.10139 217.24374
 216.48710 215.66845 214.76781 214.13316 213.58452 214.31918 216.05490 218.81854
 221.56470 223.13763 224.03802 225.02684 226.19936 227.13345 227.19209 226.41618
 226.08244 227.87465 231.78506 236.46632 241.02196 245.31578 249.39912 253.19940
 256.59985 259.66339 262.58060 265.46237 267.86356 269.77859 271.71399 273.51065
 275.35126 277.05844 278.58899 279.95209 281.13928 282.19522 283.16046 284.04489
 284.84970 285.58383 286.23318 287.10898
 366.78100 356.33669 345.77038 334.63807 323.04276 311.23845 299.11013 286.91482
 274.62851 262.52720 250.53789 239.84058 229.96427 221.06996 213.25365 206.25734
 200.09302 195.03271 191.61640 189.66009 188.69878 188.76447 189.60116 190.91085
 192.63754 194.73423 196.99892 199.35960 201.80629 204.28798 206.37767 208.22136
 209.84905 210.99574 211.22643 211.45612 211.39481 211.10149 210.73618 210.36787
 209.98656 209.69825 209.50794 209.37363 209.30332 209.63601 210.02370 210.41439
 211.20907 212.38876 213.64045 215.42514 217.35483 219.39952 221.49621 223.58090
 225.64259 227.72828 229.82696 231.93465 234.06534 236.23903 238.49672 240.86841
 243.49110 245.74379 247.74748 249.51417 250.93286 252.05754 252.88123 253.19892
 253.23761 253.01330 252.37499 251.32468 249.93237 248.09506 246.00575 243.84043
 241.63312 239.43881 237.26050 235.10119 232.96288 230.83157 228.85926 227.01795
 225.30264 223.77633 222.40801 221.18170 220.06539 219.02708 218.13277 217.27546
 216.51915 215.70084 214.80053 214.16622 213.61790 214.34363 216.05826 218.85439
 221.65070 223.21472 224.06639 224.99916 226.13899 227.06252 227.13535 226.39194
 226.08958 227.88829 231.79439 236.49342 241.05659 245.33589 249.40450 253.20154
 256.59534 259.63373 262.51901 265.40509 267.84033 269.78641 271.59167 273.42438
 275.25400 276.94839 278.47403 279.83496 281.02039 282.07532 283.03845 283.92001
 284.72424 285.45288 286.09875 286.96362
 366.78100 356.33712 345.77123 334.63935 323.04446 311.24058 299.11269 286.91781
 274.63193 262.53104 250.54216 239.84527 229.96939 221.07550 213.25962 206.26374
 200.09985 195.03997 191.62408 189.66820 188.70731 188.77343 189.61055 190.92066
 192.64778 194.74489 197.01001 199.37112 201.81824 204.30035 206.39047 208.23459
 209.86270 211.00982 211.24093 211.47105 211.41016 211.11728 210.75240 210.38451
 210.00363 209.71574 209.52586 209.39197 209.32209 209.65521 210.04332 210.43444
 211.22955 212.40967 213.66178 215.44690 217.37702 219.42213 221.51925 223.60436
 225.66648 227.75259 229.85171 231.95983 234.09094 236.26506 238.52317 240.89529
 243.51840 245.77152 247.77564 249.54275 250.96187 252.08698 252.91110 253.22921
 253.26833 253.04444 252.40656 251.35668 249.96479 248.12791 246.03902 243.87414
 241.66725 239.47337 237.29549 235.13660 232.99872 230.86783 228.89595 227.05506
 225.34018 223.81430 222.44641 221.22053 220.10464 219.06676 218.17287 217.31599
 216.56011 215.74222 214.84234 214.20845 213.66057 214.37349 216.05783 218.88684
 221.74028 223.29306 224.09111 224.96286 226.07101 226.98434 227.07477 226.36534
 226.09462 227.90063 231.80243 236.51880 241.09476 245.36633 249.42332 253.21552
 256.60010 259.61249 262.46658 265.36038 267.82587 269.81503 271.50180 273.32986
 275.18222 276.83258 278.32809 279.67822 280.85974 281.91046 282.87146 283.74960
 284.54935 285.27628 285.91962 286.78073
 366.78100 356.33769 345.77239 334.64108 323.04678 311.24347 299.11617 286.92186
 274.63656 262.53625 250.54795 239.85164 229.97634 221.08303 213.26773 206.27242
 200.10912 195.04981 191.63451 189.67920 188.71890 188.78559 189.62329 190.93398
 192.66168 194.75937 197.02507 199.38676 201.83446 204.31715 206.40785 208.25254
 209.88124 211.02893 211.26063 211.49132 211.43102 211.13871 210.77441 210.40710
 210.02680 209.73949 209.55019 209.41688 209.34758 209.68127 210.06997 210.46166
 211.25736 212.43805 213.69075 215.47644 217.40714 219.45283 221.55052 223.63622
 225.69891 227.78561 229.88530 231.99400 234.12569 236.30039 238.55908 240.93178
 243.55547 245.80917 247.81386 249.58156 251.00125 252.12695 252.95164 253.27034
 253.31003 253.08673 252.44942 251.40012 250.00881 248.17251 246.08420 243.91990
 241.71359 239.52029 237.34298 235.18468 233.04737 230.91707 228.94576 227.10546
 225.39115 223.86585 222.49854 221.27324 220.15793 219.12063 218.22732 217.37102
 216.61571 215.79841 214.89910 214.26580 213.71849 214.41440 216.05856 218.89526
 221.83211 223.38892 224.12119 224.93248 226.00504 226.88255 226.97639 226.33200
 226.11754 227.93033 231.81825 236.54501 241.13152 245.39247 249.43919 253.23326
 256.61957 259.61392 262.43015 265.32022 267.80579 269.79965 271.52441 273.26236
 275.07401 276.72372 278.22586 279.57956 280.76331 281.81601 282.77603 283.65521
 284.45663 285.18747 285.83356 286.68860
 366.78100 356.33799 345.77298 334.64197 323.04796 311.24495 299.11794 286.92394
 274.63893 262.53892 250.55091 239.85490 229.97989 221.08688 213.27187 206.27686
 200.11385 195.05484 191.63983 189.68482 188.72482 188.79181 189.62980 190.94079
 192.66878 194.76677 197.03276 199.39475 201.84274 204.32573 206.41672 208.26171
 209.89070 211.03870 211.27069 211.50168 211.44167 211.14966 210.78565 210.41864
 210.03863 209.75162 209.56261 209.42960 209.36059 209.69458 210.08358 210.47557
 211.27156 212.45255 213.70554 215.49153 217.42252 219.46851 221.56650 223.65249
 225.71548 227.80247 229.90246 232.01146 234.14345 236.31844 238.57743 240.95042
 243.57441 245.82840 247.83339 249.60138 251.02137 252.14736 252.97235 253.29134
 253.33134 253.10833 252.47132 251.42231 250.03130 248.19529 246.10728 243.94327
 241.73726 239.54425 237.36724 235.20923 233.07223 230.94222 228.97121 227.13120
 225.41719 223.89218 222.52517 221.30016 220.18515 219.14814 218.25513 217.39912
 216.64411 215.82711 214.92810 214.29509 213.74808 214.43987 216.07428 218.90527
 221.85912 223.48050 224.22159 224.94562 225.93814 226.76495 226.85632 226.24872
 226.09305 227.94954 231.84337 236.58414 241.18680 245.45163 249.49101 253.27873
 256.64990 259.61432 262.40378 265.28693 267.74905 269.74414 271.54544 273.26074
 275.04114 276.63528 278.10370 279.44693 280.62833 281.67685 282.63632 283.51608
 284.33066 285.07730 285.72794 286.57672
 366.78100 356.33707 345.77114 334.63922 323.04429 311.24036 299.11243 286.91751
 274.63158 262.53065 250.54172 239.84480 229.96887 221.07494 213.25901 206.26309
 200.09916 195.03923 191.62330 189.66737 188.70645 188.77252 189.60959 190.91966
 192.64674 194.74381 197.00888 199.36995 201.81703 204.29910 206.38917 208.23324
 209.86132 211.00839 211.23946 211.46953 211.40860 211.11568 210.75075 210.38282
 210.00189 209.71397 209.52404 209.39011 209.32018 209.65326 210.04133 210.43240
 211.22747 212.40755 213.65962 215.44469 217.37476 219.41983 221.51691 223.60198
 225.66405 227.75012 229.84920 231.95727 234.08834 236.26241 238.52049 240.89256
 243.51563 245.76870 247.77277 249.53985 250.95892 252.08399 252.90806 253.22614
 253.26521 253.04128 252.40335 251.35343 249.96150 248.12457 246.03564 243.87072
 241.66379 239.46986 237.29193 235.13300 232.99508 230.86415 228.89222 227.05129
 225.33637 223.81044 222.44251 221.21658 220.10066 219.06273 218.16880 217.31187
 216.55595 215.73802 214.83809 214.20416 213.65623 214.40207 216.16417 218.88823
 221.87332 223.51414 224.22536 224.99588 226.02704 226.78949 226.76157 226.06503
 225.93095 227.88518 231.82431 236.60083 241.25377 245.55598 249.60287 253.40398
 256.80191 259.74826 262.43570 265.27054 267.72574 269.64670 271.37247 273.14978
 274.85739 276.48480 277.96045 279.29922 280.47852 281.53223 282.51120 283.40720
 284.20364 284.90405 285.51160 286.28726
 366.78100 356.33623 345.76945 334.63668 323.04090 311.23613 299.10735 286.91158
 274.62480 262.52303 250.53325 239.83548 229.95870 221.06393 213.24715 206.25038
 200.08561 195.02483 191.60806 189.65128 188.68951 188.75473 189.59096 190.90018
 192.62641 194.72263 196.98686 199.34708 201.79331 204.27453 206.36376 208.20699
 209.83421 210.98044 211.21066 211.43989 211.37811 211.08434 210.71856 210.34979
 209.96801 209.67924 209.48846 209.35369 209.28291 209.61514 210.00237 210.39259
 211.18682 212.36604 213.61727 215.40149 217.33072 219.37494 221.47117 223.55539
 225.61662 227.70184 229.80007 231.90729 234.03752 236.21075 238.46797 240.83920
 243.46142 245.71365 247.71687 249.48310 250.90132 252.02555 252.84877 253.16600
 253.20422 252.97945 252.34067 251.28990 249.89713 248.05935 245.96958 243.80380
 241.59603 239.40125 237.22248 235.06270 232.92393 230.79215 228.81938 226.97760
 225.26183 223.73505 222.36628 221.13951 220.02273 218.98396 218.08918 217.23141
 216.47463 215.65586 214.75508 214.12031 213.57153 214.36919 216.25662 218.87076
 221.84569 223.36298 224.13531 225.07408 226.20265 226.92812 226.69101 226.01440
 225.77565 227.75833 231.75804 236.58965 241.26648 245.61072 249.66193 253.49728
 256.92249 259.88263 262.52402 265.24860 267.65701 269.56625 271.30902 273.07343
 274.77036 276.35284 277.78784 279.07553 280.23349 281.28073 282.24927 283.12857
 283.86777 284.54321 285.13327 285.88522
 366.78100 356.33736 345.77173 334.64009 323.04545 311.24182 299.11418 286.91954
 274.63391 262.53327 250.54463 239.84800 229.97236 221.07872 213.26309 206.26745
 200.10381 195.04418 191.62854 189.67290 188.71227 188.77863 189.61599 190.92636
 192.65372 194.75108 197.01645 199.37781 201.82517 204.30754 206.39790 208.24226
 209.87063 211.01799 211.24935 211.47972 211.41908 211.12644 210.76181 210.39417
 210.01353 209.72590 209.53626 209.40262 209.33299 209.66635 210.05471 210.44608
 211.24144 212.42180 213.67417 215.45953 217.38989 219.43526 221.53262 223.61798
 225.68035 227.76671 229.86607 231.97444 234.10580 236.28016 238.53853 240.91089
 243.53425 245.78762 247.79198 249.55934 250.97871 252.10407 252.92843 253.24680
 253.28616 253.06252 252.42489 251.37525 249.98361 248.14698 246.05834 243.89370
 241.68707 239.49343 237.31579 235.15716 233.01952 230.88888 228.91725 227.07661
 225.36197 223.83634 222.46870 221.24306 220.12743 219.08979 218.19615 217.33952
 216.58388 215.76624 214.86661 214.23297 213.68533 214.43619 216.23651 219.01628
 221.73189 223.26350 224.22168 225.04352 226.09932 226.87469 226.78958 226.21255
 225.73911 227.68750 231.70036 236.54504 241.21631 245.51280 249.62340 253.46362
 256.87558 259.82642 262.54575 265.26782 267.69095 269.64264 271.32962 273.11462
 274.85056 276.40491 277.75986 278.98788 280.12549 281.17923 282.17178 283.06775
 283.88812 284.61868 285.25687 286.07019
 366.78100 356.33938 345.77576 334.64614 323.05352 311.25191 299.12629 286.93367
 274.65005 262.55143 250.56481 239.87019 229.99657 221.10495 213.29133 206.29772
 200.13610 195.07848 191.66486 189.71124 188.75262 188.82100 189.66038 190.97276
 192.70214 194.80153 197.06891 199.43229 201.88167 204.36605 206.45843 208.30481
 209.93519 211.08457 211.31795 211.55034 211.49172 211.20110 210.83848 210.47286
 210.09424 209.80862 209.62100 209.48938 209.42176 209.75715 210.14753 210.54091
 211.33829 212.52067 213.77505 215.56243 217.49481 219.54219 221.64157 223.72896
 225.79334 227.88172 229.98310 232.09348 234.22686 236.40324 238.66362 241.03800
 243.66338 245.91877 247.92515 249.69453 251.11591 252.24329 253.06967 253.39005
 253.43143 253.20981 252.57419 251.52658 250.13696 248.30234 246.21572 244.05310
 241.84848 239.65686 237.48124 235.32462 233.18900 231.06039 229.09077 227.25215
 225.53953 224.01591 222.65029 221.42667 220.31305 219.27743 218.38581 217.53120
 216.77758 215.96196 215.06434 214.43272 213.88710 214.54895 216.11263 219.06435
 221.85736 223.50002 224.36150 224.94359 225.79855 226.60446 226.86708 226.22388
 225.97260 227.81673 231.73865 236.51219 241.16963 245.53139 249.65334 253.46321
 256.83261 259.76395 262.50092 265.20645 267.62744 269.58578 271.35349 273.12036
 274.81155 276.30197 277.62457 278.85077 280.01367 281.05286 281.97778 282.81113
 283.59396 284.33569 284.98981 285.82339
 366.78100 356.33853 345.77405 334.64358 323.05010 311.24763 299.12115 286.92768
 274.64320 262.54373 250.55625 239.86078 229.98631 221.09383 213.27936 206.28488
 200.12241 195.06393 191.64946 189.69498 188.73551 188.80303 189.64156 190.95309
 192.68161 194.78014 197.04666 199.40919 201.85771 204.34124 206.43276 208.27829
 209.90781 211.05634 211.28887 211.52039 211.46092 211.16944 210.80597 210.43949
 210.06002 209.77354 209.58507 209.45259 209.38412 209.71864 210.10817 210.50070
 211.29722 212.47875 213.73227 215.51880 217.45032 219.49685 221.59537 223.68190
 225.74542 227.83295 229.93348 232.04300 234.17553 236.35105 238.61058 240.98410
 243.60863 245.86315 247.86868 249.63720 251.05773 252.18426 253.00978 253.32931
 253.36983 253.14736 252.51088 251.46241 250.07193 248.23646 246.14898 243.98551
 241.78004 239.58756 237.41109 235.25361 233.11714 230.98766 229.01719 227.17771
 225.46424 223.93976 222.57329 221.34882 220.23434 219.19787 218.30539 217.44992
 216.69544 215.87897 214.98049 214.34802 213.80154 214.51921 216.26208 219.01837
 221.79871 223.38641 224.16147 224.84102 225.87447 226.81235 226.86935 226.22527
 225.69287 227.65158 231.67104 236.45107 241.16481 245.59807 249.75444 253.57329
 256.93964 259.87070 262.57214 265.17673 267.50986 269.44391 271.20441 273.00702
 274.66913 276.14001 277.40640 278.56662 279.67679 280.70676 281.66083 282.58157
 283.41754 284.16199 284.81235 285.64111
 366.78100 356.33886 345.77471 334.64457 323.05142 311.24928 299.12313 286.92999
 274.64584 262.54670 250.55955 239.86441 229.99026 221.09812 213.28397 206.28983
 200.12768 195.06954 191.65539 189.70125 188.74210 188.80996 189.64881 190.96067
 192.68952 194.78838 197.05523 199.41809 201.86694 204.35080 206.44265 208.28851
 209.91836 211.06722 211.30007 211.53193 211.47278 211.18164 210.81849 210.45235
 210.07320 209.78706 209.59891 209.46677 209.39862 209.73348 210.12333 210.51619
 211.31304 212.49490 213.74875 215.53561 217.46746 219.51432 221.61317 223.70003
 225.76388 227.85174 229.95259 232.06245 234.19530 236.37116 238.63101 241.00487
 243.62972 245.88458 247.89043 249.65929 251.08014 252.20700 253.03285 253.35271
 253.39356 253.17142 252.53527 251.48713 250.09698 248.26184 246.17469 244.01155
 241.80640 239.61426 237.43811 235.28097 233.14482 231.01568 229.04553 227.20639
 225.49324 223.96910 222.60295 221.37881 220.26466 219.22852 218.33637 217.48123
 216.72708 215.91094 215.01279 214.38065 213.83450 214.55344 216.37794 219.06082
 221.68590 223.35110 224.29530 224.97890 225.97382 226.97157 226.94252 226.30862
 225.76717 227.72551 231.69682 236.41776 241.11823 245.56274 249.74458 253.59459
 256.97156 259.91428 262.65314 265.25842 267.53720 269.49374 271.23856 272.96201
 274.61603 275.91635 277.21704 278.60098 279.92725 281.14124 282.24884 283.25226
 284.15472 284.95834 285.66040 286.55508
 366.78100 356.34126 345.77951 334.65177 323.06103 311.26129 299.13754 286.94680
 274.66506 262.56832 250.58357 239.89083 230.01909 221.12934 213.31760 206.32586
 200.16612 195.11037 191.69863 189.74689 188.79014 188.86040 189.70166 191.01592
 192.74717 194.84843 197.11769 199.48295 201.93420 204.42046 206.51472 208.36297
 209.99523 211.14649 211.38175 211.61600 211.55926 211.27052 210.90977 210.54603
 210.16929 209.88555 209.69980 209.57006 209.50432 209.84158 210.23383 210.62909
 211.42835 212.61260 213.86886 215.65812 217.59238 219.64163 221.74289 223.83215
 225.89840 227.98866 230.09192 232.20418 234.33943 236.51769 238.77995 241.15621
 243.78346 246.04072 248.04898 249.82023 251.24349 252.37275 253.20101 253.52326
 253.56652 253.34678 252.71303 251.66729 250.27955 248.44681 246.36206 244.20132
 241.99858 239.80884 237.63509 235.48035 233.34661 231.21986 229.25212 227.41538
 225.70464 224.18289 222.81915 221.59741 220.48566 219.45192 218.56218 217.70944
 216.95769 216.14395 215.24821 214.61847 214.07472 214.69937 216.36722 219.06932
 221.78833 223.43307 224.46687 225.06198 225.88808 226.74794 227.03908 226.29128
 225.93669 227.77899 231.63312 236.36658 241.06917 245.49171 249.65984 253.49155
 256.87167 259.83691 262.63019 265.29926 267.59250 269.49442 271.20782 272.89328
 274.34610 275.71988 277.30365 278.94485 280.36517 281.62183 282.76831 283.80695
 284.74106 285.57294 286.29962 287.22571
 366.78100 356.34160 345.78020 334.65280 323.06240 311.26299 299.13959 286.94919
 274.66779 262.57139 250.58699 239.89459 230.02319 221.13379 213.32238 206.33098
 200.17158 195.11618 191.70478 189.75338 188.79698 188.86758 189.70918 191.02377
 192.75537 194.85697 197.12657 199.49217 201.94377 204.43037 206.52497 208.37356
 210.00616 211.15776 211.39336 211.62796 211.57156 211.28316 210.92276 210.55936
 210.18295 209.89955 209.71415 209.58475 209.51935 209.85695 210.24955 210.64515
 211.44475 212.62934 213.88594 215.67554 217.61014 219.65974 221.76134 223.85094
 225.91754 228.00814 230.11173 232.22433 234.35993 236.53853 238.80113 241.17773
 243.80533 246.06293 248.07153 249.84312 251.26672 252.39632 253.22492 253.54752
 253.59112 253.37172 252.73832 251.69292 250.30551 248.47311 246.38871 244.22831
 242.02591 239.83651 237.66311 235.50871 233.37530 231.24890 229.28150 227.44510
 225.73470 224.21330 222.84990 221.62850 220.51710 219.48369 218.59429 217.74189
 216.99049 216.17709 215.28169 214.65229 214.10889 214.75510 216.49261 219.03339
 221.75310 223.63150 224.79831 225.26578 225.87228 226.25017 226.99207 225.93129
 226.06448 228.12506 231.89658 236.47169 241.13148 245.58417 249.75682 253.52443
 256.81461 259.75696 262.51474 265.14880 267.41891 269.26254 271.09839 272.75446
 274.53088 276.57306 278.34027 279.89197 281.23486 282.42297 283.50693 284.48892
 285.37213 286.15863 286.84567 287.72128
 366.78100 356.33886 345.77472 334.64458 323.05143 311.24929 299.12315 286.93001
 274.64587 262.54673 250.55959 239.86444 229.99030 221.09816 213.28402 206.28988
 200.12774 195.06960 191.65545 189.70131 188.74217 188.81003 189.64889 190.96075
 192.68960 194.78846 197.05532 199.41818 201.86704 204.35090 206.44276 208.28861
 209.91847 211.06733 211.30019 211.53205 211.47291 211.18177 210.81862 210.45248
 210.07334 209.78720 209.59906 209.46692 209.39878 209.73363 210.12349 210.51635
 211.31321 212.49507 213.74893 215.53579 217.46764 219.51450 221.61336 223.70022
 225.76408 227.85194 229.95280 232.06265 234.19551 236.37137 238.63123 241.00509
 243.62995 245.88481 247.89066 249.65952 251.08038 252.20724 253.03310 253.35296
 253.39381 253.17167 252.53553 251.48739 250.09725 248.26211 246.17497 244.01182
 241.80668 239.61454 237.43840 235.28126 233.14512 231.01598 229.04583 227.20669
 225.49355 223.96941 222.60327 221.37913 220.26499 219.22884 218.33670 217.48156
 216.72742 215.91128 215.01314 214.38100 213.83485 214.65868 216.69283 218.96973
 221.55170 223.71286 225.03696 225.43335 225.82083 226.12566 226.57730 225.51105
 225.92824 228.20792 232.06052 236.64717 241.33167 245.83365 250.05074 253.86964
 257.19263 260.10208 262.74792 265.16470 267.17447 268.95950 271.14972 272.84430
 274.33801 275.61838 276.72632 277.69916 278.54108 279.28595 279.96555 280.58121
 281.13492 281.62802 282.05878 282.60773
 366.78100 356.34004 345.77708 334.64812 323.05616 311.25520 299.13024 286.93828
 274.65532 262.55735 250.57139 239.87743 230.00447 221.11351 213.30055 206.30759
 200.14663 195.08967 191.67671 189.72375 188.76579 188.83483 189.67487 190.98791
 192.71795 194.81799 197.08602 199.45006 201.90010 204.38514 206.47818 208.32522
 209.95626 211.10630 211.34034 211.57338 211.51542 211.22546 210.86350 210.49854
 210.12058 209.83562 209.64866 209.51770 209.45073 209.78677 210.17781 210.57185
 211.36989 212.55293 213.80797 215.59601 217.52905 219.57709 221.67713 223.76517
 225.83021 227.91925 230.02129 232.13233 234.26637 236.44340 238.70444 241.07948
 243.70552 245.96156 247.96860 249.73864 251.16068 252.28872 253.11576 253.43680
 253.47884 253.25788 252.62292 251.57596 250.18700 248.35304 246.26707 244.10511
 241.90115 239.71019 237.53523 235.37927 233.24431 231.11635 229.14739 227.30943
 225.59747 224.07451 222.70955 221.48659 220.37363 219.33867 218.44771 217.59374
 216.84078 216.02582 215.12886 214.49790 213.95294 214.72205 216.72270 219.02698
 221.40538 223.54951 224.95299 225.50627 225.98193 226.48586 226.63802 225.09351
 225.31535 227.82402 231.96854 236.67708 241.40001 245.94376 250.22261 254.12175
 257.56430 260.55209 263.21463 265.65305 267.68274 269.09564 270.97681 272.97980
 274.71832 276.20850 277.49799 278.63025 279.61014 280.47708 281.26807 281.98462
 282.62906 283.20297 283.70432 284.34323
 366.78100 356.34239 345.78177 334.65516 323.06554 311.26693 299.14432 286.95470
 274.67409 262.57847 250.59486 239.90325 230.03263 221.14402 213.33340 206.34279
 200.18417 195.12956 191.71895 189.76833 188.81272 188.88410 189.72649 191.04188
 192.77426 194.87665 197.14703 199.51342 201.96581 204.45319 206.54858 208.39796
 210.03135 211.18374 211.42012 211.65551 211.59989 211.31228 210.95266 210.59005
 210.21444 209.93182 209.74721 209.61859 209.55398 209.89237 210.28575 210.68214
 211.48252 212.66791 213.92530 215.71568 217.65107 219.70145 221.80384 223.89423
 225.96161 228.05300 230.15738 232.27077 234.40715 236.58654 238.84993 241.22731
 243.85570 246.11408 248.12347 249.89586 251.32024 252.45063 253.28001 253.60340
 253.64779 253.42917 252.79656 251.75194 250.36533 248.53372 246.45010 244.29049
 242.08887 239.90026 237.72765 235.57403 233.44142 231.31580 229.34919 227.51357
 225.80396 224.28335 222.92073 221.70012 220.58950 219.55689 218.66828 217.81666
 217.06605 216.25343 215.35882 214.73021 214.18759 214.82947 216.63771 219.10040
 221.49846 223.54108 224.77295 225.35669 226.00439 226.86601 226.96742 225.30896
 225.23929 227.62175 231.86502 236.58830 241.31186 245.84770 250.11079 253.98640
 257.41971 260.48932 263.34619 266.04132 268.40247 270.21997 271.33603 273.79480
 276.70633 279.20193 281.36151 283.25775 284.89877 286.35068 287.67532 288.87534
 289.95462 290.91574 291.75537 292.82535
 366.78100 356.34111 345.77922 334.65133 323.06045 311.26056 299.13667 286.94578
 274.66389 262.56700 250.58212 239.88923 230.01734 221.12745 213.31556 206.32367
 200.16378 195.10790 191.69601 189.74412 188.78723 188.85734 189.69845 191.01256
 192.74368 194.84479 197.11390 199.47901 201.93012 204.41623 206.51035 208.35846
 209.99057 211.14168 211.37679 211.61090 211.55401 211.26513 210.90424 210.54035
 210.16346 209.87957 209.69368 209.56379 209.49791 209.83502 210.22713 210.62224
 211.42135 212.60546 213.86158 215.65069 217.58480 219.63391 221.73502 223.82413
 225.89024 227.98036 230.08347 232.19558 234.33069 236.50880 238.77091 241.14702
 243.77414 246.03125 248.03936 249.81047 251.23358 252.36269 253.19081 253.51292
 253.55603 253.33614 252.70225 251.65636 250.26847 248.43559 246.35070 244.18981
 241.98692 239.79703 237.62314 235.46825 233.33437 231.20748 229.23959 227.40270
 225.69181 224.16992 222.80604 221.58415 220.47226 219.43837 218.54848 217.69559
 216.94370 216.12982 215.23393 214.60404 214.06015 214.77451 216.62628 219.04968
 221.50165 223.59433 224.74957 225.19168 225.75885 226.66237 226.66936 225.59529
 225.43463 227.55196 231.74559 236.48624 241.20195 245.73000 249.96486 253.80203
 257.18155 260.20261 263.05112 265.75040 268.17249 270.28934 272.19247 273.90652
 275.78284 277.67615 279.51001 281.15396 282.57669 283.83542 284.98383 286.02423
 286.95993 287.79318 288.52109 289.44873
 366.78100 356.33972 345.77645 334.64717 323.05490 311.25362 299.12835 286.93607
 274.65280 262.55452 250.56825 239.87397 230.00070 221.10942 213.29615 206.30287
 200.14160 195.08432 191.67105 189.71777 188.75950 188.82822 189.66795 190.98067
 192.71040 194.81012 197.07785 199.44157 201.89130 204.37602 206.46875 208.31547
 209.94620 211.09592 211.32965 211.56237 211.50410 211.21382 210.85155 210.48627
 210.10800 209.82272 209.63545 209.50417 209.43690 209.77262 210.16335 210.55707
 211.35480 212.53752 213.79225 215.57997 217.51270 219.56042 221.66015 223.74787
 225.81260 227.90132 230.00305 232.11377 234.24750 236.42422 238.68495 241.05967
 243.68540 245.94112 247.94785 249.71757 251.13930 252.26702 253.09375 253.41447
 253.45620 253.23492 252.59965 251.55237 250.16310 248.32882 246.24254 244.08027
 241.87599 239.68472 237.50944 235.35317 233.21789 231.08962 229.12034 227.28207
 225.56979 224.04652 222.68124 221.45797 220.34469 219.30942 218.41814 217.56387
 216.81059 215.99532 215.09804 214.46677 213.92149 214.71638 216.67323 218.98753
 221.35165 223.50128 224.88403 225.26360 225.50113 226.27589 226.64510 225.44806
 225.77380 227.69966 231.75726 236.51042 241.22180 245.76614 250.02693 253.88527
 257.25833 260.20676 262.95013 265.52872 267.84964 269.88797 271.80453 273.65073
 275.42139 277.17410 278.75171 280.15506 281.43182 282.58780 283.64246 284.59790
 285.45721 286.22244 286.89093 287.74286
 366.78100 356.33945 345.77591 334.64636 323.05382 311.25227 299.12673 286.93418
 274.65064 262.55209 250.56554 239.87100 229.99745 221.10591 213.29236 206.29882
 200.13727 195.07972 191.66618 189.71263 188.75409 188.82254 189.66200 190.97445
 192.70391 194.80336 197.07081 199.43427 201.88372 204.36818 206.46063 208.30709
 209.93754 211.08700 211.32045 211.55290 211.49436 211.20381 210.84127 210.47572
 210.09718 209.81163 209.62408 209.49254 209.42499 209.76045 210.15090 210.54436
 211.34181 212.52427 213.77872 215.56617 217.49863 219.54608 221.64554 223.73299
 225.79745 227.88590 229.98736 232.09781 234.23126 236.40772 238.66817 241.04263
 243.66808 245.92354 247.92999 249.69944 251.12090 252.24835 253.07481 253.39526
 253.43672 253.21517 252.57963 251.53208 250.14253 248.30799 246.22144 244.05890
 241.85435 239.66281 237.48726 235.33071 233.19517 231.06662 229.09708 227.25853
 225.54599 224.02244 222.65690 221.43335 220.31980 219.28426 218.39271 217.53817
 216.78462 215.96908 215.07153 214.43999 213.89444 214.71126 216.71120 219.00882
 221.23483 223.36809 224.93996 225.43382 225.60736 226.26251 226.40372 225.12674
 225.73970 227.80571 231.85205 236.57181 241.28169 245.82816 250.09381 253.95752
 257.32852 260.28497 263.01511 265.56729 267.82440 269.76663 271.65219 273.52139
 275.19757 276.76373 278.30673 279.70444 280.98047 282.16547 283.24658 284.22598
 285.10687 285.89130 286.57657 287.44983
 366.78100 356.33953 345.77606 334.64659 323.05412 311.25265 299.12718 286.93471
 274.65124 262.55277 250.56630 239.87183 229.99836 221.10689 213.29342 206.29995
 200.13848 195.08101 191.66754 189.71407 188.75560 188.82413 189.66366 190.97618
 192.70571 194.80524 197.07277 199.43630 201.88583 204.37036 206.46289 208.30942
 209.93995 211.08948 211.32301 211.55554 211.49707 211.20660 210.84413 210.47866
 210.10019 209.81472 209.62725 209.49578 209.42831 209.76384 210.15437 210.54790
 211.34543 212.52796 213.78249 215.57002 217.50255 219.55008 221.64961 223.73714
 225.80167 227.89020 229.99173 232.10226 234.23579 236.41232 238.67285 241.04738
 243.67291 245.92844 247.93497 249.70449 251.12602 252.25355 253.08008 253.40061
 253.44214 253.22067 252.58520 251.53773 250.14826 248.31379 246.22732 244.06485
 241.86038 239.66891 237.49344 235.33697 233.20150 231.07303 229.10356 227.26509
 225.55262 224.02915 222.66368 221.44021 220.32674 219.29127 218.39980 217.54533
 216.79186 215.97639 215.07892 214.44745 213.90198 214.72607 216.75581 219.04010
 221.18689 223.30066 224.98100 225.53386 225.75089 226.34448 226.25888 225.11978
 225.57480 227.85098 231.89154 236.58521 241.29567 245.84810 250.12375 254.00302
 257.34973 260.29352 263.04279 265.62320 267.89093 269.77975 271.61447 273.47043
 275.18774 276.80832 278.31427 279.73630 281.11975 282.35123 283.47476 284.49261
 285.40808 286.22327 286.93542 287.84299
 366.78100 356.33965 345.77629 334.64694 323.05459 311.25323 299.12788 286.93552
 274.65217 262.55382 250.56746 239.87311 229.99976 221.10840 213.29505 206.30170
 200.14034 195.08299 191.66963 189.71628 188.75793 188.82657 189.66622 190.97887
 192.70851 194.80816 197.07581 199.43945 201.88910 204.37374 206.46639 208.31304
 209.94368 211.09333 211.32698 211.55962 211.50127 211.21092 210.84856 210.48321
 210.10485 209.81950 209.63215 209.50079 209.43344 209.76909 210.15973 210.55338
 211.35102 212.53367 213.78832 215.57596 217.50861 219.55626 221.65590 223.74355
 225.80820 227.89684 229.99849 232.10913 234.24278 236.41943 238.68007 241.05472
 243.68037 245.93601 247.94266 249.71231 251.13395 252.26160 253.08824 253.40889
 253.45054 253.22918 252.59383 251.54648 250.15712 248.32277 246.23642 244.07406
 241.86971 239.67835 237.50300 235.34665 233.21129 231.08294 229.11359 227.27523
 225.56288 224.03953 222.67417 221.45082 220.33746 219.30211 218.41076 217.55640
 216.80305 215.98770 215.09034 214.45899 213.91364 214.75177 216.83327 219.03564
 221.19824 223.41536 225.00662 225.47462 225.78223 226.30219 226.30644 225.27412
 225.43002 227.76558 231.82193 236.51549 241.23978 245.80696 250.09618 253.97871
 257.35571 260.33273 263.08035 265.65451 267.89413 269.81647 271.66483 273.49716
 275.20499 277.02890 278.80573 280.46127 281.89401 283.16162 284.31812 285.36581
 286.30811 287.14725 287.88028 288.81445
 366.78100 356.34016 345.77731 334.64847 323.05662 311.25578 299.13093 286.93909
 274.65624 262.55840 250.57255 239.87871 230.00586 221.11502 213.30218 206.30933
 200.14849 195.09164 191.67880 189.72595 188.76811 188.83726 189.67742 190.99057
 192.72073 194.82088 197.08904 199.45320 201.90335 204.38851 206.48166 208.32882
 209.95997 211.11013 211.34428 211.57744 211.51959 211.22975 210.86790 210.50306
 210.12522 209.84037 209.65353 209.52268 209.45584 209.79199 210.18315 210.57730
 211.37546 212.55861 213.81377 215.60192 217.53508 219.58324 221.68339 223.77155
 225.83670 227.92586 230.02801 232.13917 234.27332 236.45048 238.71163 241.08679
 243.71294 245.96910 247.97626 249.74641 251.16857 252.29672 253.12388 253.44503
 253.48719 253.26634 252.63150 251.58465 250.19581 248.36196 246.27612 244.11428
 241.91043 239.71959 237.54474 235.38890 233.25405 231.12621 229.15736 227.31952
 225.60767 224.08483 222.71998 221.49714 220.38430 219.34945 218.45861 217.60476
 216.85192 216.03707 215.14023 214.50938 213.96454 214.79559 216.86592 219.01840
 221.19788 223.43755 224.95718 225.44394 225.70801 226.18399 226.43604 225.38564
 225.45430 227.72177 231.76106 236.45166 241.16728 245.73125 250.01707 253.87482
 257.25208 260.28915 263.13678 265.76895 268.06226 270.06345 271.93829 273.73529
 275.80765 277.72974 279.62274 281.28494 282.72345 283.99612 285.15729 286.20920
 287.15527 287.99777 288.73376 289.67169
 366.78100 356.33925 345.77549 334.64574 323.05299 311.25123 299.12548 286.93272
 274.64897 262.55022 250.56346 239.86871 229.99496 221.10320 213.28945 206.29569
 200.13394 195.07619 191.66243 189.70868 188.74993 188.81817 189.65742 190.96966
 192.69891 194.79816 197.06540 199.42865 201.87790 204.36214 206.45439 208.30063
 209.93088 211.08013 211.31337 211.54562 211.48687 211.19611 210.83336 210.46760
 210.08885 209.80310 209.61534 209.48359 209.41584 209.75108 210.14133 210.53457
 211.33182 212.51407 213.76831 215.55556 217.48781 219.53505 221.63430 223.72154
 225.78579 227.87404 229.97528 232.08553 234.21878 236.39502 238.65527 241.02951
 243.65476 245.91001 247.91625 249.68550 251.10675 252.23399 253.06024 253.38048
 253.42173 253.19998 252.56422 251.51647 250.12672 248.29196 246.20521 244.04246
 241.83770 239.64595 237.47019 235.31344 233.17769 231.04893 229.07918 227.24043
 225.52767 224.00392 222.63816 221.41441 220.30066 219.26490 218.37315 217.51840
 216.76464 215.94889 215.05113 214.41938 213.87363 214.75333 216.89380 219.01985
 221.00240 223.30894 224.95508 225.44478 225.56961 225.88750 226.17078 225.62595
 225.94801 228.03998 231.87738 236.46948 241.14799 245.68192 249.92293 253.73892
 257.11636 260.20178 263.08414 265.72549 268.06860 270.15356 272.13159 274.02896
 275.82458 277.55969 279.12195 280.56671 281.89337 283.06714 284.13803 285.10818
 285.98071 286.75772 287.43649 288.30151
 366.78100 356.33930 345.77560 334.64589 323.05319 311.25149 299.12579 286.93308
 274.64938 262.55068 250.56398 239.86927 229.99557 221.10387 213.29017 206.29647
 200.13476 195.07706 191.66336 189.70966 188.75095 188.81925 189.65855 190.97085
 192.70014 194.79944 197.06674 199.43004 201.87934 204.36363 206.45593 208.30223
 209.93253 211.08182 211.31512 211.54742 211.48872 211.19801 210.83531 210.46961
 210.09091 209.80521 209.61750 209.48580 209.41810 209.75340 210.14369 210.53699
 211.33429 212.51659 213.77088 215.55818 217.49048 219.53778 221.63708 223.72437
 225.78867 227.87697 229.97827 232.08856 234.22186 236.39816 238.65846 241.03275
 243.65805 245.91335 247.91965 249.68895 251.11024 252.23754 253.06384 253.38414
 253.42543 253.20373 252.56803 251.52033 250.13062 248.29592 246.20922 244.04652
 241.84182 239.65011 237.47441 235.31771 233.18201 231.05330 229.08360 227.24490
 225.53220 224.00849 222.64279 221.41909 220.30539 219.26969 218.37798 217.52328
 216.76958 215.95388 215.05617 214.42447 213.87877 214.74989 216.83832 219.14180
 220.83356 222.95769 224.97243 225.46602 225.47641 225.67789 226.14919 225.43927
 225.95663 227.81703 231.84206 236.46230 241.16045 245.70215 249.94394 253.74873
 257.10776 260.15720 263.01468 265.66708 268.04999 270.18799 272.19226 274.09799
 275.82959 277.34650 278.65417 279.83578 281.01187 282.06870 283.06964 284.03131
 284.89624 285.66644 286.33929 287.19675
 366.78100 356.33995 345.77689 334.64784 323.05579 311.25474 299.12968 286.93763
 274.65458 262.55653 250.57047 239.87642 230.00337 221.11231 213.29926 206.30621
 200.14516 195.08810 191.67505 189.72200 188.76395 188.83289 189.67284 190.98579
 192.71573 194.81568 197.08363 199.44758 201.89752 204.38247 206.47542 208.32236
 209.95331 211.10326 211.33721 211.57015 211.51210 211.22205 210.86000 210.49494
 210.11689 209.83184 209.64478 209.51373 209.44668 209.78263 210.17357 210.56752
 211.36547 212.54842 213.80336 215.59131 217.52426 219.57220 221.67215 223.76010
 225.82505 227.91399 230.01594 232.12689 234.26084 236.43778 238.69873 241.07368
 243.69962 245.95557 247.96252 249.73247 251.15441 252.28236 253.10931 253.43026
 253.47220 253.25115 252.61610 251.56904 250.17999 248.34594 246.25989 244.09783
 241.89378 239.70273 237.52767 235.37162 233.23657 231.10852 229.13946 227.30141
 225.58936 224.06631 222.70125 221.47820 220.36515 219.33009 218.43904 217.58499
 216.83194 216.01688 215.11983 214.48878 213.94373 214.78926 216.80031 219.14273
 220.98932 222.94612 224.81839 225.46967 225.48402 225.64658 225.99818 225.61198
 226.08572 227.80696 231.81619 236.43750 241.16638 245.73537 250.00688 253.83449
 257.17709 260.16934 262.97992 265.61606 268.00482 270.15347 272.17859 274.10474
 275.86234 277.40225 278.71759 279.81122 280.95490 281.96133 282.83728 283.74908
 284.63541 285.42468 286.11417 286.99286
 366.78100 356.33977 345.77654 334.64730 323.05507 311.25384 299.12861 286.93638
 274.65315 262.55491 250.56868 239.87445 230.00122 221.10999 213.29676 206.30352
 200.14229 195.08506 191.67183 189.71860 188.76037 188.82913 189.66890 190.98167
 192.71144 194.81121 197.07898 199.44274 201.89251 204.37728 206.47005 208.31682
 209.94758 211.09735 211.33112 211.56389 211.50566 211.21543 210.85319 210.48796
 210.10973 209.82450 209.63727 209.50604 209.43880 209.77457 210.16534 210.55911
 211.35688 212.53965 213.79441 215.58218 217.51495 219.56272 221.66249 223.75025
 225.81502 227.90379 230.00556 232.11633 234.25010 236.42686 238.68763 241.06240
 243.68817 245.94394 247.95071 249.72047 251.14224 252.27001 253.09678 253.41755
 253.45932 253.23808 252.60285 251.55562 250.16639 248.33216 246.24593 244.08369
 241.87946 239.68823 237.51300 235.35677 233.22153 231.09330 229.12407 227.28584
 225.57361 224.05038 222.68514 221.46191 220.34868 219.31345 218.42222 217.56799
 216.81475 215.99952 215.10229 214.47106 213.92583 214.79150 216.84010 219.07271
 221.08516 222.95175 224.75246 225.43311 225.37387 225.48676 225.86304 225.81470
 226.25789 227.91043 231.84116 236.44472 241.17352 245.75156 250.02760 253.86313
 257.20282 260.18494 262.99554 265.63895 268.03778 270.17847 272.18817 274.09842
 275.85153 277.39111 278.71405 279.85645 281.03915 282.10156 283.06268 283.92960
 284.74460 285.49356 286.14786 286.98169
 366.78100 356.34087 345.77874 334.65062 323.05949 311.25936 299.13523 286.94411
 274.66198 262.56485 250.57972 239.88659 230.01447 221.12434 213.31221 206.32008
 200.15996 195.10383 191.69170 189.73957 188.78244 188.85232 189.69319 191.00706
 192.73793 194.83881 197.10768 199.47255 201.92342 204.40930 206.50317 208.35104
 209.98291 211.13378 211.36866 211.60253 211.54540 211.25627 210.89515 210.53102
 210.15389 209.86976 209.68363 209.55351 209.48738 209.82425 210.21612 210.61100
 211.40987 212.59374 213.84961 215.63848 217.57236 219.62123 221.72210 223.81097
 225.87685 227.96672 230.06959 232.18146 234.31633 236.49421 238.75608 241.13195
 243.75882 246.01570 248.02357 249.79444 251.21731 252.34618 253.17406 253.49593
 253.53880 253.31867 252.68455 251.63842 250.25029 248.41716 246.33204 244.17091
 241.96778 239.77765 237.60352 235.44840 233.31427 231.18714 229.21901 227.38189
 225.67076 224.14863 222.78450 221.56237 220.45025 219.41612 218.52599 217.67286
 216.92074 216.10661 215.21048 214.58035 214.03622 214.85860 216.80156 219.09470
 221.09364 222.95810 224.80864 225.35263 225.19061 225.25969 225.71713 225.96790
 226.42781 228.06013 231.88669 236.47226 241.19270 245.76509 250.03468 253.86581
 257.19775 260.18762 263.01697 265.68356 268.09909 270.23575 272.23041 274.12445
 275.87146 277.42807 278.79169 279.96036 280.97086 282.02390 283.02655 283.92419
 284.71173 285.45145 286.09763 286.92114
 366.78100 356.34187 345.78073 334.65360 323.06346 311.26433 299.14120 286.95106
 274.66993 262.57379 250.58966 239.89753 230.02639 221.13726 213.32612 206.33499
 200.17586 195.12072 191.70959 189.75845 188.80232 188.87319 189.71505 191.02992
 192.76179 194.86365 197.13352 199.49938 201.95125 204.43812 206.53298 208.38185
 210.01471 211.16658 211.40245 211.63731 211.58118 211.29304 210.93291 210.56978
 210.19364 209.91051 209.72537 209.59624 209.53111 209.86897 210.26184 210.65770
 211.45757 212.64244 213.89930 215.68917 217.62403 219.67390 221.77577 223.86563
 225.93250 228.02336 230.12723 232.24010 234.37596 236.55483 238.81770 241.19456
 243.82243 246.08029 248.08916 249.86103 251.28489 252.41476 253.24362 253.56649
 253.61036 253.39122 252.75809 251.71295 250.32582 248.49369 246.40955 244.24942
 242.04728 239.85815 237.68502 235.53088 233.39775 231.27161 229.30448 227.46835
 225.75821 224.23708 222.87394 221.65281 220.54168 219.50854 218.61941 217.76727
 217.01614 216.20301 215.30787 214.67874 214.13560 214.91928 216.77081 219.12753
 221.06262 222.99857 224.83595 225.25056 225.04327 225.08136 225.56697 226.03081
 226.56087 228.21257 231.94345 236.51289 241.22397 245.78958 250.04613 253.88101
 257.21558 260.20715 263.04315 265.71478 268.12784 270.25742 272.24475 274.13162
 275.87943 277.45367 278.84134 280.06952 281.07935 282.10275 283.09406 283.99387
 284.77829 285.50363 286.15582 286.98697
 366.78100 356.34145 345.77990 334.65235 323.06181 311.26226 299.13871 286.94816
 274.66661 262.57006 250.58551 239.89296 230.02142 221.13187 213.32032 206.32877
 200.16922 195.11367 191.70212 189.75057 188.79403 188.86448 189.70593 191.02038
 192.75183 194.85328 197.12273 199.48819 201.93964 204.42609 206.52054 208.36899
 210.00144 211.15289 211.38834 211.62280 211.56625 211.27770 210.91715 210.55360
 210.17705 209.89350 209.70796 209.57841 209.51286 209.85031 210.24276 210.63821
 211.43766 212.62211 213.87857 215.66802 217.60247 219.65192 221.75337 223.84282
 225.90927 227.99972 230.10318 232.21563 234.35108 236.52953 238.79198 241.16843
 243.79588 246.05334 248.06179 249.83324 251.25669 252.38614 253.21459 253.53704
 253.58049 253.36095 252.72740 251.68185 250.29430 248.46175 246.37720 244.21665
 242.01411 239.82456 237.65101 235.49646 233.36291 231.23636 229.26881 227.43226
 225.72172 224.20017 222.83662 221.61507 220.50352 219.46997 218.58042 217.72787
 216.97633 216.16278 215.26723 214.63768 214.09413 214.90747 216.82907 219.10146
 221.04044 222.98805 224.76686 225.18803 224.97969 224.95242 225.39948 226.02861
 226.64098 228.32843 231.99728 236.55292 241.26279 245.82858 250.08260 253.92287
 257.26324 260.25702 263.09045 265.74820 268.14032 270.25641 272.23508 274.11267
 275.85886 277.44217 278.84647 280.10077 281.25751 282.31253 283.30048 284.21078
 285.02618 285.75021 286.38727 287.19910
 366.78100 356.34129 345.77958 334.65187 323.06116 311.26145 299.13775 286.94704
 274.66533 262.56862 250.58391 239.89120 230.01949 221.12978 213.31807 206.32636
 200.16666 195.11095 191.69924 189.74753 188.79082 188.86111 189.70240 191.01669
 192.74798 194.84927 197.11856 199.48386 201.93515 204.42144 206.51573 208.36402
 209.99631 211.14760 211.38289 211.61718 211.56047 211.27176 210.91106 210.54735
 210.17064 209.88693 209.70122 209.57151 209.50580 209.84309 210.23538 210.63067
 211.42997 212.61426 213.87055 215.65984 217.59413 219.64342 221.74471 223.83400
 225.90029 227.99058 230.09387 232.20617 234.34146 236.51975 238.78204 241.15833
 243.78562 246.04291 248.05120 249.82249 251.24578 252.37508 253.20337 253.52566
 253.56895 253.34924 252.71553 251.66982 250.28211 248.44940 246.36469 244.20398
 242.00128 239.81157 237.63786 235.48315 233.34944 231.22273 229.25502 227.41831
 225.70760 224.18589 222.82219 221.60048 220.48877 219.45506 218.56535 217.71264
 216.96093 216.14722 215.25151 214.62180 214.07809 214.90887 216.87170 219.08615
 221.02054 222.92357 224.68503 225.15834 224.91487 224.80545 225.22125 226.00002
 226.70847 228.44205 232.05542 236.59602 241.31177 245.88452 250.14070 253.98480
 257.32321 260.31598 263.14279 265.78613 268.15710 270.26471 272.23788 274.10388
 275.84277 277.41730 278.84106 280.17935 281.36496 282.42300 283.40338 284.30591
 285.12329 285.85480 286.49445 287.30957
 366.78100 356.34175 345.78050 334.65326 323.06301 311.26376 299.14051 286.95026
 274.66902 262.57277 250.58852 239.89627 230.02502 221.13578 213.32453 206.33328
 200.17403 195.11879 191.70754 189.75629 188.80004 188.87079 189.71255 191.02730
 192.75905 194.86080 197.13055 199.49631 201.94806 204.43481 206.52956 208.37831
 210.01107 211.16282 211.39857 211.63332 211.57707 211.28883 210.92858 210.56533
 210.18908 209.90583 209.72059 209.59134 209.52609 209.86384 210.25660 210.65235
 211.45210 212.63685 213.89360 215.68336 217.61811 219.66786 221.76961 223.85936
 225.92612 228.01687 230.12062 232.23337 234.36912 236.54788 238.81063 241.18738
 243.81513 246.07288 248.08164 249.85339 251.27714 252.40689 253.23564 253.55840
 253.60215 253.38290 252.74965 251.70440 250.31716 248.48491 246.40066 244.24041
 242.03817 239.84892 237.67567 235.52142 233.38817 231.26193 229.29468 227.45843
 225.74818 224.22693 222.86369 221.64244 220.53119 219.49794 218.60869 217.75645
 217.00520 216.19195 215.29670 214.66745 214.12421 214.94124 216.87155 219.10339
 221.01105 222.90805 224.63368 225.08414 224.78851 224.63599 225.07721 225.95354
 226.78201 228.57761 232.13411 236.66019 241.37837 245.95432 250.20616 254.04466
 257.38467 260.36993 263.18402 265.81537 268.17642 270.28561 272.26462 274.13516
 275.88324 277.47037 278.87393 280.14398 281.30267 282.35046 283.30939 284.19968
 285.01440 285.76627 286.43289 287.28244
 366.78100 356.34203 345.78106 334.65409 323.06412 311.26515 299.14218 286.95221
 274.67124 262.57527 250.59130 239.89933 230.02836 221.13939 213.32841 206.33744
 200.17847 195.12350 191.71253 189.76156 188.80559 188.87662 189.71865 191.03368
 192.76571 194.86774 197.13777 199.50380 201.95583 204.44286 206.53789 208.38692
 210.01995 211.17198 211.40801 211.64304 211.58707 211.29910 210.93913 210.57616
 210.20018 209.91721 209.73224 209.60327 209.53830 209.87633 210.26936 210.66539
 211.46542 212.65045 213.90748 215.69751 217.63254 219.68257 221.78460 223.87463
 225.94166 228.03269 230.13672 232.24975 234.38578 236.56481 238.82784 241.20487
 243.83290 246.09093 248.09996 249.87198 251.29601 252.42604 253.25507 253.57810
 253.62213 253.40316 252.77019 251.72522 250.33825 248.50628 246.42231 244.26234
 242.06037 239.87140 237.69843 235.54446 233.41149 231.28552 229.31855 227.48258
 225.77261 224.25164 222.88867 221.66770 220.55673 219.52375 218.63478 217.78281
 217.03184 216.21887 215.32390 214.69493 214.15196 214.96468 216.88480 219.10214
 221.01430 222.94055 224.58115 224.96071 224.63762 224.48213 224.95674 225.89745
 226.83151 228.69258 232.22252 236.74260 241.45985 246.03221 250.27579 254.10143
 257.43866 260.42697 263.23187 265.84061 268.18625 270.29642 272.27924 274.15494
 275.91025 277.49289 278.87680 280.12085 281.28650 282.33408 283.29218 284.17450
 284.98846 285.73584 286.37613 287.18091
 366.78100 356.34207 345.78114 334.65421 323.06428 311.26535 299.14242 286.95249
 274.67156 262.57563 250.59169 239.89976 230.02883 221.13990 213.32897 206.33804
 200.17911 195.12418 191.71325 189.76232 188.80639 188.87746 189.71953 191.03460
 192.76667 194.86874 197.13881 199.50488 201.95694 204.44401 206.53908 208.38815
 210.02122 211.17329 211.40936 211.64443 211.58850 211.30057 210.94064 210.57771
 210.20178 209.91885 209.73392 209.60499 209.54006 209.87813 210.27119 210.66726
 211.46733 212.65240 213.90947 215.69954 217.63461 219.68468 221.78675 223.87682
 225.94389 228.03496 230.13903 232.25210 234.38817 236.56724 238.83031 241.20738
 243.83544 246.09351 248.10258 249.87465 251.29872 252.42879 253.25786 253.58093
 253.62500 253.40607 252.77314 251.72821 250.34128 248.50935 246.42542 244.26549
 242.06356 239.87463 237.70169 235.54776 233.41483 231.28890 229.32197 227.48604
 225.77611 224.25518 222.89225 221.67132 220.56039 219.52746 218.63853 217.78660
 217.03567 216.22274 215.32781 214.69888 214.15594 214.97604 216.91359 219.08560
 221.01431 222.95273 224.51018 224.83984 224.49988 224.33536 224.84254 225.83888
 226.84155 228.77229 232.31548 236.83746 241.55287 246.11707 250.35149 254.16698
 257.50015 260.48959 263.28787 265.87244 268.19955 270.31628 272.30954 274.19522
 275.95316 277.52710 278.90436 280.10471 281.20306 282.23904 283.19559 284.06641
 284.87839 285.61386 286.24643 287.03574
 366.78100 356.34210 345.78119 334.65429 323.06438 311.26548 299.14257 286.95267
 274.67177 262.57586 250.59196 239.90005 230.02915 221.14024 213.32934 206.33844
 200.17953 195.12463 191.71372 189.76282 188.80691 188.87801 189.72011 191.03520
 192.76730 194.86939 197.13949 199.50558 201.95768 204.44478 206.53987 208.38897
 210.02206 211.17416 211.41025 211.64535 211.58944 211.30154 210.94164 210.57873
 210.20283 209.91992 209.73502 209.60611 209.54121 209.87931 210.27240 210.66850
 211.46859 212.65369 213.91078 215.70088 217.63598 219.68607 221.78817 223.87826
 225.94536 228.03645 230.14055 232.25365 234.38974 236.56884 238.83193 241.20903
 243.83712 246.09522 248.10432 249.87641 251.30051 252.43060 253.25970 253.58279
 253.62689 253.40799 252.77508 251.73018 250.34327 248.51137 246.42746 244.26756
 242.06566 239.87675 237.70385 235.54994 233.41704 231.29113 229.32423 227.48833
 225.77842 224.25752 222.89461 221.67371 220.56280 219.52990 218.64100 217.78909
 217.03819 216.22528 215.33038 214.70147 214.15857 214.98647 216.94243 219.06795
 221.01457 222.94456 224.41887 224.72516 224.38876 224.19669 224.71161 225.77028
 226.84427 228.83839 232.41096 236.94043 241.65273 246.20886 250.43410 254.23956
 257.56674 260.55273 263.34244 265.90454 268.21515 270.33575 272.34076 274.23355
 275.98303 277.52933 278.87085 280.05133 281.16000 282.19962 283.15323 284.02368
 284.83093 285.56799 286.19922 286.98386
 366.78100 356.34219 345.78138 334.65457 323.06476 311.26595 299.14314 286.95333
 274.67252 262.57671 250.59290 239.90109 230.03028 221.14147 213.33066 206.33985
 200.18104 195.12623 191.71542 189.76461 188.80880 188.87999 189.72218 191.03737
 192.76956 194.87175 197.14194 199.50813 201.96032 204.44751 206.54270 208.39189
 210.02508 211.17727 211.41346 211.64866 211.59285 211.30504 210.94523 210.58242
 210.20661 209.92380 209.73899 209.61018 209.54537 209.88356 210.27675 210.67294
 211.47313 212.65832 213.91551 215.70570 217.64089 219.69108 221.79327 223.88346
 225.95065 228.04184 230.14603 232.25922 234.39541 236.57460 238.83779 241.21498
 243.84317 246.10136 248.11055 249.88274 251.30693 252.43712 253.26631 253.58950
 253.63369 253.41488 252.78207 251.73726 250.35045 248.51864 246.43483 244.27502
 242.07321 239.88440 237.71159 235.55778 233.42497 231.29916 229.33235 227.49654
 225.78673 224.26592 222.90311 221.68230 220.57149 219.53868 218.64987 217.79806
 217.04725 216.23444 215.33963 214.71082 214.16801 214.99968 216.96460 219.05576
 221.00172 222.92514 224.33990 224.61511 224.25890 224.03156 224.59782 225.71303
 226.81006 228.88554 232.52328 237.05887 241.76416 246.31047 250.52161 254.31357
 257.63052 260.61127 263.39243 265.93481 268.23422 270.35910 272.37619 274.27408
 276.01169 277.53851 278.86713 280.03046 281.07248 282.09122 283.04413 283.91455
 284.71881 285.45697 286.09158 286.88483
 366.78100 356.34249 345.78197 334.65546 323.06595 311.26743 299.14492 286.95540
 274.67489 262.57938 250.59586 239.90435 230.03384 221.14532 213.33481 206.34429
 200.18578 195.13127 191.72075 189.77024 188.81473 188.88621 189.72870 191.04419
 192.77667 194.87916 197.14964 199.51613 201.96862 204.45610 206.55159 208.40108
 210.03456 211.18705 211.42353 211.65902 211.60351 211.31599 210.95648 210.59397
 210.21845 209.93594 209.75143 209.62291 209.55840 209.89688 210.29037 210.68686
 211.48734 212.67283 213.93032 215.72080 217.65629 219.70677 221.80926 223.89975
 225.96723 228.05872 230.16321 232.27669 234.41318 236.59267 238.85615 241.23364
 243.86212 246.12061 248.13010 249.90258 251.32707 252.45756 253.28704 253.61053
 253.65501 253.43650 252.80399 251.75947 250.37296 248.54145 246.45793 244.29842
 242.09691 239.90839 237.73588 235.58236 233.44985 231.32434 229.35782 227.52231
 225.81280 224.29228 222.92977 221.70925 220.59874 219.56623 218.67771 217.82620
 217.07569 216.26317 215.36866 214.74015 214.19763 215.02354 216.97485 219.05984
 220.98277 222.87726 224.27260 224.55016 224.14688 223.80850 224.40387 225.69843
 226.85857 228.94707 232.64307 237.19098 241.88409 246.41579 250.60991 254.38475
 257.68964 260.66519 263.44128 265.96692 268.25589 270.38297 272.40759 274.30634
 276.02509 277.52069 278.80927 279.93927 281.01474 282.04871 283.00470 283.87741
 284.67975 285.41458 286.05219 286.84875
 366.78100 356.34304 345.78308 334.65712 323.06816 311.27019 299.14823 286.95927
 274.67931 262.58435 250.60139 239.91043 230.04047 221.15251 213.34255 206.35258
 200.19462 195.14066 191.73070 189.78074 188.82578 188.89782 189.74086 191.05690
 192.78994 194.89297 197.16401 199.53105 201.98409 204.47213 206.56817 208.41821
 210.05225 211.20529 211.44233 211.67836 211.62340 211.33644 210.97748 210.61552
 210.24056 209.95860 209.77464 209.64668 209.58272 209.92175 210.31579 210.71283
 211.51387 212.69991 213.95795 215.74899 217.68503 219.73607 221.83911 223.93014
 225.99818 228.09022 230.19526 232.30930 234.44634 236.62638 238.89042 241.26846
 243.89750 246.15653 248.16657 249.93961 251.36465 252.49569 253.32573 253.64977
 253.69481 253.47685 252.84489 251.80092 250.41496 248.58400 246.50104 244.34208
 242.14112 239.95316 237.78120 235.62824 233.49628 231.37131 229.40535 227.57039
 225.86143 224.34147 222.97951 221.75955 220.64959 219.61763 218.72967 217.87870
 217.12874 216.31678 215.42282 214.79486 214.25290 215.06186 216.97313 219.07289
 220.97791 222.80466 224.17000 224.50017 224.10616 223.65913 224.18495 225.49422
 226.80957 229.08229 232.80002 237.33208 242.01115 246.52513 250.69995 254.45714
 257.75037 260.72214 263.49561 266.00848 268.28696 270.41205 272.44165 274.33890
 276.03702 277.49905 278.75479 279.86642 280.94519 281.97836 282.93631 283.80750
 284.60889 285.34106 285.98419 286.77573
 366.78100 356.34363 345.78427 334.65890 323.07053 311.27316 299.15180 286.96343
 274.68406 262.58969 250.60733 239.91696 230.04759 221.16023 213.35086 206.36149
 200.20412 195.15076 191.74139 189.79202 188.83765 188.91029 189.75392 191.07055
 192.80419 194.90782 197.17945 199.54708 202.00072 204.48935 206.58598 208.43661
 210.07125 211.22488 211.46251 211.69914 211.64478 211.35841 211.00004 210.63868
 210.26431 209.98294 209.79957 209.67221 209.60884 209.94847 210.34310 210.74074
 211.54237 212.72900 213.98764 215.77927 217.71590 219.76753 221.87117 223.96280
 226.03143 228.12406 230.22970 232.34433 234.48196 236.66260 238.92723 241.30586
 243.93549 246.19513 248.20576 249.97939 251.40502 252.53666 253.36729 253.69192
 253.73756 253.52019 252.88882 251.84545 250.46009 248.62972 246.54735 244.38898
 242.18862 240.00125 237.82988 235.67752 233.54615 231.42178 229.45641 227.62205
 225.91368 224.39431 223.03294 221.81358 220.70421 219.67284 218.78547 217.93511
 217.18574 216.37437 215.48101 214.85364 214.31227 215.10356 216.97310 219.07455
 220.97836 222.74536 224.03981 224.39609 224.05412 223.58156 224.03448 225.27386
 226.69257 229.17119 232.95277 237.48140 242.14407 246.63649 250.79036 254.52913
 257.81003 260.77902 263.55222 266.05551 268.32257 270.44272 272.47424 274.36850
 276.04590 277.47736 278.70398 279.79782 280.87048 281.90500 282.86176 283.73438
 284.53323 285.26144 285.90149 286.69891
 366.78100 356.34408 345.78515 334.66023 323.07230 311.27538 299.15445 286.96653
 274.68761 262.59368 250.61176 239.92183 230.05291 221.16598 213.35706 206.36814
 200.21121 195.15829 191.74936 189.80044 188.84651 188.91959 189.76366 191.08074
 192.81482 194.91889 197.19097 199.55904 202.01312 204.50219 206.59927 208.45035
 210.08542 211.23950 211.47757 211.71465 211.66072 211.37480 211.01688 210.65595
 210.28203 210.00110 209.81818 209.69125 209.62833 209.96841 210.36348 210.76156
 211.56363 212.75071 214.00978 215.80186 217.73894 219.79101 221.89509 223.98716
 226.05624 228.14931 230.25539 232.37046 234.50854 236.68962 238.95469 241.33377
 243.96384 246.22392 248.23499 250.00907 251.43515 252.56722 253.39830 253.72337
 253.76945 253.55252 252.92160 251.87868 250.49375 248.66383 246.58190 244.42398
 242.22405 240.03713 237.86621 235.71428 233.58336 231.45943 229.49451 227.66058
 225.95266 224.43373 223.07281 221.85389 220.74496 219.71404 218.82711 217.97719
 217.22826 216.41734 215.52442 214.89749 214.35657 215.13766 216.98311 219.06093
 220.96890 222.71420 223.92574 224.25111 223.94586 223.49948 223.92818 225.09486
 226.56775 229.23148 233.10724 237.64041 242.28281 246.74991 250.88133 254.60037
 257.86725 260.83447 263.60901 266.10397 268.35831 270.47141 272.50330 274.39255
 276.05057 277.45438 278.65543 279.73511 280.80554 281.83899 282.79642 283.66983
 284.46744 285.19333 285.83386 286.63174
 366.78100 356.34445 345.78590 334.66135 323.07381 311.27726 299.15671 286.96916
 274.69061 262.59706 250.61551 239.92597 230.05742 221.17087 213.36232 206.37377
 200.21722 195.16468 191.75613 189.80758 188.85403 188.92748 189.77193 191.08938
 192.82384 194.92829 197.20074 199.56919 202.02364 204.51309 206.61054 208.46200
 210.09745 211.25190 211.49035 211.72780 211.67425 211.38871 211.03116 210.67061
 210.29706 210.01651 209.83396 209.70741 209.64487 209.98532 210.38077 210.77922
 211.58167 212.76912 214.02857 215.82103 217.75848 219.81093 221.91538 224.00783
 226.07728 228.17074 230.27719 232.39264 234.53109 236.71254 238.97799 241.35744
 243.98790 246.24835 248.25980 250.03425 251.46070 252.59315 253.42460 253.75006
 253.79651 253.57996 252.94941 251.90686 250.52231 248.69277 246.61122 244.45367
 242.25412 240.06757 237.89702 235.74547 233.61493 231.49138 229.52683 227.69328
 225.98573 224.46718 223.10663 221.88809 220.77954 219.74899 218.86244 218.01289
 217.26434 216.45380 215.56125 214.93470 214.39415 215.16690 216.99260 219.04755
 220.95531 222.68658 223.82980 224.10509 223.81013 223.38835 223.81442 224.94148
 226.47200 229.29243 233.26268 237.80534 242.42511 246.86598 250.97498 254.67448
 257.92715 260.89240 263.66797 266.15582 268.39886 270.50189 272.53259 274.41635
 276.05466 277.43228 278.61017 279.67926 280.75189 281.78397 282.74197 283.61493
 284.41177 285.13486 285.77151 286.58276
 366.78100 356.34489 345.78678 334.66267 323.07556 311.27945 299.15934 286.97223
 274.69412 262.60101 250.61990 239.93080 230.06269 221.17658 213.36847 206.38036
 200.22425 195.17214 191.76403 189.81592 188.86281 188.93670 189.78159 191.09948
 192.83437 194.93926 197.21215 199.58104 202.03593 204.52582 206.62371 208.47561
 210.11150 211.26639 211.50528 211.74317 211.69006 211.40495 211.04784 210.68773
 210.31462 210.03451 209.85240 209.72629 209.66418 210.00507 210.40096 210.79985
 211.60274 212.79063 214.05052 215.84342 217.78131 219.83420 221.93909 224.03198
 226.10187 228.19576 230.30265 232.41854 234.55743 236.73932 239.00521 241.38510
 244.01599 246.27688 248.28877 250.06366 251.49055 252.62344 253.45533 253.78123
 253.82812 253.61201 252.98190 251.93979 250.55568 248.72657 246.64546 244.48835
 242.28924 240.10313 237.93302 235.78191 233.65180 231.52869 229.56458 227.73147
 226.02436 224.50625 223.14614 221.92803 220.81993 219.78982 218.90371 218.05460
 217.30649 216.49638 215.60427 214.97816 214.43805 215.19843 216.99490 219.03816
 220.94704 222.65050 223.73688 223.96616 223.67079 223.26196 223.67778 224.79626
 226.40576 229.36136 233.41553 237.97221 242.56926 246.98389 251.07274 254.75272
 257.99084 260.95490 263.73233 266.21201 268.44171 270.53546 272.56107 274.44177
 276.06268 277.41901 278.57861 279.63959 280.70789 281.74081 282.69702 283.57034
 284.36533 285.08505 285.72202 286.53400
 366.78100 356.34535 345.78770 334.66405 323.07740 311.28175 299.16210 286.97545
 274.69779 262.60514 250.62449 239.93584 230.06819 221.18254 213.37489 206.38724
 200.23159 195.17994 191.77229 189.82464 188.87199 188.94634 189.79169 191.11003
 192.84538 194.95073 197.22408 199.59343 202.04878 204.53913 206.63748 208.48983
 210.12618 211.28153 211.52088 211.75923 211.70658 211.42193 211.06527 210.70562
 210.33297 210.05332 209.87167 209.74602 209.68437 210.02572 210.42207 210.82142
 211.62477 212.81312 214.07347 215.86682 217.80516 219.85851 221.96386 224.05721
 226.12756 228.22191 230.32926 232.44561 234.58496 236.76731 239.03366 241.41401
 244.04536 246.30671 248.31906 250.09440 251.52175 252.65510 253.48745 253.81380
 253.86115 253.64550 253.01585 251.97420 250.59055 248.76190 246.68125 244.52460
 242.32595 240.14030 237.97064 235.81999 233.69034 231.56769 229.60404 227.77139
 226.06474 224.54709 223.18744 221.96979 220.86214 219.83249 218.94684 218.09819
 217.35054 216.54088 215.64923 215.02358 214.48393 215.23151 216.99773 219.02664
 220.94153 222.61282 223.64389 223.82425 223.52267 223.12509 223.52397 224.65654
 226.35561 229.43948 233.57205 238.14139 242.71559 247.10538 251.17598 254.83632
 258.05930 261.01956 263.79852 266.27124 268.48776 270.57303 272.59549 274.46625
 276.07095 277.40671 278.55164 279.61002 280.67386 281.70538 282.66229 283.53366
 284.32730 285.04404 285.67661 286.49860
 366.78100 356.34569 345.78838 334.66508 323.07877 311.28346 299.16415 286.97784
 274.70054 262.60823 250.62792 239.93961 230.07230 221.18699 213.37969 206.39238
 200.23707 195.18576 191.77845 189.83115 188.87884 188.95353 189.79922 191.11791
 192.85361 194.95930 197.23299 199.60268 202.05837 204.54906 206.64776 208.50045
 210.13714 211.29283 211.53252 211.77122 211.71891 211.43460 211.07829 210.71898
 210.34668 210.06737 209.88606 209.76075 209.69944 210.04113 210.43783 210.83752
 211.64121 212.82990 214.09059 215.88429 217.82298 219.87667 221.98236 224.07605
 226.14675 228.24144 230.34913 232.46582 234.60551 236.78820 239.05490 241.43559
 244.06728 246.32897 248.34166 250.11736 251.54505 252.67874 253.51143 253.83812
 253.88582 253.67051 253.04120 251.99989 250.61658 248.78828 246.70797 244.55166
 242.35335 240.16804 237.99873 235.84843 233.71912 231.59681 229.63350 227.80119
 226.09489 224.57758 223.21827 222.00096 220.89365 219.86435 218.97904 218.13073
 217.38342 216.57411 215.68280 215.05750 214.51819 215.25720 217.00323 219.01677
 220.93520 222.57513 223.55067 223.67380 223.35928 222.97751 223.36467 224.52579
 226.31696 229.52727 233.73517 238.31049 242.86226 247.23055 251.28461 254.92580
 258.13425 261.09222 263.87305 266.33835 268.53479 270.57416 272.63928 274.50906
 276.10260 277.42316 278.55530 279.60202 280.64844 281.67590 282.63275 283.50360
 284.29504 285.00867 285.63843 286.45734
 366.78100 356.34593 345.78886 334.66580 323.07973 311.28466 299.16559 286.97953
 274.70246 262.61039 250.63032 239.94225 230.07519 221.19012 213.38305 206.39598
 200.24092 195.18985 191.78278 189.83571 188.88364 188.95858 189.80451 191.12344
 192.85937 194.96531 197.23924 199.60917 202.06510 204.55603 206.65497 208.50790
 210.14483 211.30076 211.54070 211.77963 211.72756 211.44349 211.08742 210.72836
 210.35629 210.07722 209.89615 209.77109 209.71002 210.05195 210.44888 210.84881
 211.65275 212.84168 214.10261 215.89654 217.83547 219.88941 221.99534 224.08927
 226.16020 228.25514 230.36307 232.48000 234.61993 236.80286 239.06980 241.45073
 244.08266 246.34459 248.35753 250.13346 251.56139 252.69532 253.52825 253.85519
 253.90312 253.68805 253.05898 252.01792 250.63485 248.80678 246.72671 244.57064
 242.37258 240.18751 238.01844 235.86837 233.73931 231.61724 229.65417 227.82210
 226.11603 224.59897 223.23990 222.02283 220.91576 219.88670 219.00163 218.15356
 217.40649 216.59742 215.70636 215.08129 214.54222 215.27367 217.00175 219.00896
 220.93031 222.54535 223.46811 223.52391 223.18031 222.80663 223.18945 224.39229
 226.28471 229.62506 233.90306 238.47983 243.01114 247.36208 251.40283 255.02634
 258.22198 261.17581 263.95657 266.41150 268.53278 270.61740 272.68503 274.55035
 276.14322 277.46359 278.58960 279.62112 280.63416 281.65546 282.60974 283.48013
 284.27075 284.98300 285.61307 286.42834
 366.78100 356.34633 345.78966 334.66699 323.08132 311.28665 299.16798 286.98232
 274.70565 262.61398 250.63431 239.94664 230.07997 221.19530 213.38863 206.40196
 200.24729 195.19662 191.78995 189.84328 188.89162 188.96695 189.81328 191.13261
 192.86894 194.97527 197.24960 199.61993 202.07626 204.56759 206.66692 208.52025
 210.15758 211.31392 211.55425 211.79358 211.74191 211.45824 211.10257 210.74390
 210.37223 210.09356 209.91289 209.78822 209.72755 210.06988 210.46722 210.86755
 211.67188 212.86121 214.12254 215.91687 217.85620 219.91053 222.01686 224.11119
 226.18252 228.27785 230.38618 232.50352 234.64385 236.82718 239.09451 241.47584
 244.10817 246.37050 248.38383 250.16016 251.58849 252.72282 253.55615 253.88348
 253.93182 253.71715 253.08848 252.04781 250.66514 248.83747 246.75780 244.60213
 242.40446 240.21979 238.05112 235.90145 233.77278 231.65112 229.68845 227.85678
 226.15111 224.63444 223.27577 222.05910 220.95243 219.92376 219.03909 218.19142
 217.44475 216.63608 215.74542 215.12075 214.58208 215.30013 216.99658 218.98993
 220.92487 222.52570 223.39943 223.38405 222.99408 222.60834 222.98764 224.24501
 226.25328 229.72900 234.07616 238.65535 243.17119 247.50842 251.53508 255.13835
 258.31863 261.26581 264.04422 266.48825 268.51584 270.68359 272.74152 274.58652
 276.18640 277.51648 278.64746 279.66269 280.64221 281.64639 282.59766 283.46744
 284.25760 284.96924 285.59973 286.41592
 366.78100 356.34689 345.79078 334.66866 323.08355 311.28944 299.17133 286.98621
 274.71010 262.61899 250.63988 239.95276 230.08665 221.20254 213.39643 206.41031
 200.25620 195.20609 191.79998 189.85386 188.90275 188.97864 189.82553 191.14541
 192.88230 194.98919 197.26408 199.63496 202.09185 204.58374 206.68363 208.53751
 210.17540 211.33229 211.57318 211.81306 211.76195 211.47884 211.12373 210.76561
 210.39450 210.11639 209.93628 209.81217 209.75205 210.09494 210.49283 210.89372
 211.69860 212.88849 214.15038 215.94527 217.88515 219.94004 222.04693 224.14182
 226.21370 228.30959 230.41848 232.53637 234.67725 236.86114 239.12903 241.51092
 244.14380 246.40669 248.42058 250.19747 251.62635 252.76124 253.59513 253.92302
 253.97190 253.75779 253.12968 252.08957 250.70745 248.88034 246.80123 244.64612
 242.44901 240.26489 238.09678 235.94767 233.81956 231.69844 229.73633 227.90522
 226.20011 224.68399 223.32588 222.10977 221.00366 219.97554 219.09143 218.24432
 217.49821 216.69009 215.79998 215.17587 214.63776 215.33920 216.99646 218.96075
 220.91142 222.50597 223.32747 223.24275 222.81262 222.40314 222.77081 224.09521
 226.22557 229.83200 234.24718 238.83710 243.34392 247.67181 251.68402 255.26247
 258.42490 261.36026 264.12946 266.56122 268.48911 270.74222 272.79291 274.61981
 276.22568 277.57074 278.71060 279.71991 280.67798 281.66855 282.61804 283.48737
 284.27686 284.98862 285.61783 286.42612
 366.78100 356.34735 345.79169 334.67004 323.08538 311.29173 299.17407 286.98942
 274.71376 262.62311 250.64445 239.95780 230.09215 221.20849 213.40284 206.41718
 200.26353 195.21387 191.80822 189.86256 188.91191 188.98826 189.83560 191.15595
 192.89329 195.00064 197.27598 199.64733 202.10467 204.59702 206.69736 208.55171
 210.19006 211.34740 211.58875 211.82909 211.77844 211.49578 211.14113 210.78347
 210.41282 210.13516 209.95551 209.83186 209.77220 210.11555 210.51389 210.91524
 211.72058 212.91093 214.17327 215.96862 217.90896 219.96431 222.07166 224.16700
 226.23935 228.33569 230.44504 232.56338 234.70473 236.88907 239.15742 241.53977
 244.17311 246.43646 248.45080 250.22815 251.65749 252.79284 253.62718 253.95553
 254.00487 253.79122 253.16357 252.12391 250.74226 248.91560 246.83695 244.68229
 242.48564 240.30198 238.13433 235.98567 233.85802 231.73737 229.77571 227.94506
 226.24040 224.72475 223.36709 222.15144 221.04578 220.01813 219.13448 218.28782
 217.54217 216.73451 215.84486 215.22120 214.68355 215.37132 216.99625 218.93423
 220.88972 222.48189 223.25888 223.09610 222.62532 222.19868 222.54938 223.94299
 226.20322 229.93571 234.41284 239.01378 243.52194 247.84755 251.84720 255.39766
 258.53955 261.45963 264.20633 266.62048 268.47888 270.76770 272.83688 274.64600
 276.25458 277.60886 278.75314 279.75717 280.72348 281.73282 282.68622 283.55786
 284.35065 285.06641 285.69885 286.50851
 366.78100 356.34758 345.79216 334.67074 323.08632 311.29290 299.17548 286.99106
 274.71564 262.62522 250.64680 239.96039 230.09497 221.21155 213.40613 206.42071
 200.26729 195.21787 191.81245 189.86703 188.91661 188.99319 189.84077 191.16135
 192.89893 195.00651 197.28209 199.65367 202.11125 204.60383 206.70441 208.55899
 210.19757 211.35516 211.59674 211.83732 211.78690 211.50448 211.15006 210.79264
 210.42222 210.14480 209.96538 209.84196 209.78254 210.12612 210.52470 210.92628
 211.73186 212.92244 214.18502 215.98060 217.92118 219.97676 222.08435 224.17993
 226.25251 228.34909 230.45867 232.57725 234.71883 236.90341 239.17199 241.55457
 244.18815 246.45173 248.46631 250.24389 251.67347 252.80905 253.64363 253.97221
 254.02179 253.80837 253.18095 252.14153 250.76012 248.93370 246.85528 244.70086
 242.50444 240.32102 238.15360 236.00518 233.87776 231.75734 229.79592 227.96550
 226.26108 224.74566 223.38824 222.17282 221.06740 220.03998 219.15656 218.31014
 217.56472 216.75731 215.86789 215.24447 214.70705 215.38718 216.99406 218.91393
 220.86913 222.45625 223.19661 222.95419 222.43799 221.98335 222.30638 223.78719
 226.19235 230.04240 234.57217 239.18532 243.69691 248.02744 252.02121 255.54634
 258.66721 261.56650 264.28296 266.66483 268.50937 270.81961 272.87540 274.67154
 276.27698 277.63666 278.77969 279.78619 280.78125 281.80307 282.75931 283.63336
 284.42834 285.14810 285.78577 286.60648
 366.78100 356.34769 345.79238 334.67106 323.08675 311.29344 299.17613 286.99182
 274.71650 262.62619 250.64788 239.96157 230.09625 221.21294 213.40763 206.42232
 200.26901 195.21969 191.81438 189.86907 188.91876 188.99545 189.84313 191.16382
 192.90151 195.00920 197.28489 199.65657 202.11426 204.60695 206.70764 208.56232
 210.20101 211.35870 211.60039 211.84108 211.79076 211.50845 211.15414 210.79683
 210.42652 210.14920 209.96989 209.84658 209.78727 210.13095 210.52964 210.93133
 211.73702 212.92771 214.19039 215.98608 217.92677 219.98246 222.09015 224.18583
 226.25852 228.35521 230.46490 232.58359 234.72527 236.90996 239.17865 241.56134
 244.19502 246.45871 248.47340 250.25109 251.68078 252.81646 253.65115 253.97984
 254.02953 253.81622 253.18890 252.14959 250.76828 248.94197 246.86366 244.70934
 242.51303 240.32972 238.16241 236.01409 233.88678 231.76647 229.80516 227.97485
 226.27053 224.75522 223.39791 222.18260 221.07729 220.04997 219.16666 218.32035
 217.57504 216.76773 215.87841 215.25510 214.71779 215.39392 216.99136 218.89658
 220.85014 222.44145 223.14351 222.80450 222.22168 221.74706 222.06874 223.62952
 226.17354 230.14729 234.73308 239.36137 243.88371 248.21344 252.19446 255.69875
 258.80679 261.69052 264.38092 266.72800 268.53635 270.84286 272.90399 274.70465
 276.29703 277.65765 278.79980 279.81171 280.82846 281.85425 282.81201 283.68719
 284.48672 285.21207 285.85349 286.68311
 366.78100 356.34779 345.79258 334.67136 323.08715 311.29394 299.17673 286.99252
 274.71731 262.62709 250.64888 239.96267 230.09746 221.21425 213.40904 206.42382
 200.27061 195.22140 191.81619 189.87098 188.92077 188.99755 189.84534 191.16613
 192.90392 195.01171 197.28750 199.65928 202.11707 204.60986 206.71065 208.56544
 210.20423 211.36201 211.60380 211.84459 211.79438 211.51217 211.15796 210.80074
 210.43053 210.15332 209.97411 209.85090 209.79168 210.13547 210.53426 210.93605
 211.74184 212.93263 214.19541 215.99120 217.93199 219.98778 222.09557 224.19136
 226.26414 228.36093 230.47072 232.58951 234.73130 236.91609 239.18487 241.56766
 244.20145 246.46524 248.48003 250.25782 251.68760 252.82339 253.65818 253.98697
 254.03676 253.82355 253.19633 252.15712 250.77591 248.94970 246.87149 244.71727
 242.52106 240.33785 238.17064 236.02243 233.89522 231.77500 229.81379 227.98358
 226.27937 224.76416 223.40695 222.19173 221.08652 220.05931 219.17610 218.32989
 217.58468 216.77746 215.88825 215.26504 214.72783 215.40076 216.99062 218.87961
 220.81737 222.41736 223.11403 222.67738 221.99937 221.48994 221.78314 223.47479
 226.18788 230.27303 234.91273 239.55359 244.07170 248.39247 252.35529 255.84119
 258.94681 261.81906 264.48727 266.80215 268.58319 270.85608 272.93860 274.74924
 276.33493 277.68497 278.81842 279.81143 280.84045 281.86807 282.82614 283.70264
 284.50479 285.23398 285.87900 286.71841
 366.78100 356.34796 345.79293 334.67189 323.08786 311.29482 299.17778 286.99375
 274.71871 262.62868 250.65064 239.96460 230.09957 221.21653 213.41149 206.42646
 200.27342 195.22439 191.81935 189.87431 188.92428 189.00124 189.84921 191.17017
 192.90813 195.01610 197.29206 199.66403 202.12199 204.61495 206.71592 208.57088
 210.20985 211.36781 211.60977 211.85074 211.80070 211.51866 211.16463 210.80759
 210.43756 210.16052 209.98148 209.85845 209.79941 210.14338 210.54234 210.94430
 211.75027 212.94123 214.20420 216.00016 217.94112 219.99709 222.10505 224.20102
 226.27398 228.37094 230.48091 232.59987 234.74184 236.92680 239.19576 241.57873
 244.21269 246.47665 248.49162 250.26958 251.69955 252.83551 253.67047 253.99944
 254.04940 253.83637 253.20933 252.17029 250.78926 248.96322 246.88519 244.73115
 242.53511 240.35208 238.18504 236.03701 233.90997 231.78993 229.82890 227.99886
 226.29482 224.77979 223.42275 222.20772 221.10268 220.07564 219.19261 218.34657
 217.60154 216.79450 215.90546 215.28243 214.74539 215.41277 216.98952 218.86325
 220.77986 222.36810 223.06236 222.60925 221.83182 221.09001 221.47623 223.43428
 226.25897 230.39679 235.08623 239.75395 244.25934 248.57123 252.51617 255.98062
 259.08273 261.94595 264.58051 266.85736 268.62534 270.87787 272.97296 274.80331
 276.39005 277.73764 278.88876 279.87469 280.81900 281.82687 282.78262 283.65744
 284.45978 285.19183 285.84082 286.68692
 366.78100 356.34813 345.79326 334.67239 323.08853 311.29566 299.17879 286.99492
 274.72005 262.63018 250.65231 239.96644 230.10158 221.21871 213.41384 206.42897
 200.27610 195.22723 191.82236 189.87749 188.92763 189.00476 189.85289 191.17402
 192.91215 195.02028 197.29641 199.66855 202.12668 204.61981 206.72094 208.57607
 210.21520 211.37333 211.61546 211.85660 211.80673 211.52486 211.17099 210.81412
 210.44425 210.16738 209.98851 209.86565 209.80678 210.15091 210.55004 210.95217
 211.75830 212.94943 214.21257 216.00870 217.94983 220.00596 222.11409 224.21022
 226.28335 228.38048 230.49062 232.60975 234.75188 236.93701 239.20614 241.58927
 244.22340 246.48753 248.50267 250.28080 251.71093 252.84706 253.68219 254.01132
 254.06145 253.84859 253.22172 252.18285 250.80198 248.97611 246.89824 244.74437
 242.54850 240.36564 238.19877 236.05090 233.92403 231.80416 229.84329 228.01342
 226.30956 224.79469 223.43782 222.22295 221.11808 220.09121 219.20834 218.36247
 217.61761 216.81074 215.92187 215.29900 214.76213 215.42180 216.98033 218.84932
 220.75954 222.31564 222.98022 222.52267 221.68063 220.74306 221.17297 223.33611
 226.29765 230.52902 235.26015 239.95128 244.45456 248.75252 252.67688 256.12378
 259.22568 262.09290 264.69217 266.89346 268.70499 270.87119 272.98270 274.84979
 276.42273 277.76227 278.89185 279.85110 280.82159 281.83682 282.79312 283.66858
 284.47159 285.20370 285.85519 286.70950
 366.78100 356.34807 345.79314 334.67221 323.08828 311.29535 299.17842 286.99448
 274.71955 262.62962 250.65169 239.96576 230.10083 221.21790 213.41297 206.42804
 200.27511 195.22618 191.82125 189.87631 188.92638 189.00345 189.85152 191.17259
 192.91066 195.01873 197.29480 199.66687 202.12494 204.61801 206.71908 208.57415
 210.21321 211.37128 211.61335 211.85442 211.80449 211.52256 211.16863 210.81170
 210.44177 210.16484 209.98591 209.86298 209.80404 210.14811 210.54718 210.94925
 211.75532 212.94639 214.20946 216.00553 217.94660 220.00267 222.11074 224.20681
 226.27988 228.37694 230.48701 232.60608 234.74815 236.93322 239.20229 241.58536
 244.21943 246.48350 248.49857 250.27664 251.70671 252.84278 253.67784 254.00691
 254.05698 253.84405 253.21712 252.17819 250.79726 248.97133 246.89340 244.73947
 242.54354 240.36061 238.19367 236.04574 233.91881 231.79888 229.83795 228.00802
 226.30409 224.78916 223.43223 222.21730 221.11237 220.08544 219.20251 218.35657
 217.61164 216.80471 215.91578 215.29285 214.75592 215.41434 216.96991 218.83238
 220.74596 222.27565 222.88701 222.39157 221.51515 220.45746 220.88734 223.20299
 226.31709 230.66446 235.43834 240.13918 244.64403 248.93520 252.83917 256.25931
 259.35956 262.24243 264.83987 266.96039 268.76584 270.90817 272.97980 274.88269
 276.44940 277.77338 278.86542 279.79831 280.78497 281.79428 282.74936 283.62418
 284.42395 285.15613 285.80447 286.66721
 366.78100 356.34794 345.79287 334.67181 323.08774 311.29468 299.17762 286.99355
 274.71849 262.62843 250.65036 239.96430 230.09923 221.21617 213.41111 206.42604
 200.27298 195.22391 191.81885 189.87379 188.92372 189.00066 189.84860 191.16953
 192.90747 195.01540 197.29134 199.66328 202.12121 204.61415 206.71508 208.57002
 210.20896 211.36689 211.60883 211.84977 211.79970 211.51764 211.16357 210.80651
 210.43645 210.15938 209.98032 209.85725 209.79819 210.14213 210.54106 210.94300
 211.74894 212.93987 214.20281 215.99874 217.93968 219.99562 222.10355 224.19949
 226.27242 228.36936 230.47930 232.59823 234.74017 236.92510 239.19404 241.57698
 244.21091 246.47485 248.48979 250.26772 251.69766 252.83359 253.66853 253.99747
 254.04740 253.83434 253.20727 252.16821 250.78715 248.96108 246.88302 244.72896
 242.53289 240.34983 238.18276 236.03470 233.90764 231.78757 229.82651 227.99644
 226.29238 224.77732 223.42025 222.20519 221.10013 220.07306 219.19000 218.34393
 217.59887 216.79181 215.90274 215.27968 214.74261 215.40440 216.96796 218.81570
 220.71986 222.24706 222.80359 222.22745 221.30727 220.19315 220.61829 223.07042
 226.34215 230.80626 235.62299 240.33533 244.83638 249.11687 253.00797 256.39520
 259.47726 262.35260 264.97128 267.11258 268.78445 270.88730 273.00861 274.93921
 276.51263 277.82050 278.90207 279.81628 280.69467 281.66623 282.61575 283.48755
 284.28619 285.01572 285.66367 286.53711
 366.78100 356.34798 345.79295 334.67193 323.08791 311.29488 299.17786 286.99383
 274.71881 262.62879 250.65076 239.96474 230.09972 221.21669 213.41167 206.42664
 200.27362 195.22460 191.81957 189.87455 188.92453 189.00150 189.84948 191.17045
 192.90843 195.01641 197.29238 199.66436 202.12234 204.61531 206.71629 208.57126
 210.21024 211.36822 211.61019 211.85117 211.80115 211.51912 211.16510 210.80807
 210.43805 210.16103 209.98200 209.85898 209.79996 210.14393 210.54291 210.94489
 211.75086 212.94184 214.20481 216.00079 217.94177 219.99774 222.10572 224.20170
 226.27467 228.37165 230.48162 232.60060 234.74258 236.92755 239.19653 241.57951
 244.21348 246.47746 248.49243 250.27041 251.70039 252.83636 253.67134 254.00032
 254.05029 253.83727 253.21024 252.17122 250.79020 248.96417 246.88615 244.73213
 242.53610 240.35308 238.18605 236.03803 233.91101 231.79098 229.82996 227.99994
 226.29591 224.78089 223.42387 222.20884 221.10382 220.07679 219.19377 218.34775
 217.60272 216.79570 215.90668 215.28365 214.74663 215.40475 216.95964 218.80501
 220.69591 222.20276 222.72890 222.07309 221.07227 219.91408 220.34906 222.92896
 226.37932 230.96558 235.81325 240.52824 245.03236 249.30847 253.18245 256.54794
 259.60989 262.44766 265.04330 267.26126 268.85309 270.86865 273.08649 275.00601
 276.57297 277.86963 278.95248 279.85605 280.65234 281.49438 282.40610 283.26910
 284.05881 284.78116 285.43878 286.34473
 366.78100 356.34763 345.79226 334.67089 323.08651 311.29314 299.17577 286.99140
 274.71603 262.62566 250.64729 239.96091 230.09554 221.21217 213.40680 206.42143
 200.26806 195.21869 191.81331 189.86794 188.91757 188.99420 189.84183 191.16246
 192.90008 195.00771 197.28334 199.65497 202.11260 204.60523 206.70586 208.56048
 210.19911 211.35674 211.59837 211.83900 211.78863 211.50626 211.15188 210.79451
 210.42414 210.14677 209.96740 209.84403 209.78466 210.12828 210.52691 210.92854
 211.73417 212.92480 214.18743 215.98306 217.92368 219.97931 222.08694 224.18257
 226.25520 228.35183 230.46145 232.58008 234.72171 236.90634 239.17497 241.55760
 244.19123 246.45485 248.46948 250.24711 251.67674 252.81237 253.64700 253.97563
 254.02525 253.81188 253.18451 252.14514 250.76377 248.93740 246.85903 244.70465
 242.50828 240.32491 238.15754 236.00917 233.88180 231.76143 229.80005 227.96968
 226.26531 224.74994 223.39257 222.17720 221.07182 220.04445 219.16108 218.31471
 217.56934 216.76197 215.87260 215.24922 214.71185 215.38332 216.96971 218.76984
 220.68904 222.15524 222.60750 221.92339 220.87872 219.67348 220.08694 222.77286
 226.40295 231.09442 235.99094 240.70439 245.20699 249.47867 253.33818 256.67477
 259.71875 262.52719 265.07623 267.32278 269.11642 271.07895 273.21844 275.09634
 276.66360 277.96695 279.05127 279.94879 280.71024 281.43234 282.26407 283.10181
 283.87051 284.55341 285.12698 285.83237
 354.97500 345.04800 334.58700 324.11500 313.32600 302.53700 291.65000 280.76700
 269.93100 259.19300 248.62200 238.61700 229.08700 220.35500 212.54000 205.53500
 199.46400 194.49300 191.14300 189.19000 188.08900 188.01400 188.72400 189.90600
 191.46900 193.38200 195.40300 197.55600 199.80700 202.06000 204.28800 206.47900
 208.55200 210.37800 212.02500 213.65900 214.99800 216.11800 217.17200 218.25900
 219.49400 220.64500 221.67900 222.61400 223.54500 224.98200 226.57100 228.19000
 229.79700 231.81100 233.86500 235.97200 238.24200 240.55300 242.89900 245.25300
 247.48800 249.53500 251.36600 252.84800 254.09800 255.16700 256.02700 256.25300
 256.09500 255.54300 253.93500 252.56600 251.38400 250.24500 249.05200 247.70100
 246.01600 243.99600 241.78400 239.39300 236.81300 234.22300 231.65800 229.14400
 226.74000 224.47300 222.33500 220.32500 218.44000 216.67700 214.96200 213.47200
 212.20000 211.10800 210.26000 209.63900 209.24400 209.03100 209.05800 209.33300
 209.78400 210.62600 211.33100 212.39100 213.62500 214.84668 217.72949 219.47640
 220.32566 220.86828 220.88710 220.27371 219.43733 218.84250 219.04934 220.86203
 222.60583 225.72206 229.03064 232.61777 236.12270 239.51333 242.70767 245.68587
 248.41061 250.90679 253.19353 254.91714 256.48655 257.94920 259.39966 260.69384
 261.81714 262.77997 263.71679 264.54570 265.26305 265.89772 266.47676 267.00133
 267.47312 267.89325 268.26027 268.72800
