|-------------------------------------------------------------------------|
|   File Name : in_temp.dat
|   Subject   : temperature profiles used for initial guess atmosphere
|   File Type : input of gmtr
|   Data Type : atmospherical data
|   Author/s  : WRF-Chem
|   Date      : Fri Jul 26 15:39:24 2024
|-------------------------------------------------------------------------|

 WRF-Chem temperature
#
 values of T (K)    (8f10.5)
#
 354.97500 345.04800 334.58700 324.11500 313.32600 302.53700 291.65000 280.76700
 269.93100 259.19300 248.62200 238.61700 229.08700 220.35500 212.54000 205.53500
 199.46400 194.49300 191.14300 189.19000 188.08900 188.01400 188.72400 189.90600
 191.46900 193.38200 195.40300 197.55600 199.80700 202.06000 204.28800 206.47900
 208.55200 210.37800 212.02500 213.65900 214.99800 216.11800 217.17200 218.25900
 219.49400 220.64500 221.67900 222.61400 223.54500 224.98200 226.57100 228.19000
 229.79700 231.81100 233.86500 235.97200 238.24200 240.55300 242.89900 245.25300
 247.48800 249.53500 251.36600 252.84800 254.09800 255.16700 256.02700 256.25300
 256.09500 255.54300 253.93500 252.56600 251.38400 250.24500 249.05200 247.70100
 246.01600 243.99600 241.78400 239.39300 236.81300 234.22300 231.65800 229.14400
 226.74000 224.47300 222.33500 220.32500 218.44000 216.67700 214.96200 213.47200
 212.20000 211.10800 210.26000 209.63900 209.24400 209.03100 209.05800 209.33300
 209.78400 210.62600 211.33100 212.39100 213.62500 214.84668 217.72949 219.47640
 220.32566 220.86828 220.88710 220.27371 219.43733 218.84250 219.04934 220.86203
 222.60583 225.72206 229.03064 232.61777 236.12270 239.51333 242.70767 245.68587
 248.41061 250.90679 253.19353 254.91714 256.48655 257.94920 259.39966 260.69384
 261.81714 262.77997 263.71679 264.54570 265.26305 265.89772 266.47676 267.00133
 267.47312 267.89325 268.26027 268.72800
 366.78100 356.33500 345.76700 334.63300 323.03600 311.23000 299.10000 286.90300
 274.61500 262.51200 250.52100 239.82200 229.94400 221.04800 213.23000 206.23200
 200.06600 195.00400 191.58600 189.62800 188.66500 188.72900 189.56400 190.87200
 192.59700 194.69200 196.95500 199.31400 201.75900 204.23900 206.32700 208.16900
 209.79500 210.94000 211.16900 211.39700 211.33400 211.03900 210.67200 210.30200
 209.91900 209.62900 209.43700 209.30100 209.22900 209.56000 209.94600 210.33500
 211.12800 212.30600 213.55600 215.33900 217.26700 219.31000 221.40500 223.48800
 225.54800 227.63200 229.72900 231.83500 233.96400 236.13600 238.39200 240.76200
 243.38300 245.63400 247.63600 249.40100 250.81800 251.94100 252.76300 253.07900
 253.11600 252.89000 252.25000 251.19800 249.80400 247.96500 245.87400 243.70700
 241.49800 239.30200 237.12200 234.96100 232.82100 230.68800 228.71400 226.87100
 225.15400 223.62600 222.25600 221.02800 219.91000 218.87000 217.97400 217.11500
 216.35700 215.53700 214.63500 213.99900 213.44900 212.85855 212.01316 212.61654
 214.26826 216.08686 218.14273 220.53346 223.40855 226.78828 231.49734 235.90155
 239.42278 243.28576 247.23140 251.11907 254.80144 258.23331 261.38913 264.27520
 266.89312 269.26852 271.44504 273.08845 274.58484 275.98591 277.39845 278.65879
 279.75272 280.69038 281.56708 282.34086 283.01050 283.60295 284.14348 284.63317
 285.07358 285.46577 285.80838 286.24500
 381.81900 372.39900 361.20600 349.77600 337.62200 324.85300 311.81000 298.35300
 284.86000 271.32400 258.56100 246.30400 236.08700 226.79600 218.44800 211.29000
 205.52200 200.89400 197.38100 194.84800 193.01500 192.31500 192.25000 192.43100
 192.91200 193.53700 194.13600 194.71200 195.26200 195.83100 196.39300 196.97600
 197.60400 198.14900 198.58400 199.05700 199.69500 200.37800 201.05400 201.70800
 202.31300 202.85700 203.35500 203.86200 204.56900 205.29700 206.02600 206.98700
 208.19300 209.44100 210.96900 212.57600 214.46200 216.51300 218.63000 220.85300
 223.34100 225.96200 228.73900 231.69700 234.70600 237.70600 240.69200 243.65700
 246.73700 249.69900 252.52100 255.06300 257.29000 259.23300 260.63300 261.68000
 262.46100 262.79800 262.69100 262.22400 261.06900 259.52500 257.70700 255.50700
 253.00100 250.30200 247.39800 244.45200 241.65400 239.05400 236.73300 234.59000
 232.59500 230.72500 228.83400 226.82600 224.66600 222.38700 220.10400 217.71500
 215.45900 213.06600 210.54600 208.09300 205.35400 202.08130 196.05959 200.71215
 209.01611 216.90438 223.84126 229.78593 235.00632 240.20838 245.98943 250.68668
 254.32982 257.93487 261.55666 264.96801 268.15192 271.06452 273.76717 276.25691
 278.57680 280.74479 282.77456 284.60533 286.27232 287.81705 289.31715 290.65561
 291.81734 292.81312 293.70701 294.49387 295.17482 295.77730 296.32696 296.82492
 297.27278 297.67160 298.02000 298.46400
 399.33000 389.90700 379.81300 368.66800 357.52200 345.30100 333.07400 320.22700
 307.21600 293.84800 280.37600 267.29600 254.61000 242.98700 232.15100 221.97700
 212.67200 204.28600 197.66900 192.82100 189.48600 187.45200 186.81400 187.08900
 187.78100 189.05400 190.64800 192.54200 194.63000 196.75200 198.67100 200.15800
 201.53500 202.48700 202.97500 203.34000 203.53900 203.49700 203.38500 203.24700
 203.00500 202.78600 202.60300 202.43700 202.42600 202.88800 203.42000 203.95100
 204.89500 205.99200 207.30100 208.95800 210.73800 213.10000 215.56400 218.18000
 220.96600 223.91800 226.96100 230.09200 233.29300 236.55700 239.95500 243.53700
 246.84500 249.39000 251.54200 253.47400 255.19500 256.48400 257.43100 258.05900
 258.21200 258.04000 257.58200 256.64300 255.23900 253.50700 251.40800 249.05600
 246.57600 243.99400 241.38900 238.83000 236.34400 233.98600 231.96900 230.11800
 228.42300 226.89900 225.54800 224.29700 223.10500 221.96500 220.95800 220.11300
 219.49000 218.92000 218.32500 217.88100 217.42300 216.96366 216.35568 216.80261
 217.73415 218.28582 218.64258 219.10077 220.44626 222.53987 226.38451 230.35736
 233.59734 237.39164 241.29814 245.22796 248.98002 252.51130 255.78595 258.80109
 261.54781 264.05210 266.34239 268.04198 269.58951 271.01303 272.35754 273.55718
 274.59842 275.49092 276.28989 276.99307 277.60161 278.14001 278.63122 279.07623
 279.47646 279.83287 280.14422 280.54100
 399.73800 389.78500 379.66200 368.15100 356.64100 344.35000 331.79200 318.88800
 305.72600 292.49300 279.20900 266.73800 254.69600 244.21100 234.45700 225.43300
 217.56900 210.45100 204.30000 199.30600 195.45800 192.57600 191.02700 190.38600
 190.23900 190.53400 191.16600 191.92500 192.79500 193.76600 194.73200 195.31200
 195.80000 196.05200 196.11500 196.11500 196.03900 195.72300 195.34000 194.98900
 194.75100 194.79200 195.13300 195.59800 196.50600 198.13600 199.85800 201.56600
 204.17900 206.82300 209.89300 213.28400 216.82800 220.60500 224.38700 228.20900
 232.03200 235.82500 239.56000 243.25800 246.84500 250.20100 253.70900 257.46800
 261.53000 264.22100 266.60100 268.68100 270.32900 271.74100 272.83600 273.47400
 273.89800 274.00200 273.75700 273.28800 272.37100 271.10000 269.58900 267.77900
 265.81600 263.72100 261.39300 258.91600 256.29800 253.42300 250.33100 247.11400
 243.83700 240.52900 237.24900 233.99900 230.72800 227.51500 224.25400 220.95200
 217.62700 213.65600 210.12100 206.78900 204.01000 201.99491 199.07309 198.76551
 199.40006 200.48994 201.46112 202.31912 203.45100 204.96110 207.47502 210.85391
 213.70530 217.29629 220.99574 224.72316 228.28753 231.64854 234.68024 237.40893
 239.70644 241.60899 243.46854 245.67368 247.68154 249.52395 251.24767 252.78566
 254.12057 255.26479 256.23740 257.09036 257.82852 258.48160 259.07744 259.61723
 260.10271 260.53504 260.91270 261.39400
 399.73800 389.78500 379.66200 368.15100 356.64100 344.35000 331.79200 318.88800
 305.72600 292.49300 279.20900 266.73800 254.69600 244.21100 234.45700 225.43300
 217.56900 210.45100 204.30000 199.30600 195.45800 192.57600 191.02700 190.38600
 190.23900 190.53400 191.16600 191.92500 192.79500 193.76600 194.73200 195.31200
 195.80000 196.05200 196.11500 196.11500 196.03900 195.72300 195.34000 194.98900
 194.75100 194.79200 195.13300 195.59800 196.50600 198.13600 199.85800 201.56600
 204.17900 206.82300 209.89300 213.28400 216.82800 220.60500 224.38700 228.20900
 232.03200 235.82500 239.56000 243.25800 246.84500 250.20100 253.70900 257.46800
 261.53000 264.22100 266.60100 268.68100 270.32900 271.74100 272.83600 273.47400
 273.89800 274.00200 273.75700 273.28800 272.37100 271.10000 269.58900 267.77900
 265.81600 263.72100 261.39300 258.91600 256.29800 253.42300 250.33100 247.11400
 243.83700 240.52900 237.24900 233.99900 230.72800 227.51500 224.25400 220.95200
 217.62700 213.65600 210.12100 206.78900 204.01000 201.99491 199.07309 198.76551
 199.40006 200.48994 201.46112 202.31912 203.45100 204.96110 207.47502 210.85391
 213.70530 217.29629 220.99574 224.72316 228.28753 231.64854 234.68024 237.40893
 239.70644 241.60899 243.46854 245.67368 247.68154 249.52395 251.24767 252.78566
 254.12057 255.26479 256.23740 257.09036 257.82852 258.48160 259.07744 259.61723
 260.10271 260.53504 260.91270 261.39400
 399.33000 389.90700 379.81300 368.66800 357.52200 345.30100 333.07400 320.22700
 307.21600 293.84800 280.37600 267.29600 254.61000 242.98700 232.15100 221.97700
 212.67200 204.28600 197.66900 192.82100 189.48600 187.45200 186.81400 187.08900
 187.78100 189.05400 190.64800 192.54200 194.63000 196.75200 198.67100 200.15800
 201.53500 202.48700 202.97500 203.34000 203.53900 203.49700 203.38500 203.24700
 203.00500 202.78600 202.60300 202.43700 202.42600 202.88800 203.42000 203.95100
 204.89500 205.99200 207.30100 208.95800 210.73800 213.10000 215.56400 218.18000
 220.96600 223.91800 226.96100 230.09200 233.29300 236.55700 239.95500 243.53700
 246.84500 249.39000 251.54200 253.47400 255.19500 256.48400 257.43100 258.05900
 258.21200 258.04000 257.58200 256.64300 255.23900 253.50700 251.40800 249.05600
 246.57600 243.99400 241.38900 238.83000 236.34400 233.98600 231.96900 230.11800
 228.42300 226.89900 225.54800 224.29700 223.10500 221.96500 220.95800 220.11300
 219.49000 218.92000 218.32500 217.88100 217.42300 216.96366 216.35568 216.80261
 217.73415 218.28582 218.64258 219.10077 220.44626 222.53987 226.38451 230.35736
 233.59734 237.39164 241.29814 245.22796 248.98002 252.51130 255.78595 258.80109
 261.54781 264.05210 266.34239 268.04198 269.58951 271.01303 272.35754 273.55718
 274.59842 275.49092 276.28989 276.99307 277.60161 278.14001 278.63122 279.07623
 279.47646 279.83287 280.14422 280.54100
 381.81900 372.39900 361.20600 349.77600 337.62200 324.85300 311.81000 298.35300
 284.86000 271.32400 258.56100 246.30400 236.08700 226.79600 218.44800 211.29000
 205.52200 200.89400 197.38100 194.84800 193.01500 192.31500 192.25000 192.43100
 192.91200 193.53700 194.13600 194.71200 195.26200 195.83100 196.39300 196.97600
 197.60400 198.14900 198.58400 199.05700 199.69500 200.37800 201.05400 201.70800
 202.31300 202.85700 203.35500 203.86200 204.56900 205.29700 206.02600 206.98700
 208.19300 209.44100 210.96900 212.57600 214.46200 216.51300 218.63000 220.85300
 223.34100 225.96200 228.73900 231.69700 234.70600 237.70600 240.69200 243.65700
 246.73700 249.69900 252.52100 255.06300 257.29000 259.23300 260.63300 261.68000
 262.46100 262.79800 262.69100 262.22400 261.06900 259.52500 257.70700 255.50700
 253.00100 250.30200 247.39800 244.45200 241.65400 239.05400 236.73300 234.59000
 232.59500 230.72500 228.83400 226.82600 224.66600 222.38700 220.10400 217.71500
 215.45900 213.06600 210.54600 208.09300 205.35400 202.08130 196.05959 200.71215
 209.01611 216.90438 223.84126 229.78593 235.00632 240.20838 245.98943 250.68668
 254.32982 257.93487 261.55666 264.96801 268.15192 271.06452 273.76717 276.25691
 278.57680 280.74479 282.77456 284.60533 286.27232 287.81705 289.31715 290.65561
 291.81734 292.81312 293.70701 294.49387 295.17482 295.77730 296.32696 296.82492
 297.27278 297.67160 298.02000 298.46400
 366.78100 356.33787 345.77275 334.64162 323.04750 311.24437 299.11725 286.92312
 274.63800 262.53787 250.54975 239.85362 229.97850 221.08537 213.27025 206.27512
 200.11200 195.05287 191.63775 189.68262 188.72250 188.78937 189.62725 190.93812
 192.66600 194.76387 197.02974 199.39162 201.83949 204.32237 206.41324 208.25812
 209.88699 211.03487 211.26674 211.49762 211.43749 211.14537 210.78124 210.41412
 210.03399 209.74687 209.55774 209.42462 209.35549 209.68937 210.07824 210.47012
 211.26599 212.44687 213.69974 215.48562 217.41649 219.46236 221.56024 223.64611
 225.70899 227.79586 229.89574 232.00461 234.13649 236.31136 238.57024 240.94311
 243.56699 245.82086 247.82574 249.59361 251.01349 252.13936 252.96424 253.28311
 253.32299 253.09986 252.46274 251.41361 250.02249 248.18636 246.09823 243.93411
 241.72798 239.53486 237.35773 235.19961 233.06248 230.93236 228.96123 227.12111
 225.40698 223.88186 222.51473 221.28961 220.17448 219.13736 218.24423 217.38811
 216.63298 215.81586 214.91673 214.28361 213.73648 212.85921 210.79446 210.33249
 210.63660 211.44597 213.01077 215.43727 219.13890 223.88057 229.63622 234.77400
 238.67584 242.60864 246.73357 250.88342 254.70357 258.45822 261.29001 263.05664
 265.71109 268.54459 271.00620 272.89725 274.89383 276.88419 278.37909 279.84952
 281.48993 283.03455 284.50540 285.86298 287.04349 288.08850 289.04276 289.90942
 290.69498 291.39844 292.01785 292.83780
 366.78100 356.33820 345.77340 334.64260 323.04880 311.24600 299.11920 286.92540
 274.64060 262.54080 250.55300 239.85719 229.98239 221.08959 213.27479 206.27999
 200.11719 195.05839 191.64359 189.68879 188.72899 188.79619 189.63439 190.94559
 192.67379 194.77199 197.03819 199.40039 201.84859 204.33179 206.42299 208.26818
 209.89738 211.04558 211.27778 211.50898 211.44918 211.15738 210.79358 210.42678
 210.04698 209.76018 209.57138 209.43858 209.36978 209.70398 210.09318 210.48538
 211.28158 212.46278 213.71598 215.50218 217.43337 219.47957 221.57777 223.66397
 225.72717 227.81437 229.91457 232.02377 234.15597 236.33117 238.59037 240.96357
 243.58777 245.84197 247.84717 249.61537 251.03557 252.16177 252.98697 253.30617
 253.34637 253.12356 252.48676 251.43796 250.04716 248.21136 246.12356 243.95976
 241.75396 239.56116 237.38436 235.22656 233.08976 230.95996 228.98916 227.14936
 225.43556 223.91076 222.54396 221.31916 220.20436 219.16755 218.27475 217.41895
 216.66415 215.84735 214.94855 214.31575 213.76895 212.90823 210.88196 210.44563
 210.63985 211.50957 213.07285 215.41800 219.02655 223.79968 229.58548 234.71638
 238.60707 242.52574 246.64714 250.80986 254.64928 258.40707 261.24417 263.02396
 265.68112 268.52103 270.97577 272.82074 274.80832 276.82205 278.30194 279.75143
 281.39926 282.95221 284.42487 285.78275 286.96295 288.00714 288.96231 289.82956
 290.61530 291.31891 291.93875 292.76099
 366.78100 356.33813 345.77325 334.64238 323.04851 311.24564 299.11876 286.92489
 274.64002 262.54015 250.55227 239.85640 229.98153 221.08866 213.27378 206.27891
 200.11604 195.05716 191.64229 189.68742 188.72755 188.79467 189.63280 190.94393
 192.67206 194.77018 197.03631 199.39844 201.84657 204.32969 206.42082 208.26595
 209.89507 211.04320 211.27533 211.50646 211.44658 211.15471 210.79084 210.42397
 210.04409 209.75722 209.56835 209.43548 209.36660 209.70073 210.08986 210.48198
 211.27811 212.45924 213.71237 215.49849 217.42962 219.47575 221.57388 223.66000
 225.72313 227.81026 229.91039 232.01951 234.15164 236.32677 238.58590 240.95902
 243.58315 245.83728 247.84240 249.61053 251.03066 252.15679 252.98191 253.30104
 253.34117 253.11830 252.48142 251.43255 250.04168 248.20581 246.11793 243.95406
 241.74819 239.55531 237.37844 235.22057 233.08370 230.95382 228.98295 227.14308
 225.42921 223.90433 222.53746 221.31259 220.19772 219.16084 218.26797 217.41210
 216.65722 215.84035 214.94148 214.30861 213.76173 212.93698 210.99449 210.54176
 210.65643 211.57327 213.11092 215.39795 218.93736 223.71466 229.53644 234.65785
 238.53772 242.44296 246.56122 250.73611 254.59679 258.35739 261.19824 262.98856
 265.64526 268.48956 270.94052 272.74338 274.72275 276.75958 278.22815 279.65762
 281.31024 282.87057 284.34543 285.70251 286.88303 287.92798 288.88312 289.75052
 290.53519 291.24091 291.86261 292.68427
 366.78100 356.33785 345.77271 334.64156 323.04742 311.24427 299.11713 286.92298
 274.63784 262.53769 250.54955 239.85340 229.97826 221.08511 213.26997 206.27482
 200.11168 195.05253 191.63739 189.68224 188.72210 188.78895 189.62681 190.93766
 192.66552 194.76337 197.02923 199.39108 201.83893 204.32179 206.41264 208.25750
 209.88635 211.03421 211.26606 211.49692 211.43677 211.14463 210.78048 210.41334
 210.03319 209.74605 209.55690 209.42376 209.35461 209.68847 210.07732 210.46918
 211.26503 212.44589 213.69874 215.48460 217.41545 219.46131 221.55916 223.64501
 225.70787 227.79472 229.89458 232.00343 234.13529 236.31014 238.56900 240.94185
 243.56571 245.81956 247.82442 249.59227 251.01213 252.13798 252.96284 253.28169
 253.32155 253.09840 252.46126 251.41211 250.02097 248.18482 246.09668 243.93253
 241.72639 239.53324 237.35610 235.19795 233.06080 230.93066 228.95951 227.11937
 225.40522 223.88008 222.51293 221.28779 220.17264 219.13550 218.24235 217.38621
 216.63106 215.81392 214.91477 214.28163 213.73448 212.95450 211.11661 210.63339
 210.68872 211.62283 213.13872 215.38629 218.86244 223.62827 229.48355 234.59546
 238.46597 242.36072 246.47655 250.66315 254.54668 258.30844 261.15048 262.95081
 265.60312 268.44968 270.89911 272.66602 274.63837 276.69632 278.16019 279.57025
 281.22543 282.79092 284.26627 285.62463 286.80499 287.85077 288.80481 289.67255
 290.45871 291.16440 291.78369 292.60980
 366.78100 356.33753 345.77205 334.64058 323.04610 311.24263 299.11516 286.92068
 274.63521 262.53474 250.54626 239.84979 229.97431 221.08084 213.26537 206.26989
 200.10642 195.04694 191.63147 189.67600 188.71552 188.78205 189.61958 190.93010
 192.65763 194.75515 197.02068 199.38221 201.82973 204.31226 206.40278 208.24731
 209.87584 211.02336 211.25489 211.48542 211.42494 211.13247 210.76799 210.40052
 210.02005 209.73257 209.54310 209.40962 209.34015 209.67368 210.06220 210.45373
 211.24925 212.42978 213.68231 215.46783 217.39836 219.44389 221.54141 223.62694
 225.68946 227.77599 229.87552 231.98404 234.11557 236.29009 238.54862 240.92115
 243.54467 245.79820 247.80273 249.57025 250.98978 252.11530 252.93983 253.25836
 253.29788 253.07441 252.43693 251.38746 249.99599 248.15951 246.07104 243.90657
 241.70009 239.50662 237.32914 235.17067 233.03320 230.90272 228.93125 227.09077
 225.37630 223.85083 222.48335 221.25788 220.14241 219.10493 218.21146 217.35498
 216.59951 215.78204 214.88256 214.24909 213.70161 212.96803 211.23869 210.72998
 210.73245 211.65338 213.16451 215.38678 218.79445 223.54152 229.42845 234.52943
 238.39195 242.27908 246.39282 250.59090 254.49986 258.26193 261.10373 262.91360
 265.55533 268.40067 270.84915 272.58755 274.55402 276.63263 278.09500 279.49084
 281.14340 282.71054 284.19034 285.54834 286.72824 287.77359 288.72806 289.59549
 290.38248 291.08878 291.70993 292.53177
 366.78100 356.33718 345.77137 334.63955 323.04473 311.24092 299.11310 286.91829
 274.63247 262.53165 250.54284 239.84602 229.97020 221.07639 213.26057 206.26476
 200.10094 195.04112 191.62531 189.66949 188.70867 188.77486 189.61204 190.92223
 192.64941 194.74659 197.01178 199.37296 201.82014 204.30233 206.39251 208.23670
 209.86488 211.01206 211.24325 211.47343 211.41261 211.11980 210.75498 210.38717
 210.00635 209.71853 209.52872 209.39490 209.32508 209.65827 210.04645 210.43764
 211.23282 212.41300 213.66519 215.45037 217.38055 219.42574 221.52292 223.60811
 225.67029 227.75647 229.85566 231.96384 234.09502 236.26921 238.52739 240.89958
 243.52276 245.77594 247.78013 249.54731 250.96649 252.09168 252.91586 253.23405
 253.27323 253.04941 252.41160 251.36178 249.96996 248.13315 246.04433 243.87952
 241.67270 239.47888 237.30107 235.14225 233.00443 230.87362 228.90180 227.06099
 225.34617 223.82035 222.45254 221.22672 220.11090 219.07309 218.17927 217.32245
 216.56664 215.74882 214.84901 214.21519 213.66737 212.98018 211.35954 210.83290
 210.78342 211.67552 213.18489 215.39088 218.73625 223.45499 229.37010 234.46167
 238.31757 242.19765 246.30867 250.51817 254.45488 258.21753 261.05823 262.87659
 265.50168 268.34131 270.78979 272.50546 274.46851 276.56494 278.03348 279.41766
 281.06598 282.63123 284.11447 285.47205 286.65121 287.69598 288.65164 289.51968
 290.30695 291.01315 291.63345 292.45926
 366.78100 356.33688 345.77077 334.63865 323.04354 311.23942 299.11131 286.91619
 274.63008 262.52896 250.53985 239.84273 229.96662 221.07250 213.25639 206.26027
 200.09616 195.03604 191.61993 189.66381 188.70270 188.76858 189.60547 190.91535
 192.64224 194.73912 197.00401 199.36489 201.81177 204.29366 206.38354 208.22743
 209.85531 211.00220 211.23308 211.46297 211.40185 211.10874 210.74362 210.37551
 209.99439 209.70628 209.51616 209.38205 209.31193 209.64482 210.03270 210.42359
 211.21847 212.39836 213.65024 215.43513 217.36501 219.40990 221.50678 223.59166
 225.65355 227.73943 229.83832 231.94620 234.07709 236.25097 238.50886 240.88074
 243.50363 245.75651 247.76040 249.52728 250.94617 252.07105 252.89494 253.21282
 253.25171 253.02759 252.38948 251.33936 249.94725 248.11013 246.02102 243.85590
 241.64879 239.45467 237.27655 235.11744 232.97932 230.84821 228.87609 227.03498
 225.31986 223.79375 222.42563 221.19952 220.08340 219.04529 218.15117 217.29406
 216.53794 215.71983 214.81971 214.18560 213.63748 212.99352 211.47430 210.94360
 210.84200 211.68596 213.20396 215.39954 218.68100 223.37312 229.31152 234.39149
 238.23914 242.11267 246.22110 250.44313 254.41237 258.17749 261.01682 262.84470
 265.44482 268.27234 270.71973 272.41855 274.38037 276.49164 277.97284 279.35394
 280.99585 282.55759 284.03860 285.39423 286.57410 287.62003 288.57388 289.44287
 290.23056 290.93430 291.55789 292.38416
 366.78100 356.33636 345.76972 334.63709 323.04145 311.23681 299.10817 286.91253
 274.62589 262.52426 250.53462 239.83698 229.96034 221.06570 213.24906 206.25243
 200.08779 195.02715 191.61051 189.65387 188.69223 188.75760 189.59396 190.90332
 192.62968 194.72604 196.99041 199.35077 201.79713 204.27849 206.36785 208.21121
 209.83858 210.98494 211.21530 211.44466 211.38302 211.08938 210.72375 210.35511
 209.97347 209.68483 209.49419 209.35956 209.28892 209.62128 210.00864 210.39900
 211.19336 212.37273 213.62409 215.40845 217.33781 219.38217 221.47853 223.56290
 225.62426 227.70962 229.80798 231.91534 234.04570 236.21907 238.47643 240.84779
 243.47015 245.72251 247.72588 249.49224 250.91060 252.03496 252.85832 253.17568
 253.21405 252.98941 252.35077 251.30013 249.90749 248.06985 245.98022 243.81458
 241.60694 239.41230 237.23366 235.07402 232.93539 230.80375 228.83111 226.98947
 225.27383 223.74720 222.37856 221.15192 220.03528 218.99664 218.10200 217.24437
 216.48773 215.66909 214.76845 214.13381 213.58517 212.99431 211.59988 211.05672
 210.90118 211.70612 213.21272 215.40298 218.63477 223.29242 229.24689 234.31505
 238.15578 242.02457 246.13226 250.36853 254.37505 258.14291 260.98087 262.81964
 265.38629 268.19479 270.64108 272.32690 274.28918 276.41449 277.91354 279.29977
 280.93079 282.48624 283.95938 285.31583 286.49524 287.54086 288.49524 289.36475
 290.15305 290.85699 291.48080 292.31052
 366.78100 356.33605 345.76910 334.63614 323.04019 311.23524 299.10629 286.91034
 274.62339 262.52143 250.53148 239.83353 229.95658 221.06163 213.24467 206.24772
 200.08277 195.02182 191.60487 189.64792 188.68596 188.75101 189.58706 190.89611
 192.62216 194.71820 196.98225 199.34230 201.78835 204.26940 206.35845 208.20149
 209.82854 210.97459 211.20464 211.43369 211.37173 211.07778 210.71183 210.34288
 209.96093 209.67198 209.48102 209.34607 209.27512 209.60717 209.99422 210.38426
 211.17831 212.35736 213.60841 215.39246 217.32151 219.36555 221.46160 223.54565
 225.60670 227.69175 229.78979 231.89684 234.02689 236.19994 238.45699 240.82804
 243.45008 245.70213 247.70518 249.47123 250.88928 252.01332 252.83637 253.15342
 253.19147 252.96652 252.32757 251.27661 249.88366 248.04571 245.95576 243.78981
 241.58185 239.38690 237.20795 235.04800 232.90905 230.77710 228.80414 226.96219
 225.24624 223.71929 222.35034 221.12338 220.00643 218.96748 218.07253 217.21458
 216.45763 215.63867 214.73772 214.10277 213.55382 213.00398 211.70619 211.19910
 210.97217 211.70343 213.23042 215.39883 218.56537 223.21848 229.18517 234.24063
 238.07298 241.93518 246.04077 250.29115 254.33868 258.10785 260.94281 262.79501
 265.32532 268.11115 270.55823 272.23831 274.20142 276.33807 277.86447 279.25900
 280.87277 282.41516 283.88046 285.23621 286.41556 287.46182 288.41687 289.28735
 290.07281 290.78030 291.40384 292.23489
 366.78100 356.33551 345.76802 334.63452 323.03803 311.23254 299.10305 286.90656
 274.61906 262.51657 250.52608 239.82759 229.95009 221.05460 213.23711 206.23962
 200.07413 195.01263 191.59514 189.63765 188.67516 188.73967 189.57517 190.88368
 192.60919 194.70470 196.96820 199.32771 201.77322 204.25373 206.34224 208.18474
 209.81125 210.95676 211.18627 211.41478 211.35228 211.05779 210.69130 210.32181
 209.93931 209.64982 209.45833 209.32284 209.25135 209.58285 209.96936 210.35887
 211.15238 212.33089 213.58139 215.36490 217.29341 219.33692 221.43242 223.51593
 225.57644 227.66095 229.75846 231.86496 233.99447 236.16698 238.42349 240.79400
 243.41550 245.66701 247.66952 249.43503 250.85253 251.97604 252.79855 253.11506
 253.15257 252.92707 252.28758 251.23609 249.84260 248.00411 245.91361 243.74712
 241.53863 239.34314 237.16364 235.00315 232.86366 230.73117 228.75768 226.91518
 225.19869 223.67120 222.30171 221.07422 219.95672 218.91723 218.02174 217.16325
 216.40575 215.58626 214.68477 214.04928 213.49979 213.00105 211.82356 211.33102
 211.06738 211.71303 213.20595 215.40283 218.52547 223.14607 229.12059 234.15009
 237.96919 241.82812 245.93803 250.20839 254.30420 258.07635 260.91016 262.78455
 265.26923 268.02698 270.47620 272.15573 274.11649 276.26175 277.82019 279.22757
 280.82062 282.34863 283.80243 285.15714 286.33792 287.38211 288.33731 289.20779
 289.99576 290.70190 291.32788 292.15872
 366.78100 356.33557 345.76813 334.63470 323.03827 311.23283 299.10340 286.90697
 274.61953 262.51710 250.52666 239.82823 229.95080 221.05536 213.23793 206.24050
 200.07506 195.01363 191.59620 189.63876 188.67633 188.74090 189.57646 190.88503
 192.61059 194.70616 196.96973 199.32929 201.77486 204.25543 206.34399 208.18656
 209.81313 210.95869 211.18826 211.41683 211.35439 211.05996 210.69353 210.32409
 209.94166 209.65222 209.46079 209.32536 209.25392 209.58549 209.97206 210.36162
 211.15519 212.33376 213.58432 215.36789 217.29646 219.34002 221.43559 223.51916
 225.57972 227.66429 229.76185 231.86842 233.99799 236.17055 238.42712 240.79769
 243.41925 245.67082 247.67339 249.43895 250.85652 251.98009 252.80265 253.11922
 253.15678 252.93135 252.29192 251.24048 249.84705 248.00862 245.91818 243.75175
 241.54332 239.34788 237.16845 235.00802 232.86858 230.73615 228.76272 226.92028
 225.20385 223.67641 222.30698 221.07955 219.96211 218.92268 218.02725 217.16881
 216.41138 215.59195 214.69051 214.05508 213.50565 213.02815 211.90076 211.48798
 211.15436 211.75398 213.23470 215.36255 218.44704 223.05933 229.04170 234.04584
 237.85817 241.72110 245.83990 250.13454 254.28296 258.05994 260.89441 262.79227
 265.21838 267.93835 270.38538 272.06366 274.02350 276.17471 277.76395 279.18973
 280.76843 282.28146 283.72205 285.07678 286.25812 287.30307 288.26117 289.12988
 289.91876 290.62570 291.25168 292.08301
 366.78100 356.33599 345.76897 334.63596 323.03995 311.23493 299.10592 286.90991
 274.62289 262.52088 250.53087 239.83285 229.95584 221.06082 213.24381 206.24680
 200.08178 195.02077 191.60376 189.64674 188.68473 188.74972 189.58570 190.89469
 192.62068 194.71666 196.98065 199.34064 201.78662 204.26761 206.35660 208.19958
 209.82657 210.97256 211.20254 211.43153 211.36952 211.07550 210.70949 210.34047
 209.95846 209.66945 209.47843 209.34342 209.27241 209.60439 209.99138 210.38137
 211.17535 212.35434 213.60533 215.38931 217.31830 219.36229 221.45827 223.54226
 225.60325 227.68823 229.78622 231.89321 234.02319 236.19618 238.45316 240.82415
 243.44614 245.69812 247.70111 249.46710 250.88508 252.00907 252.83206 253.14904
 253.18703 252.96202 252.32300 251.27199 249.87898 248.04096 245.95095 243.78494
 241.57692 239.38191 237.20290 235.04288 232.90387 230.77186 228.79884 226.95683
 225.24081 223.71380 222.34479 221.11777 220.00076 218.96175 218.06673 217.20872
 216.45171 215.63269 214.73168 214.09667 213.54765 213.07701 211.96558 211.57552
 211.37183 211.81369 213.21370 215.27756 218.29257 222.96344 228.97771 233.96927
 237.77931 241.64206 245.76070 250.07225 254.27315 258.05054 260.87952 262.79590
 265.16000 267.83804 270.27933 271.95731 273.92102 276.07886 277.69928 279.14951
 280.71689 282.21741 283.64288 284.99918 286.17825 287.22556 288.18216 289.05273
 289.84241 290.54752 291.17392 292.00992
 366.78100 356.33540 345.76780 334.63420 323.03760 311.23199 299.10239 286.90579
 274.61819 262.51559 250.52499 239.82639 229.94879 221.05318 213.23558 206.23798
 200.07238 195.01078 191.59318 189.63558 188.67298 188.73737 189.57277 190.88117
 192.60657 194.70197 196.96537 199.32477 201.77017 204.25056 206.33896 208.18136
 209.80776 210.95316 211.18256 211.41096 211.34836 211.05375 210.68715 210.31755
 209.93495 209.64535 209.45375 209.31815 209.24655 209.57794 209.96434 210.35374
 211.14714 212.32554 213.57594 215.35934 217.28774 219.33113 221.42653 223.50993
 225.57033 227.65473 229.75213 231.85853 233.98793 236.16032 238.41672 240.78712
 243.40852 245.65992 247.66232 249.42772 250.84512 251.96851 252.79091 253.10731
 253.14471 252.91911 252.27951 251.22791 249.83431 247.99570 245.90510 243.73850
 241.52990 239.33430 237.15470 234.99410 232.85450 230.72189 228.74829 226.90569
 225.18909 223.66149 222.29189 221.06429 219.94669 218.90708 218.01148 217.15288
 216.39528 215.57568 214.67408 214.03848 213.48888 213.07741 212.10539 211.60907
 211.46976 211.91519 213.17708 215.22008 218.23883 222.92053 228.94434 233.91864
 237.71288 241.56676 245.67967 250.00618 254.25839 258.03168 260.84540 262.78046
 265.09143 267.72931 270.16705 271.85025 273.82062 275.98502 277.63947 279.11658
 280.66986 282.15555 283.56754 284.92282 286.10315 287.14981 288.10696 288.97891
 289.76855 290.47382 291.10028 291.93976
 366.78100 356.33484 345.76668 334.63252 323.03537 311.22921 299.09905 286.90189
 274.61373 262.51057 250.51942 239.82026 229.94210 221.04594 213.22778 206.22962
 200.06346 195.00131 191.58315 189.62499 188.66183 188.72567 189.56051 190.86835
 192.59320 194.68804 196.95088 199.30972 201.75456 204.23440 206.32225 208.16409
 209.78993 210.93477 211.16361 211.39145 211.32829 211.03314 210.66598 210.29582
 209.91266 209.62250 209.43034 209.29419 209.22203 209.55287 209.93871 210.32755
 211.12039 212.29823 213.54808 215.33092 217.25876 219.30160 221.39644 223.47928
 225.53912 227.62297 229.71981 231.82565 233.95449 236.12633 238.38217 240.75202
 243.37286 245.62370 247.62554 249.39038 250.80722 251.93006 252.75191 253.06775
 253.10459 252.87843 252.23827 251.18611 249.79195 247.95280 245.86164 243.69448
 241.48532 239.28916 237.10900 234.94785 232.80769 230.67453 228.70037 226.85721
 225.14005 223.61189 222.24174 221.01358 219.89542 218.85526 217.95910 217.09994
 216.34179 215.52163 214.61947 213.98331 213.43315 213.07715 212.23605 211.70341
 211.48924 211.96867 213.15555 215.23495 218.27422 222.88527 228.90465 233.84537
 237.61993 241.46997 245.58507 249.93291 254.23787 258.00366 260.79996 262.75751
 265.02081 267.62131 270.05710 271.75168 273.72702 275.89673 277.58820 279.09106
 280.62863 282.09766 283.49442 284.84927 286.02991 287.07660 288.03357 288.90573
 289.69513 290.40359 291.02917 291.86557
 366.78100 356.33462 345.76625 334.63187 323.03449 311.22812 299.09774 286.90036
 274.61199 262.50861 250.51723 239.81786 229.93948 221.04311 213.22473 206.22635
 200.05998 194.99760 191.57922 189.62085 188.65747 188.72109 189.55572 190.86334
 192.58796 194.68259 196.94521 199.30383 201.74846 204.22808 206.31570 208.15733
 209.78295 210.92757 211.15620 211.38382 211.32044 211.02507 210.65769 210.28732
 209.90394 209.61356 209.42119 209.28481 209.21243 209.54306 209.92868 210.31730
 211.10993 212.28755 213.53717 215.31980 217.24742 219.29004 221.38467 223.46729
 225.52691 227.61054 229.70716 231.81278 233.94141 236.11303 238.36865 240.73828
 243.35890 245.60953 247.61115 249.37577 250.79240 251.91502 252.73664 253.05227
 253.08889 252.86251 252.22214 251.16976 249.77538 247.93601 245.84463 243.67725
 241.46788 239.27150 237.09112 234.92975 232.78937 230.65599 228.68162 226.83824
 225.12086 223.59249 222.22211 220.99374 219.87536 218.83498 217.93861 217.07923
 216.32085 215.50048 214.59810 213.96172 213.41135 213.09326 212.34177 211.82538
 211.49374 212.00160 213.18106 215.27406 218.30859 222.82835 228.84686 233.75594
 237.51677 241.36870 245.49084 249.86125 254.21947 257.97443 260.75363 262.73328
 264.95117 267.51291 269.94937 271.65756 273.63846 275.81122 277.53732 279.06534
 280.59024 282.04141 283.42578 284.77985 285.96109 287.00864 287.96606 288.83820
 289.62775 290.33646 290.96048 291.80188
 366.78100 356.33451 345.76602 334.63153 323.03405 311.22756 299.09707 286.89958
 274.61109 262.50760 250.51611 239.81662 229.93814 221.04165 213.22316 206.22467
 200.05818 194.99569 191.57720 189.61871 188.65523 188.71874 189.55325 190.86076
 192.58527 194.67978 196.94229 199.30081 201.74532 204.22483 206.31234 208.15385
 209.77936 210.92387 211.15238 211.37990 211.31641 211.02092 210.65343 210.28294
 209.89945 209.60896 209.41648 209.27999 209.20750 209.53801 209.92352 210.31203
 211.10454 212.28205 213.53157 215.31408 217.24159 219.28410 221.37861 223.46112
 225.52063 227.60414 229.70066 231.80617 233.93468 236.10619 238.36170 240.73121
 243.35172 245.60224 247.60375 249.36826 250.78477 251.90728 252.72879 253.04430
 253.08081 252.85433 252.21384 251.16135 249.76686 247.92737 245.83588 243.66839
 241.45890 239.26242 237.08193 234.92044 232.77995 230.64646 228.67197 226.82848
 225.11100 223.58251 222.21202 220.98353 219.86504 218.82455 217.92806 217.06857
 216.31009 215.48960 214.58711 213.95062 213.40013 213.11525 212.44217 211.94228
 211.50746 212.02800 213.23456 215.32095 218.32021 222.76471 228.78122 233.66943
 237.42018 241.27390 245.40186 249.79411 254.20114 257.94196 260.70193 262.70145
 264.87891 267.40512 269.84106 271.56595 273.55234 275.72821 277.48480 279.03671
 280.55106 281.98578 283.36185 284.71677 285.89676 286.94464 287.90179 288.77585
 289.56491 290.27441 290.90030 291.73959
 366.78100 356.33456 345.76613 334.63169 323.03425 311.22781 299.09738 286.89994
 274.61150 262.50806 250.51663 239.81719 229.93875 221.04232 213.22388 206.22544
 200.05900 194.99657 191.57813 189.61969 188.65625 188.71982 189.55438 190.86194
 192.58651 194.68107 196.94363 199.30219 201.74676 204.22632 206.31388 208.15544
 209.78101 210.92557 211.15413 211.38170 211.31826 211.02282 210.65538 210.28495
 209.90151 209.61107 209.41863 209.28220 209.20976 209.54032 209.92589 210.31445
 211.10701 212.28457 213.53414 215.31670 217.24426 219.28682 221.38139 223.46395
 225.52351 227.60708 229.70364 231.80920 233.93776 236.10933 238.36489 240.73445
 243.35502 245.60558 247.60714 249.37170 250.78827 251.91083 252.73239 253.04795
 253.08452 252.85808 252.21764 251.16521 249.77077 247.93133 245.83989 243.67246
 241.46302 239.26658 237.08614 234.92471 232.78427 230.65083 228.67640 226.83296
 225.11552 223.58708 222.21665 220.98821 219.86977 218.82933 217.93290 217.07346
 216.31502 215.49459 214.59215 213.95571 213.40527 213.14607 212.53369 212.04881
 211.54370 212.04942 213.28987 215.37144 218.31725 222.70946 228.71864 233.58864
 237.32744 241.18053 245.31519 249.72878 254.18114 257.90262 260.63965 262.65921
 264.80319 267.29776 269.73288 271.47705 273.47015 275.64749 277.43066 279.00607
 280.51367 281.93503 283.30283 284.65729 285.83813 286.88519 287.84329 288.71735
 289.50824 290.21667 290.84271 291.68484
 366.78100 356.33480 345.76660 334.63241 323.03521 311.22901 299.09881 286.90162
 274.61342 262.51022 250.51902 239.81982 229.94163 221.04543 213.22723 206.22903
 200.06283 195.00064 191.58244 189.62424 188.66104 188.72485 189.55965 190.86745
 192.59225 194.68705 196.94986 199.30866 201.75346 204.23326 206.32106 208.16287
 209.78867 210.93347 211.16227 211.39008 211.32688 211.03168 210.66448 210.29428
 209.91109 209.62089 209.42869 209.29249 209.22029 209.55110 209.93690 210.32570
 211.11850 212.29631 213.54611 215.32891 217.25671 219.29951 221.39432 223.47712
 225.53692 227.62072 229.71752 231.82333 233.95213 236.12393 238.37973 240.74954
 243.37034 245.62114 247.62294 249.38774 250.80455 251.92735 252.74915 253.06495
 253.10175 252.87556 252.23536 251.18316 249.78896 247.94977 245.85857 243.69137
 241.48217 239.28597 237.10578 234.94458 232.80438 230.67118 228.69698 226.85379
 225.13659 223.60839 222.23819 221.01000 219.89180 218.85160 217.95540 217.09620
 216.33801 215.51781 214.61561 213.97941 213.42921 213.18686 212.61424 212.14912
 211.59799 212.06889 213.34247 215.42328 218.31335 222.66362 228.66252 233.50670
 237.23012 241.08417 245.23010 249.66667 254.15788 257.85693 260.56808 262.60565
 264.72391 267.19064 269.62674 271.39191 273.39334 275.57126 277.37708 278.97253
 280.47696 281.88968 283.25058 284.60434 285.78613 286.83322 287.79263 288.66599
 289.45633 290.16605 290.79242 291.63547
 366.78100 356.33516 345.76732 334.63348 323.03665 311.23081 299.10097 286.90413
 274.61629 262.51345 250.52261 239.82377 229.94594 221.05010 213.23226 206.23442
 200.06858 195.00674 191.58890 189.63107 188.66823 188.73239 189.56755 190.87571
 192.60087 194.69603 196.95919 199.31836 201.76352 204.24368 206.33184 208.17400
 209.80016 210.94532 211.17449 211.40265 211.33981 211.04497 210.67813 210.30829
 209.92545 209.63561 209.44378 209.30794 209.23610 209.56726 209.95342 210.34258
 211.13574 212.31391 213.56407 215.34723 217.27539 219.31855 221.41371 223.49687
 225.55703 227.64120 229.73836 231.84452 233.97368 236.14584 238.40200 240.77216
 243.39333 245.64449 247.64665 249.41181 250.82897 251.95213 252.77429 253.09045
 253.12762 252.90178 252.26194 251.21010 249.81626 247.97742 245.88658 243.71975
 241.51091 239.31507 237.13523 234.97439 232.83455 230.70171 228.72787 226.88504
 225.16820 223.64036 222.27052 221.04268 219.92484 218.88500 217.98917 217.13033
 216.37249 215.55265 214.65081 214.01497 213.46513 213.23369 212.68686 212.24596
 211.66069 212.08949 213.39409 215.47496 218.31731 222.62369 228.60947 233.42233
 237.12955 240.98740 245.14767 249.60887 254.13066 257.80362 260.48648 262.53857
 264.63968 267.08615 269.52267 271.31107 273.32294 275.50192 277.32410 278.93454
 280.44003 281.84607 283.20535 284.55975 285.74100 286.78882 287.74857 288.62112
 289.41306 290.12286 290.75000 291.59088
 366.78100 356.33560 345.76821 334.63481 323.03842 311.23302 299.10363 286.90723
 274.61984 262.51744 250.52705 239.82865 229.95126 221.05586 213.23846 206.24107
 200.07567 195.01428 191.59688 189.63949 188.67709 188.74170 189.57730 190.88591
 192.61151 194.70712 196.97072 199.33032 201.77593 204.25653 206.34514 208.18774
 209.81435 210.95995 211.18956 211.41816 211.35577 211.06137 210.69497 210.32558
 209.94318 209.65379 209.46239 209.32700 209.25560 209.58721 209.97381 210.36342
 211.15702 212.33563 213.58623 215.36983 217.29844 219.34204 221.43765 223.52125
 225.58186 227.66646 229.76407 231.87067 234.00028 236.17288 238.42949 240.80009
 243.42169 245.67330 247.67590 249.44151 250.85911 251.98272 252.80532 253.12193
 253.15953 252.93414 252.29474 251.24335 249.84995 248.01155 245.92116 243.75476
 241.54637 239.35097 237.17158 235.01118 232.87179 230.73939 228.76600 226.92360
 225.20721 223.67981 222.31041 221.08302 219.96562 218.92623 218.03083 217.17244
 216.41504 215.59565 214.69425 214.05886 213.50946 213.28468 212.75365 212.33965
 211.73035 212.11128 213.44310 215.52946 218.33144 222.58705 228.55592 233.33757
 237.02837 240.89223 245.07027 249.55577 254.09930 257.74194 260.39304 262.45499
 264.54828 266.98325 269.42050 271.23505 273.25980 275.44009 277.27304 278.89355
 280.40216 281.80627 283.16934 284.52429 285.70584 286.75391 287.71490 288.58893
 289.37848 290.08948 290.71628 291.55887
 366.78100 356.33611 345.76923 334.63634 323.04046 311.23557 299.10669 286.91080
 274.62391 262.52203 250.53214 239.83426 229.95737 221.06249 213.24560 206.24871
 200.08383 195.02294 191.60606 189.64917 188.68728 188.75240 189.58851 190.89763
 192.62374 194.71986 196.98397 199.34408 201.79020 204.27131 206.36043 208.20354
 209.83066 210.97677 211.20688 211.43600 211.37411 211.08023 210.71434 210.34546
 209.96357 209.67468 209.48380 209.34891 209.27803 209.61014 209.99726 210.38737
 211.18148 212.36060 213.61171 215.39583 217.32494 219.36906 221.46517 223.54928
 225.61040 227.69551 229.79363 231.90074 234.03085 236.20397 238.46108 240.83220
 243.45431 245.70643 247.70954 249.47565 250.89377 252.01788 252.84100 253.15811
 253.19623 252.97134 252.33245 251.28157 249.88868 248.05080 245.96091 243.79503
 241.58714 239.39225 237.21337 235.05348 232.91460 230.78271 228.80983 226.96794
 225.25205 223.72517 222.35628 221.12940 220.01251 218.97363 218.07874 217.22085
 216.46397 215.64508 214.74420 214.10931 213.56042 213.33890 212.81554 212.42752
 211.80894 212.13689 213.48512 215.58638 218.35603 222.55301 228.49841 233.25348
 236.93059 240.80119 244.99872 249.50827 254.06508 257.67288 260.28662 262.35135
 264.44852 266.88031 269.31863 271.16125 273.20297 275.38602 277.22357 278.85043
 280.36716 281.77292 283.14346 284.49847 285.68082 286.72870 287.69022 288.56287
 289.35434 290.06497 290.69009 291.53571
 366.78100 356.33685 345.77071 334.63856 323.04342 311.23927 299.11112 286.91598
 274.62983 262.52869 250.53954 239.84239 229.96625 221.07210 213.25596 206.25981
 200.09566 195.03552 191.61937 189.66323 188.70208 188.76793 189.60479 190.91464
 192.64150 194.73835 197.00320 199.36406 201.81091 204.29277 206.38262 208.22647
 209.85433 211.00118 211.23204 211.46189 211.40074 211.10760 210.74245 210.37431
 209.99316 209.70501 209.51487 209.38072 209.31058 209.64343 210.03128 210.42214
 211.21699 212.39685 213.64870 215.43355 217.36341 219.40826 221.50512 223.58997
 225.65182 227.73768 229.83653 231.94439 234.07524 236.24909 238.50695 240.87880
 243.50166 245.75451 247.75836 249.52522 250.94407 252.06893 252.89278 253.21063
 253.24949 253.02534 252.38720 251.33705 249.94490 248.10776 246.01861 243.85347
 241.64632 239.45217 237.27403 235.11488 232.97674 230.84559 228.87344 227.03230
 225.31715 223.79101 222.42286 221.19671 220.08057 219.04242 218.14828 217.29113
 216.53498 215.71684 214.81669 214.18255 213.63440 213.40471 212.86201 212.51773
 211.89552 212.16138 213.52539 215.65302 218.38573 222.51985 228.43777 233.16794
 236.83437 240.71294 244.93306 249.46695 254.02730 257.59561 260.16800 262.22983
 264.34286 266.77798 269.21667 271.09036 273.15234 275.33749 277.17392 278.80508
 280.33514 281.74948 283.12680 284.48343 285.66531 286.71466 287.67392 288.54822
 289.34067 290.04990 290.67792 291.52048
 366.78100 356.33763 345.77227 334.64090 323.04654 311.24317 299.11580 286.92144
 274.63607 262.53571 250.54734 239.85097 229.97561 221.08224 213.26688 206.27151
 200.10814 195.04878 191.63341 189.67805 188.71768 188.78431 189.62195 190.93258
 192.66022 194.75785 197.02348 199.38512 201.83275 204.31539 206.40602 208.25065
 209.87929 211.02692 211.25856 211.48919 211.42882 211.13646 210.77209 210.40473
 210.02436 209.73699 209.54763 209.41426 209.34490 209.67853 210.06717 210.45880
 211.25443 212.43507 213.68770 215.47334 217.40397 219.44960 221.54724 223.63287
 225.69551 227.78214 229.88177 231.99041 234.12204 236.29668 238.55531 240.92794
 243.55158 245.80521 247.80985 249.57748 250.99711 252.12275 252.94738 253.26602
 253.30565 253.08228 252.44492 251.39555 250.00419 248.16782 246.07945 243.91509
 241.70872 239.51536 237.33799 235.17962 233.04226 230.91189 228.94053 227.10016
 225.38579 223.86043 222.49306 221.26770 220.15233 219.11496 218.22160 217.36523
 216.60987 215.79250 214.89313 214.25977 213.71240 213.47270 212.90639 212.59204
 211.99889 212.19496 213.57199 215.71504 218.40555 222.48830 228.37808 233.08055
 236.73807 240.62674 244.87309 249.43079 253.98683 257.51212 260.04019 262.09290
 264.23251 266.67703 269.11502 271.02243 273.10712 275.29462 277.12527 278.75830
 280.30695 281.73514 283.12198 284.47723 285.65979 286.70782 287.66901 288.54187
 289.33517 290.04462 290.67203 291.51453
 366.78100 356.33880 345.77460 334.64440 323.05120 311.24900 299.12280 286.92960
 274.64540 262.54620 250.55900 239.86380 229.98960 221.09741 213.28321 206.28901
 200.12681 195.06861 191.65441 189.70021 188.74101 188.80881 189.64761 190.95941
 192.68821 194.78701 197.05381 199.41661 201.86541 204.34921 206.44101 208.28681
 209.91661 211.06541 211.29821 211.53001 211.47081 211.17961 210.81642 210.45022
 210.07102 209.78482 209.59662 209.46442 209.39622 209.73102 210.12082 210.51362
 211.31042 212.49222 213.74602 215.53282 217.46462 219.51142 221.61022 223.69702
 225.76082 227.84862 229.94942 232.05922 234.19202 236.36782 238.62763 241.00143
 243.62623 245.88103 247.88683 249.65563 251.07643 252.20323 253.02903 253.34883
 253.38963 253.16743 252.53123 251.48303 250.09283 248.25763 246.17043 244.00723
 241.80203 239.60983 237.43363 235.27643 233.14023 231.01103 229.04083 227.20164
 225.48844 223.96424 222.59804 221.37384 220.25964 219.22344 218.33124 217.47604
 216.72184 215.90564 215.00744 214.37524 213.82904 213.55988 212.92393 212.68068
 212.10587 212.22922 213.60725 215.79054 218.44667 222.44940 228.31293 232.98914
 236.63913 240.54028 244.81770 249.39893 253.94167 257.41965 259.89999 261.93985
 264.11707 266.57736 269.01505 270.96054 273.07007 275.26031 277.08173 278.71213
 280.28250 281.73071 283.12283 284.48090 285.66211 286.71042 287.67078 288.54559
 289.33649 290.04550 290.67477 291.51688
 366.78100 356.34022 345.77743 334.64865 323.05686 311.25608 299.13130 286.93951
 274.65673 262.55894 250.57316 239.87938 230.00659 221.11581 213.30302 206.31024
 200.14946 195.09267 191.67989 189.72710 188.76932 188.83854 189.67875 190.99197
 192.72218 194.82240 197.09062 199.45483 201.90505 204.39026 206.48348 208.33069
 209.96191 211.11213 211.34634 211.57956 211.52177 211.23199 210.87021 210.50542
 210.12764 209.84285 209.65607 209.52529 209.45850 209.79472 210.18593 210.58015
 211.37837 212.56158 213.81680 215.60501 217.53823 219.58645 221.68666 223.77488
 225.84009 227.92931 230.03153 232.14274 234.27696 236.45417 238.71539 241.09061
 243.71682 245.97304 247.98025 249.75047 251.17269 252.30090 253.12812 253.44933
 253.49155 253.27077 252.63598 251.58920 250.20041 248.36663 246.28085 244.11906
 241.91528 239.72449 237.54971 235.39392 233.25914 231.13136 229.16257 227.32479
 225.61300 224.09022 222.72544 221.50265 220.38987 219.35508 218.46430 217.61052
 216.85773 216.04295 215.14616 214.51538 213.97060 213.65994 212.92596 212.75967
 212.23833 212.26262 213.69006 215.85957 218.43285 222.40698 228.24646 232.89127
 236.53569 240.45247 244.76505 249.37010 253.89122 257.31900 259.75150 261.77759
 264.00278 266.48392 268.91995 270.90720 273.04294 275.23401 277.04282 278.66882
 280.26318 281.73227 283.13223 284.48938 285.67081 286.72040 287.67892 288.55377
 289.34534 290.05478 290.68475 291.52594
 366.78100 356.34107 345.77914 334.65121 323.06028 311.26035 299.13642 286.94549
 274.66356 262.56663 250.58170 239.88878 230.01685 221.12692 213.31499 206.32306
 200.16313 195.10720 191.69527 189.74334 188.78641 188.85648 189.69755 191.01162
 192.74269 194.84376 197.11283 199.47790 201.92897 204.41504 206.50911 208.35718
 209.98925 211.14033 211.37540 211.60947 211.55254 211.26361 210.90268 210.53875
 210.16182 209.87789 209.69196 209.56203 209.49610 209.83317 210.22524 210.62031
 211.41938 212.60345 213.85952 215.64859 217.58266 219.63173 221.73280 223.82188
 225.88795 227.97802 230.08109 232.19316 234.32823 236.50630 238.76837 241.14444
 243.77151 246.02858 248.03665 249.80772 251.23079 252.35986 253.18793 253.51000
 253.55307 253.33314 252.69921 251.65328 250.26535 248.43243 246.34750 244.18657
 241.98364 239.79371 237.61978 235.46485 233.33092 231.20399 229.23606 227.39913
 225.68820 224.16627 222.80234 221.58041 220.46848 219.43455 218.54462 217.69169
 216.93976 216.12583 215.22990 214.59998 214.05605 213.73376 212.97234 212.75031
 212.41489 212.44579 213.69580 215.84239 218.44725 222.33972 228.17610 232.79298
 236.43034 240.36673 244.71742 249.34509 253.83832 257.21707 259.60364 261.61386
 263.89133 266.39450 268.82758 270.85742 273.01868 275.20929 277.00253 278.62088
 280.24173 281.73560 283.14615 284.50354 285.68600 286.73425 287.69440 288.56805
 289.36005 290.06989 290.69696 291.54053
 366.78100 356.34155 345.78010 334.65266 323.06221 311.26276 299.13931 286.94887
 274.66742 262.57097 250.58652 239.89408 230.02263 221.13318 213.32173 206.33028
 200.17084 195.11539 191.70394 189.75249 188.79605 188.86660 189.70815 191.02270
 192.75426 194.85581 197.12536 199.49091 201.94247 204.42902 206.52357 208.37212
 210.00467 211.15623 211.39178 211.62633 211.56988 211.28144 210.92099 210.55754
 210.18109 209.89765 209.71220 209.58275 209.51730 209.85485 210.24741 210.64296
 211.44251 212.62706 213.88362 215.67317 217.60772 219.65727 221.75883 223.84838
 225.91493 228.00548 230.10904 232.22159 234.35714 236.53569 238.79824 241.17480
 243.80235 246.05990 248.06845 249.84001 251.26356 252.39311 253.22166 253.54422
 253.58777 253.36832 252.73487 251.68942 250.30198 248.46953 246.38508 244.22463
 242.02219 239.83274 237.65929 235.50484 233.37140 231.24495 229.27750 227.44105
 225.73060 224.20916 222.84571 221.62426 220.51281 219.47937 218.58992 217.73747
 216.98602 216.17258 215.27713 214.64768 214.10423 213.78941 213.04561 212.74091
 212.51358 212.60129 213.69534 215.87225 218.53178 222.29445 228.10526 232.69937
 236.33188 240.28897 244.67696 249.32367 253.78444 257.11450 259.45523 261.44571
 263.77771 266.30444 268.73141 270.80386 272.99219 275.18311 276.95566 278.56808
 280.21942 281.73969 283.16400 284.52197 285.70358 286.75247 287.71255 288.58533
 289.37732 290.08771 290.71259 291.56070
 366.78100 356.34259 345.78218 334.65578 323.06637 311.26796 299.14555 286.95615
 274.67574 262.58033 250.59692 239.90552 230.03511 221.14670 213.33629 206.34589
 200.18748 195.13307 191.72266 189.77225 188.81685 188.88844 189.73103 191.04662
 192.77922 194.88181 197.15240 199.51899 201.97159 204.45918 206.55477 208.40436
 210.03796 211.19055 211.42714 211.66273 211.60733 211.31992 210.96051 210.59810
 210.22269 209.94029 209.75588 209.62747 209.56306 209.90166 210.29525 210.69184
 211.49243 212.67803 213.93562 215.72621 217.66180 219.71240 221.81499 223.90558
 225.97317 228.06476 230.16936 232.28295 234.41954 236.59913 238.86273 241.24032
 243.86891 246.12750 248.13710 249.90969 251.33428 252.46487 253.29447 253.61806
 253.66265 253.44424 252.81184 251.76743 250.38102 248.54961 246.46620 244.30680
 242.10539 239.91698 237.74457 235.59117 233.45876 231.33335 229.36694 227.53154
 225.82213 224.30172 222.93931 221.71891 220.60850 219.57609 218.68768 217.83627
 217.08587 216.27346 215.37905 214.75064 214.20824 213.87154 213.07603 212.79332
 212.54572 212.71939 213.74896 215.94455 218.61174 222.25632 228.03107 232.60097
 236.23366 240.21449 244.64018 249.30267 253.72536 257.00513 259.29968 261.27005
 263.66132 266.21350 268.63422 270.75082 272.96780 275.15790 276.90970 278.51520
 280.19772 281.74518 283.18387 284.54208 285.72354 286.77206 287.73148 288.60498
 289.39658 290.10797 290.73108 291.57892
 366.78100 356.34385 345.78470 334.65955 323.07140 311.27425 299.15310 286.96495
 274.68580 262.59165 250.60950 239.91935 230.05020 221.16305 213.35390 206.36475
 200.20760 195.15445 191.74530 189.79615 188.84200 188.91485 189.75870 191.07555
 192.80940 194.91325 197.18510 199.55295 202.00680 204.49565 206.59250 208.44335
 210.07819 211.23204 211.46989 211.70674 211.65259 211.36644 211.00829 210.64714
 210.27299 209.99184 209.80869 209.68154 209.61839 209.95824 210.35309 210.75094
 211.55279 212.73964 213.99849 215.79034 217.72719 219.77904 221.88289 223.97474
 226.04359 228.13644 230.24229 232.35714 234.49499 236.67584 238.94069 241.31954
 243.94939 246.20924 248.22009 249.99394 251.41979 252.55164 253.38249 253.70734
 253.75319 253.53604 252.90489 251.86174 250.47659 248.64644 246.56429 244.40614
 242.20599 240.01884 237.84769 235.69554 233.56439 231.44024 229.47509 227.64094
 225.93279 224.41364 223.05249 221.83334 220.72419 219.69304 218.80589 217.95574
 217.20658 216.39543 215.50228 214.87513 214.33398 213.96356 213.08839 212.86511
 212.56831 212.81458 213.85704 216.01953 218.65897 222.21466 227.95502 232.49908
 236.13696 240.14435 244.60739 249.28188 253.66138 256.89008 259.14032 261.09369
 263.54681 266.12488 268.53992 270.70053 272.94620 275.13568 276.86627 278.46576
 280.17786 281.74805 283.20276 284.56311 285.74466 286.79248 287.75156 288.62469
 289.41544 290.12628 290.75092 291.59314
 366.78100 356.34478 345.78656 334.66234 323.07511 311.27889 299.15867 286.97145
 274.69323 262.60001 250.61878 239.92956 230.06134 221.17512 213.36690 206.37868
 200.22246 195.17023 191.76201 189.81379 188.86057 188.93435 189.77913 191.09691
 192.83168 194.93646 197.20924 199.57802 202.03280 204.52258 206.62035 208.47213
 210.10791 211.26269 211.50147 211.73925 211.68603 211.40080 211.04358 210.68336
 210.31014 210.02992 209.84770 209.72148 209.65925 210.00003 210.39581 210.79459
 211.59737 212.78515 214.04492 215.83770 217.77548 219.82826 221.93304 224.02582
 226.09560 228.18937 230.29615 232.41193 234.55071 236.73249 238.99827 241.37805
 244.00882 246.26960 248.28138 250.05616 251.48294 252.61572 253.44749 253.77327
 253.82005 253.60383 252.97361 251.93139 250.54717 248.71794 246.63672 244.47950
 242.28028 240.09406 237.92384 235.77261 233.64239 231.51917 229.55495 227.72173
 226.01451 224.49629 223.13606 221.91784 220.80962 219.77940 218.89318 218.04396
 217.29574 216.48551 215.59329 214.96707 214.42685 214.03815 213.11983 212.91389
 212.61058 212.89658 213.98615 216.08763 218.68871 222.16835 227.87726 232.40089
 236.04657 240.08121 244.57855 249.26039 253.59178 256.76920 258.97714 260.91864
 263.43491 266.03946 268.45013 270.65445 272.92773 275.11591 276.82602 278.41769
 280.15826 281.74554 283.22144 284.58154 285.76309 286.80957 287.76917 288.64142
 289.43274 290.14148 290.76770 291.60861
 366.78100 356.34540 345.78779 334.66419 323.07759 311.28199 299.16238 286.97578
 274.69818 262.60558 250.62497 239.93637 230.06877 221.18317 213.37556 206.38796
 200.23236 195.18076 191.77315 189.82555 188.87295 188.94735 189.79274 191.11114
 192.84654 194.95193 197.22533 199.59473 202.05013 204.54052 206.63892 208.49132
 210.12772 211.28311 211.52251 211.76091 211.70831 211.42370 211.06710 210.70750
 210.33490 210.05529 209.87369 209.74809 209.68649 210.02788 210.42428 210.82368
 211.62707 212.81547 214.07587 215.86927 217.80766 219.86106 221.96646 224.05986
 226.13025 228.22465 230.33205 232.44845 234.58784 236.77024 239.03664 241.41704
 244.04843 246.30983 248.32223 250.09763 251.52502 252.65842 253.49082 253.81721
 253.86461 253.64901 253.01941 251.97780 250.59420 248.76560 246.68500 244.52839
 242.32979 240.14419 237.97459 235.82398 233.69438 231.57178 229.60818 227.77557
 226.06897 224.55137 223.19177 221.97416 220.86656 219.83696 218.95135 218.10275
 217.35515 216.54555 215.65394 215.02834 214.48874 214.09605 213.16829 212.94356
 212.66803 212.97630 214.11432 216.15787 218.70819 222.11964 227.79967 232.31006
 235.96463 240.02507 244.55261 249.23560 253.51466 256.64001 258.81036 260.74768
 263.32706 265.95840 268.36530 270.61200 272.91037 275.09662 276.78622 278.37137
 280.13739 281.73978 283.23749 284.59726 285.77847 286.82614 287.78479 288.65582
 289.44586 290.15512 290.77988 291.62219
 366.78100 356.34597 345.78894 334.66591 323.07987 311.28484 299.16581 286.97978
 274.70275 262.61072 250.63068 239.94265 230.07562 221.19059 213.38356 206.39653
 200.24149 195.19046 191.78343 189.83640 188.88437 188.95934 189.80530 191.12427
 192.86024 194.96621 197.24018 199.61015 202.06611 204.55708 206.65605 208.50902
 210.14599 211.30196 211.54192 211.78089 211.72886 211.44483 211.08880 210.72977
 210.35773 210.07870 209.89767 209.77264 209.71161 210.05358 210.45055 210.85051
 211.65448 212.84345 214.10442 215.89839 217.83736 219.89132 221.99729 224.09126
 226.16223 228.25720 230.36517 232.48213 234.62210 236.80507 239.07204 241.45301
 244.08498 246.34694 248.35991 250.13588 251.56385 252.69782 253.53079 253.85775
 253.90572 253.69069 253.06166 252.02063 250.63760 248.80956 246.72953 244.57350
 242.37547 240.19044 238.02141 235.87138 233.74234 231.62031 229.65728 227.82525
 226.11922 224.60219 223.24315 222.02612 220.91909 219.89006 219.00503 218.15700
 217.40996 216.60093 215.70990 215.08487 214.54584 214.15015 213.21530 212.97130
 212.73378 213.05670 214.23192 216.23460 218.72411 222.07675 227.72229 232.22079
 235.88678 239.97359 244.52757 249.20583 253.42787 256.50223 258.64212 260.58438
 263.22403 265.88156 268.28693 270.57397 272.89514 275.07800 276.74823 278.32748
 280.11362 281.72827 283.24680 284.60632 285.78702 286.83331 287.79092 288.66452
 289.45361 290.16351 290.78604 291.63193
 366.78100 356.34655 345.79009 334.66764 323.08219 311.28774 299.16928 286.98383
 274.70738 262.61593 250.63647 239.94902 230.08257 221.19812 213.39166 206.40521
 200.25076 195.20031 191.79385 189.84740 188.89595 188.97150 189.81804 191.13759
 192.87414 194.98069 197.25523 199.62578 202.08233 204.57388 206.67342 208.52697
 210.16452 211.32107 211.56161 211.80116 211.74971 211.46626 211.11080 210.75235
 210.38090 210.10245 209.92199 209.79754 209.73709 210.07964 210.47718 210.87773
 211.68228 212.87182 214.13337 215.92792 217.86747 219.92201 222.02856 224.12311
 226.19466 228.29020 230.39875 232.51630 234.65685 236.84039 239.10794 241.48949
 244.12204 246.38458 248.39813 250.17468 251.60323 252.73777 253.57132 253.89887
 253.94742 253.73296 253.10451 252.06406 250.68161 248.85415 246.77470 244.61925
 242.42180 240.23734 238.06889 235.91944 233.79099 231.66953 229.70708 227.87563
 226.17018 224.65372 223.29527 222.07882 220.97236 219.94391 219.05946 218.21201
 217.46555 216.65710 215.76665 215.14220 214.60374 214.20296 213.25607 213.00249
 212.80333 213.13957 214.34097 216.30920 218.73112 222.03709 227.64757 232.13231
 235.81274 239.92685 244.50291 249.16930 253.33157 256.35730 258.47479 260.43216
 263.12732 265.80853 268.21585 270.53979 272.88010 275.06168 276.71408 278.28659
 280.08826 281.71521 283.24527 284.60507 285.78601 286.83347 287.79001 288.66006
 289.45218 290.15781 290.78403 291.62277
 366.78100 356.34714 345.79129 334.66943 323.08457 311.29072 299.17286 286.98800
 274.71215 262.62129 250.64243 239.95557 230.08972 221.20586 213.40000 206.41415
 200.26029 195.21043 191.80458 189.85872 188.90786 188.98401 189.83115 191.15129
 192.88844 194.99558 197.27072 199.64187 202.09901 204.59115 206.69129 208.54544
 210.18358 211.34072 211.58187 211.82201 211.77115 211.48830 211.13344 210.77558
 210.40473 210.12687 209.94701 209.82316 209.76330 210.10644 210.50458 210.90573
 211.71087 212.90101 214.16316 215.95830 217.89844 219.95359 222.06073 224.15587
 226.22802 228.32416 230.43330 232.55145 234.69259 236.87673 239.14488 241.52702
 244.16016 246.42330 248.43745 250.21459 251.64373 252.77888 253.61302 253.94116
 253.99031 253.77645 253.14859 252.10874 250.72688 248.90002 246.82117 244.66631
 242.46945 240.28560 238.11774 235.96888 233.84102 231.72017 229.75831 227.92745
 226.22260 224.70674 223.34888 222.13303 221.02717 219.99931 219.11546 218.26860
 217.52274 216.71489 215.82503 215.20117 214.66331 214.25494 213.29012 213.03816
 212.88054 213.21773 214.44576 216.37862 218.72696 222.00140 227.57634 232.04309
 235.74138 239.88486 244.47801 249.12448 253.22534 256.20520 258.30988 260.29227
 263.03799 265.74081 268.15344 270.51126 272.86823 275.04861 276.68750 278.25189
 280.06082 281.69629 283.23425 284.59506 285.77631 286.82178 287.78046 288.65109
 289.43967 290.14987 290.77365 291.61145
 366.78100 356.34768 345.79236 334.67104 323.08673 311.29341 299.17609 286.99177
 274.71645 262.62613 250.64781 239.96150 230.09618 221.21286 213.40754 206.42222
 200.26890 195.21959 191.81427 189.86895 188.91863 188.99531 189.84299 191.16367
 192.90136 195.00904 197.28472 199.65640 202.11408 204.60676 206.70744 208.56213
 210.20081 211.35849 211.60017 211.84085 211.79053 211.50821 211.15390 210.79658
 210.42626 210.14894 209.96962 209.84630 209.78699 210.13067 210.52935 210.93103
 211.73671 212.92739 214.19007 215.98576 217.92644 219.98212 222.08980 224.18548
 226.25816 228.35484 230.46453 232.58321 234.72489 236.90957 239.17825 241.56093
 244.19461 246.45830 248.47298 250.25066 251.68034 252.81602 253.65070 253.97938
 254.02907 253.81575 253.18843 252.14911 250.76779 248.94147 246.86316 244.70884
 242.51252 240.32920 238.16188 236.01356 233.88624 231.76593 229.80461 227.97429
 226.26997 224.75465 223.39733 222.18201 221.07670 220.04938 219.16606 218.31974
 217.57442 216.76710 215.87778 215.25447 214.71715 214.30246 213.32268 213.07585
 212.96719 213.29430 214.54176 216.44069 218.72466 221.96544 227.49942 231.95369
 235.67592 239.84991 244.45357 249.07191 253.10913 256.04407 258.14325 260.16281
 262.95343 265.67767 268.10089 270.48892 272.86166 275.04324 276.66956 278.22446
 280.03159 281.67175 283.21249 284.57376 285.75549 286.80118 287.75943 288.63141
 289.42078 290.13019 290.75226 291.58875
 366.78100 356.34827 345.79353 334.67280 323.08906 311.29633 299.17960 286.99586
 274.72113 262.63140 250.65366 239.96793 230.10319 221.22046 213.41573 206.43099
 200.27826 195.22953 191.82479 189.88006 188.93032 189.00759 189.85586 191.17712
 192.91539 195.02365 197.29992 199.67219 202.13045 204.62372 206.72499 208.58025
 210.21952 211.37778 211.62005 211.86132 211.81158 211.52985 211.17612 210.81938
 210.44965 210.17291 209.99418 209.87145 209.81271 210.15698 210.55624 210.95851
 211.76478 212.95604 214.21931 216.01558 217.95684 220.01311 222.12137 224.21764
 226.29091 228.38817 230.49844 232.61771 234.75997 236.94524 239.21450 241.59777
 244.23204 246.49630 248.51157 250.28984 251.72010 252.85637 253.69163 254.02090
 254.07117 253.85843 253.23170 252.19296 250.81223 248.98650 246.90876 244.75503
 242.55930 240.37656 238.20983 236.06209 233.93536 231.81563 229.85489 228.02516
 226.32143 224.80669 223.44996 222.23522 221.13049 220.10376 219.22102 218.37529
 217.63055 216.82382 215.93509 215.31235 214.77562 214.35081 213.34718 213.12274
 213.05998 213.36621 214.63440 216.49483 218.70604 221.92886 227.42638 231.86951
 235.61839 239.82164 244.42876 249.00969 252.97997 255.87065 257.97321 260.04269
 262.87418 265.61993 268.05853 270.47437 272.86221 275.04575 276.66138 278.20099
 279.99847 281.63928 283.18173 284.54489 285.72461 286.77350 287.72937 288.60281
 289.39294 290.09888 290.72424 291.56516
 366.78100 356.34867 345.79435 334.67402 323.09069 311.29837 299.18204 286.99871
 274.72439 262.63506 250.65773 239.97241 230.10808 221.22575 213.42143 206.43710
 200.28477 195.23645 191.83212 189.88779 188.93847 189.01614 189.86481 191.18649
 192.92516 195.03383 197.31051 199.68318 202.14185 204.63553 206.73720 208.59287
 210.23255 211.39122 211.63389 211.87557 211.82624 211.54491 211.19159 210.83526
 210.46593 210.18961 210.01128 209.88895 209.83063 210.17530 210.57497 210.97765
 211.78432 212.97599 214.23966 216.03634 217.97801 220.03468 222.14336 224.24003
 226.31370 228.41138 230.52205 232.64172 234.78440 236.97007 239.23974 241.62342
 244.25809 246.52276 248.53844 250.31711 251.74778 252.88446 253.72013 254.04980
 254.10048 253.88815 253.26182 252.22350 250.84317 249.01784 246.94052 244.78719
 242.59186 240.40954 238.24321 236.09588 233.96956 231.85023 229.88990 228.06058
 226.35725 224.84292 223.48660 222.27227 221.16794 220.14162 219.25929 218.41396
 217.66964 216.86331 215.97498 215.35266 214.81633 214.38907 213.37962 213.16739
 213.16618 213.42876 214.70966 216.54117 218.70767 221.89777 227.34317 231.78380
 235.56693 239.80046 244.40404 248.93938 252.84196 255.69020 257.80325 259.93243
 262.79932 265.56543 268.02582 270.46609 272.86691 275.05362 276.66013 278.18091
 279.96194 281.59930 283.14288 284.50629 285.68701 286.73444 287.69244 288.56458
 289.35425 290.06274 290.68759 291.52426
 366.78100 356.34940 345.79580 334.67620 323.09360 311.30200 299.18639 287.00379
 274.73019 262.64159 250.66499 239.98039 230.11679 221.23519 213.43159 206.44799
 200.29639 195.24879 191.84518 189.90158 188.95298 189.03138 189.88078 191.20318
 192.94258 195.05198 197.32938 199.70278 202.16218 204.65658 206.75897 208.61537
 210.25577 211.41517 211.65857 211.90097 211.85237 211.57177 211.21917 210.86357
 210.49497 210.21937 210.04176 209.92016 209.86256 210.20796 210.60836 211.01176
 211.81916 213.01156 214.27596 216.07336 218.01576 220.07316 222.18255 224.27995
 226.35435 228.45275 230.56415 232.68455 234.82795 237.01435 239.28475 241.66915
 244.30455 246.56995 248.58634 250.36574 251.79714 252.93454 253.77094 254.10134
 254.15274 253.94114 253.31554 252.27794 250.89834 249.07374 246.99713 244.84453
 242.64993 240.46833 238.30273 236.15613 234.03053 231.91193 229.95233 228.12373
 226.42113 224.90753 223.55192 222.33832 221.23472 220.20912 219.32752 218.48292
 217.73932 216.93372 216.04612 215.42452 214.88892 214.44208 213.38634 213.23599
 213.27365 213.49382 214.78915 216.58858 218.67131 221.84926 227.26884 231.71254
 235.52673 239.78784 244.37930 248.86064 252.69301 255.49800 257.62808 259.82852
 262.72729 265.51324 268.00018 270.46436 272.87817 275.07114 276.67056 278.16849
 279.92374 281.55325 283.09625 284.45953 285.64117 286.68906 287.64767 288.52014
 289.30911 290.01971 290.64252 291.48108
 366.78100 356.34966 345.79632 334.67699 323.09465 311.30331 299.18797 287.00563
 274.73230 262.64396 250.66762 239.98328 230.11994 221.23861 213.43527 206.45193
 200.30059 195.25326 191.84992 189.90658 188.95824 189.03690 189.88657 191.20923
 192.94889 195.05855 197.33621 199.70988 202.16954 204.66420 206.76686 208.62352
 210.26419 211.42385 211.66751 211.91017 211.86183 211.58150 211.22916 210.87382
 210.50548 210.23014 210.05281 209.93147 209.87413 210.21979 210.62046 211.02412
 211.83178 213.02444 214.28910 216.08677 218.02943 220.08709 222.19675 224.29441
 226.36908 228.46774 230.57940 232.70006 234.84372 237.03039 239.30105 241.68571
 244.32137 246.58703 248.60370 250.38336 251.81502 252.95268 253.78934 254.12001
 254.17167 253.96033 253.33499 252.29766 250.91832 249.09398 247.01764 244.86530
 242.67097 240.48963 238.32429 236.17795 234.05261 231.93428 229.97494 228.14660
 226.44426 224.93092 223.57559 222.36225 221.25891 220.23357 219.35223 218.50790
 217.76456 216.95922 216.07188 215.45054 214.91521 214.46988 213.41774 213.29143
 213.38623 213.58098 214.85260 216.57892 218.66440 221.82294 227.18195 231.63316
 235.48645 239.77473 244.34769 248.76721 252.52773 255.29158 257.45038 259.73413
 262.66174 265.47028 267.99045 270.47470 272.90115 275.10522 276.70450 278.17319
 279.88907 281.50290 283.04251 284.40857 285.59030 286.63895 287.59708 288.47028
 289.26019 289.96899 290.59311 291.43365
 366.78100 356.34909 345.79518 334.67528 323.09237 311.30046 299.18455 287.00164
 274.72773 262.63883 250.66192 239.97701 230.11310 221.23119 213.42728 206.44338
 200.29147 195.24356 191.83965 189.89574 188.94683 189.02493 189.87402 191.19611
 192.93520 195.04429 197.32138 199.69448 202.15357 204.64766 206.74975 208.60584
 210.24593 211.40503 211.64812 211.89021 211.84130 211.56039 211.20748 210.85158
 210.48267 210.20676 210.02885 209.90694 209.84903 210.19413 210.59422 210.99731
 211.80440 212.99649 214.26058 216.05768 217.99977 220.05686 222.16595 224.26304
 226.33713 228.43523 230.54632 232.66641 234.80950 236.99559 239.26569 241.64978
 244.28487 246.54996 248.56605 250.34514 251.77624 252.91333 253.74942 254.07951
 254.13060 253.91869 253.29279 252.25488 250.87497 249.05006 246.97315 244.82024
 242.62534 240.44343 238.27752 236.13061 234.00470 231.88579 229.92589 228.09698
 226.39407 224.88016 223.52425 222.31034 221.20644 220.18053 219.29862 218.45371
 217.70980 216.90389 216.01599 215.39408 214.85817 214.45468 213.50142 213.30193
 213.49893 213.62515 214.90184 216.70538 218.66629 221.73969 227.08504 231.55484
 235.44960 239.76483 244.31325 248.66647 252.35989 255.09059 257.28674 259.65634
 262.60605 265.43643 267.99149 270.49252 272.93011 275.14618 276.74890 278.18939
 279.85855 281.44879 282.98709 284.35321 285.53479 286.58344 287.54361 288.41626
 289.20667 289.91562 290.54019 291.37772
 366.78100 356.34863 345.79426 334.67389 323.09052 311.29815 299.18178 286.99841
 274.72404 262.63467 250.65730 239.97193 230.10756 221.22519 213.42082 206.43645
 200.28408 195.23571 191.83134 189.88697 188.93760 189.01523 189.86386 191.18549
 192.92412 195.03275 197.30938 199.68201 202.14064 204.63427 206.73590 208.59153
 210.23116 211.38979 211.63242 211.87405 211.82468 211.54331 211.18994 210.83357
 210.46420 210.18783 210.00946 209.88709 209.82872 210.17335 210.57298 210.97561
 211.78224 212.97387 214.23750 216.03413 217.97576 220.03239 222.14102 224.23765
 226.31128 228.40891 230.51954 232.63917 234.78180 236.96743 239.23706 241.62069
 244.25532 246.51995 248.53558 250.31421 251.74484 252.88147 253.71710 254.04673
 254.09736 253.88499 253.25862 252.22025 250.83988 249.01451 246.93714 244.78377
 242.58840 240.40603 238.23966 236.09229 233.96592 231.84655 229.88618 228.05681
 226.35344 224.83907 223.48270 222.26833 221.16396 220.13759 219.25522 218.40985
 217.66548 216.85911 215.97074 215.34837 214.81200 214.44325 213.57207 213.33447
 213.60413 213.67603 214.91885 216.80977 218.66826 221.65503 226.99478 231.49181
 235.42625 239.76361 244.28165 248.56613 252.19670 254.89746 257.13208 259.58609
 262.55142 265.40054 267.99011 270.50580 272.95456 275.18106 276.78793 278.20462
 279.82990 281.39276 282.92984 284.29596 285.47934 286.52722 287.48691 288.36041
 289.15311 289.86115 290.48605 291.32413
 366.78100 356.34860 345.79420 334.67380 323.09040 311.29800 299.18160 286.99820
 274.72380 262.63440 250.65700 239.97160 230.10720 221.22479 213.42039 206.43599
 200.28359 195.23519 191.83079 189.88639 188.93699 189.01459 189.86319 191.18479
 192.92339 195.03199 197.30859 199.68119 202.13979 204.63339 206.73499 208.59059
 210.23019 211.38879 211.63139 211.87299 211.82359 211.54219 211.18878 210.83238
 210.46298 210.18658 210.00818 209.88578 209.82738 210.17198 210.57158 210.97418
 211.78078 212.97238 214.23598 216.03258 217.97418 220.03078 222.13938 224.23598
 226.30958 228.40718 230.51778 232.63738 234.77998 236.96558 239.23518 241.61877
 244.25337 246.51797 248.53357 250.31217 251.74277 252.87937 253.71497 254.04457
 254.09517 253.88277 253.25637 252.21797 250.83757 249.01217 246.93477 244.78137
 242.58597 240.40357 238.23717 236.08977 233.96337 231.84397 229.88357 228.05417
 226.35076 224.83636 223.47996 222.26556 221.16116 220.13476 219.25236 218.40696
 217.66256 216.85616 215.96776 215.34536 214.80896 214.45186 213.60818 213.41022
 213.68404 213.74197 214.91512 216.87032 218.68475 221.58691 226.91614 231.44698
 235.41536 239.76973 244.25029 248.46234 252.03023 254.70029 256.97372 259.51514
 262.49219 265.35721 267.98251 270.51318 272.97400 275.21173 276.82245 278.22110
 279.80478 281.33780 282.87225 284.23880 285.42203 286.47101 287.43143 288.30508
 289.09616 289.80420 290.43127 291.26840
 366.78100 356.34872 345.79444 334.67417 323.09089 311.29861 299.18233 286.99906
 274.72478 262.63550 250.65822 239.97295 230.10867 221.22639 213.42211 206.43784
 200.28556 195.23728 191.83300 189.88873 188.93945 189.01717 189.86589 191.18762
 192.92634 195.03506 197.31178 199.68451 202.14323 204.63695 206.73867 208.59440
 210.23412 211.39284 211.63556 211.87729 211.82801 211.54673 211.19345 210.83717
 210.46790 210.19162 210.01334 209.89106 209.83279 210.17751 210.57723 210.97995
 211.78668 212.97840 214.24212 216.03884 217.98057 220.03729 222.14601 224.24273
 226.31646 228.41418 230.52490 232.64462 234.78735 236.97307 239.24279 241.62651
 244.26124 246.52596 248.54168 250.32040 251.75113 252.88785 253.72357 254.05329
 254.10402 253.89174 253.26546 252.22718 250.84690 249.02163 246.94435 244.79107
 242.59579 240.41352 238.24724 236.09996 233.97368 231.85441 229.89413 228.06485
 226.36157 224.84730 223.49102 222.27674 221.17246 220.14619 219.26391 218.41863
 217.67435 216.86808 215.97980 215.35752 214.82124 214.46677 213.62930 213.50529
 213.74889 213.81474 214.91916 216.90828 218.69313 221.52843 226.84891 231.41417
 235.41270 239.77754 244.21468 248.35014 251.85449 254.49432 256.81146 259.44217
 262.43051 265.31058 267.97250 270.51843 272.99149 275.24091 276.85806 278.24155
 279.78455 281.28748 282.81876 284.18411 285.36798 286.41702 287.37778 288.25137
 289.04306 289.75262 290.37698 291.21649
 366.78100 356.34874 345.79449 334.67423 323.09098 311.29872 299.18247 286.99921
 274.72496 262.63570 250.65845 239.97319 230.10893 221.22668 213.42242 206.43817
 200.28591 195.23766 191.83340 189.88915 188.93989 189.01764 189.86638 191.18812
 192.92687 195.03561 197.31236 199.68510 202.14385 204.63759 206.73934 208.59508
 210.23483 211.39357 211.63631 211.87806 211.82880 211.54755 211.19429 210.83804
 210.46878 210.19253 210.01427 209.89202 209.83376 210.17851 210.57825 210.98099
 211.78774 212.97948 214.24323 216.03997 217.98172 220.03846 222.14721 224.24395
 226.31770 228.41544 230.52618 232.64593 234.78867 236.97442 239.24416 241.62791
 244.26265 246.52740 248.54314 250.32189 251.75263 252.88937 253.72512 254.05486
 254.10561 253.89335 253.26710 252.22884 250.84859 249.02333 246.94608 244.79282
 242.59756 240.41531 238.24905 236.10180 233.97554 231.85629 229.89603 228.06678
 226.36352 224.84927 223.49301 222.27875 221.17450 220.14824 219.26599 218.42073
 217.67648 216.87022 215.98197 215.35971 214.82346 214.47560 213.65372 213.59605
 213.81619 213.88657 214.94307 216.93654 218.67804 221.47736 226.79309 231.38799
 235.41135 239.78261 244.17096 248.22780 251.66975 254.28372 256.64941 259.36981
 262.36682 265.26254 267.95978 270.52090 273.00653 275.26907 276.89389 278.26666
 279.77118 281.24258 282.76773 284.13437 285.31741 286.36636 287.32687 288.20108
 288.99173 289.70047 290.32660 291.16275
 366.78100 356.34867 345.79433 334.67400 323.09066 311.29833 299.18199 286.99866
 274.72432 262.63499 250.65765 239.97232 230.10798 221.22565 213.42131 206.43698
 200.28464 195.23631 191.83197 189.88764 188.93830 189.01597 189.86463 191.18630
 192.92496 195.03363 197.31029 199.68296 202.14162 204.63529 206.73695 208.59262
 210.23228 211.39095 211.63361 211.87528 211.82594 211.54461 211.19127 210.83494
 210.46560 210.18927 210.01093 209.88860 209.83026 210.17493 210.57459 210.97726
 211.78392 212.97559 214.23925 216.03592 217.97758 220.03425 222.14291 224.23958
 226.31324 228.41091 230.52157 232.64124 234.78390 236.96957 239.23923 241.62290
 244.25756 246.52223 248.53789 250.31656 251.74722 252.88389 253.71955 254.04922
 254.09988 253.88755 253.26121 252.22288 250.84254 249.01721 246.93987 244.78654
 242.59120 240.40887 238.24253 236.09520 233.96887 231.84953 229.88920 228.05986
 226.35653 224.84219 223.48586 222.27152 221.16719 220.14085 219.25852 218.41318
 217.66885 216.86251 215.97418 215.35184 214.81551 214.47830 213.68164 213.67879
 213.89474 213.95415 214.97992 216.95891 218.65010 221.43721 226.74585 231.36366
 235.40948 239.78296 244.11946 248.09743 251.48004 254.07327 256.49118 259.29715
 262.30167 265.21078 267.94241 270.51758 273.01752 275.29120 276.92502 278.29166
 279.76306 281.20749 282.72226 284.08710 285.27011 286.31973 287.27936 288.15369
 288.94443 289.65216 290.27908 291.11411
 366.78100 356.34849 345.79397 334.67346 323.08995 311.29744 299.18092 286.99741
 274.72290 262.63338 250.65587 239.97036 230.10585 221.22333 213.41882 206.43431
 200.28179 195.23328 191.82877 189.88426 188.93474 189.01223 189.86072 191.18220
 192.92069 195.02918 197.30567 199.67815 202.13664 204.63013 206.73161 208.58710
 210.22659 211.38508 211.62756 211.86905 211.81954 211.53802 211.18451 210.82800
 210.45849 210.18197 210.00346 209.88095 209.82243 210.16692 210.56641 210.96890
 211.77538 212.96687 214.23036 216.02684 217.96833 220.02482 222.13331 224.22979
 226.30328 228.40077 230.51125 232.63074 234.77323 236.95872 239.22820 241.61169
 244.24618 246.51066 248.52615 250.30464 251.73513 252.87161 253.70710 254.03659
 254.08707 253.87456 253.24805 252.20954 250.82902 249.00351 246.92600 244.77248
 242.57697 240.39446 238.22795 236.08043 233.95392 231.83441 229.87389 228.04438
 226.34087 224.82636 223.46984 222.25533 221.15082 220.12430 219.24179 218.39628
 217.65177 216.84525 215.95674 215.33423 214.79771 214.47505 213.71275 213.75537
 213.97751 214.02617 215.02727 216.97760 218.62308 221.40494 226.69936 231.33868
 235.40518 239.77698 244.05939 247.96033 251.28830 253.86652 256.33868 259.22400
 262.23474 265.15558 267.91763 270.50705 273.02014 275.30496 276.94678 278.31229
 279.75735 281.17822 282.68326 284.04675 285.22955 286.27802 287.23737 288.11148
 288.90366 289.61200 290.23746 291.07065
 366.78100 356.34832 345.79365 334.67297 323.08930 311.29662 299.17995 286.99627
 274.72159 262.63192 250.65424 239.96857 230.10389 221.22121 213.41654 206.43186
 200.27919 195.23051 191.82584 189.88116 188.93148 189.00881 189.85713 191.17846
 192.91678 195.02510 197.30143 199.67375 202.13208 204.62540 206.72673 208.58205
 210.22137 211.37970 211.62202 211.86335 211.81367 211.53199 211.17832 210.82164
 210.45197 210.17529 209.99662 209.87394 209.81526 210.15959 210.55891 210.96124
 211.76756 212.95888 214.22221 216.01853 217.95986 220.01618 222.12451 224.22083
 226.29415 228.39148 230.50180 232.62113 234.76345 236.94877 239.21810 241.60142
 244.23575 246.50007 248.51540 250.29372 251.72404 252.86037 253.69569 254.02502
 254.07534 253.86267 253.23599 252.19731 250.81664 248.99096 246.91329 244.75961
 242.56393 240.38126 238.21458 236.06691 233.94023 231.82056 229.85988 228.03020
 226.32653 224.81185 223.45518 222.24050 221.13582 220.10915 219.22647 218.38080
 217.63612 216.82945 215.94077 215.31809 214.78142 214.47122 213.73834 213.83261
 214.07484 214.09845 215.05394 216.98256 218.60396 221.38593 226.65987 231.31888
 235.40129 239.76593 243.99231 247.81862 251.09691 253.66650 256.19391 259.15009
 262.16635 265.09814 267.88547 270.48874 273.01382 275.30856 276.95786 278.32727
 279.75525 281.16226 282.64526 284.00851 285.19025 286.23788 287.19778 288.07068
 288.86060 289.56927 290.19620 291.02771
 366.78100 356.34824 345.79347 334.67271 323.08895 311.29619 299.17942 286.99566
 274.72090 262.63113 250.65337 239.96761 230.10285 221.22008 213.41532 206.43056
 200.27780 195.22903 191.82427 189.87951 188.92974 189.00698 189.85522 191.17646
 192.91469 195.02293 197.29917 199.67140 202.12964 204.62288 206.72412 208.57935
 210.21859 211.37683 211.61906 211.86030 211.81054 211.52878 211.17501 210.81825
 210.44849 210.17173 209.99296 209.87020 209.81144 210.15567 210.55491 210.95715
 211.76339 212.95462 214.21786 216.01410 217.95533 220.01157 222.11981 224.21605
 226.28928 228.38652 230.49676 232.61599 234.75823 236.94347 239.21271 241.59594
 244.23018 246.49442 248.50966 250.28789 251.71813 252.85437 253.68960 254.01884
 254.06908 253.85632 253.22955 252.19079 250.81003 248.98426 246.90650 244.75274
 242.55698 240.37421 238.20745 236.05969 233.93293 231.81316 229.85240 228.02264
 226.31887 224.80411 223.44735 222.23259 221.12782 220.10106 219.21830 218.37253
 217.62777 216.82101 215.93225 215.30948 214.77272 214.47089 213.75775 213.90553
 214.17633 214.18500 215.08653 216.99153 218.59677 221.36861 226.61810 231.30034
 235.39618 239.74751 243.91531 247.66956 250.90265 253.47078 256.05496 259.07394
 262.09500 265.03659 267.84421 270.46045 272.99686 275.29916 276.95337 278.33127
 279.75287 281.15082 282.62399 283.98651 285.16855 286.21777 287.17761 288.05508
 288.85132 289.56830 290.19894 291.03659
 366.78100 356.34826 345.79352 334.67278 323.08904 311.29631 299.17957 286.99583
 274.72109 262.63135 250.65361 239.96787 230.10313 221.22040 213.41566 206.43092
 200.27818 195.22944 191.82470 189.87996 188.93022 189.00748 189.85575 191.17701
 192.91527 195.02353 197.29979 199.67205 202.13031 204.62357 206.72483 208.58010
 210.21936 211.37762 211.61988 211.86114 211.81140 211.52966 211.17592 210.81919
 210.44945 210.17271 209.99397 209.87123 209.81249 210.15675 210.55601 210.95827
 211.76454 212.95580 214.21906 216.01532 217.95658 220.01284 222.12110 224.21736
 226.29062 228.38789 230.49815 232.61741 234.75967 236.94493 239.21419 241.59745
 244.23171 246.49598 248.51124 250.28950 251.71976 252.85602 253.69128 254.02054
 254.07080 253.85806 253.23133 252.19259 250.81185 248.98611 246.90837 244.75463
 242.55889 240.37615 238.20942 236.06168 233.93494 231.81520 229.85446 228.02472
 226.32098 224.80624 223.44950 222.23477 221.13003 220.10329 219.22055 218.37481
 217.63007 216.82333 215.93459 215.31185 214.77512 214.47656 213.77118 213.97253
 214.27563 214.27597 215.14352 217.01115 218.58644 221.35143 226.57837 231.28520
 235.39009 239.72041 243.82729 247.51103 250.70270 253.27748 255.92143 258.99457
 262.02133 264.97079 267.79449 270.42349 272.97116 275.27621 276.93555 278.32648
 279.74982 281.14172 282.61682 283.97827 285.16052 286.20999 287.17148 288.04736
 288.84805 289.56586 290.20004 291.03516
 366.78100 356.34831 345.79361 334.67292 323.08922 311.29653 299.17983 286.99614
 274.72144 262.63175 250.65406 239.96836 230.10367 221.22097 213.41628 206.43158
 200.27889 195.23019 191.82550 189.88081 188.93111 189.00842 189.85672 191.17803
 192.91633 195.02464 197.30094 199.67325 202.13156 204.62486 206.72617 208.58147
 210.22078 211.37908 211.62139 211.86269 211.81300 211.53131 211.17761 210.82092
 210.45122 210.17453 209.99583 209.87314 209.81444 210.15875 210.55806 210.96036
 211.76667 212.95797 214.22128 216.01758 217.95889 220.01519 222.12350 224.21981
 226.29311 228.39042 230.50072 232.62003 234.76233 236.94764 239.21694 241.60025
 244.23456 246.49886 248.51417 250.29247 251.72278 252.85908 253.69439 254.02369
 254.07400 253.86131 253.23461 252.19592 250.81522 248.98953 246.91183 244.75814
 242.56245 240.37975 238.21306 236.06536 233.93867 231.81897 229.85828 228.02858
 226.32489 224.81020 223.45350 222.23881 221.13411 220.10742 219.22472 218.37903
 217.63433 216.82764 215.93895 215.31625 214.77956 214.48399 213.78566 214.02396
 214.38327 214.37445 215.20036 217.04092 218.59431 221.33710 226.53723 231.27005
 235.38063 239.68460 243.72760 247.34422 250.50053 253.09061 255.79524 258.91476
 261.94751 264.90472 267.73773 270.38007 272.93732 275.24042 276.90607 278.31299
 279.74701 281.13904 282.61377 283.97577 285.15689 286.20505 287.16467 288.04077
 288.84094 289.56320 290.19797 291.02997
 366.78100 356.34849 345.79399 334.67348 323.08998 311.29747 299.18097 286.99746
 274.72296 262.63345 250.65594 239.97044 230.10593 221.22343 213.41892 206.43442
 200.28191 195.23341 191.82890 189.88439 188.93489 189.01238 189.86088 191.18237
 192.92087 195.02936 197.30586 199.67835 202.13685 204.63034 206.73183 208.58733
 210.22682 211.38532 211.62781 211.86931 211.81980 211.53830 211.18479 210.82828
 210.45878 210.18227 210.00377 209.88126 209.82276 210.16725 210.56675 210.96924
 211.77573 212.96723 214.23072 216.02722 217.96871 220.02521 222.13370 224.23020
 226.30369 228.40118 230.51168 232.63117 234.77367 236.95916 239.22866 241.61215
 244.24665 246.51114 248.52663 250.30513 251.73562 252.87212 253.70761 254.03711
 254.08760 253.87510 253.24859 252.21008 250.82958 249.00407 246.92657 244.77306
 242.57756 240.39505 238.22855 236.08104 233.95454 231.83503 229.87452 228.04502
 226.34151 224.82701 223.47050 222.25600 221.15149 220.12499 219.24248 218.39697
 217.65247 216.84596 215.95746 215.33495 214.79845 214.49863 213.79027 214.07205
 214.48067 214.48486 215.28322 217.07848 218.58975 221.32565 226.50476 231.26044
 235.37192 239.64342 243.62122 247.17404 250.29881 252.91182 255.67662 258.83289
 261.87180 264.83362 267.67279 270.32825 272.89557 275.18948 276.86191 278.29044
 279.73621 281.13870 282.61569 283.97510 285.15701 286.20367 287.16171 288.03864
 288.83966 289.56165 290.19470 291.02774
 366.78100 356.34866 345.79432 334.67398 323.09064 311.29829 299.18195 286.99861
 274.72427 262.63493 250.65759 239.97225 230.10791 221.22556 213.42122 206.43688
 200.28454 195.23620 191.83186 189.88752 188.93818 189.01583 189.86449 191.18615
 192.92481 195.03347 197.31013 199.68279 202.14145 204.63511 206.73676 208.59242
 210.23208 211.39074 211.63340 211.87506 211.82572 211.54438 211.19103 210.83469
 210.46535 210.18901 210.01067 209.88833 209.82999 210.17465 210.57430 210.97696
 211.78362 212.97528 214.23894 216.03560 217.97726 220.03392 222.14258 224.23923
 226.31289 228.41055 230.52121 232.64087 234.78353 236.96919 239.23885 241.62250
 244.25716 246.52182 248.53748 250.31614 251.74680 252.88346 253.71912 254.04878
 254.09943 253.88709 253.26075 252.22241 250.84207 249.01673 246.93939 244.78605
 242.59070 240.40836 238.24202 236.09468 233.96834 231.84900 229.88866 228.05932
 226.35597 224.84163 223.48529 222.27095 221.16661 220.14027 219.25793 218.41259
 217.66825 216.86190 215.97356 215.35122 214.81488 214.51103 213.79315 214.10480
 214.59441 214.59946 215.35239 217.13800 218.62288 221.32736 226.47685 231.25076
 235.35695 239.59027 243.50002 246.99001 250.08871 252.73355 255.56020 258.74908
 261.79514 264.76108 267.60425 270.27197 272.84747 275.13220 276.81708 278.27432
 279.74039 281.15488 282.61292 283.96936 285.14828 286.19339 287.14917 288.02313
 288.82278 289.54312 290.17068 290.98297
 366.78100 356.34853 345.79406 334.67359 323.09011 311.29764 299.18117 286.99770
 274.72323 262.63376 250.65629 239.97082 230.10634 221.22387 213.41940 206.43493
 200.28246 195.23399 191.82952 189.88504 188.93557 189.01310 189.86163 191.18316
 192.92169 195.03022 197.30674 199.67927 202.13780 204.63133 206.73286 208.58839
 210.22792 211.38645 211.62897 211.87050 211.82103 211.53956 211.18609 210.82962
 210.46015 210.18367 210.00520 209.88273 209.82426 210.16879 210.56832 210.97085
 211.77738 212.96890 214.23243 216.02896 217.97049 220.02702 222.13555 224.23208
 226.30560 228.40313 230.51366 232.63319 234.77572 236.96125 239.23078 241.61430
 244.24883 246.51336 248.52889 250.30742 251.73795 252.87448 253.71001 254.03953
 254.09006 253.87759 253.25112 252.21265 250.83218 249.00671 246.92923 244.77576
 242.58029 240.39782 238.23135 236.08388 233.95741 231.83793 229.87746 228.04799
 226.34452 224.83005 223.47358 222.25911 221.15464 220.12816 219.24569 218.40022
 217.65575 216.84928 215.96081 215.33834 214.80186 214.50781 213.81308 214.10141
 214.70082 214.77393 215.49353 217.19763 218.61510 221.30109 226.42566 231.22395
 235.32965 239.51784 243.35954 246.79390 249.87619 252.56668 255.45775 258.67532
 261.73087 264.70087 267.54721 270.22525 272.80435 275.07776 276.77457 278.25970
 279.73746 281.16919 282.61298 283.96655 285.14417 286.18771 287.14099 288.01428
 288.81256 289.53357 290.15216 290.96420
 366.78100 356.34843 345.79387 334.67330 323.08973 311.29716 299.18060 286.99703
 274.72246 262.63290 250.65533 239.96976 230.10520 221.22263 213.41806 206.43349
 200.28093 195.23236 191.82779 189.88323 188.93366 189.01109 189.85953 191.18096
 192.91939 195.02782 197.30426 199.67669 202.13512 204.62856 206.72999 208.58542
 210.22486 211.38329 211.62572 211.86715 211.81759 211.53602 211.18245 210.82589
 210.45632 210.17975 210.00118 209.87862 209.82005 210.16448 210.56392 210.96635
 211.77278 212.96422 214.22765 216.02408 217.96551 220.02195 222.13038 224.22681
 226.30025 228.39768 230.50811 232.62755 234.76998 236.95541 239.22484 241.60828
 244.24271 246.50714 248.52258 250.30101 251.73144 252.86788 253.70331 254.03274
 254.08317 253.87061 253.24404 252.20547 250.82491 248.99934 246.92177 244.76820
 242.57264 240.39007 238.22350 236.07594 233.94937 231.82980 229.86924 228.03967
 226.33610 224.82153 223.46497 222.25040 221.14583 220.11927 219.23670 218.39113
 217.64657 216.84000 215.95143 215.32886 214.79230 214.50516 213.82678 214.10284
 214.77487 214.96245 215.65047 217.18582 218.59184 221.25670 226.39645 231.21454
 235.30911 239.45050 243.22710 246.61189 249.68945 252.43079 255.37885 258.61478
 261.67838 264.64969 267.49326 270.17813 272.75638 275.01697 276.72916 278.24261
 279.74329 281.18597 282.61404 283.95462 285.12573 286.16647 287.11633 287.98587
 288.78555 289.50302 290.11740 290.92105
 366.78100 356.34870 345.79441 334.67411 323.09081 311.29851 299.18222 286.99892
 274.72462 262.63532 250.65803 239.97273 230.10843 221.22614 213.42184 206.43754
 200.28524 195.23695 191.83265 189.88835 188.93905 189.01676 189.86546 191.18716
 192.92587 195.03457 197.31127 199.68397 202.14268 204.63638 206.73808 208.59379
 210.23349 211.39219 211.63489 211.87660 211.82730 211.54600 211.19270 210.83641
 210.46711 210.19081 210.01252 209.89022 209.83192 210.17662 210.57633 210.97903
 211.78573 212.97743 214.24114 216.03784 217.97954 220.03625 222.14495 224.24165
 226.31535 228.41306 230.52376 232.64346 234.78616 236.97187 239.24157 241.62527
 244.25998 246.52468 248.54038 250.31908 251.74979 252.88649 253.72219 254.05190
 254.10260 253.89030 253.26400 252.22571 250.84541 249.02011 246.94281 244.78952
 242.59422 240.41192 238.24563 236.09833 233.97203 231.85273 229.89244 228.06314
 226.35984 224.84554 223.48925 222.27495 221.17065 220.14436 219.26206 218.41676
 217.67246 216.86617 215.97787 215.35557 214.81927 214.51915 213.81006 214.13860
 214.83617 215.10902 215.78238 217.20538 218.58502 221.23502 226.37878 231.21147
 235.28929 239.38515 243.10440 246.45161 249.53064 252.32553 255.31847 258.56580
 261.63416 264.59912 267.43338 270.12073 272.69199 274.92786 276.64877 278.20132
 279.72275 281.18854 282.61472 283.94318 285.10275 286.13739 287.08521 287.95337
 288.75146 289.47015 290.07983 290.88806
 366.78100 356.34869 345.79438 334.67406 323.09075 311.29844 299.18213 286.99882
 274.72450 262.63519 250.65788 239.97257 230.10826 221.22595 213.42163 206.43732
 200.28501 195.23670 191.83239 189.88807 188.93876 189.01645 189.86514 191.18683
 192.92551 195.03420 197.31089 199.68358 202.14227 204.63595 206.73764 208.59333
 210.23302 211.39171 211.63440 211.87608 211.82677 211.54546 211.19215 210.83584
 210.46652 210.19021 210.01190 209.88959 209.83128 210.17596 210.57565 210.97834
 211.78503 212.97672 214.24041 216.03709 217.97878 220.03547 222.14416 224.24085
 226.31453 228.41222 230.52291 232.64260 234.78529 236.97097 239.24066 241.62435
 244.25904 246.52373 248.53941 250.31810 251.74879 252.88548 253.72117 254.05086
 254.10154 253.88923 253.26292 252.22461 250.84430 249.01898 246.94167 244.78836
 242.59305 240.41074 238.24442 236.09711 233.97080 231.85149 229.89118 228.06186
 226.35855 224.84424 223.48793 222.27362 221.16931 220.14299 219.26068 218.41537
 217.67106 216.86475 215.97643 215.35412 214.81781 214.51443 213.79767 214.20180
 214.89940 215.20872 215.88498 217.23535 218.57632 221.22318 226.35919 231.20320
 235.26631 239.31445 242.97969 246.29556 249.38654 252.23918 255.28148 258.53674
 261.61075 264.56940 267.39136 270.07510 272.63144 274.84280 276.57343 278.14981
 279.70389 281.18692 282.60742 283.91757 285.06241 286.09158 287.03531 287.90460
 288.70059 289.41229 290.02280 290.82748
 366.78100 356.34760 345.79220 334.67080 323.08640 311.29300 299.17560 286.99119
 274.71579 262.62539 250.64699 239.96059 230.09519 221.21179 213.40639 206.42099
 200.26759 195.21819 191.81279 189.86739 188.91698 188.99358 189.84118 191.16178
 192.89938 195.00698 197.28258 199.65418 202.11178 204.60438 206.70498 208.55958
 210.19818 211.35577 211.59737 211.83797 211.78757 211.50517 211.15077 210.79337
 210.42297 210.14557 209.96617 209.84277 209.78337 210.12697 210.52556 210.92716
 211.73276 212.92336 214.18596 215.98156 217.92216 219.97776 222.08536 224.18096
 226.25356 228.35016 230.45976 232.57835 234.71995 236.90455 239.17315 241.55575
 244.18935 246.45295 248.46755 250.24515 251.67475 252.81035 253.64495 253.97355
 254.02314 253.80974 253.18234 252.14294 250.76154 248.93514 246.85674 244.70234
 242.50594 240.32254 238.15514 236.00674 233.87934 231.75893 229.79753 227.96713
 226.26273 224.74733 223.38993 222.17453 221.06913 220.04173 219.15833 218.31193
 217.56653 216.75913 215.86972 215.24632 214.70892 214.44975 213.83740 214.28006
 214.94994 215.26993 215.96350 217.26546 218.58365 221.23196 226.34833 231.19980
 235.24294 239.24202 242.85284 246.13719 249.25218 252.16650 255.23994 258.50156
 261.58096 264.53290 267.34180 270.02811 272.57428 274.77670 276.53079 278.14362
 279.71179 281.18896 282.59265 283.88361 285.00729 286.01868 286.94901 287.81534
 288.61636 289.32037 289.92999 290.73328
 366.78100 356.34647 345.78994 334.66741 323.08188 311.28735 299.16882 286.98329
 274.70676 262.61523 250.63570 239.94817 230.08164 221.19712 213.39059 206.40406
 200.24953 195.19900 191.79247 189.84594 188.89441 188.96988 189.81635 191.13582
 192.87229 194.97876 197.25323 199.62370 202.08017 204.57164 206.67111 208.52458
 210.16205 211.31852 211.55899 211.79846 211.74693 211.46340 211.10787 210.74935
 210.37782 210.09929 209.91876 209.79423 209.73370 210.07617 210.47364 210.87411
 211.67858 212.86805 214.12952 215.92399 217.86346 219.91793 222.02440 224.11887
 226.19034 228.28581 230.39428 232.51175 234.65222 236.83569 239.10316 241.48463
 244.11710 246.37958 248.39305 250.16952 251.59799 252.73246 253.56593 253.89340
 253.94187 253.72734 253.09881 252.05828 250.67575 248.84822 246.76869 244.61316
 242.41563 240.23110 238.06257 235.91304 233.78451 231.66298 229.70045 227.86892
 226.16339 224.64686 223.28833 222.07181 220.96528 219.93675 219.05222 218.20469
 217.45816 216.64963 215.75910 215.13457 214.59604 214.38017 213.87018 214.38200
 215.03433 215.32788 216.00674 217.26071 218.57123 221.22998 226.33440 231.19527
 235.22287 239.18065 242.74968 246.01649 249.13632 252.09717 255.21889 258.47229
 261.54608 264.48370 267.27936 269.95514 272.47598 274.62854 276.38544 278.05591
 279.63992 281.14993 282.55698 283.83353 284.95352 285.93396 286.84189 287.71298
 288.52692 289.22461 289.83417 290.63727
 366.78100 356.34605 345.78910 334.66615 323.08019 311.28524 299.16629 286.98034
 274.70339 262.61144 250.63149 239.94353 230.07658 221.19163 213.38468 206.39773
 200.24278 195.19183 191.78488 189.83792 188.88597 188.96102 189.80707 191.12612
 192.86217 194.96822 197.24226 199.61231 202.06836 204.55941 206.65846 208.51151
 210.14856 211.30460 211.54465 211.78370 211.73175 211.44780 211.09185 210.73290
 210.36095 210.08199 209.90104 209.77609 209.71514 210.05719 210.45424 210.85429
 211.65833 212.84738 214.10843 215.90248 217.84153 219.89558 222.00163 224.09567
 226.16672 228.26177 230.36982 232.48687 234.62692 236.80997 239.07702 241.45806
 244.09011 246.35216 248.36521 250.14126 251.56931 252.70336 253.53640 253.86345
 253.91150 253.69655 253.06760 252.02665 250.64370 248.81574 246.73579 244.57984
 242.38189 240.19694 238.02799 235.87804 233.74909 231.62713 229.66418 227.83223
 226.12628 224.60933 223.25038 222.03343 220.92647 219.89752 219.01257 218.16462
 217.41767 216.60872 215.71777 215.09281 214.55386 214.34767 213.86055 214.44835
 215.16235 215.46167 216.09346 217.27641 218.56418 221.22264 226.31604 231.17375
 235.17282 239.07260 242.58705 245.82791 248.99976 252.03253 255.13870 258.38544
 261.46198 264.38675 267.16132 269.85181 272.36725 274.54584 276.37955 277.98636
 279.67194 281.13358 282.52496 283.77945 284.82715 285.80658 286.75470 287.62094
 288.40118 289.08771 289.69366 290.48538
 366.78100 356.34360 345.78420 334.65881 323.07041 311.27301 299.15161 286.96322
 274.68382 262.58942 250.60702 239.91663 230.04723 221.15983 213.35043 206.36104
 200.20364 195.15024 191.74084 189.79145 188.83705 188.90965 189.75325 191.06986
 192.80346 194.90706 197.17866 199.54627 201.99987 204.48847 206.58507 208.43568
 210.07028 211.22388 211.46148 211.69809 211.64369 211.35729 210.99889 210.63750
 210.26310 209.98170 209.79830 209.67091 209.60751 209.94711 210.34171 210.73932
 211.54092 212.72752 213.98612 215.77773 217.71433 219.76593 221.86953 223.96114
 226.02974 228.12234 230.22794 232.34255 234.48015 236.66075 238.92535 241.30396
 243.93356 246.19316 248.20376 249.97737 251.40297 252.53457 253.36517 253.68978
 253.73538 253.51798 252.88658 251.84319 250.45779 248.62739 246.54499 244.38660
 242.18620 239.99880 237.82740 235.67501 233.54361 231.41921 229.45381 227.61942
 225.91102 224.39162 223.03022 221.81083 220.70143 219.67003 218.78263 217.93224
 217.18284 216.37144 215.47804 214.85065 214.30925 214.21165 213.98105 214.52570
 215.13670 215.47026 216.13303 217.29919 218.60564 221.25557 226.32242 231.19189
 235.17766 239.06113 242.57132 245.82330 248.94316 251.96584 255.17056 258.40256
 261.44672 264.34140 267.13126 269.79507 272.27142 274.35843 275.96143 277.94122
 279.58884 281.25433 282.57690 283.79977 284.88199 285.90259 286.84695 287.68564
 288.42032 289.08459 289.68814 290.48831
 366.78100 356.34233 345.78165 334.65498 323.06530 311.26663 299.14396 286.95428
 274.67361 262.57793 250.59426 239.90259 230.03191 221.14324 213.33257 206.34189
 200.18322 195.12854 191.71787 189.76720 188.81152 188.88285 189.72517 191.04050
 192.77283 194.87515 197.14548 199.51180 201.96413 204.45146 206.54678 208.39611
 210.02944 211.18176 211.41809 211.65341 211.59774 211.31007 210.95039 210.58772
 210.21204 209.92937 209.74470 209.61602 209.55135 209.88967 210.28300 210.67933
 211.47965 212.66498 213.92231 215.71263 217.64796 219.69828 221.80061 223.89094
 225.95826 228.04959 230.15391 232.26724 234.40357 236.58289 238.84622 241.22354
 243.85187 246.11020 248.11952 249.89185 251.31617 252.44650 253.27583 253.59915
 253.64348 253.42481 252.79213 251.74746 250.36078 248.52911 246.44544 244.28576
 242.08409 239.89541 237.72274 235.56907 233.43639 231.31072 229.34404 227.50837
 225.79870 224.27802 222.91535 221.69468 220.58400 219.55133 218.66265 217.81098
 217.06031 216.24763 215.35296 214.72428 214.18161 214.13129 214.01239 214.75681
 215.33987 215.53517 216.04402 217.10173 218.39172 221.13368 226.27341 231.13895
 235.10052 238.92152 242.40372 245.71489 249.15575 252.45493 255.44904 258.59891
 261.65860 264.53220 267.14893 269.74301 272.17322 274.13718 276.20135 278.00873
 279.55246 280.49750 281.85165 283.04007 284.02530 284.93765 285.80637 286.60413
 287.34427 288.02460 288.63309 289.42221
 366.78100 356.34650 345.79001 334.66751 323.08202 311.28752 299.16903 286.98353
 274.70704 262.61554 250.63605 239.94855 230.08206 221.19756 213.39107 206.40457
 200.25008 195.19958 191.79308 189.84659 188.89509 188.97060 189.81710 191.13661
 192.87311 194.97962 197.25412 199.62463 202.08113 204.57264 206.67214 208.52565
 210.16315 211.31966 211.56016 211.79967 211.74817 211.46467 211.10918 210.75068
 210.37919 210.10069 209.92020 209.79570 209.73521 210.07771 210.47522 210.87572
 211.68023 212.86973 214.13124 215.92574 217.86525 219.91975 222.02625 224.12076
 226.19226 228.28777 230.39627 232.51378 234.65428 236.83779 239.10529 241.48680
 244.11930 246.38181 248.39531 250.17182 251.60032 252.73483 253.56833 253.89584
 253.94434 253.72984 253.10135 252.06085 250.67836 248.85086 246.77137 244.61587
 242.41838 240.23388 238.06539 235.91589 233.78740 231.66590 229.70341 227.87191
 226.16642 224.64992 223.29142 222.07493 220.96843 219.93994 219.05544 218.20795
 217.46145 216.65296 215.76246 215.13797 214.59947 214.36234 213.86542 214.76082
 215.70496 215.75873 216.07382 216.95084 218.24733 221.00563 226.04733 230.97939
 234.79146 238.50700 241.92010 245.30174 248.88130 252.39169 255.59428 258.64609
 261.65424 264.49118 267.09836 269.59424 271.66354 274.17725 276.30539 277.95685
 279.23230 280.26736 281.36624 282.43018 283.38089 284.38980 285.40286 286.34851
 287.19904 287.95645 288.61810 289.46127
 366.78100 356.35184 345.80067 334.68351 323.10335 311.31418 299.20102 287.02085
 274.74969 262.66353 250.68936 240.00720 230.14604 221.26687 213.46571 206.48454
 200.33538 195.29022 191.88905 189.94789 189.00173 189.08256 189.93440 191.25923
 193.00107 195.11291 197.39274 199.76858 202.23042 204.72725 206.83209 208.69093
 210.33376 211.49560 211.74143 211.98627 211.94011 211.66194 211.31178 210.95862
 210.59245 210.31929 210.14412 210.02496 209.96980 210.31763 210.72047 211.12631
 211.93614 213.13098 214.39781 216.19765 218.14249 220.20232 222.31416 224.41400
 226.49083 228.59167 230.70551 232.82834 234.97418 237.16301 239.43585 241.82269
 244.46052 246.72836 248.74720 250.52903 251.96287 253.10270 253.94154 254.27438
 254.32821 254.11905 253.49589 252.46072 251.08356 249.26139 247.18723 245.03707
 242.84490 240.66574 238.50258 236.35841 234.23525 232.11908 230.16192 228.33576
 226.63559 225.12443 223.77127 222.56010 221.45894 220.43578 219.55661 218.71445
 217.97328 217.17012 216.28496 215.66579 215.13263 214.66119 213.72482 214.59895
 215.96597 216.25710 216.60019 217.29649 218.51524 221.25436 226.08350 230.92310
 234.65430 238.27444 241.63489 245.07579 248.77094 252.24821 255.55504 258.66644
 261.65793 264.43582 267.08194 269.31082 271.96298 274.25565 276.25690 277.79761
 278.99179 280.10126 281.26508 282.54053 283.68808 284.70340 285.62970 286.46887
 287.22360 287.89572 288.48285 289.23108
 366.78100 356.35067 345.79835 334.68002 323.09869 311.30837 299.19404 287.01272
 274.74039 262.65306 250.67774 239.99441 230.13208 221.25176 213.44943 206.46711
 200.31678 195.27045 191.86813 189.92580 188.97847 189.05815 189.90882 191.23250
 192.97317 195.08384 197.36252 199.73719 202.19786 204.69354 206.79721 208.65489
 210.29656 211.45723 211.70191 211.94558 211.89825 211.61893 211.26760 210.91328
 210.54595 210.27162 210.09530 209.97497 209.91864 210.26532 210.66699 211.07167
 211.88034 213.07401 214.33969 216.13836 218.08203 220.14071 222.25138 224.35005
 226.42573 228.52540 230.63808 232.75975 234.90442 237.09210 239.36377 241.74944
 244.38612 246.65279 248.67047 250.45114 251.88381 253.02249 253.86016 254.19183
 254.24451 254.03418 253.40986 252.37353 250.99520 249.17188 247.09655 244.94522
 242.75190 240.57157 238.40725 236.26192 234.13759 232.02027 230.06194 228.23461
 226.53329 225.02096 223.66664 222.45431 221.35198 220.32766 219.44733 218.60400
 217.86168 217.05735 216.17103 215.55070 215.01637 214.60150 213.74577 214.46571
 215.85933 216.38449 216.85545 217.50996 218.69136 221.36079 226.14497 230.97255
 234.66238 238.25380 241.62950 245.09805 248.74663 252.25124 255.62167 258.70102
 261.69965 264.54013 267.15393 269.37259 271.94901 274.11319 276.01080 277.67529
 279.18857 280.59180 281.71762 282.76541 283.82605 284.75891 285.61005 286.38110
 287.07455 287.69211 288.23160 288.91910
 366.78100 356.34912 345.79524 334.67536 323.09248 311.30060 299.18472 287.00184
 274.72796 262.63908 250.66219 239.97731 230.11343 221.23155 213.42767 206.44379
 200.29191 195.24403 191.84015 189.89627 188.94739 189.02551 189.87463 191.19675
 192.93587 195.04499 197.32211 199.69523 202.15435 204.64846 206.75058 208.60670
 210.24682 211.40594 211.64906 211.89118 211.84230 211.56142 211.20854 210.85266
 210.48378 210.20790 210.03002 209.90814 209.85026 210.19538 210.59550 210.99861
 211.80573 212.99785 214.26197 216.05909 218.00121 220.05833 222.16745 224.26457
 226.33869 228.43681 230.54793 232.66805 234.81117 236.99729 239.26741 241.65153
 244.28665 246.55177 248.56788 250.34700 251.77812 252.91524 253.75136 254.08148
 254.13260 253.92072 253.29484 252.25696 250.87708 249.05220 246.97532 244.82244
 242.62756 240.44568 238.27980 236.13292 234.00704 231.88815 229.92827 228.09939
 226.39651 224.88263 223.52675 222.31287 221.20899 220.18311 219.30123 218.45635
 217.71247 216.90659 216.01871 215.39683 214.86095 214.50179 213.71004 214.53723
 215.99013 216.39189 216.79730 217.44691 218.58398 221.21942 226.09615 230.86020
 234.53426 238.09158 241.47012 244.91412 248.50876 252.04669 255.37415 258.47400
 261.44882 264.33875 267.03589 269.45880 271.63235 274.06680 275.93362 277.74744
 279.35074 280.74918 282.05484 283.16806 284.06009 284.88135 285.67764 286.27811
 286.81668 287.29626 287.71524 288.24915
 366.78100 356.34936 345.79571 334.67607 323.09343 311.30179 299.18614 287.00350
 274.72986 262.64121 250.66457 239.97993 230.11629 221.23464 213.43100 206.44736
 200.29572 195.24807 191.84443 189.90079 188.95214 189.03050 189.87986 191.20222
 192.94157 195.05093 197.32829 199.70164 202.16100 204.65536 206.75772 208.61407
 210.25443 211.41379 211.65714 211.89950 211.85086 211.57022 211.21757 210.86193
 210.49329 210.21765 210.04000 209.91836 209.86072 210.20607 210.60643 211.00979
 211.81715 213.00950 214.27386 216.07122 218.01357 220.07093 222.18029 224.27765
 226.35200 228.45036 230.56172 232.68207 234.82543 237.01179 239.28215 241.66650
 244.30186 246.56722 248.58358 250.36293 251.79429 252.93165 253.76800 254.09836
 254.14972 253.93808 253.31243 252.27479 250.89515 249.07050 246.99386 244.84122
 242.64658 240.46493 238.29929 236.15265 234.02700 231.90836 229.94872 228.12008
 226.41743 224.90379 223.54815 222.33451 221.23086 220.20522 219.32358 218.47893
 217.73529 216.92965 216.04201 215.42036 214.88472 214.50885 213.63734 214.53377
 216.30530 216.79025 217.01460 217.54135 218.47224 221.01251 226.01712 230.74176
 234.41655 237.88057 241.21231 244.65634 248.28154 251.92108 255.25644 258.28204
 261.22870 264.13181 266.86215 269.38162 271.69528 273.92789 275.92566 277.65948
 279.21460 280.65292 281.90515 283.01291 283.92847 284.73413 285.50241 286.19922
 286.66595 286.90692 287.11740 287.38568
 366.78100 356.34853 345.79406 334.67359 323.09012 311.29764 299.18117 286.99770
 274.72323 262.63376 250.65629 239.97082 230.10635 221.22387 213.41940 206.43493
 200.28246 195.23399 191.82952 189.88505 188.93558 189.01310 189.86163 191.18316
 192.92169 195.03022 197.30675 199.67928 202.13781 204.63134 206.73286 208.58839
 210.22792 211.38645 211.62898 211.87051 211.82104 211.53957 211.18609 210.82962
 210.46015 210.18368 210.00521 209.88274 209.82427 210.16880 210.56832 210.97085
 211.77738 212.96891 214.23244 216.02897 217.97050 220.02703 222.13556 224.23208
 226.30561 228.40314 230.51367 232.63320 234.77573 236.96126 239.23079 241.61431
 244.24884 246.51337 248.52890 250.30743 251.73796 252.87449 253.71002 254.03954
 254.09007 253.87760 253.25113 252.21266 250.83219 249.00672 246.92925 244.77578
 242.58030 240.39783 238.23136 236.08389 233.95742 231.83795 229.87748 228.04801
 226.34453 224.83006 223.47359 222.25912 221.15465 220.12818 219.24571 218.40024
 217.65576 216.84929 215.96082 215.33835 214.80188 214.46500 213.66905 214.50491
 216.35536 217.02559 217.27127 217.71698 218.50787 221.02719 226.01003 230.69394
 234.34175 237.74515 241.07486 244.55582 248.20753 251.94470 255.30194 258.23840
 261.16632 264.06604 266.80557 269.38568 271.67566 273.80685 275.86530 277.64703
 279.14935 280.51462 281.72531 282.74893 283.60297 284.36365 285.11304 285.78394
 286.28998 286.49332 286.47510 286.45184
 366.78100 356.34785 345.79270 334.67155 323.08740 311.29425 299.17710 286.99295
 274.71780 262.62765 250.64950 239.96335 230.09820 221.21505 213.40990 206.42475
 200.27160 195.22245 191.81730 189.87215 188.92200 188.99885 189.84670 191.16755
 192.90539 195.01324 197.28909 199.66094 202.11879 204.61164 206.71249 208.56734
 210.20619 211.36404 211.60589 211.84674 211.79659 211.51444 211.16029 210.80314
 210.43299 210.15584 209.97669 209.85354 209.79439 210.13824 210.53709 210.93894
 211.74479 212.93564 214.19849 215.99434 217.93519 219.99104 222.09889 224.19474
 226.26759 228.36444 230.47429 232.59314 234.73499 236.91984 239.18869 241.57154
 244.20539 246.46924 248.48409 250.26194 251.69179 252.82764 253.66248 253.99133
 254.04118 253.82803 253.20088 252.16173 250.78058 248.95443 246.87628 244.72213
 242.52598 240.34283 238.17568 236.02753 233.90038 231.78023 229.81908 227.98893
 226.28478 224.76963 223.41248 222.19733 221.09218 220.06503 219.18188 218.33573
 217.59058 216.78343 215.89428 215.27113 214.73398 214.42870 213.70744 214.50931
 216.38132 217.12048 217.40112 217.76326 218.47424 221.02731 226.00743 230.66788
 234.26447 237.60562 240.94606 244.49332 248.17038 251.98001 255.32634 258.22397
 261.15060 264.04544 266.79547 269.38965 271.62097 273.75241 275.82538 277.60345
 279.12134 280.47296 281.64011 282.61362 283.41846 284.13495 284.85934 285.50888
 286.03613 286.22949 286.18719 286.13333
 366.78100 356.34820 345.79341 334.67261 323.08881 311.29602 299.17922 286.99543
 274.72063 262.63083 250.65304 239.96724 230.10244 221.21965 213.41485 206.43005
 200.27726 195.22846 191.82367 189.87887 188.92907 189.00628 189.85448 191.17568
 192.91389 195.02209 197.29829 199.67050 202.12870 204.62191 206.72311 208.57831
 210.21752 211.37572 211.61792 211.85913 211.80933 211.52753 211.17374 210.81694
 210.44715 210.17035 209.99155 209.86876 209.80996 210.15416 210.55337 210.95557
 211.76177 212.95298 214.21618 216.01239 217.95359 220.00979 222.11800 224.21420
 226.28740 228.38461 230.49481 232.61401 234.75622 236.94142 239.21063 241.59383
 244.22803 246.49224 248.50744 250.28564 251.71585 252.85205 253.68725 254.01646
 254.06666 253.85387 253.22707 252.18827 250.80748 248.98168 246.90388 244.75009
 242.55429 240.37149 238.20470 236.05690 233.93011 231.81031 229.84951 228.01972
 226.31592 224.80112 223.44433 222.22953 221.12473 220.09794 219.21514 218.36935
 217.62455 216.81775 215.92896 215.30616 214.76936 214.44646 213.68356 214.52220
 216.43376 217.23326 217.53513 217.79424 218.45981 221.05827 226.03400 230.63863
 234.16582 237.45251 240.82162 244.44450 248.15947 252.02150 255.39201 258.22150
 261.13666 264.02682 266.77890 269.35001 271.51932 273.73605 275.72318 277.51596
 279.03809 280.39520 281.54865 282.50189 283.29224 283.99182 284.69025 285.36920
 285.93845 286.26886 286.32950 286.40674
 366.78100 356.34862 345.79424 334.67386 323.09047 311.29809 299.18171 286.99833
 274.72395 262.63457 250.65719 239.97181 230.10742 221.22504 213.42066 206.43628
 200.28390 195.23552 191.83114 189.88675 188.93737 189.01499 189.86361 191.18523
 192.92385 195.03247 197.30909 199.68170 202.14032 204.63394 206.73556 208.59118
 210.23080 211.38942 211.63203 211.87365 211.82427 211.54289 211.18951 210.83313
 210.46375 210.18737 210.00898 209.88660 209.82822 210.17284 210.57246 210.97508
 211.78170 212.97331 214.23693 216.03355 217.97517 220.03179 222.14041 224.23703
 226.31065 228.40826 230.51888 232.63850 234.78112 236.96674 239.23636 241.61998
 244.25460 246.51921 248.53483 250.31345 251.74407 252.88069 253.71631 254.04593
 254.09654 253.88416 253.25778 252.21940 250.83902 249.01364 246.93626 244.78288
 242.58749 240.40511 238.23873 236.09135 233.96497 231.84559 229.88521 228.05582
 226.35244 224.83806 223.48168 222.26730 221.16292 220.13654 219.25416 218.40877
 217.66439 216.85801 215.96963 215.34725 214.81087 214.46719 213.65524 214.58130
 216.52771 217.38014 217.68166 217.82031 218.45914 221.08269 226.03970 230.55750
 234.00117 237.25043 240.64438 244.32036 248.12790 252.06586 255.45688 258.30814
 261.21051 264.07703 266.76801 269.30624 271.50037 273.73499 275.65921 277.34271
 278.80792 280.12900 281.23807 282.14346 282.89700 283.58920 284.27325 284.92447
 285.47739 285.88284 286.11673 286.24661
 366.78100 356.34861 345.79421 334.67382 323.09042 311.29803 299.18163 286.99824
 274.72384 262.63445 250.65705 239.97166 230.10726 221.22487 213.42047 206.43608
 200.28368 195.23529 191.83089 189.88650 188.93710 189.01471 189.86331 191.18492
 192.92352 195.03213 197.30873 199.68134 202.13994 204.63355 206.73515 208.59076
 210.23036 211.38897 211.63157 211.87318 211.82378 211.54239 211.18899 210.83260
 210.46320 210.18681 210.00841 209.88602 209.82762 210.17223 210.57183 210.97444
 211.78104 212.97265 214.23625 216.03286 217.97446 220.03107 222.13968 224.23628
 226.30989 228.40749 230.51810 232.63770 234.78031 236.96591 239.23552 241.61912
 244.25373 246.51833 248.53394 250.31254 251.74315 252.87975 253.71536 254.04496
 254.09557 253.88317 253.25678 252.21838 250.83799 249.01259 246.93520 244.78180
 242.58641 240.40401 238.23762 236.09022 233.96383 231.84443 229.88404 228.05464
 226.35125 224.83685 223.48046 222.26606 221.16167 220.13527 219.25288 218.40748
 217.66309 216.85669 215.96830 215.34590 214.80951 214.46712 213.65820 214.62054
 216.63448 217.54364 217.83945 217.86737 218.44299 221.06409 226.00827 230.45805
 233.83264 237.03497 240.44241 244.15642 248.11263 252.06313 255.40302 258.29105
 261.19467 264.06119 266.75781 269.25616 271.48267 273.72592 275.62234 277.18936
 278.62820 279.92844 281.00500 281.87091 282.57642 283.22739 283.90820 284.55185
 285.06070 285.41818 285.67307 285.94394
 366.78100 356.34804 345.79307 334.67211 323.08815 311.29519 299.17822 286.99426
 274.71930 262.62934 250.65137 239.96541 230.10045 221.21749 213.41252 206.42756
 200.27460 195.22564 191.82067 189.87571 188.92575 189.00279 189.85082 191.17186
 192.90990 195.01794 197.29397 199.66601 202.12405 204.61709 206.71812 208.57316
 210.21220 211.37024 211.61227 211.85331 211.80335 211.52139 211.16742 210.81046
 210.44050 210.16354 209.98457 209.86161 209.80265 210.14669 210.54572 210.94776
 211.75380 212.94484 214.20787 216.00391 217.94495 220.00099 222.10902 224.20506
 226.27810 228.37514 230.48517 232.60421 234.74625 236.93129 239.20032 241.58336
 244.21740 246.48144 248.49647 250.27451 251.70455 252.84059 253.67562 254.00466
 254.05470 253.84174 253.21477 252.17581 250.79485 248.96888 246.89092 244.73696
 242.54100 240.35803 238.19107 236.04311 233.91615 231.79618 229.83522 228.00526
 226.30130 224.78633 223.42937 222.21441 221.10945 220.08248 219.19952 218.35356
 217.60860 216.80163 215.91267 215.28971 214.75275 214.44092 213.70418 214.61488
 216.67329 217.68076 218.00119 217.95888 218.48016 221.07379 225.98946 230.37578
 233.68896 236.84941 240.27364 244.02246 248.12677 252.06252 255.41632 258.27539
 261.15448 264.01556 266.71271 269.20410 271.44012 273.68637 275.56680 277.11725
 278.54733 279.84341 280.90005 281.73981 282.42062 283.03702 283.68311 284.29733
 284.78012 285.11273 285.38687 285.78558
 366.78100 356.34751 345.79203 334.67054 323.08606 311.29257 299.17508 286.99060
 274.71511 262.62463 250.64614 239.95965 230.09417 221.21068 213.40520 206.41971
 200.26623 195.21674 191.81125 189.86577 188.91528 188.99180 189.83931 191.15982
 192.89734 195.00485 197.28037 199.65188 202.10939 204.60191 206.70242 208.55694
 210.19545 211.35296 211.59448 211.83499 211.78451 211.50202 211.14754 210.79005
 210.41956 210.14208 209.96259 209.83911 209.77962 210.12313 210.52165 210.92316
 211.72868 212.91919 214.18170 215.97722 217.91773 219.97325 222.08076 224.17627
 226.24879 228.34530 230.45482 232.57333 234.71485 236.89936 239.16787 241.55039
 244.18390 246.44742 248.46193 250.23944 251.66896 252.80447 253.63899 253.96750
 254.01701 253.80353 253.17604 252.13656 250.75507 248.92858 246.85010 244.69561
 242.49913 240.31564 238.14816 235.99967 233.87218 231.75170 229.79021 227.95973
 226.25524 224.73975 223.38227 222.16678 221.06130 220.03381 219.15032 218.30384
 217.55835 216.75087 215.86138 215.23789 214.70041 214.42056 213.75937 214.61961
 216.67343 217.77478 218.12605 218.04811 218.54175 221.10817 225.98586 230.31250
 233.56927 236.69002 240.13042 243.93034 248.12987 252.05530 255.41652 258.26236
 261.07703 263.92352 266.64258 269.14908 271.40668 273.63504 275.51089 277.10956
 278.51743 279.80054 280.83911 281.66153 282.31775 282.89542 283.48465 284.05865
 284.52896 284.85825 285.18640 285.71014
 366.78100 356.34756 345.79211 334.67067 323.08622 311.29278 299.17534 286.99089
 274.71545 262.62500 250.64656 239.96011 230.09467 221.21123 213.40578 206.42034
 200.26689 195.21745 191.81201 189.86656 188.91612 188.99267 189.84023 191.16079
 192.89834 195.00590 197.28145 199.65301 202.11057 204.60312 206.70368 208.55823
 210.19679 211.35434 211.59590 211.83646 211.78601 211.50357 211.14912 210.79168
 210.42124 210.14379 209.96435 209.84090 209.78146 210.12502 210.52357 210.92513
 211.73068 212.92124 214.18379 215.97935 217.91991 219.97546 222.08302 224.17857
 226.25113 228.34769 230.45724 232.57580 234.71735 236.90191 239.17047 241.55302
 244.18658 246.45013 248.46469 250.24225 251.67180 252.80736 253.64191 253.97047
 254.02002 253.80658 253.17914 252.13969 250.75825 248.93180 246.85336 244.69892
 242.50247 240.31903 238.15158 236.00314 233.87570 231.75525 229.79381 227.96336
 226.25892 224.74347 223.38603 222.17059 221.06514 220.03770 219.15425 218.30781
 217.56237 216.75492 215.86548 215.24203 214.70459 214.43230 213.78899 214.62901
 216.71255 217.85474 218.20602 218.08754 218.55141 221.10913 225.97060 230.26237
 233.46619 236.53831 239.98965 243.84724 248.12984 252.05589 255.41626 258.14969
 260.96777 263.84180 266.61050 269.09988 271.38449 273.64786 275.50879 277.11392
 278.50089 279.74014 280.76337 281.58246 282.23392 282.80188 283.36505 283.91916
 284.35263 284.64862 285.09146 285.68567
 366.78100 356.34786 345.79272 334.67158 323.08744 311.29430 299.17716 286.99302
 274.71788 262.62774 250.64960 239.96346 230.09832 221.21518 213.41004 206.42490
 200.27176 195.22262 191.81748 189.87234 188.92220 188.99906 189.84692 191.16778
 192.90564 195.01350 197.28936 199.66122 202.11908 204.61194 206.71280 208.56766
 210.20652 211.36438 211.60624 211.84709 211.79695 211.51481 211.16067 210.80353
 210.43339 210.15625 209.97711 209.85397 209.79483 210.13869 210.53755 210.93941
 211.74527 212.93613 214.19899 215.99485 217.93571 219.99157 222.09943 224.19529
 226.26815 228.36501 230.47487 232.59373 234.73559 236.92045 239.18931 241.57217
 244.20603 246.46989 248.48475 250.26261 251.69247 252.82833 253.66319 253.99205
 254.04191 253.82877 253.20163 252.16249 250.78135 248.95521 246.87707 244.72293
 242.52679 240.34365 238.17651 236.02837 233.90123 231.78109 229.81995 227.98981
 226.28567 224.77053 223.41339 222.19825 221.09311 220.06597 219.18283 218.33669
 217.59155 216.78441 215.89527 215.27213 214.73499 214.46225 213.82050 214.58864
 216.76518 217.96170 218.28821 218.09401 218.49516 221.04994 225.92659 230.21432
 233.36407 236.39157 239.85245 243.77544 248.13013 252.03430 255.32918 258.10977
 260.89301 263.78323 266.58914 269.10843 271.39249 273.61899 275.47363 277.07040
 278.46103 279.66925 280.69095 281.53152 282.19839 282.77267 283.36179 283.89362
 284.27405 284.75684 285.22235 285.81561
 366.78100 356.34704 345.79109 334.66913 323.08417 311.29021 299.17226 286.98730
 274.71134 262.62038 250.64143 239.95447 230.08851 221.20456 213.39860 206.41264
 200.25868 195.20873 191.80277 189.85681 188.90585 188.98190 189.82894 191.14898
 192.88603 194.99307 197.26811 199.63915 202.09620 204.58824 206.68828 208.54233
 210.18037 211.33741 211.57845 211.81850 211.76754 211.48458 211.12962 210.77167
 210.40071 210.12275 209.94280 209.81884 209.75888 210.10192 210.49997 210.90101
 211.70605 212.89609 214.15814 215.95318 217.89322 219.94827 222.05531 224.15035
 226.22239 228.31844 230.42748 232.54552 234.68656 236.87061 239.13865 241.52069
 244.15374 246.41678 248.43082 250.20786 251.63691 252.77195 253.60599 253.93403
 253.98308 253.76912 253.14116 252.10121 250.71925 248.89229 246.81333 244.65838
 242.46142 240.27746 238.10951 235.96055 233.83259 231.71163 229.74968 227.91872
 226.21376 224.69780 223.33985 222.12389 221.01793 219.98998 219.10602 218.25906
 217.51310 216.70515 215.81519 215.19123 214.65327 214.43594 213.93117 214.54765
 216.70642 218.01987 218.39531 218.15799 218.49535 221.02800 225.89351 230.14937
 233.25984 236.28949 239.77505 243.76279 248.14287 252.01379 255.26440 258.14008
 260.85568 263.72540 266.56320 269.09283 271.38773 273.55197 275.37924 276.99686
 278.38861 279.60547 280.64087 281.47647 282.13757 282.71249 283.25668 283.74115
 284.21603 284.80566 285.32074 285.97717
 366.78100 356.34500 345.78700 334.66300 323.07600 311.28000 299.16000 286.97300
 274.69499 262.60199 250.62099 239.93199 230.06399 221.17799 213.36999 206.38199
 200.22599 195.17399 191.76599 189.81799 188.86499 188.93899 189.78398 191.10198
 192.83698 194.94198 197.21498 199.58398 202.03898 204.52898 206.62698 208.47898
 210.11498 211.26998 211.50898 211.74698 211.69397 211.40897 211.05197 210.69197
 210.31897 210.03897 209.85697 209.73097 209.66897 210.00997 210.40597 210.80497
 211.60797 212.79597 214.05596 215.84896 217.78696 219.83996 221.94496 224.03796
 226.10796 228.20196 230.30896 232.42496 234.56396 236.74596 239.01196 241.39196
 244.02295 246.28395 248.29595 250.07095 251.49795 252.63095 253.46295 253.78895
 253.83595 253.61995 252.98995 251.94795 250.56395 248.73495 246.65394 244.49694
 242.29794 240.11194 237.94194 235.79094 233.66094 231.53794 229.57394 227.74094
 226.03394 224.51594 223.15594 221.93794 220.82993 219.79993 218.91393 218.06493
 217.31693 216.50693 215.61493 214.98893 214.44893 214.33771 214.07802 214.58179
 216.56955 217.99106 218.46747 218.27499 218.61859 221.09137 225.90388 230.09120
 233.17990 236.19308 239.70738 243.76285 248.17151 252.00449 255.22498 258.15469
 260.86618 263.70587 266.52335 269.03748 271.33328 273.46368 275.28891 276.90027
 278.29501 279.49835 280.51071 281.32574 281.95920 282.53177 283.14310 283.60849
 284.09201 284.71481 285.26099 285.95703
 366.78100 356.34325 345.78350 334.65774 323.06899 311.27124 299.14949 286.96073
 274.68098 262.58623 250.60348 239.91273 230.04297 221.15522 213.34547 206.35572
 200.19796 195.14421 191.73446 189.78471 188.82995 188.90220 189.74545 191.06170
 192.79495 194.89819 197.16944 199.53669 201.98994 204.47818 206.57443 208.42468
 210.05893 211.21218 211.44942 211.68567 211.63092 211.34417 210.98541 210.62366
 210.24891 209.96716 209.78340 209.65565 209.59190 209.93115 210.32540 210.72264
 211.52389 212.71014 213.96839 215.75963 217.69588 219.74713 221.85038 223.94163
 226.00987 228.10212 230.20737 232.32162 234.45886 236.63911 238.90336 241.28161
 243.91085 246.17010 248.18035 249.95360 251.37885 252.51009 253.34034 253.66459
 253.70984 253.49208 252.86033 251.81658 250.43083 248.60008 246.51732 244.35857
 242.15782 239.97007 237.79831 235.64556 233.51381 231.38906 229.42330 227.58855
 225.87980 224.36005 222.99830 221.77854 220.66879 219.63704 218.74929 217.89853
 217.14878 216.33703 215.44328 214.81553 214.27377 214.24797 214.18703 214.69644
 216.48810 217.92581 218.47714 218.33470 218.73514 221.19856 225.93800 230.03485
 233.09189 236.11821 239.65913 243.77797 248.20226 251.99391 255.19974 258.16776
 260.87790 263.67847 266.44846 268.96161 271.28171 273.37463 275.18887 276.78983
 278.17648 279.34808 280.34174 281.13998 281.78317 282.36984 283.06387 283.61563
 283.99399 284.50452 285.02536 285.68909
 366.78100 356.34293 345.78285 334.65678 323.06770 311.26963 299.14755 286.95848
 274.67840 262.58333 250.60025 239.90918 230.03910 221.15103 213.34095 206.35088
 200.19281 195.13873 191.72866 189.77858 188.82351 188.89543 189.73836 191.05428
 192.78721 194.89013 197.16106 199.52798 201.98091 204.46883 206.56476 208.41468
 210.04861 211.20154 211.43846 211.67439 211.61931 211.33224 210.97316 210.61109
 210.23601 209.95394 209.76986 209.64179 209.57771 209.91664 210.31056 210.70749
 211.50842 212.69434 213.95227 215.74319 217.67912 219.73004 221.83297 223.92389
 225.99182 228.08374 230.18867 232.30259 234.43952 236.61944 238.88337 241.26129
 243.89022 246.14915 248.15907 249.93200 251.35692 252.48785 253.31777 253.64170
 253.68662 253.46855 252.83647 251.79240 250.40632 248.57525 246.49217 244.33310
 242.13203 239.94395 237.77188 235.61880 233.48673 231.36165 229.39558 227.56050
 225.85143 224.33135 222.96928 221.74920 220.63913 219.60705 218.71898 217.86790
 217.11783 216.30576 215.41168 214.78361 214.24153 214.23325 214.21367 214.82875
 216.53102 217.89290 218.44461 218.33632 218.77039 221.24263 225.94855 229.98068
 232.99945 236.03636 239.60812 243.80547 248.21080 251.97235 255.18649 258.19379
 260.83835 263.62015 266.35840 268.91937 271.26114 273.31708 275.14703 276.80908
 278.22577 279.39478 280.36154 281.14633 281.77759 282.35507 283.02448 283.61041
 284.01660 284.36826 284.88522 285.55704
 366.78100 356.34285 345.78271 334.65656 323.06741 311.26926 299.14712 286.95797
 274.67782 262.58268 250.59953 239.90838 230.03823 221.15009 213.33994 206.34979
 200.19165 195.13750 191.72735 189.77720 188.82206 188.89391 189.73676 191.05262
 192.78547 194.88832 197.15917 199.52603 201.97888 204.46673 206.56259 208.41244
 210.04629 211.19914 211.43600 211.67185 211.61670 211.32955 210.97041 210.60826
 210.23311 209.95097 209.76682 209.63867 209.57452 209.91338 210.30723 210.70408
 211.50494 212.69079 213.94864 215.73949 217.67535 219.72620 221.82905 223.91991
 225.98776 228.07961 230.18446 232.29832 234.43517 236.61502 238.87888 241.25673
 243.88558 246.14443 248.15429 249.92714 251.35199 252.48285 253.31270 253.63655
 253.68140 253.46326 252.83111 251.78696 250.40082 248.56967 246.48652 244.32737
 242.12623 239.93808 237.76593 235.61279 233.48064 231.35549 229.38934 227.55420
 225.84505 224.32490 222.96276 221.74261 220.63246 219.60031 218.71217 217.86102
 217.11087 216.29872 215.40458 214.77643 214.23428 214.23914 214.25060 214.86635
 216.63536 218.01018 218.46246 218.21648 218.63344 221.18010 225.90173 229.87807
 232.85750 235.88663 239.50870 243.80606 248.22795 251.95242 255.15308 258.17548
 260.84717 263.62518 266.35443 268.94791 271.30249 273.36462 275.12415 276.83829
 278.30273 279.51410 280.49896 281.30405 281.94913 282.55099 283.19693 283.72717
 284.12061 284.56570 285.08823 285.75415
 366.78100 356.34339 345.78379 334.65818 323.06958 311.27197 299.15037 286.96176
 274.68215 262.58755 250.60494 239.91434 230.04473 221.15712 213.34752 206.35791
 200.20031 195.14670 191.73710 189.78749 188.83288 188.90528 189.74867 191.06507
 192.79846 194.90186 197.17325 199.54064 201.99404 204.48243 206.57883 208.42922
 210.06361 211.21701 211.45440 211.69080 211.63619 211.34959 210.99098 210.62937
 210.25477 209.97316 209.78956 209.66195 209.59835 209.93774 210.33213 210.72953
 211.53092 212.71732 213.97571 215.76711 217.70350 219.75489 221.85829 223.94968
 226.01808 228.11047 230.21586 232.33026 234.46765 236.64805 238.91244 241.29084
 243.92023 246.17962 248.19002 249.96341 251.38881 252.52020 253.35060 253.67499
 253.72038 253.50278 252.87117 251.82757 250.44196 248.61135 246.52875 244.37014
 242.16954 239.98193 237.81033 235.65772 233.52611 231.40151 229.43590 227.60130
 225.89269 224.37309 223.01148 221.79187 220.68227 219.65066 218.76306 217.91245
 217.16284 216.35124 215.45763 214.83003 214.28842 214.28305 214.27199 214.88231
 216.67036 218.06516 218.49109 218.12177 218.46913 221.06012 225.82928 229.80830
 232.71471 235.73859 239.43248 243.83188 248.23578 251.92155 255.12239 258.12057
 260.88223 263.65085 266.35669 268.92715 271.27927 273.32803 275.08658 276.79480
 278.29834 279.54272 280.55945 281.41318 282.08337 282.74243 283.42023 283.86145
 284.36050 284.94485 285.46106 286.11890
 366.78100 356.34447 345.78595 334.66142 323.07389 311.27736 299.15684 286.96931
 274.69078 262.59725 250.61573 239.92620 230.05767 221.17115 213.36262 206.37409
 200.21756 195.16504 191.75651 189.80798 188.85445 188.92793 189.77240 191.08987
 192.82434 194.92882 197.20129 199.56976 202.02424 204.51371 206.61118 208.46265
 210.09813 211.25260 211.49107 211.72854 211.67502 211.38949 211.03196 210.67144
 210.29791 210.01738 209.83485 209.70833 209.64580 209.98627 210.38174 210.78022
 211.58269 212.77016 214.02964 215.82211 217.75958 219.81205 221.91653 224.00900
 226.07847 228.17194 230.27842 232.39389 234.53236 236.71384 238.97931 241.35878
 243.98925 246.24973 248.26120 250.03567 251.46214 252.59462 253.42609 253.75156
 253.79803 253.58151 252.95098 251.90845 250.52393 248.69440 246.61287 244.45534
 242.25582 240.06929 237.89876 235.74723 233.61671 231.49318 229.52865 227.69513
 225.98760 224.46907 223.10854 221.89002 220.78149 219.75096 218.86443 218.01491
 217.26638 216.45585 215.56333 214.93680 214.39627 214.35765 214.27299 214.91624
 216.68358 218.02097 218.46199 218.06367 218.39885 221.02164 225.79863 229.79060
 232.64763 235.71750 239.45908 243.90140 248.25130 251.90067 255.08717 258.08282
 260.89319 263.65347 266.32507 268.86359 271.21338 273.22296 274.97247 276.69220
 278.20636 279.43988 280.43860 281.23898 281.89703 282.67239 283.35010 283.85703
 284.48685 285.13464 285.70053 286.42172
 366.78100 356.34450 345.78600 334.66151 323.07401 311.27751 299.15701 286.96952
 274.69102 262.59752 250.61602 239.92653 230.05803 221.17153 213.36303 206.37454
 200.21804 195.16554 191.75704 189.80855 188.85505 188.92855 189.77305 191.09056
 192.82506 194.92956 197.20206 199.57057 202.02507 204.51457 206.61207 208.46358
 210.09908 211.25358 211.49208 211.72959 211.67609 211.39059 211.03309 210.67260
 210.29910 210.01860 209.83610 209.70961 209.64711 209.98761 210.38311 210.78162
 211.58412 212.77162 214.03112 215.82363 217.76113 219.81363 221.91813 224.01064
 226.08014 228.17364 230.28014 232.39565 234.53415 236.71565 238.98115 241.36066
 243.99116 246.25166 248.26316 250.03766 251.46417 252.59667 253.42817 253.75367
 253.80018 253.58368 252.95318 251.91068 250.52619 248.69669 246.61519 244.45769
 242.25820 240.07170 237.90120 235.74970 233.61921 231.49571 229.53121 227.69771
 225.99022 224.47172 223.11122 221.89272 220.78423 219.75373 218.86723 218.01773
 217.26924 216.45874 215.56624 214.93974 214.39925 214.38051 214.34656 214.95303
 216.69420 217.97577 218.34453 217.93388 218.35405 221.03079 225.77171 229.77730
 232.61380 235.73778 239.50957 243.94212 248.23616 251.85216 255.03983 258.05334
 260.89209 263.65375 266.30725 268.82596 271.17578 273.14389 274.89398 276.62595
 278.13019 279.30991 280.25403 281.03168 281.72757 282.49857 283.08578 283.48975
 284.19791 284.85870 285.43597 286.17166
 366.78100 356.34337 345.78375 334.65812 323.06950 311.27187 299.15025 286.96162
 274.68199 262.58737 250.60474 239.91412 230.04449 221.15686 213.34724 206.35761
 200.19999 195.14636 191.73674 189.78711 188.83248 188.90486 189.74823 191.06461
 192.79798 194.90136 197.17273 199.54010 201.99348 204.48185 206.57823 208.42860
 210.06298 211.21635 211.45372 211.69010 211.63547 211.34885 210.99022 210.62859
 210.25397 209.97234 209.78872 209.66109 209.59747 209.93684 210.33121 210.72859
 211.52996 212.71634 213.97471 215.76609 217.70246 219.75383 221.85721 223.94858
 226.01696 228.10933 230.21471 232.32908 234.46645 236.64683 238.91120 241.28958
 243.91895 246.17832 248.18870 249.96207 251.38745 252.51882 253.34920 253.67357
 253.71894 253.50132 252.86969 251.82607 250.44044 248.60982 246.52719 244.36856
 242.16794 239.98031 237.80869 235.65606 233.52444 231.39981 229.43418 227.59956
 225.89093 224.37131 223.00968 221.79005 220.68043 219.64880 218.76118 217.91055
 217.16093 216.34930 215.45567 214.82805 214.28642 214.34532 214.49538 215.00551
 216.57103 217.88286 218.25873 217.85779 218.35126 221.04858 225.73155 229.74046
 232.56953 235.74704 239.54829 243.95741 248.19337 251.78535 254.99591 258.03079
 260.90332 263.67426 266.32425 268.83887 271.18707 273.11960 274.84518 276.60669
 278.10831 279.28198 280.21078 280.96646 281.65372 282.29364 282.72131 283.42719
 284.18188 284.85397 285.44107 286.18930
 366.78100 356.34214 345.78128 334.65443 323.06457 311.26571 299.14285 286.95300
 274.67214 262.57628 250.59242 239.90056 230.02971 221.14085 213.32999 206.33913
 200.18028 195.12542 191.71456 189.76370 188.80784 188.87899 189.72113 191.03627
 192.76841 194.87056 197.14070 199.50684 201.95898 204.44612 206.54127 208.39041
 210.02355 211.17569 211.41184 211.64698 211.59112 211.30326 210.94340 210.58055
 210.20469 209.92183 209.73697 209.60812 209.54326 209.88140 210.27454 210.67068
 211.47083 212.65597 213.91311 215.70325 217.63840 219.68854 221.79068 223.88082
 225.94797 228.03911 230.14325 232.25639 234.39253 236.57168 238.83482 241.21196
 243.84010 246.09825 248.10739 249.87953 251.30367 252.43381 253.26296 253.58610
 253.63024 253.41138 252.77853 251.73367 250.34681 248.51495 246.43109 244.27124
 242.06938 239.88052 237.70766 235.55381 233.42095 231.29509 229.32823 227.49237
 225.78252 224.26166 222.89880 221.67794 220.56709 219.53423 218.64537 217.79351
 217.04265 216.22980 215.33494 214.70608 214.16322 214.29808 214.62170 215.08548
 216.43832 217.84084 218.28857 217.82953 218.30522 221.04340 225.73714 229.71458
 232.54340 235.73381 239.55188 243.96214 248.16837 251.74043 254.96112 258.01807
 260.91446 263.69583 266.34601 268.83975 271.14783 273.09134 274.85425 276.64108
 278.16925 279.37637 280.33807 281.11639 281.74966 282.30966 282.75168 283.39435
 284.17038 284.86142 285.46512 286.23447
 366.78100 356.34200 345.78100 334.65400 323.06400 311.26500 299.14200 286.95200
 274.67100 262.57500 250.59100 239.89901 230.02801 221.13901 213.32801 206.33701
 200.17801 195.12301 191.71201 189.76101 188.80501 188.87601 189.71801 191.03301
 192.76501 194.86701 197.13701 199.50301 201.95501 204.44201 206.53701 208.38601
 210.01902 211.17102 211.40702 211.64202 211.58602 211.29802 210.93802 210.57502
 210.19902 209.91602 209.73102 209.60202 209.53702 209.87502 210.26802 210.66402
 211.46402 212.64902 213.90602 215.69602 217.63102 219.68103 221.78303 223.87303
 225.94003 228.03103 230.13503 232.24803 234.38403 236.56303 238.82603 241.20303
 243.83103 246.08903 248.09803 249.87003 251.29403 252.42403 253.25303 253.57603
 253.62003 253.40103 252.76804 251.72304 250.33604 248.50404 246.42004 244.26004
 242.05804 239.86904 237.69604 235.54204 233.40904 231.28304 229.31604 227.48004
 225.77004 224.24904 222.88604 221.66504 220.55404 219.52104 218.63204 217.78005
 217.02905 216.21605 215.32105 214.69205 214.14905 214.31073 214.69595 215.13974
 216.42899 217.82745 218.29492 217.78340 218.21744 220.97983 225.68124 229.60550
 232.42427 235.64153 239.52005 243.95172 248.11740 251.67030 254.91231 258.00003
 260.91855 263.70798 266.34741 268.80261 271.07153 273.00818 274.81778 276.61948
 278.13275 279.36163 280.35315 281.17285 281.88931 282.50803 282.98022 283.67889
 284.40875 285.05869 285.62646 286.35004
 366.78100 356.34189 345.78078 334.65368 323.06357 311.26446 299.14135 286.95124
 274.67013 262.57403 250.58992 239.89781 230.02670 221.13759 213.32648 206.33538
 200.17627 195.12116 191.71005 189.75894 188.80283 188.87373 189.71562 191.03051
 192.76240 194.86429 197.13418 199.50008 201.95197 204.43886 206.53375 208.38264
 210.01553 211.16743 211.40332 211.63821 211.58210 211.29399 210.93388 210.57078
 210.19467 209.91156 209.72645 209.59734 209.53223 209.87013 210.26302 210.65891
 211.45880 212.64369 213.90058 215.69048 217.62537 219.67526 221.77715 223.86704
 225.93393 228.02483 230.12872 232.24161 234.37750 236.55639 238.81928 241.19618
 243.82407 246.08196 248.09085 249.86274 251.28663 252.41653 253.24542 253.56831
 253.61220 253.39309 252.75998 251.71488 250.32777 248.49566 246.41155 244.25144
 242.04933 239.86023 237.68712 235.53301 233.39990 231.27379 229.30668 227.47058
 225.76047 224.23936 222.87625 221.65514 220.54403 219.51093 218.62182 217.76971
 217.01860 216.20549 215.31038 214.68128 214.13817 214.33669 214.80141 215.12444
 216.33905 217.66628 218.16733 217.79744 218.30849 221.00348 225.60513 229.50859
 232.30585 235.58389 239.53447 243.95953 248.07254 251.62965 254.90950 258.01776
 260.95242 263.73758 266.35266 268.76404 271.01221 272.95139 274.72766 276.52335
 277.99561 279.18277 280.13876 280.97067 281.71820 282.37650 283.27936 284.15448
 284.94153 285.64243 286.25470 287.03497
 366.78100 356.34117 345.77933 334.65150 323.06066 311.26083 299.13699 286.94616
 274.66433 262.56749 250.58266 239.88982 230.01799 221.12815 213.31632 206.32449
 200.16465 195.10882 191.69698 189.74515 188.78831 188.85848 189.69964 191.01381
 192.74498 194.84614 197.11531 199.48047 201.93164 204.41780 206.51197 208.36014
 209.99230 211.14347 211.37863 211.61280 211.55596 211.26713 210.90630 210.54246
 210.16563 209.88179 209.69596 209.56612 209.50029 209.83746 210.22962 210.62479
 211.42395 212.60812 213.86428 215.65345 217.58761 219.63678 221.73795 223.82711
 225.89328 227.98344 230.08661 232.19877 234.33394 236.51211 238.77427 241.15044
 243.77760 246.03477 248.04293 249.81410 251.23727 252.36643 253.19460 253.51676
 253.55993 253.34009 252.70626 251.66043 250.27259 248.43976 246.35492 244.19409
 241.99125 239.80142 237.62758 235.47275 233.33892 231.21208 229.24425 227.40741
 225.69658 224.17474 222.81091 221.58908 220.47724 219.44341 218.55357 217.70074
 216.94890 216.13507 215.23924 214.60940 214.06557 214.33165 214.93477 215.19629
 216.23878 217.51379 218.12250 217.96762 218.58130 221.16515 225.64952 229.50092
 232.29088 235.57451 239.58116 244.01186 248.08183 251.62306 254.92050 258.03976
 260.98016 263.75253 266.34106 268.73834 270.94836 272.84680 274.51837 276.33670
 277.77374 278.83865 279.69672 280.58920 281.71262 282.79617 283.78473 284.68030
 285.48578 286.20303 286.82965 287.62817
 366.78100 356.34005 345.77711 334.64816 323.05622 311.25527 299.13032 286.93838
 274.65543 262.55749 250.57154 239.87759 230.00465 221.11370 213.30075 206.30781
 200.14686 195.08992 191.67697 189.72402 188.76608 188.83513 189.67519 190.98824
 192.71829 194.81835 197.08640 199.45046 201.90051 204.38556 206.47862 208.32567
 209.95673 211.10678 211.34083 211.57389 211.51594 211.22599 210.86405 210.49910
 210.12116 209.83621 209.64926 209.51832 209.45137 209.78743 210.17848 210.57253
 211.37059 212.55364 213.80870 215.59675 217.52980 219.57786 221.67791 223.76597
 225.83102 227.92007 230.02213 232.13318 234.26723 236.44429 238.70534 241.08040
 243.70645 245.96250 247.96956 249.73961 251.16167 252.28972 253.11677 253.43783
 253.47988 253.25894 252.62399 251.57704 250.18810 248.35415 246.26821 244.10626
 241.90231 239.71137 237.53642 235.38047 233.24553 231.11758 229.14864 227.31069
 225.59874 224.07580 222.71085 221.48791 220.37496 219.34001 218.44907 217.59512
 216.84218 216.02723 215.13028 214.49934 213.95439 214.30739 215.08159 215.30606
 216.08301 217.38902 218.14183 218.11067 218.77835 221.30241 225.74394 229.47456
 232.25188 235.48306 239.54222 244.04033 248.08331 251.60771 254.90497 258.03146
 260.97385 263.74139 266.32837 268.73724 270.90323 272.68613 274.26620 276.13266
 277.45139 278.37698 279.58475 281.02502 282.27954 283.38950 284.40213 285.31952
 286.14462 286.87936 287.52124 288.33923
 366.78100 356.33842 345.77383 334.64325 323.04967 311.24708 299.12050 286.92691
 274.64233 262.54275 250.55516 239.85958 229.98500 221.09241 213.27783 206.28325
 200.12066 195.06208 191.64749 189.69291 188.73333 188.80074 189.63916 190.95058
 192.67899 194.77741 197.04382 199.40624 201.85466 204.33807 206.42949 208.27491
 209.90432 211.05274 211.28516 211.51657 211.45699 211.16540 210.80182 210.43524
 210.05565 209.76907 209.58049 209.44790 209.37932 209.71374 210.10315 210.49557
 211.29198 212.47340 213.72682 215.51323 217.44465 219.49107 221.58948 223.67590
 225.73932 227.82673 229.92715 232.03656 234.16898 236.34440 238.60381 240.97723
 243.60165 245.85606 247.86148 249.62989 251.05031 252.17673 253.00214 253.32156
 253.36198 253.13939 252.50281 251.45423 250.06364 248.22806 246.14047 243.97689
 241.77131 239.57872 237.40214 235.24456 233.10797 230.97839 229.00781 227.16822
 225.45464 223.93005 222.56347 221.33889 220.22430 219.18772 218.29514 217.43955
 216.68497 215.86839 214.96980 214.33722 213.79063 214.25928 215.24976 215.36969
 215.93712 217.29897 218.19807 218.21242 218.82298 221.33202 225.82196 229.41521
 232.17950 235.43857 239.54208 243.98643 247.99158 251.53426 254.85547 257.99979
 260.95251 263.74374 266.35254 268.74426 270.84717 272.56348 274.04831 275.93024
 277.21820 278.56409 280.19186 281.62115 282.85806 283.95245 284.95090 285.85541
 286.66895 287.39337 288.02625 288.83273
 366.78100 356.33733 345.77165 334.63998 323.04531 311.24164 299.11396 286.91929
 274.63362 262.53294 250.54427 239.84760 229.97192 221.07825 213.26258 206.26691
 200.10323 195.04356 191.62789 189.67221 188.71154 188.77787 189.61519 190.92552
 192.65285 194.75018 197.01550 199.37683 201.82416 204.30648 206.39681 208.24114
 209.86946 211.01679 211.24812 211.47845 211.41777 211.12510 210.76043 210.39275
 210.01208 209.72441 209.53473 209.40106 209.33139 209.66472 210.05304 210.44437
 211.23970 212.42002 213.67235 215.45768 217.38800 219.43333 221.53066 223.61599
 225.67831 227.76464 229.86397 231.97229 234.10362 236.27795 238.53628 240.90860
 243.53193 245.78526 247.78958 249.55691 250.97624 252.10156 252.92589 253.24422
 253.28355 253.05987 252.42220 251.37253 249.98085 248.14418 246.05551 243.89083
 241.68416 239.49049 237.31282 235.15414 233.01647 230.88580 228.91412 227.07345
 225.35878 223.83310 222.46543 221.23976 220.12409 219.08641 218.19274 217.33607
 216.58039 215.76272 214.86305 214.22937 213.68170 214.24933 215.38660 215.37332
 215.86284 217.30299 218.31073 218.31206 218.72179 221.16437 225.76082 229.32152
 232.07321 235.39211 239.52463 243.96681 247.97006 251.49730 254.80539 257.95822
 260.93430 263.74622 266.34790 268.68793 270.78262 272.51266 274.04837 275.64709
 277.55249 279.51111 281.20599 282.69418 283.98212 285.12158 286.16119 287.10300
 287.95007 288.70438 289.36331 290.20306
 366.78100 356.33702 345.77105 334.63907 323.04410 311.24012 299.11214 286.91717
 274.63119 262.53022 250.54124 239.84427 229.96829 221.07431 213.25834 206.26236
 200.09839 195.03841 191.62243 189.66646 188.70548 188.77151 189.60853 190.91855
 192.64558 194.74260 197.00763 199.36865 201.81568 204.29770 206.38772 208.23175
 209.85977 211.00680 211.23782 211.46784 211.40687 211.11389 210.74892 210.38094
 209.99997 209.71199 209.52201 209.38804 209.31806 209.65109 210.03911 210.43013
 211.22516 212.40518 213.65721 215.44223 217.37225 219.41728 221.51430 223.59933
 225.66135 227.74738 229.84640 231.95442 234.08545 236.25947 238.51750 240.88952
 243.51254 245.76557 247.76959 249.53662 250.95564 252.08066 252.90469 253.22271
 253.26174 253.03776 252.39979 251.34981 249.95783 248.12086 246.03188 243.86691
 241.65993 239.46595 237.28798 235.12900 232.99103 230.86005 228.88808 227.04710
 225.33212 223.80615 222.43817 221.21220 220.09622 219.05824 218.16427 217.30729
 216.55132 215.73334 214.83336 214.19939 213.65141 214.28557 215.48538 215.35110
 215.66382 217.16812 218.21043 218.32434 218.96646 221.32523 225.66313 229.23618
 231.94197 235.31927 239.55081 243.97279 247.96582 251.54710 254.89861 258.06888
 261.05347 263.85269 266.42407 268.72537 270.73358 272.49805 274.22729 275.60938
 276.80374 277.82755 278.71344 279.49133 280.16452 280.76013 281.30356 281.79584
 282.23859 282.63287 282.97729 283.41623
 366.78100 356.33661 345.77022 334.63783 323.04244 311.23804 299.10965 286.91426
 274.62787 262.52648 250.53709 239.83970 229.96331 221.06891 213.25252 206.25613
 200.09174 195.03135 191.61496 189.65857 188.69718 188.76278 189.59939 190.90900
 192.63561 194.73222 196.99683 199.35744 201.80405 204.28565 206.37526 208.21887
 209.84648 210.99309 211.22370 211.45331 211.39192 211.09853 210.73313 210.36474
 209.98335 209.69496 209.50457 209.37018 209.29979 209.63240 210.02000 210.41061
 211.20522 212.38483 213.63644 215.42105 217.35066 219.39527 221.49187 223.57648
 225.63809 227.72370 229.82231 231.92992 234.06053 236.23414 238.49174 240.86335
 243.48596 245.73857 247.74218 249.50879 250.92740 252.05201 252.87561 253.19322
 253.23183 253.00744 252.36905 251.31866 249.92627 248.08888 245.99949 243.83409
 241.62670 239.43231 237.25392 235.09453 232.95614 230.82475 228.85236 227.01096
 225.29557 223.76918 222.40079 221.17440 220.05801 219.01962 218.12523 217.26783
 216.51144 215.69305 214.79266 214.15827 213.60988 214.29910 215.59904 215.37732
 215.33824 216.80710 217.94405 218.17377 218.94142 221.46358 225.73752 229.31183
 232.07137 235.47568 239.66595 244.10588 248.13902 251.73083 255.07486 258.24811
 261.23248 264.03015 266.63220 268.95108 270.91714 272.58847 274.03735 275.05753
 275.94302 276.70203 277.35880 277.93549 278.43460 278.87616 279.27902 279.64398
 279.97223 280.26453 280.51987 280.84528
 366.78100 356.33748 345.77197 334.64045 323.04594 311.24242 299.11491 286.92039
 274.63488 262.53436 250.54585 239.84933 229.97382 221.08030 213.26479 206.26927
 200.10576 195.04624 191.63073 189.67521 188.71470 188.78118 189.61867 190.92915
 192.65664 194.75412 197.01960 199.38109 201.82857 204.31106 206.40154 208.24603
 209.87451 211.02200 211.25348 211.48397 211.42345 211.13094 210.76642 210.39891
 210.01839 209.73088 209.54136 209.40785 209.33833 209.67182 210.06030 210.45179
 211.24727 212.42775 213.68024 215.46572 217.39621 219.44169 221.53918 223.62466
 225.68715 227.77363 229.87312 231.98160 234.11309 236.28757 238.54606 240.91854
 243.54203 245.79551 247.80000 249.56748 250.98697 252.11245 252.93694 253.25542
 253.29491 253.07139 252.43387 251.38436 249.99284 248.15633 246.06781 243.90330
 241.69678 239.50327 237.32575 235.16724 233.02972 230.89921 228.92769 227.08718
 225.37266 223.84715 222.47963 221.25412 220.13860 219.10109 218.20757 217.35106
 216.59554 215.77802 214.87851 214.24499 213.69748 214.34708 215.65892 215.51614
 215.28130 216.64032 217.76106 218.01788 218.96419 221.51518 225.82623 229.40706
 232.14693 235.52496 239.70366 244.14720 248.16743 251.73746 255.07170 258.23825
 261.21695 264.03040 266.66034 269.02127 271.09436 272.89731 274.48712 277.27020
 279.77768 281.92694 283.78680 285.41986 286.83316 288.08356 289.22437 290.25784
 291.18735 292.01508 292.73816 293.65967
 366.78100 356.33997 345.77694 334.64791 323.05589 311.25486 299.12983 286.93780
 274.65477 262.55674 250.57071 239.87669 230.00366 221.11263 213.29960 206.30657
 200.14554 195.08851 191.67548 189.72246 188.76443 188.83340 189.67337 190.98634
 192.71631 194.81628 197.08426 199.44823 201.89820 204.38317 206.47614 208.32311
 209.95408 211.10406 211.33803 211.57100 211.51297 211.22294 210.86091 210.49588
 210.11785 209.83283 209.64580 209.51477 209.44774 209.78371 210.17468 210.56865
 211.36663 212.54960 213.80457 215.59254 217.52551 219.57348 221.67345 223.76143
 225.82640 227.91537 230.01734 232.12831 234.26228 236.43925 238.70022 241.07520
 243.70117 245.95714 247.96411 249.73408 251.15605 252.28402 253.11100 253.43197
 253.47394 253.25291 252.61788 251.57085 250.18182 248.34780 246.26177 244.09974
 241.89571 239.70468 237.52965 235.37362 233.23859 231.11057 229.14154 227.30351
 225.59148 224.06845 222.70342 221.48039 220.36737 219.33234 218.44131 217.58728
 216.83425 216.01922 215.12219 214.49117 213.94614 214.47336 215.64055 215.69084
 215.24586 216.44106 217.63287 217.90767 218.90031 221.52173 225.82822 229.37485
 232.13692 235.54012 239.69785 244.14206 248.13756 251.70230 255.05559 258.23380
 261.20468 263.99524 266.59094 268.90158 270.97894 272.85040 274.55487 277.21359
 279.85016 282.11011 284.06570 285.78290 287.26895 288.58374 289.78326 290.86996
 291.84735 292.71771 293.47803 294.44696
 366.78100 356.34130 345.77961 334.65191 323.06122 311.26152 299.13782 286.94713
 274.66543 262.56874 250.58404 239.89134 230.01965 221.12995 213.31826 206.32656
 200.16687 195.11117 191.69947 189.74778 188.79108 188.86139 189.70269 191.01699
 192.74830 194.84960 197.11891 199.48421 201.93551 204.42182 206.51612 208.36443
 209.99673 211.14803 211.38334 211.61764 211.56095 211.27225 210.91155 210.54786
 210.17116 209.88747 209.70177 209.57207 209.50638 209.84368 210.23599 210.63129
 211.43060 212.61490 213.87120 215.66051 217.59481 219.64412 221.74542 223.83472
 225.90103 227.99133 230.09464 232.20694 234.34224 236.52055 238.78285 241.15916
 243.78646 246.04376 248.05207 249.82337 251.24668 252.37598 253.20428 253.52659
 253.56989 253.35020 252.71650 251.67081 250.28311 248.45041 246.36572 244.20502
 242.00233 239.81263 237.63893 235.48424 233.35054 231.22385 229.25615 227.41945
 225.70876 224.18706 222.82337 221.60167 220.48997 219.45628 218.56658 217.71389
 216.96219 216.14849 215.25280 214.62310 214.07941 214.56020 215.65158 215.79962
 215.21844 216.15880 217.40848 217.77892 218.85030 221.57590 225.87865 229.40512
 232.16180 235.57936 239.74342 244.17708 248.21002 251.79353 255.17390 258.36441
 261.33466 264.10797 266.68021 268.96472 271.02533 272.92368 274.67545 277.15237
 279.71182 281.94467 283.87683 285.57343 287.04169 288.34073 289.52588 290.59958
 291.56522 292.42514 293.17636 294.13367
 366.78100 356.34071 345.77842 334.65014 323.05885 311.25856 299.13427 286.94299
 274.66070 262.56341 250.57812 239.88484 230.01255 221.12226 213.30997 206.31768
 200.15740 195.10111 191.68882 189.73653 188.77925 188.84896 189.68967 191.00338
 192.73410 194.83481 197.10352 199.46823 201.91895 204.40466 206.49837 208.34608
 209.97779 211.12851 211.36322 211.59693 211.53964 211.25036 210.88907 210.52478
 210.14749 209.86321 209.67692 209.54663 209.48034 209.81705 210.20877 210.60348
 211.40219 212.58590 213.84162 215.63033 217.56404 219.61275 221.71347 223.80218
 225.86789 227.95760 230.06032 232.17203 234.30674 236.48445 238.74616 241.12188
 243.74859 246.00530 248.01301 249.78373 251.20644 252.33515 253.16286 253.48458
 253.52729 253.30700 252.67271 251.62642 250.23814 248.40485 246.31956 244.15827
 241.95499 239.76470 237.59041 235.43512 233.30084 231.17355 229.20526 227.36797
 225.65669 224.13440 222.77011 221.54782 220.43553 219.40125 218.51096 217.65767
 216.90538 216.09110 215.19481 214.56452 214.02023 214.56096 215.73828 215.82304
 215.24472 215.99471 217.18901 217.53293 218.69044 221.65405 225.88487 229.40936
 232.16702 235.60851 239.77591 244.19052 248.23657 251.85539 255.24438 258.43591
 261.40350 264.17184 266.73062 269.00363 271.07822 273.02408 274.83408 277.04083
 279.23700 281.33606 283.15244 284.74738 286.12762 287.34882 288.46295 289.47229
 290.38007 291.18848 291.89465 292.79462
 366.78100 356.34080 345.77859 334.65039 323.05918 311.25898 299.13478 286.94357
 274.66137 262.56416 250.57896 239.88576 230.01355 221.12335 213.31115 206.31894
 200.15874 195.10253 191.69033 189.73813 188.78092 188.85072 189.69151 191.00531
 192.73611 194.83690 197.10570 199.47049 201.92129 204.40709 206.50088 208.34868
 209.98048 211.13127 211.36607 211.59986 211.54266 211.25346 210.89225 210.52805
 210.15084 209.86664 209.68044 209.55023 209.48403 209.82082 210.21262 210.60742
 211.40621 212.59001 213.84581 215.63460 217.56840 219.61719 221.71799 223.80679
 225.87258 227.96238 230.06517 232.17697 234.31177 236.48956 238.75136 241.12715
 243.75395 246.01075 248.01854 249.78934 251.21213 252.34093 253.16873 253.49052
 253.53332 253.31312 252.67891 251.63271 250.24450 248.41130 246.32610 244.16489
 241.96169 239.77148 237.59728 235.44208 233.30787 231.18067 229.21246 227.37526
 225.66406 224.14185 222.77765 221.55545 220.44324 219.40904 218.51883 217.66563
 216.91343 216.09922 215.20302 214.57281 214.02861 214.59146 215.81230 215.86290
 215.19131 215.85089 217.06702 217.43007 218.60394 221.65141 225.83835 229.35262
 232.10201 235.57698 239.77786 244.20209 248.25917 251.91084 255.32684 258.52795
 261.48550 264.23480 266.78101 269.03928 271.11340 273.17181 274.97968 277.03348
 279.06500 281.02307 282.71744 284.20523 285.49280 286.63196 287.67126 288.61279
 289.45963 290.21371 290.87247 291.71198
 366.78100 356.34174 345.78049 334.65323 323.06298 311.26372 299.14047 286.95021
 274.66896 262.57270 250.58845 239.89619 230.02494 221.13568 213.32443 206.33317
 200.17392 195.11866 191.70741 189.75615 188.79989 188.87064 189.71238 191.02713
 192.75887 194.86062 197.13036 199.49611 201.94785 204.43460 206.52934 208.37809
 210.01083 211.16258 211.39832 211.63307 211.57681 211.28856 210.92830 210.56504
 210.18879 209.90553 209.72028 209.59102 209.52577 209.86351 210.25626 210.65200
 211.45175 212.63649 213.89324 215.68298 217.61773 219.66747 221.76922 223.85896
 225.92571 228.01645 230.12019 232.23294 234.36868 236.54743 238.81017 241.18692
 243.81466 246.07241 248.08115 249.85290 251.27664 252.40639 253.23513 253.55788
 253.60162 253.38237 252.74911 251.70386 250.31660 248.48435 246.40009 244.23983
 242.03758 239.84832 237.67507 235.52081 233.38756 231.26130 229.29405 227.45779
 225.74754 224.22628 222.86303 221.64177 220.53052 219.49726 218.60801 217.75575
 217.00450 216.19124 215.29598 214.66673 214.12347 214.65323 215.84995 216.01439
 215.11879 215.54605 216.78926 217.29727 218.63612 221.74364 225.87622 229.40076
 232.11301 235.59717 239.81725 244.25056 248.32533 251.98723 255.40508 258.61646
 261.58127 264.33337 266.88403 269.15533 271.25153 273.32043 275.29816 277.18619
 278.92947 280.79926 282.50800 284.00839 285.30685 286.45569 287.50378 288.45331
 289.30731 290.06778 290.73212 291.57874
 366.78100 356.34107 345.77914 334.65121 323.06028 311.26034 299.13641 286.94548
 274.66355 262.56662 250.58169 239.88876 230.01683 221.12689 213.31496 206.32303
 200.16310 195.10717 191.69524 189.74331 188.78638 188.85644 189.69751 191.01158
 192.74265 194.84372 197.11279 199.47786 201.92893 204.41499 206.50906 208.35713
 209.98920 211.14027 211.37534 211.60941 211.55248 211.26354 210.90261 210.53868
 210.16175 209.87782 209.69189 209.56196 209.49603 209.83309 210.22516 210.62023
 211.41930 212.60337 213.85944 215.64851 217.58258 219.63165 221.73271 223.82178
 225.88785 227.97792 230.08099 232.19306 234.32813 236.50620 238.76826 241.14433
 243.77140 246.02847 248.03654 249.80761 251.23068 252.35975 253.18781 253.50988
 253.55295 253.33302 252.69909 251.65316 250.26523 248.43230 246.34736 244.18643
 241.98350 239.79357 237.61964 235.46471 233.33078 231.20385 229.23591 227.39898
 225.68805 224.16612 222.80219 221.58026 220.46833 219.43440 218.54447 217.69153
 216.93960 216.12567 215.22974 214.59981 214.05588 214.63457 215.94275 216.15388
 215.14522 215.25757 216.39000 217.11017 218.64868 221.78529 225.88704 229.48029
 232.12495 235.63306 239.87370 244.31258 248.37560 252.00247 255.38020 258.54895
 261.50131 264.26752 266.84723 269.16077 271.31750 273.45953 275.50220 277.40060
 279.05911 280.51776 282.13376 283.64694 284.95642 286.11502 287.17206 288.12964
 288.99088 289.75784 290.42783 291.28165
 366.78100 356.33989 345.77677 334.64766 323.05555 311.25443 299.12932 286.93721
 274.65409 262.55598 250.56987 239.87576 230.00264 221.11153 213.29842 206.30530
 200.14419 195.08708 191.67396 189.72085 188.76274 188.83162 189.67151 190.98440
 192.71428 194.81417 197.08206 199.44594 201.89583 204.38072 206.47360 208.32049
 209.95138 211.10127 211.33515 211.56804 211.50993 211.21981 210.85770 210.49259
 210.11447 209.82936 209.64225 209.51113 209.44402 209.77991 210.17079 210.56468
 211.36257 212.54545 213.80034 215.58823 217.52112 219.56900 221.66889 223.75678
 225.82166 227.91055 230.01244 232.12332 234.25721 236.43410 238.69498 241.06987
 243.69576 245.95164 247.95853 249.72842 251.15030 252.27819 253.10508 253.42597
 253.46785 253.24674 252.61163 251.56451 250.17540 248.34129 246.25517 244.09306
 241.88895 239.69783 237.52272 235.36661 233.23149 231.10338 229.13427 227.29615
 225.58404 224.06093 222.69581 221.47270 220.35959 219.32448 218.43336 217.57925
 216.82614 216.01102 215.11391 214.48280 213.93768 214.60043 216.06316 216.13744
 215.14381 215.23660 216.26051 216.96146 218.54048 221.72913 225.90004 229.44701
 232.15128 235.68913 239.93649 244.36856 248.42242 252.03175 255.38754 258.52679
 261.43594 264.18466 266.76236 269.09451 271.26682 273.42706 275.48071 277.35425
 278.94125 280.42136 282.05457 283.55121 284.84644 285.99237 287.03784 287.98499
 288.83685 289.59543 290.25812 291.10260
 366.78100 356.34025 345.77750 334.64875 323.05699 311.25624 299.13149 286.93974
 274.65699 262.55924 250.57349 239.87973 230.00698 221.11623 213.30348 206.31073
 200.14998 195.09323 191.68048 189.72772 188.76997 188.83922 189.67947 190.99272
 192.72297 194.82322 197.09146 199.45571 201.90596 204.39121 206.48446 208.33171
 209.96296 211.11320 211.34745 211.58070 211.52295 211.23320 210.87145 210.50670
 210.12894 209.84419 209.65744 209.52669 209.45994 209.79619 210.18744 210.58168
 211.37993 212.56318 213.81843 215.60668 217.53993 219.58818 221.68843 223.77667
 225.84192 227.93117 230.03342 232.14467 234.27892 236.45617 238.71741 241.09266
 243.71891 245.97516 247.98241 249.75266 251.17491 252.30315 253.13040 253.45165
 253.49390 253.27315 252.63840 251.59165 250.20289 248.36914 246.28339 244.12164
 241.91789 239.72714 237.55239 235.39664 233.26188 231.13413 229.16538 227.32763
 225.61588 224.09313 222.72838 221.50562 220.39287 219.35812 218.46737 217.61362
 216.86087 216.04612 215.14936 214.51861 213.97386 214.64513 216.10559 216.11900
 215.10873 215.24403 216.18768 216.77869 218.36754 221.62648 225.93251 229.38655
 232.24352 235.82648 240.04294 244.43074 248.49512 252.15810 255.54208 258.67239
 261.55069 264.27515 266.84106 269.16882 271.33762 273.45041 275.45575 277.21558
 278.98459 281.03973 282.89227 284.51895 285.92670 287.17218 288.30850 289.33795
 290.26379 291.08829 291.80853 292.72641
 366.78100 356.34198 345.78096 334.65394 323.06392 311.26490 299.14188 286.95186
 274.67084 262.57482 250.59080 239.89878 230.02776 221.13874 213.32772 206.33671
 200.17769 195.12267 191.71165 189.76063 188.80461 188.87559 189.71757 191.03255
 192.76453 194.86651 197.13649 199.50247 201.95445 204.44143 206.53641 208.38539
 210.01837 211.17035 211.40633 211.64131 211.58529 211.29727 210.93725 210.57423
 210.19821 209.91519 209.73017 209.60115 209.53613 209.87412 210.26710 210.66308
 211.46306 212.64804 213.90502 215.69500 217.62998 219.67996 221.78194 223.87192
 225.93890 228.02988 230.13386 232.24684 234.38282 236.56180 238.82478 241.20176
 243.82974 246.08772 248.09670 249.86868 251.29266 252.42264 253.25162 253.57460
 253.61858 253.39956 252.76654 251.72153 250.33451 248.50249 246.41847 244.25845
 242.05643 239.86741 237.69439 235.54037 233.40735 231.28133 229.31431 227.47829
 225.76827 224.24725 222.88423 221.66321 220.55219 219.51917 218.63015 217.77813
 217.02711 216.21409 215.31907 214.69005 214.14703 214.74792 216.08745 216.18553
 215.13794 215.16127 215.97282 216.48685 218.20671 221.45172 225.88329 229.35437
 232.28224 235.91377 240.14621 244.54967 248.64182 252.33978 255.75168 258.88086
 261.75012 264.45486 267.00635 269.31516 271.45117 273.52728 275.49823 277.48145
 279.90543 282.16797 284.12585 285.84500 287.33279 288.64908 289.85001 290.93799
 291.91647 292.78784 293.54904 294.51910
 366.78100 356.34313 345.78325 334.65738 323.06850 311.27063 299.14875 286.95988
 274.68000 262.58513 250.60225 239.91138 230.04150 221.15363 213.34375 206.35388
 200.19600 195.14213 191.73225 189.78238 188.82750 188.89963 189.74275 191.05888
 192.79200 194.89513 197.16626 199.53338 201.98651 204.47463 206.57076 208.42088
 210.05501 211.20813 211.44526 211.68138 211.62651 211.33963 210.98076 210.61888
 210.24401 209.96213 209.77826 209.65038 209.58651 209.92563 210.31976 210.71688
 211.51801 212.70413 213.96226 215.75339 217.68951 219.74064 221.84376 223.93489
 226.00301 228.09514 230.20026 232.31439 234.45151 236.63164 238.89576 241.27389
 243.90301 246.16214 248.17226 249.94539 251.37051 252.50164 253.33176 253.65589
 253.70101 253.48314 252.85127 251.80739 250.42152 248.59064 246.50777 244.34889
 242.14802 239.96014 237.78827 235.63539 233.50352 231.37864 229.41277 227.57789
 225.86902 224.34914 222.98727 221.76739 220.65752 219.62564 218.73777 217.88689
 217.13702 216.32514 215.43127 214.80340 214.26152 214.81879 216.08197 216.26167
 215.24487 215.12497 215.76443 216.22597 218.05560 221.34804 225.77457 229.27299
 232.23169 235.91582 240.19220 244.62975 248.74225 252.46556 255.91493 259.06802
 261.93558 264.62115 267.15887 269.44220 271.55045 273.61188 275.67551 278.05624
 280.61230 282.87842 284.83939 286.56125 288.05136 289.36972 290.57254 291.66223
 292.64224 293.51498 294.27737 295.24896
 366.78100 356.34349 345.78398 334.65846 323.06995 311.27244 299.15093 286.96242
 274.68291 262.58839 250.60588 239.91537 230.04586 221.15835 213.34883 206.35932
 200.20181 195.14830 191.73879 189.78928 188.83476 188.90725 189.75074 191.06723
 192.80072 194.90421 197.17569 199.54318 201.99667 204.48516 206.58165 208.43213
 210.06662 211.22011 211.45760 211.69409 211.63958 211.35306 210.99455 210.63304
 210.25853 209.97702 209.79350 209.66599 209.60248 209.94197 210.33646 210.73395
 211.53543 212.72192 213.98041 215.77190 217.70839 219.75988 221.86336 223.95485
 226.02334 228.11583 230.22132 232.33580 234.47329 236.65378 238.91827 241.29676
 243.92625 246.18573 248.19622 249.96971 251.39520 252.52669 253.35717 253.68166
 253.72715 253.50964 252.87813 251.83462 250.44910 248.61859 246.53608 244.37757
 242.17706 239.98955 237.81803 235.66552 233.53401 231.40950 229.44399 227.60947
 225.90096 224.38145 223.01994 221.80043 220.69092 219.65940 218.77189 217.92138
 217.17187 216.36036 215.46684 214.83933 214.29782 214.84695 216.09210 216.32341
 215.35889 215.12723 215.64079 215.96884 217.87700 221.26614 225.66261 229.17223
 232.15225 235.88565 240.20384 244.64842 248.76825 252.52078 256.00092 259.19327
 262.08557 264.77963 267.32846 269.61713 271.72638 273.74643 275.82993 278.20404
 280.61511 282.84274 284.77042 286.46301 287.92786 289.22385 290.40622 291.47739
 292.44080 293.29871 294.04816 295.00323
 366.78100 356.34443 345.78585 334.66128 323.07370 311.27713 299.15656 286.96898
 274.69041 262.59683 250.61526 239.92569 230.05711 221.17054 213.36196 206.37339
 200.21682 195.16424 191.75567 189.80709 188.85352 188.92695 189.77137 191.08880
 192.82322 194.92765 197.20008 199.56850 202.02293 204.51235 206.60978 208.46121
 210.09663 211.25106 211.48948 211.72691 211.67334 211.38776 211.03019 210.66961
 210.29604 210.01547 209.83289 209.70632 209.64374 209.98417 210.37960 210.77802
 211.58045 212.76787 214.02730 215.81973 217.75715 219.80958 221.91400 224.00643
 226.07586 228.16928 230.27571 232.39113 234.52956 236.71099 238.97641 241.35584
 243.98627 246.24669 248.25812 250.03254 251.45897 252.59140 253.42282 253.74825
 253.79467 253.57810 252.94753 251.90495 250.52038 248.69080 246.60923 244.45166
 242.25208 240.06551 237.89493 235.74336 233.61279 231.48921 229.52464 227.69106
 225.98349 224.46492 223.10434 221.88577 220.77719 219.74662 218.86005 218.01047
 217.26190 216.45132 215.55875 214.93218 214.39160 214.89813 216.06390 216.39888
 215.51624 215.08591 215.46637 215.81763 217.72083 221.24568 225.53969 229.07051
 232.07365 235.85771 240.21829 244.66997 248.79239 252.55589 256.04190 259.24265
 262.15210 264.87668 267.46112 269.79898 271.93222 273.94406 275.82507 278.05530
 280.26990 282.49335 284.41739 286.10684 287.56894 288.86249 290.04266 291.11185
 292.07343 292.92972 293.67776 294.63107
 366.78100 356.34563 345.78826 334.66489 323.07852 311.28316 299.16379 286.97742
 274.70005 262.60768 250.62731 239.93894 230.07157 221.18620 213.37883 206.39147
 200.23610 195.18473 191.77736 189.82999 188.87762 188.95225 189.79788 191.11651
 192.85214 194.95778 197.23141 199.60104 202.05667 204.54730 206.64593 208.49856
 210.13519 211.29082 211.53045 211.76909 211.71672 211.43235 211.07598 210.71661
 210.34424 210.06487 209.88350 209.75813 209.69676 210.03840 210.43503 210.83466
 211.63829 212.82692 214.08755 215.88118 217.81981 219.87344 221.97907 224.07271
 226.14334 228.23797 230.34560 232.46223 234.60186 236.78449 239.05112 241.43175
 244.06338 246.32502 248.33765 250.11328 251.54091 252.67454 253.50717 253.83380
 253.88143 253.66606 253.03669 251.99533 250.61196 248.78359 246.70322 244.54685
 242.34848 240.16311 237.99374 235.84337 233.71400 231.59164 229.62827 227.79590
 226.08953 224.57216 223.21279 221.99542 220.88805 219.85868 218.97331 218.12495
 217.37758 216.56821 215.67684 215.05147 214.51210 214.96608 216.01752 216.41135
 215.70052 215.15723 215.37469 215.58487 217.57445 221.12938 225.41682 228.96661
 231.99709 235.84056 240.25261 244.73221 248.86688 252.63531 256.11871 259.29691
 262.18851 264.91989 267.53888 269.93576 272.11624 274.12262 275.89215 277.86670
 279.98038 282.08704 283.91644 285.52277 286.91290 288.14282 289.26492 290.28149
 291.19577 292.00995 292.72119 293.62759
 366.78100 356.34549 345.78799 334.66448 323.07797 311.28246 299.16296 286.97645
 274.69894 262.60643 250.62593 239.93742 230.06991 221.18441 213.37690 206.38939
 200.23388 195.18238 191.77487 189.82736 188.87486 188.94935 189.79484 191.11333
 192.84883 194.95432 197.22781 199.59730 202.05280 204.54329 206.64178 208.49428
 210.13077 211.28626 211.52575 211.76425 211.71174 211.42723 211.07072 210.71122
 210.33871 210.05920 209.87770 209.75219 209.69068 210.03217 210.42867 210.82816
 211.63165 212.82015 214.08064 215.87413 217.81262 219.86612 221.97161 224.06510
 226.13559 228.23009 230.33758 232.45407 234.59357 236.77606 239.04255 241.42304
 244.05454 246.31603 248.32852 250.10401 251.53151 252.66500 253.49749 253.82399
 253.87148 253.65597 253.02646 251.98496 250.60145 248.77294 246.69244 244.53593
 242.33742 240.15191 237.98241 235.83190 233.70239 231.57988 229.61638 227.78387
 226.07736 224.55986 223.20035 221.98284 220.87533 219.84583 218.96032 218.11181
 217.36430 216.55480 215.66329 215.03778 214.49828 214.97050 216.02345 216.33156
 215.82758 215.30840 215.38190 215.43002 217.44125 221.02080 225.30103 228.87317
 231.92262 235.82541 240.29556 244.80431 248.94930 252.71355 256.17529 259.32495
 262.19525 264.93335 267.58566 270.05997 272.32983 274.40326 276.10110 277.76553
 279.83655 281.88852 283.70923 285.30792 286.69144 287.91553 289.03229 290.04401
 290.95395 291.76425 292.47211 293.37421
 366.78100 356.34494 345.78688 334.66282 323.07576 311.27970 299.15964 286.97258
 274.69451 262.60145 250.62039 239.93133 230.06327 221.17721 213.36915 206.38109
 200.22503 195.17297 191.76491 189.81685 188.86379 188.93773 189.78267 191.10060
 192.83554 194.94048 197.21342 199.58236 202.03730 204.52724 206.62518 208.47712
 210.11306 211.26800 211.50694 211.74488 211.69182 211.40675 211.04969 210.68963
 210.31657 210.03651 209.85445 209.72839 209.66633 210.00727 210.40321 210.80215
 211.60509 212.79303 214.05297 215.84591 217.78384 219.83678 221.94172 224.03466
 226.10460 228.19854 230.30548 232.42142 234.56036 236.74230 239.00824 241.38818
 244.01912 246.28006 248.29200 250.06693 251.49387 252.62681 253.45875 253.78469
 253.83163 253.61557 252.98551 251.94345 250.55939 248.73033 246.64927 244.49221
 242.29315 240.10709 237.93702 235.78596 233.65590 231.53284 229.56878 227.73572
 226.02866 224.51060 223.15054 221.93248 220.82442 219.79436 218.90830 218.05924
 217.31117 216.50111 215.60905 214.98299 214.44293 214.94200 216.04253 216.26707
 215.89381 215.44279 215.35324 215.41034 217.37338 220.94315 225.16548 228.79099
 231.82619 235.80293 240.33907 244.87006 249.01585 252.74651 256.16434 259.29254
 262.16681 264.91650 267.60611 270.13531 272.45001 274.53027 276.25430 277.78867
 279.60446 281.37979 283.08771 284.60391 285.91605 287.07693 288.13608 289.09561
 289.95859 290.72708 291.39841 292.25394
 366.78100 356.34561 345.78822 334.66483 323.07843 311.28304 299.16365 286.97726
 274.69987 262.60748 250.62709 239.93870 230.07130 221.18591 213.37852 206.39113
 200.23574 195.18435 191.77696 189.82957 188.87717 188.95178 189.79739 191.11600
 192.85161 194.95722 197.23083 199.60044 202.05604 204.54665 206.64526 208.49787
 210.13448 211.29009 211.52970 211.76831 211.71591 211.43152 211.07513 210.71574
 210.34335 210.06396 209.88257 209.75718 209.69578 210.03739 210.43400 210.83361
 211.63722 212.82583 214.08644 215.88004 217.81865 219.87226 221.97787 224.07148
 226.14209 228.23670 230.34431 232.46091 234.60052 236.78313 239.04974 241.43035
 244.06196 246.32357 248.33618 250.11178 251.53939 252.67300 253.50561 253.83222
 253.87983 253.66444 253.03505 251.99365 250.61026 248.78187 246.70148 244.54509
 242.34670 240.16131 237.99192 235.84152 233.71213 231.58974 229.62635 227.79396
 226.08757 224.57018 223.21079 221.99339 220.88600 219.85661 218.97122 218.12283
 217.37544 216.56605 215.67465 215.04926 214.50987 214.96349 215.99431 216.29939
 215.93279 215.49861 215.29056 215.36926 217.22865 220.80901 225.02271 228.65715
 231.75365 235.80559 240.39531 244.95880 249.09529 252.79008 256.17233 259.28107
 262.17059 264.94290 267.65253 270.21964 272.55548 274.61261 276.30688 277.70175
 279.08673 280.55499 282.05322 283.52667 284.83124 285.98544 287.03845 287.99243
 288.85043 289.61447 290.28192 291.13254
 366.78100 356.34605 345.78910 334.66614 323.08019 311.28524 299.16629 286.98033
 274.70338 262.61143 250.63148 239.94352 230.07657 221.19162 213.38467 206.39771
 200.24276 195.19181 191.78486 189.83790 188.88595 188.96100 189.80705 191.12609
 192.86214 194.96819 197.24224 199.61228 202.06833 204.55938 206.65843 208.51147
 210.14852 211.30457 211.54462 211.78366 211.73171 211.44776 211.09181 210.73286
 210.36090 210.08195 209.90100 209.77605 209.71509 210.05714 210.45419 210.85424
 211.65828 212.84733 214.10838 215.90243 217.84147 219.89552 222.00157 224.09562
 226.16666 228.26171 230.36976 232.48681 234.62685 236.80990 239.07695 241.45800
 244.09004 246.35209 248.36514 250.14119 251.56923 252.70328 253.53633 253.86338
 253.91142 253.69647 253.06752 252.02657 250.64362 248.81566 246.73571 244.57976
 242.38181 240.19685 238.02790 235.87795 233.74900 231.62704 229.66409 227.83214
 226.12619 224.60923 223.25028 222.03333 220.92638 219.89742 219.01247 218.16452
 217.41757 216.60861 215.71766 215.09271 214.55376 214.97464 215.94672 216.31905
 215.97884 215.51239 215.22221 215.27280 217.06319 220.68607 224.94421 228.54248
 231.74834 235.84082 240.45064 245.00644 249.14719 252.83513 256.18585 259.27856
 262.16684 264.95996 267.70483 270.30884 272.67331 274.72812 276.40384 277.76562
 278.95563 280.09961 281.23779 282.54712 283.81049 284.95361 285.99658 286.94141
 287.79117 288.54791 289.20895 290.05142
 366.78100 356.34549 345.78797 334.66446 323.07795 311.28243 299.16292 286.97640
 274.69889 262.60638 250.62586 239.93735 230.06984 221.18432 213.37681 206.38930
 200.23378 195.18227 191.77475 189.82724 188.87473 188.94921 189.79470 191.11319
 192.84867 194.95416 197.22765 199.59713 202.05262 204.54310 206.64159 208.49408
 210.13056 211.28605 211.52554 211.76402 211.71151 211.42699 211.07048 210.71097
 210.33845 210.05894 209.87743 209.75191 209.69040 210.03189 210.42837 210.82786
 211.63134 212.81983 214.08032 215.87380 217.81229 219.86578 221.97126 224.06475
 226.13524 228.22972 230.33721 232.45369 234.59318 236.77567 239.04215 241.42264
 244.05413 246.31561 248.32810 250.10359 251.53107 252.66456 253.49704 253.82353
 253.87102 253.65550 253.02599 251.98448 250.60096 248.77245 246.69194 244.53542
 242.33691 240.15139 237.98188 235.83137 233.70185 231.57934 229.61583 227.78331
 226.07680 224.55929 223.19977 221.98226 220.87474 219.84523 218.95972 218.11120
 217.36369 216.55418 215.66266 215.03715 214.49763 214.93919 215.95561 216.29333
 216.02780 215.54242 215.16972 215.16060 216.93201 220.59006 224.87524 228.44702
 231.72041 235.86295 240.51105 245.08315 249.22595 252.89688 256.21634 259.29254
 262.16196 264.96069 267.73282 270.37137 272.74939 274.78879 276.42877 277.75424
 278.90344 279.97427 280.96045 282.15674 283.36969 284.51300 285.55609 286.50107
 287.35098 288.10782 288.76898 289.61157
 366.78100 356.34642 345.78984 334.66727 323.08169 311.28711 299.16853 286.98295
 274.70637 262.61480 250.63522 239.94764 230.08106 221.19648 213.38990 206.40333
 200.24875 195.19817 191.79159 189.84501 188.89343 188.96886 189.81528 191.13470
 192.87112 194.97754 197.25196 199.62239 202.07881 204.57023 206.66965 208.52307
 210.16049 211.31692 211.55734 211.79676 211.74518 211.46160 211.10603 210.74745
 210.37587 210.09729 209.91671 209.79213 209.73156 210.07398 210.47140 210.87182
 211.67624 212.86566 214.12709 215.92151 217.86093 219.91535 222.02177 224.11619
 226.18762 228.28304 230.39146 232.50888 234.64930 236.83272 239.10015 241.48157
 244.11399 246.37641 248.38983 250.16625 251.59468 252.72910 253.56252 253.88994
 253.93836 253.72379 253.09521 252.05463 250.67205 248.84447 246.76489 244.60932
 242.41174 240.22716 238.05858 235.90900 233.78042 231.65885 229.69627 227.86469
 226.15911 224.64253 223.28395 222.06738 220.96080 219.93222 219.04764 218.20006
 217.45348 216.64491 215.75433 215.12975 214.59117 214.97812 215.88316 216.34721
 216.08842 215.56157 215.12698 215.05286 216.84018 220.51768 224.80070 228.37694
 231.67914 235.88823 240.58084 245.18307 249.33374 252.98982 256.27731 259.33258
 262.18677 264.99066 267.77579 270.44049 272.83600 274.86615 276.44666 277.72314
 278.84201 279.88425 280.82343 282.06396 283.32397 284.51501 285.60165 286.58609
 287.47147 288.25989 288.94867 289.82642
 366.78100 356.34849 345.79398 334.67347 323.08996 311.29745 299.18094 286.99743
 274.72292 262.63341 250.65590 239.97039 230.10588 221.22336 213.41885 206.43434
 200.28183 195.23332 191.82881 189.88430 188.93479 189.01228 189.86077 191.18226
 192.92075 195.02924 197.30573 199.67822 202.13671 204.63020 206.73169 208.58718
 210.22667 211.38516 211.62765 211.86914 211.81963 211.53811 211.18460 210.82809
 210.45858 210.18207 210.00356 209.88105 209.82254 210.16703 210.56652 210.96901
 211.77550 212.96699 214.23048 216.02697 217.96846 220.02495 222.13344 224.22993
 226.30342 228.40091 230.51140 232.63089 234.77338 236.95886 239.22835 241.61184
 244.24633 246.51082 248.52631 250.30480 251.73529 252.87178 253.70727 254.03676
 254.08725 253.87474 253.24823 252.20972 250.82921 249.00370 246.92619 244.77268
 242.57717 240.39466 238.22815 236.08064 233.95413 231.83461 229.87410 228.04459
 226.34108 224.82657 223.47006 222.25555 221.15104 220.12453 219.24202 218.39651
 217.65200 216.84549 215.95698 215.33447 214.79796 215.07700 215.75963 216.38821
 216.21779 215.61958 215.07571 214.94359 216.77156 220.43163 224.70570 228.30405
 231.63814 235.91930 240.64462 245.27466 249.43582 253.09402 256.36902 259.40747
 262.24423 265.03998 267.83887 270.53897 272.96893 274.96625 276.47812 277.68784
 278.78925 279.82364 280.82779 282.15771 283.47327 284.64902 285.72171 286.69351
 287.56754 288.34586 289.02576 289.89224
 366.78100 356.34741 345.79181 334.67022 323.08562 311.29203 299.17443 286.98984
 274.71424 262.62365 250.64505 239.95846 230.09286 221.20927 213.40367 206.41808
 200.26448 195.21489 191.80930 189.86370 188.91311 188.98951 189.83692 191.15732
 192.89473 195.00213 197.27754 199.64894 202.10635 204.59875 206.69916 208.55356
 210.19197 211.34937 211.59078 211.83119 211.78059 211.49800 211.14340 210.78581
 210.41521 210.13762 209.95802 209.83443 209.77483 210.11824 210.51664 210.91805
 211.72345 212.91386 214.17626 215.97167 217.91208 219.96748 222.07489 224.17029
 226.24270 228.33910 230.44851 232.56691 234.70832 236.89272 239.16113 241.54353
 244.17694 246.44034 248.45475 250.23215 251.66156 252.79697 253.63137 253.95978
 254.00918 253.79559 253.16799 252.12840 250.74680 248.92021 246.84161 244.68702
 242.49042 240.30683 238.13923 235.99064 233.86304 231.74245 229.78086 227.95026
 226.24567 224.73007 223.37248 222.15688 221.05129 220.02369 219.14010 218.29350
 217.54791 216.74031 215.85072 215.22712 214.68953 215.03076 215.81633 216.20068
 216.31863 215.85394 215.20511 214.91444 216.69229 220.31691 224.54439 228.14023
 231.51588 235.89096 240.67529 245.33051 249.47902 253.10555 256.38229 259.43610
 262.29630 265.10449 267.91516 270.65417 273.13580 275.20157 276.77637 277.92599
 278.97867 279.93723 281.10172 282.54941 283.88364 285.06412 286.14108 287.11676
 287.99429 288.77573 289.45837 290.32831
 366.78100 356.34513 345.78726 334.66339 323.07651 311.28064 299.16077 286.97390
 274.69603 262.60316 250.62228 239.93341 230.06554 221.17967 213.37180 206.38393
 200.22805 195.17618 191.76831 189.82044 188.86757 188.94170 189.78682 191.10495
 192.84008 194.94521 197.21834 199.58747 202.04259 204.53272 206.63085 208.48298
 210.11911 211.27424 211.51336 211.75149 211.69862 211.41375 211.05688 210.69701
 210.32414 210.04426 209.86239 209.73652 209.67465 210.01578 210.41191 210.81103
 211.61416 212.80229 214.06242 215.85555 217.79368 219.84680 221.95193 224.04506
 226.11519 228.20932 230.31645 232.43257 234.57170 236.75383 239.01996 241.40009
 244.03122 246.29234 248.30447 250.07960 251.50673 252.63986 253.47199 253.79811
 253.84524 253.62937 252.99950 251.95763 250.57376 248.74489 246.66401 244.50714
 242.30827 240.12240 237.95253 235.80166 233.67178 231.54891 229.58504 227.75217
 226.04530 224.52743 223.16755 221.94968 220.84181 219.81194 218.92607 218.07720
 217.32932 216.51945 215.62758 215.00171 214.46184 214.91046 215.91994 216.04854
 216.20996 215.98990 215.35175 214.97646 216.59557 220.22357 224.46423 228.02766
 231.50983 235.90094 240.69466 245.29674 249.39011 252.99023 256.24814 259.29306
 262.17191 265.03589 267.92944 270.74542 273.31412 275.46838 277.08881 278.32587
 279.40488 280.38760 281.32086 282.50067 283.68304 284.78888 285.79779 286.71179
 287.53384 288.26587 288.90536 289.72034
 366.78100 356.34629 345.78958 334.66687 323.08116 311.28645 299.16774 286.98203
 274.70532 262.61360 250.63389 239.94618 230.07947 221.19476 213.38805 206.40134
 200.24663 195.19592 191.78921 189.84250 188.89079 188.96608 189.81237 191.13166
 192.86795 194.97424 197.24852 199.61881 202.07510 204.56639 206.66568 208.51897
 210.15626 211.31255 211.55284 211.79213 211.74042 211.45671 211.10100 210.74229
 210.37058 210.09187 209.91116 209.78645 209.72573 210.06802 210.46531 210.86560
 211.66989 212.85918 214.12047 215.91476 217.85405 219.90834 222.01463 224.10892
 226.18021 228.27550 230.38379 232.50108 234.64137 236.82465 239.09194 241.47323
 244.10552 246.36781 248.38110 250.15739 251.58568 252.71997 253.55326 253.88055
 253.92884 253.71413 253.08542 252.04471 250.66200 248.83429 246.75457 244.59886
 242.40115 240.21644 238.04773 235.89802 233.76931 231.64760 229.68489 227.85318
 226.14747 224.63076 223.27205 222.05534 220.94863 219.91992 219.03521 218.18749
 217.44078 216.63207 215.74136 215.11665 214.57794 214.94463 215.80524 216.20406
 216.23659 215.92453 215.27351 214.83904 216.37857 220.09418 224.48268 227.85994
 231.49168 235.90150 240.72281 245.31219 249.39059 252.97676 256.20963 259.21475
 262.09421 264.96262 267.85172 270.65048 273.19775 275.35025 277.03168 278.36920
 279.53467 280.57465 281.49805 282.37500 283.26724 284.17691 285.04257 285.90527
 286.69049 287.38971 288.00055 288.77899
 366.78100 356.34788 345.79275 334.67163 323.08750 311.29438 299.17726 286.99313
 274.71801 262.62789 250.64976 239.96364 230.09851 221.21539 213.41027 206.42514
 200.27202 195.22290 191.81777 189.87265 188.92252 188.99940 189.84728 191.16815
 192.90603 195.01390 197.28978 199.66166 202.11953 204.61241 206.71329 208.56816
 210.20704 211.36491 211.60679 211.84767 211.79754 211.51542 211.16129 210.80417
 210.43405 210.15692 209.97780 209.85468 209.79555 210.13943 210.53830 210.94018
 211.74606 212.93693 214.19981 215.99569 217.93656 219.99244 222.10031 224.19619
 226.26907 228.36594 230.47582 232.59469 234.73657 236.92145 239.19032 241.57320
 244.20708 246.47095 248.48583 250.26370 251.69358 252.82946 253.66433 253.99321
 254.04308 253.82996 253.20284 252.16371 250.78259 248.95647 246.87834 244.72422
 242.52809 240.34497 238.17785 236.02972 233.90260 231.78248 229.82135 227.99123
 226.28710 224.77198 223.41486 222.19973 221.09461 220.06748 219.18436 218.33824
 217.59311 216.78599 215.89687 215.27374 214.73662 215.01352 215.66931 216.27594
 216.40843 216.05225 215.27119 214.68376 216.20021 219.96423 224.35168 227.64748
 231.40500 235.90309 240.77563 245.38528 249.47281 253.07562 256.32361 259.32071
 262.16010 264.97800 267.83121 270.61716 273.16959 275.31885 276.96161 278.27054
 279.46021 280.53543 281.44858 282.23657 282.94293 283.72253 284.46637 285.19046
 285.96985 286.66391 287.27020 288.04288
 366.78100 356.34810 345.79320 334.67230 323.08841 311.29551 299.17861 286.99471
 274.71981 262.62991 250.65202 239.96612 230.10122 221.21832 213.41342 206.42852
 200.27562 195.22673 191.82183 189.87693 188.92703 189.00413 189.85223 191.17334
 192.91144 195.01954 197.29564 199.66774 202.12584 204.61895 206.72005 208.57515
 210.21425 211.37235 211.61445 211.85555 211.80566 211.52376 211.16986 210.81296
 210.44306 210.16616 209.98727 209.86437 209.80547 210.14957 210.54867 210.95077
 211.75687 212.94798 214.21108 216.00718 217.94828 220.00438 222.11248 224.20859
 226.28169 228.37879 230.48889 232.60799 234.75009 236.93519 239.20430 241.58740
 244.22150 246.48560 248.50070 250.27880 251.70891 252.84501 253.68011 254.00921
 254.05931 253.84641 253.21951 252.18062 250.79972 248.97382 246.89592 244.74202
 242.54612 240.36323 238.19633 236.04843 233.92153 231.80163 229.84073 228.01084
 226.30694 224.79204 223.43514 222.22024 221.11534 220.08844 219.20555 218.35965
 217.61475 216.80785 215.91895 215.29605 214.75916 215.02020 215.63795 216.25684
 216.39211 216.10899 215.37364 214.69833 216.14359 219.89053 224.23688 227.51814
 231.34805 235.91328 240.82155 245.44095 249.53001 253.13275 256.39035 259.39069
 262.20993 264.99371 267.82001 270.60220 273.19531 275.41199 277.08160 278.37042
 279.56152 280.64096 281.53677 282.23563 282.83514 283.48267 284.20691 284.84354
 285.53909 286.19150 286.76144 287.48776
 366.78100 356.34800 345.79299 334.67199 323.08799 311.29498 299.17798 286.99397
 274.71897 262.62897 250.65096 239.96496 230.09996 221.21695 213.41195 206.42694
 200.27394 195.22494 191.81993 189.87493 188.92493 189.00192 189.84992 191.17091
 192.90891 195.01691 197.29290 199.66490 202.12290 204.61589 206.71689 208.57188
 210.21088 211.36888 211.61087 211.85187 211.80187 211.51986 211.16586 210.80885
 210.43885 210.16185 209.98284 209.85984 209.80084 210.14483 210.54383 210.94582
 211.75182 212.94282 214.20581 216.00181 217.94281 219.99880 222.10680 224.20279
 226.27579 228.37279 230.48278 232.60178 234.74378 236.92877 239.19777 241.58076
 244.21476 246.47876 248.49375 250.27175 251.70175 252.83774 253.67274 254.00173
 254.05173 253.83873 253.21172 252.17272 250.79172 248.96571 246.88771 244.73371
 242.53770 240.35470 238.18769 236.03969 233.91269 231.79268 229.83168 228.00168
 226.29767 224.78267 223.42566 222.21066 221.10566 220.07865 219.19565 218.34965
 217.60464 216.79764 215.90863 215.28563 214.74863 215.00911 215.62454 216.26031
 216.43105 216.11748 215.40675 214.72778 216.11691 219.86572 224.15176 227.39069
 231.30348 235.91888 240.85962 245.47479 249.55023 253.13594 256.38892 259.38654
 262.19034 264.94818 267.75568 270.54596 273.18826 275.48700 277.21124 278.51584
 279.70557 280.78207 281.63553 282.25314 282.78387 283.39783 284.13232 284.65765
 285.26276 285.89453 286.44641 287.14975
 366.78100 356.34739 345.79177 334.67016 323.08555 311.29193 299.17432 286.98970
 274.71409 262.62348 250.64486 239.95825 230.09264 221.20902 213.40341 206.41780
 200.26418 195.21457 191.80895 189.86334 188.91273 188.98911 189.83650 191.15689
 192.89427 195.00166 197.27705 199.64843 202.10582 204.59820 206.69859 208.55298
 210.19136 211.34875 211.59014 211.83052 211.77991 211.49730 211.14268 210.78507
 210.41445 210.13684 209.95723 209.83361 209.77400 210.11739 210.51577 210.91716
 211.72255 212.91293 214.17532 215.97071 217.91109 219.96648 222.07386 224.16925
 226.24164 228.33802 230.44741 232.56580 234.70718 236.89157 239.15996 241.54234
 244.17573 246.43911 248.45350 250.23089 251.66027 252.79566 253.63005 253.95843
 254.00782 253.79421 253.16659 252.12698 250.74536 248.91875 246.84014 244.68552
 242.48891 240.30530 238.13768 235.98907 233.86146 231.74084 229.77923 227.94861
 226.24400 224.72839 223.37077 222.15516 221.04955 220.02193 219.13832 218.29171
 217.54609 216.73848 215.84886 215.22525 214.68764 214.97499 215.65390 216.20879
 216.50235 216.16777 215.41525 214.72093 216.10698 219.77766 224.03621 227.30888
 231.26424 235.92322 240.88812 245.49414 249.56041 253.14964 256.41431 259.41599
 262.20306 264.91647 267.67776 270.46027 273.14941 275.53372 277.30792 278.63068
 279.82697 280.90326 281.70941 282.24313 282.69843 283.28650 284.01675 284.53287
 285.01672 285.62091 286.15506 286.83578
 366.78100 356.34663 345.79026 334.66789 323.08252 311.28815 299.16978 286.98441
 274.70804 262.61667 250.63730 239.94993 230.08357 221.19920 213.39283 206.40646
 200.25209 195.20172 191.79535 189.84898 188.89761 188.97324 189.81987 191.13950
 192.87613 194.98276 197.25739 199.62802 202.08465 204.57628 206.67591 208.52954
 210.16717 211.32380 211.56444 211.80407 211.75270 211.46933 211.11396 210.75559
 210.38422 210.10585 209.92548 209.80111 209.74074 210.08337 210.48100 210.88163
 211.68626 212.87589 214.13752 215.93215 217.87178 219.92641 222.03304 224.12767
 226.19931 228.29494 230.40357 232.52120 234.66183 236.84546 239.11309 241.49472
 244.12735 246.38998 248.40361 250.18024 251.60887 252.74350 253.57713 253.90476
 253.95339 253.73902 253.11065 252.07028 250.68791 248.86054 246.78118 244.62581
 242.42844 240.24407 238.07570 235.92633 233.79796 231.67659 229.71422 227.88285
 226.17748 224.66111 223.30274 222.08637 220.98000 219.95163 219.06726 218.21989
 217.47352 216.66515 215.77478 215.15041 214.61205 214.93436 215.69585 216.16014
 216.52502 216.21356 215.43367 214.72081 216.10555 219.68999 223.92818 227.25787
 231.23723 235.93457 240.91551 245.51221 249.57370 253.18143 256.46863 259.47565
 262.24713 264.90948 267.59967 270.35263 273.08527 275.56900 277.39636 278.73975
 279.95819 281.04099 281.81451 282.28461 282.70688 283.22626 283.87918 284.45331
 284.93219 285.47430 285.97379 286.61029
 366.78100 356.34623 345.78945 334.66668 323.08091 311.28613 299.16736 286.98159
 274.70481 262.61304 250.63327 239.94549 230.07872 221.19395 213.38717 206.40040
 200.24563 195.19485 191.78808 189.84131 188.88953 188.96476 189.81099 191.13021
 192.86644 194.97267 197.24689 199.61712 202.07335 204.56457 206.66380 208.51703
 210.15425 211.31048 211.55071 211.78993 211.73816 211.45439 211.09861 210.73984
 210.36807 210.08929 209.90852 209.78375 209.72298 210.06520 210.46243 210.86266
 211.66688 212.85611 214.11734 215.91156 217.85079 219.90502 222.01124 224.10547
 226.17670 228.27192 230.38015 232.49738 234.63760 236.82083 239.08806 241.46928
 244.10151 246.36374 248.37696 250.15319 251.58142 252.71564 253.54887 253.87610
 253.92432 253.70955 253.08078 252.04000 250.65723 248.82946 246.74968 244.59391
 242.39614 240.21136 238.04259 235.89282 233.76404 231.64227 229.67950 227.84772
 226.14195 224.62518 223.26640 222.04963 220.94286 219.91408 219.02931 218.18154
 217.43476 216.62599 215.73522 215.11044 214.57167 214.91209 215.71637 216.15425
 216.52995 216.24585 215.44714 214.70612 216.08971 219.60213 223.83307 227.24626
 231.22307 235.94234 240.93857 245.52318 249.58070 253.21133 256.52487 259.53787
 262.29227 264.90109 267.51285 270.22360 273.00427 275.58691 277.46973 278.82959
 280.07675 281.16483 281.93143 282.35532 282.72946 283.19821 283.78915 284.38141
 284.88986 285.40161 285.88272 286.49585
 366.78100 356.34558 345.78817 334.66475 323.07834 311.28292 299.16351 286.97709
 274.69968 262.60726 250.62685 239.93843 230.07102 221.18560 213.37819 206.39077
 200.23536 195.18394 191.77653 189.82911 188.87670 188.95128 189.79687 191.11545
 192.85104 194.95662 197.23021 199.59979 202.05538 204.54596 206.64455 208.49713
 210.13372 211.28930 211.52889 211.76747 211.71506 211.43064 211.07423 210.71481
 210.34240 210.06298 209.88157 209.75615 209.69474 210.03632 210.43291 210.83249
 211.63608 212.82466 214.08525 215.87883 217.81742 219.87100 221.97659 224.07017
 226.14076 228.23534 230.34293 232.45951 234.59910 236.78168 239.04827 241.42885
 244.06043 246.32202 248.33460 250.11019 251.53777 252.67136 253.50394 253.83053
 253.87811 253.66270 253.03328 251.99187 250.60845 248.78004 246.69962 244.54321
 242.34479 240.15938 237.98996 235.83955 233.71013 231.58772 229.62430 227.79189
 226.08547 224.56806 223.20864 221.99123 220.88381 219.85440 218.96898 218.12057
 217.37315 216.56374 215.67232 215.04691 214.50749 214.87930 215.75772 216.15309
 216.50482 216.25363 215.46156 214.68399 216.05807 219.51363 223.72067 227.21930
 231.21185 235.95419 240.94800 245.51617 249.57498 253.23741 256.58875 259.61740
 262.36740 264.92746 267.44028 270.07184 272.87491 275.57034 277.50854 278.89865
 280.19443 281.29214 282.03073 282.40192 282.75418 283.18851 283.72198 284.30222
 284.81552 285.28745 285.71948 286.27008
 366.78100 356.34504 345.78708 334.66311 323.07615 311.28019 299.16023 286.97326
 274.69530 262.60234 250.62138 239.93241 230.06445 221.17849 213.37053 206.38256
 200.22660 195.17464 191.76668 189.81871 188.86575 188.93979 189.78483 191.10286
 192.83790 194.94294 197.21598 199.58501 202.04005 204.53009 206.62813 208.48017
 210.11620 211.27124 211.51028 211.74832 211.69535 211.41039 211.05343 210.69347
 210.32050 210.04054 209.85858 209.73262 209.67065 210.01169 210.40773 210.80677
 211.60980 212.79784 214.05788 215.85092 217.78895 219.84199 221.94703 224.04007
 226.11010 228.20414 230.31118 232.42722 234.56626 236.74829 239.01433 241.39437
 244.02541 246.28644 248.29848 250.07352 251.50056 252.63359 253.46563 253.79167
 253.83871 253.62274 252.99278 251.95082 250.56686 248.73789 246.65693 244.49997
 242.30101 240.11504 237.94508 235.79412 233.66416 231.54119 229.57723 227.74427
 226.03731 224.51935 223.15938 221.94142 220.83346 219.80350 218.91753 218.06857
 217.32061 216.51065 215.61868 214.99272 214.45276 214.85100 215.79189 216.19359
 216.46796 216.19064 215.42332 214.63245 216.01144 219.45073 223.65639 227.20285
 231.20692 235.96144 240.96721 245.53146 249.59888 253.28767 256.66672 259.70956
 262.45645 264.98199 267.41693 269.96671 272.75638 275.51953 277.51221 278.92261
 280.23398 281.33444 282.06128 282.43298 282.76828 283.15817 283.65475 284.23022
 284.76682 285.25720 285.69116 286.24417
 366.78100 356.34492 345.78684 334.66277 323.07569 311.27961 299.15953 286.97245
 274.69438 262.60130 250.62022 239.93114 230.06306 221.17699 213.36891 206.38083
 200.22475 195.17267 191.76459 189.81652 188.86344 188.93736 189.78228 191.10020
 192.83513 194.94005 197.21297 199.58189 202.03681 204.52674 206.62466 208.47658
 210.11250 211.26742 211.50635 211.74427 211.69119 211.40611 211.04903 210.68896
 210.31588 210.03580 209.85372 209.72764 209.66556 210.00649 210.40241 210.80133
 211.60425 212.79217 214.05210 215.84502 217.78294 219.83586 221.94078 224.03371
 226.10363 228.19755 230.30447 232.42039 234.55932 236.74124 239.00716 241.38708
 244.01800 246.27893 248.29085 250.06577 251.49269 252.62561 253.45753 253.78346
 253.83038 253.61430 252.98422 251.94214 250.55807 248.72899 246.64791 244.49083
 242.29175 240.10568 237.93560 235.78452 233.65444 231.53136 229.56729 227.73421
 226.02713 224.50905 223.14897 221.93090 220.82282 219.79274 218.90666 218.05758
 217.30950 216.49943 215.60735 214.98127 214.44119 214.84572 215.80145 216.25394
 216.48682 216.04045 215.30138 214.60054 216.00839 219.40041 223.54939 227.21555
 231.22237 235.98801 240.97421 245.52534 249.60562 253.34290 256.77856 259.85895
 262.62442 265.09451 267.39178 269.78342 272.56104 275.43893 277.48743 278.94101
 280.33151 281.42862 282.02274 282.22491 282.51282 282.93094 283.45612 284.02844
 284.55615 285.01752 285.44455 285.98877
 354.97500 345.04800 334.58700 324.11500 313.32600 302.53700 291.65000 280.76700
 269.93100 259.19300 248.62200 238.61700 229.08700 220.35500 212.54000 205.53500
 199.46400 194.49300 191.14300 189.19000 188.08900 188.01400 188.72400 189.90600
 191.46900 193.38200 195.40300 197.55600 199.80700 202.06000 204.28800 206.47900
 208.55200 210.37800 212.02500 213.65900 214.99800 216.11800 217.17200 218.25900
 219.49400 220.64500 221.67900 222.61400 223.54500 224.98200 226.57100 228.19000
 229.79700 231.81100 233.86500 235.97200 238.24200 240.55300 242.89900 245.25300
 247.48800 249.53500 251.36600 252.84800 254.09800 255.16700 256.02700 256.25300
 256.09500 255.54300 253.93500 252.56600 251.38400 250.24500 249.05200 247.70100
 246.01600 243.99600 241.78400 239.39300 236.81300 234.22300 231.65800 229.14400
 226.74000 224.47300 222.33500 220.32500 218.44000 216.67700 214.96200 213.47200
 212.20000 211.10800 210.26000 209.63900 209.24400 209.03100 209.05800 209.33300
 209.78400 210.62600 211.33100 212.39100 213.62500 214.84668 217.72949 219.47640
 220.32566 220.86828 220.88710 220.27371 219.43733 218.84250 219.04934 220.86203
 222.60583 225.72206 229.03064 232.61777 236.12270 239.51333 242.70767 245.68587
 248.41061 250.90679 253.19353 254.91714 256.48655 257.94920 259.39966 260.69384
 261.81714 262.77997 263.71679 264.54570 265.26305 265.89772 266.47676 267.00133
 267.47312 267.89325 268.26027 268.72800
