|-------------------------------------------------------------------------|
|   File Name : in_temp.dat
|   Subject   : temperature profiles used for initial guess atmosphere
|   File Type : input of gmtr
|   Data Type : atmospherical data
|   Author/s  : WRF-Chem
|   Date      : Fri Jul 26 15:39:24 2024
|-------------------------------------------------------------------------|

 WRF-Chem temperature
#
 values of T (K)    (8f10.5)
#
 354.97500 345.04800 334.58700 324.11500 313.32600 302.53700 291.65000 280.76700
 269.93100 259.19300 248.62200 238.61700 229.08700 220.35500 212.54000 205.53500
 199.46400 194.49300 191.14300 189.19000 188.08900 188.01400 188.72400 189.90600
 191.46900 193.38200 195.40300 197.55600 199.80700 202.06000 204.28800 206.47900
 208.55200 210.37800 212.02500 213.65900 214.99800 216.11800 217.17200 218.25900
 219.49400 220.64500 221.67900 222.61400 223.54500 224.98200 226.57100 228.19000
 229.79700 231.81100 233.86500 235.97200 238.24200 240.55300 242.89900 245.25300
 247.48800 249.53500 251.36600 252.84800 254.09800 255.16700 256.02700 256.25300
 256.09500 255.54300 253.93500 252.56600 251.38400 250.24500 249.05200 247.70100
 246.01600 243.99600 241.78400 239.39300 236.81300 234.22300 231.65800 229.14400
 226.74000 224.47300 222.33500 220.32500 218.44000 216.67700 214.96200 213.47200
 212.20000 211.10800 210.26000 209.63900 209.24400 209.03100 209.05800 209.33300
 209.78400 210.62600 211.33100 212.39100 213.62500 214.84668 217.72949 219.47640
 220.32566 220.86828 220.88710 220.27371 219.43733 218.84250 219.04934 220.86203
 222.60583 225.72206 229.03064 232.61777 236.12270 239.51333 242.70767 245.68587
 248.41061 250.90679 253.19353 254.91714 256.48655 257.94920 259.39966 260.69384
 261.81714 262.77997 263.71679 264.54570 265.26305 265.89772 266.47676 267.00133
 267.47312 267.89325 268.26027 268.72800
 366.78100 356.33500 345.76700 334.63300 323.03600 311.23000 299.10000 286.90300
 274.61500 262.51200 250.52100 239.82200 229.94400 221.04800 213.23000 206.23200
 200.06600 195.00400 191.58600 189.62800 188.66500 188.72900 189.56400 190.87200
 192.59700 194.69200 196.95500 199.31400 201.75900 204.23900 206.32700 208.16900
 209.79500 210.94000 211.16900 211.39700 211.33400 211.03900 210.67200 210.30200
 209.91900 209.62900 209.43700 209.30100 209.22900 209.56000 209.94600 210.33500
 211.12800 212.30600 213.55600 215.33900 217.26700 219.31000 221.40500 223.48800
 225.54800 227.63200 229.72900 231.83500 233.96400 236.13600 238.39200 240.76200
 243.38300 245.63400 247.63600 249.40100 250.81800 251.94100 252.76300 253.07900
 253.11600 252.89000 252.25000 251.19800 249.80400 247.96500 245.87400 243.70700
 241.49800 239.30200 237.12200 234.96100 232.82100 230.68800 228.71400 226.87100
 225.15400 223.62600 222.25600 221.02800 219.91000 218.87000 217.97400 217.11500
 216.35700 215.53700 214.63500 213.99900 213.44900 212.85855 212.01316 212.61654
 214.26826 216.08686 218.14273 220.53346 223.40855 226.78828 231.49734 235.90155
 239.42278 243.28576 247.23140 251.11907 254.80144 258.23331 261.38913 264.27520
 266.89312 269.26852 271.44504 273.08845 274.58484 275.98591 277.39845 278.65879
 279.75272 280.69038 281.56708 282.34086 283.01050 283.60295 284.14348 284.63317
 285.07358 285.46577 285.80838 286.24500
 381.81900 372.39900 361.20600 349.77600 337.62200 324.85300 311.81000 298.35300
 284.86000 271.32400 258.56100 246.30400 236.08700 226.79600 218.44800 211.29000
 205.52200 200.89400 197.38100 194.84800 193.01500 192.31500 192.25000 192.43100
 192.91200 193.53700 194.13600 194.71200 195.26200 195.83100 196.39300 196.97600
 197.60400 198.14900 198.58400 199.05700 199.69500 200.37800 201.05400 201.70800
 202.31300 202.85700 203.35500 203.86200 204.56900 205.29700 206.02600 206.98700
 208.19300 209.44100 210.96900 212.57600 214.46200 216.51300 218.63000 220.85300
 223.34100 225.96200 228.73900 231.69700 234.70600 237.70600 240.69200 243.65700
 246.73700 249.69900 252.52100 255.06300 257.29000 259.23300 260.63300 261.68000
 262.46100 262.79800 262.69100 262.22400 261.06900 259.52500 257.70700 255.50700
 253.00100 250.30200 247.39800 244.45200 241.65400 239.05400 236.73300 234.59000
 232.59500 230.72500 228.83400 226.82600 224.66600 222.38700 220.10400 217.71500
 215.45900 213.06600 210.54600 208.09300 205.35400 202.08130 196.05959 200.71215
 209.01611 216.90438 223.84126 229.78593 235.00632 240.20838 245.98943 250.68668
 254.32982 257.93487 261.55666 264.96801 268.15192 271.06452 273.76717 276.25691
 278.57680 280.74479 282.77456 284.60533 286.27232 287.81705 289.31715 290.65561
 291.81734 292.81312 293.70701 294.49387 295.17482 295.77730 296.32696 296.82492
 297.27278 297.67160 298.02000 298.46400
 399.33000 389.90700 379.81300 368.66800 357.52200 345.30100 333.07400 320.22700
 307.21600 293.84800 280.37600 267.29600 254.61000 242.98700 232.15100 221.97700
 212.67200 204.28600 197.66900 192.82100 189.48600 187.45200 186.81400 187.08900
 187.78100 189.05400 190.64800 192.54200 194.63000 196.75200 198.67100 200.15800
 201.53500 202.48700 202.97500 203.34000 203.53900 203.49700 203.38500 203.24700
 203.00500 202.78600 202.60300 202.43700 202.42600 202.88800 203.42000 203.95100
 204.89500 205.99200 207.30100 208.95800 210.73800 213.10000 215.56400 218.18000
 220.96600 223.91800 226.96100 230.09200 233.29300 236.55700 239.95500 243.53700
 246.84500 249.39000 251.54200 253.47400 255.19500 256.48400 257.43100 258.05900
 258.21200 258.04000 257.58200 256.64300 255.23900 253.50700 251.40800 249.05600
 246.57600 243.99400 241.38900 238.83000 236.34400 233.98600 231.96900 230.11800
 228.42300 226.89900 225.54800 224.29700 223.10500 221.96500 220.95800 220.11300
 219.49000 218.92000 218.32500 217.88100 217.42300 216.96366 216.35568 216.80261
 217.73415 218.28582 218.64258 219.10077 220.44626 222.53987 226.38451 230.35736
 233.59734 237.39164 241.29814 245.22796 248.98002 252.51130 255.78595 258.80109
 261.54781 264.05210 266.34239 268.04198 269.58951 271.01303 272.35754 273.55718
 274.59842 275.49092 276.28989 276.99307 277.60161 278.14001 278.63122 279.07623
 279.47646 279.83287 280.14422 280.54100
 399.73800 389.78500 379.66200 368.15100 356.64100 344.35000 331.79200 318.88800
 305.72600 292.49300 279.20900 266.73800 254.69600 244.21100 234.45700 225.43300
 217.56900 210.45100 204.30000 199.30600 195.45800 192.57600 191.02700 190.38600
 190.23900 190.53400 191.16600 191.92500 192.79500 193.76600 194.73200 195.31200
 195.80000 196.05200 196.11500 196.11500 196.03900 195.72300 195.34000 194.98900
 194.75100 194.79200 195.13300 195.59800 196.50600 198.13600 199.85800 201.56600
 204.17900 206.82300 209.89300 213.28400 216.82800 220.60500 224.38700 228.20900
 232.03200 235.82500 239.56000 243.25800 246.84500 250.20100 253.70900 257.46800
 261.53000 264.22100 266.60100 268.68100 270.32900 271.74100 272.83600 273.47400
 273.89800 274.00200 273.75700 273.28800 272.37100 271.10000 269.58900 267.77900
 265.81600 263.72100 261.39300 258.91600 256.29800 253.42300 250.33100 247.11400
 243.83700 240.52900 237.24900 233.99900 230.72800 227.51500 224.25400 220.95200
 217.62700 213.65600 210.12100 206.78900 204.01000 201.99491 199.07309 198.76551
 199.40006 200.48994 201.46112 202.31912 203.45100 204.96110 207.47502 210.85391
 213.70530 217.29629 220.99574 224.72316 228.28753 231.64854 234.68024 237.40893
 239.70644 241.60899 243.46854 245.67368 247.68154 249.52395 251.24767 252.78566
 254.12057 255.26479 256.23740 257.09036 257.82852 258.48160 259.07744 259.61723
 260.10271 260.53504 260.91270 261.39400
 399.73800 389.78500 379.66200 368.15100 356.64100 344.35000 331.79200 318.88800
 305.72600 292.49300 279.20900 266.73800 254.69600 244.21100 234.45700 225.43300
 217.56900 210.45100 204.30000 199.30600 195.45800 192.57600 191.02700 190.38600
 190.23900 190.53400 191.16600 191.92500 192.79500 193.76600 194.73200 195.31200
 195.80000 196.05200 196.11500 196.11500 196.03900 195.72300 195.34000 194.98900
 194.75100 194.79200 195.13300 195.59800 196.50600 198.13600 199.85800 201.56600
 204.17900 206.82300 209.89300 213.28400 216.82800 220.60500 224.38700 228.20900
 232.03200 235.82500 239.56000 243.25800 246.84500 250.20100 253.70900 257.46800
 261.53000 264.22100 266.60100 268.68100 270.32900 271.74100 272.83600 273.47400
 273.89800 274.00200 273.75700 273.28800 272.37100 271.10000 269.58900 267.77900
 265.81600 263.72100 261.39300 258.91600 256.29800 253.42300 250.33100 247.11400
 243.83700 240.52900 237.24900 233.99900 230.72800 227.51500 224.25400 220.95200
 217.62700 213.65600 210.12100 206.78900 204.01000 201.99491 199.07309 198.76551
 199.40006 200.48994 201.46112 202.31912 203.45100 204.96110 207.47502 210.85391
 213.70530 217.29629 220.99574 224.72316 228.28753 231.64854 234.68024 237.40893
 239.70644 241.60899 243.46854 245.67368 247.68154 249.52395 251.24767 252.78566
 254.12057 255.26479 256.23740 257.09036 257.82852 258.48160 259.07744 259.61723
 260.10271 260.53504 260.91270 261.39400
 399.33000 389.90700 379.81300 368.66800 357.52200 345.30100 333.07400 320.22700
 307.21600 293.84800 280.37600 267.29600 254.61000 242.98700 232.15100 221.97700
 212.67200 204.28600 197.66900 192.82100 189.48600 187.45200 186.81400 187.08900
 187.78100 189.05400 190.64800 192.54200 194.63000 196.75200 198.67100 200.15800
 201.53500 202.48700 202.97500 203.34000 203.53900 203.49700 203.38500 203.24700
 203.00500 202.78600 202.60300 202.43700 202.42600 202.88800 203.42000 203.95100
 204.89500 205.99200 207.30100 208.95800 210.73800 213.10000 215.56400 218.18000
 220.96600 223.91800 226.96100 230.09200 233.29300 236.55700 239.95500 243.53700
 246.84500 249.39000 251.54200 253.47400 255.19500 256.48400 257.43100 258.05900
 258.21200 258.04000 257.58200 256.64300 255.23900 253.50700 251.40800 249.05600
 246.57600 243.99400 241.38900 238.83000 236.34400 233.98600 231.96900 230.11800
 228.42300 226.89900 225.54800 224.29700 223.10500 221.96500 220.95800 220.11300
 219.49000 218.92000 218.32500 217.88100 217.42300 216.96366 216.35568 216.80261
 217.73415 218.28582 218.64258 219.10077 220.44626 222.53987 226.38451 230.35736
 233.59734 237.39164 241.29814 245.22796 248.98002 252.51130 255.78595 258.80109
 261.54781 264.05210 266.34239 268.04198 269.58951 271.01303 272.35754 273.55718
 274.59842 275.49092 276.28989 276.99307 277.60161 278.14001 278.63122 279.07623
 279.47646 279.83287 280.14422 280.54100
 381.81900 372.39900 361.20600 349.77600 337.62200 324.85300 311.81000 298.35300
 284.86000 271.32400 258.56100 246.30400 236.08700 226.79600 218.44800 211.29000
 205.52200 200.89400 197.38100 194.84800 193.01500 192.31500 192.25000 192.43100
 192.91200 193.53700 194.13600 194.71200 195.26200 195.83100 196.39300 196.97600
 197.60400 198.14900 198.58400 199.05700 199.69500 200.37800 201.05400 201.70800
 202.31300 202.85700 203.35500 203.86200 204.56900 205.29700 206.02600 206.98700
 208.19300 209.44100 210.96900 212.57600 214.46200 216.51300 218.63000 220.85300
 223.34100 225.96200 228.73900 231.69700 234.70600 237.70600 240.69200 243.65700
 246.73700 249.69900 252.52100 255.06300 257.29000 259.23300 260.63300 261.68000
 262.46100 262.79800 262.69100 262.22400 261.06900 259.52500 257.70700 255.50700
 253.00100 250.30200 247.39800 244.45200 241.65400 239.05400 236.73300 234.59000
 232.59500 230.72500 228.83400 226.82600 224.66600 222.38700 220.10400 217.71500
 215.45900 213.06600 210.54600 208.09300 205.35400 202.08130 196.05959 200.71215
 209.01611 216.90438 223.84126 229.78593 235.00632 240.20838 245.98943 250.68668
 254.32982 257.93487 261.55666 264.96801 268.15192 271.06452 273.76717 276.25691
 278.57680 280.74479 282.77456 284.60533 286.27232 287.81705 289.31715 290.65561
 291.81734 292.81312 293.70701 294.49387 295.17482 295.77730 296.32696 296.82492
 297.27278 297.67160 298.02000 298.46400
 366.78100 356.33298 345.76296 334.62694 323.02792 311.21990 299.08788 286.88886
 274.59884 262.49382 250.50079 239.79977 229.91975 221.02173 213.20171 206.20169
 200.03367 194.96965 191.54963 189.58961 188.62459 188.68657 189.51955 190.82553
 192.54851 194.64149 196.90247 199.25945 201.70243 204.18040 206.26638 208.10636
 209.73034 210.87332 211.10030 211.32628 211.26126 210.96424 210.59522 210.22320
 209.83818 209.54616 209.35214 209.21412 209.14010 209.46908 209.85306 210.24004
 211.03102 212.20699 213.45497 215.23595 217.16193 219.20291 221.29589 223.37687
 225.43485 227.51683 229.61181 231.71579 233.84277 236.01275 238.26673 240.63471
 243.25369 245.50267 247.50265 249.26563 250.68060 251.80158 252.62156 252.93554
 252.97052 252.74250 252.10048 251.04646 249.65044 247.80942 245.71640 243.54738
 241.33636 239.13834 236.95632 234.79330 232.65128 230.51626 228.54024 226.69521
 224.97619 223.44617 222.07415 220.84413 219.72411 218.68209 217.78407 216.92305
 216.16303 215.34101 214.43699 213.79897 213.24695 212.85240 211.92274 211.81650
 212.59512 214.50336 216.21194 216.98212 218.66588 222.73973 228.75000 233.73271
 237.54440 241.27246 245.01724 248.82802 252.66321 255.81828 258.39246 260.89780
 263.68362 266.35535 268.73672 270.81183 272.72525 274.54840 276.19965 277.83621
 279.51642 281.14853 282.64627 284.00290 285.18314 286.23059 287.19006 288.06152
 288.85022 289.55972 290.18466 291.01782
 366.78100 356.33092 345.75884 334.62075 323.01967 311.20959 299.07551 286.87442
 274.58234 262.47526 250.48018 239.77709 229.89501 220.99493 213.17285 206.17077
 200.00068 194.93460 191.51252 189.55044 188.58335 188.64327 189.47419 190.77811
 192.49903 194.58994 196.84886 199.20378 201.64470 204.12061 206.20453 208.04245
 209.66437 210.80528 211.03020 211.25412 211.18704 210.88796 210.51687 210.14279
 209.75571 209.46163 209.26554 209.12546 209.04938 209.37630 209.75821 210.14313
 210.93205 212.10597 213.35189 215.13080 217.05472 219.09364 221.18456 223.26347
 225.31939 227.39931 229.49223 231.59415 233.71906 235.88698 238.13890 240.50482
 243.12173 245.36865 247.36657 249.12749 250.54040 251.65932 252.47724 252.78916
 252.82208 252.59199 251.94791 250.89183 249.49375 247.65066 245.55558 243.38450
 241.17142 238.97133 236.78725 234.62217 232.47809 230.34101 228.36292 226.51584
 224.79476 223.26268 221.88859 220.65651 219.53443 218.49035 217.59027 216.72718
 215.96510 215.14102 214.23494 213.59485 213.04077 212.74921 212.06192 211.96741
 212.70506 214.56612 216.21387 217.03525 218.60114 222.66068 228.70451 233.65321
 237.45674 241.20053 244.97333 248.78865 252.58769 255.71062 258.27191 260.78320
 263.52939 266.20413 268.62717 270.70880 272.60468 274.40988 276.06030 277.70230
 279.38943 281.03305 282.53720 283.89328 285.07550 286.12354 287.08267 287.95593
 288.74667 289.45508 290.08051 290.91452
 366.78100 356.32906 345.75512 334.61518 323.01225 311.20031 299.06437 286.86143
 274.56749 262.45855 250.46162 239.75668 229.87274 220.97080 213.14686 206.14292
 199.97099 194.90305 191.47911 189.51517 188.54623 188.60429 189.43336 190.73542
 192.45448 194.54354 196.80060 199.15366 201.59273 204.06679 206.14885 207.98491
 209.60497 210.74403 210.96710 211.18916 211.12022 210.81928 210.44634 210.07040
 209.68147 209.38553 209.18759 209.04565 208.96771 209.29277 209.67284 210.05590
 210.84296 212.01502 213.25908 215.03614 216.95821 218.99527 221.08433 223.16139
 225.21545 227.29351 229.38457 231.48464 233.60770 235.77376 238.02382 240.38788
 243.00294 245.24801 247.24407 249.00313 250.41419 251.53125 252.34731 252.65738
 252.68844 252.45650 251.81056 250.75262 249.35268 247.50775 245.41081 243.23787
 241.02293 238.82099 236.63505 234.46812 232.32218 230.18324 228.20330 226.35436
 224.63142 223.09749 221.72155 220.48761 219.36367 218.31773 217.41579 216.55086
 215.78692 214.96098 214.05304 213.41110 212.85516 212.65543 212.18448 212.12389
 212.80275 214.63013 216.22490 217.09515 218.55559 222.61035 228.65906 233.57187
 237.36581 241.12340 244.92297 248.74254 252.49998 255.59578 258.15311 260.67688
 263.38058 266.05298 268.51376 270.59918 272.47885 274.26981 275.92218 277.57022
 279.27060 280.92114 282.43265 283.79034 284.97296 286.01971 286.98181 287.85315
 288.64590 289.35507 289.98044 290.81668
 366.78100 356.32729 345.75158 334.60987 323.00516 311.19145 299.05374 286.84903
 274.55332 262.44261 250.44390 239.73719 229.85148 220.94777 213.12206 206.11635
 199.94264 194.87293 191.44722 189.48151 188.51080 188.56709 189.39438 190.69467
 192.41196 194.49925 196.75454 199.10583 201.54312 204.01541 206.09570 207.92999
 209.54828 210.68557 210.90686 211.12715 211.05644 210.75373 210.37902 210.00131
 209.61060 209.31289 209.11318 208.96947 208.88976 209.21305 209.59134 209.97263
 210.75792 211.92821 213.17050 214.94579 216.86608 218.90137 220.98866 223.06395
 225.11625 227.19254 229.28183 231.38012 233.50141 235.66570 237.91399 240.27628
 242.88957 245.13286 247.12715 248.88444 250.29373 251.40902 252.22331 252.53160
 252.56089 252.32718 251.67947 250.61976 249.21805 247.37134 245.27263 243.09792
 240.88121 238.67750 236.48979 234.32108 232.17337 230.03266 228.05095 226.20024
 224.47553 222.93982 221.56211 220.32640 219.20069 218.15298 217.24927 216.38256
 215.61685 214.78914 213.87943 213.23572 212.67801 212.56532 212.29953 212.27718
 212.89847 214.69534 216.25533 217.15097 218.51956 222.58224 228.60835 233.49034
 237.27481 241.04539 244.86913 248.69096 252.40289 255.47435 258.03650 260.57584
 263.23337 265.89682 268.39008 270.48111 272.35062 274.13251 275.78958 277.44781
 279.16022 280.81467 282.33383 283.69318 284.87430 285.92441 286.88571 287.75797
 288.54865 289.26166 289.88629 290.72556
 366.78100 356.32563 345.74827 334.60490 322.99854 311.18317 299.04381 286.83744
 274.54008 262.42771 250.42735 239.71898 229.83162 220.92625 213.09889 206.09152
 199.91615 194.84479 191.41742 189.45006 188.47769 188.53233 189.35796 190.65660
 192.37223 194.45787 196.71150 199.06114 201.49677 203.96741 206.04604 207.87867
 209.49531 210.63094 210.85058 211.06921 210.99685 210.69248 210.31612 209.93675
 209.54439 209.24502 209.04366 208.89829 208.81693 209.13856 209.51519 209.89483
 210.67846 211.84710 213.08773 214.86137 216.78000 218.81364 220.89927 222.97291
 225.02354 227.09818 229.18581 231.28245 233.40208 235.56471 237.81135 240.17198
 242.78362 245.02525 247.01789 248.77352 250.18116 251.29479 252.10743 252.41406
 252.44170 252.20633 251.55697 250.49560 249.09223 247.24387 245.14350 242.96714
 240.74877 238.54341 236.35404 234.18368 232.03431 229.89195 227.90858 226.05622
 224.32985 222.79249 221.41312 220.17575 219.04839 217.99902 217.09366 216.22529
 215.45793 214.62856 213.71720 213.07183 212.51247 212.48074 212.40596 212.42369
 213.00027 214.76485 216.29997 217.18948 218.50304 222.57120 228.55292 233.41080
 237.18729 240.96916 244.81424 248.63583 252.29620 255.34569 257.91922 260.47577
 263.08563 265.73273 268.25317 270.35376 272.22198 274.00232 275.66483 277.33502
 279.05545 280.71713 282.24084 283.60165 284.78314 285.83386 286.79419 287.66989
 288.46075 289.17050 289.79819 290.63327
 366.78100 356.32420 345.74541 334.60061 322.99281 311.17602 299.03522 286.82742
 274.52863 262.41483 250.41303 239.70324 229.81444 220.90764 213.07885 206.07005
 199.89325 194.82046 191.39166 189.42286 188.44907 188.50227 189.32647 190.62368
 192.33788 194.42208 196.67429 199.02249 201.45669 203.92590 206.00310 207.83431
 209.44951 210.58371 210.80192 211.01912 210.94532 210.63953 210.26173 209.88093
 209.48714 209.18634 208.98354 208.83675 208.75395 209.07415 209.44936 209.82756
 210.60976 211.77697 213.01617 214.78837 216.70558 218.73778 220.82198 222.89419
 224.94339 227.01659 229.10280 231.19800 233.31620 235.47741 237.72261 240.08181
 242.69202 244.93222 246.92342 248.67763 250.08383 251.19603 252.00724 252.31244
 252.33864 252.10185 251.45105 250.38825 248.98346 247.13366 245.03186 242.85407
 240.63427 238.42747 236.23668 234.06488 231.91408 229.77029 227.78549 225.93169
 224.20390 222.66510 221.28431 220.04551 218.91671 217.86592 216.95912 216.08932
 215.32053 214.48973 213.57693 212.93014 212.36934 212.40755 212.49783 212.56480
 213.11089 214.83989 216.34918 217.21161 218.52658 222.57877 228.49922 233.33458
 237.10452 240.89568 244.75835 248.57602 252.18059 255.20895 257.80005 260.37500
 262.93716 265.56122 268.10138 270.21265 272.09045 273.88193 275.55438 277.23502
 278.95731 280.62823 282.15424 283.51437 284.69754 285.74701 286.70911 287.58282
 288.37576 289.08667 289.71420 290.55334
 366.78100 356.32301 345.74303 334.59704 322.98806 311.17007 299.02809 286.81910
 274.51912 262.40413 250.40115 239.69016 229.80017 220.89219 213.06220 206.05222
 199.87423 194.80025 191.37026 189.40028 188.42529 188.47731 189.30032 190.59634
 192.30935 194.39236 196.64338 198.99039 201.42341 203.89142 205.96744 207.79745
 209.41147 210.54448 210.76150 210.97751 210.90252 210.59554 210.21655 209.83457
 209.43958 209.13760 208.93361 208.78563 208.70164 209.02066 209.39467 209.77169
 210.55270 211.71871 212.95673 214.72774 216.64376 218.67477 220.75779 222.82880
 224.87682 226.94883 229.03385 231.12786 233.24487 235.40489 237.64890 240.00692
 242.61593 244.85495 246.84496 248.59798 250.00299 251.11401 251.92402 252.22804
 252.25305 252.01506 251.36308 250.29909 248.89311 247.04212 244.93914 242.76015
 240.53917 238.33118 236.13920 233.96621 231.81422 229.66924 227.68325 225.82827
 224.09928 222.55930 221.17731 219.93733 218.80734 217.75536 216.84737 215.97638
 215.20640 214.37441 213.46043 212.81244 212.25046 212.34691 212.57475 212.70309
 213.22873 214.92128 216.39484 217.22690 218.57593 222.59329 228.45273 233.26222
 237.02457 240.82454 244.70149 248.51390 252.05730 255.06433 257.67761 260.27307
 262.79007 265.38522 267.93506 270.05276 271.94675 273.75946 275.45258 277.14978
 278.87714 280.54846 282.07681 283.43762 284.62012 285.67117 286.63235 287.50797
 288.30066 289.01245 289.64090 290.48248
 366.78100 356.32208 345.74115 334.59423 322.98430 311.16538 299.02245 286.81253
 274.51160 262.39568 250.39175 239.67983 229.78890 220.87998 213.04905 206.03813
 199.85920 194.78428 191.35335 189.38243 188.40650 188.45758 189.27966 190.57473
 192.28681 194.36888 196.61896 198.96503 201.39711 203.86418 205.93926 207.76833
 209.38141 210.51348 210.72956 210.94463 210.86871 210.56078 210.18086 209.79793
 209.40201 209.09909 208.89416 208.74524 208.66031 208.97839 209.35146 209.72754
 210.50761 211.67269 212.90976 214.67984 216.59491 218.62499 220.70706 222.77714
 224.82421 226.89529 228.97936 231.07244 233.18851 235.34759 237.59067 239.94774
 242.55582 244.79389 246.78297 248.53504 249.93912 251.04919 251.85827 252.16134
 252.18542 251.94649 251.29357 250.22864 248.82172 246.96979 244.86587 242.68594
 240.46402 238.25509 236.06217 233.88825 231.73532 229.58940 227.60247 225.74655
 224.01662 222.47570 221.09277 219.85185 218.72092 217.66800 216.75907 215.88715
 215.11622 214.28330 213.36837 212.71945 212.15652 212.29967 212.63782 212.83862
 213.35727 215.00616 216.43983 217.24707 218.63977 222.60985 228.41510 233.19455
 236.94583 240.75446 244.64436 248.44946 251.92599 254.91000 257.55042 260.16797
 262.64514 265.20789 267.75854 269.88358 271.79785 273.63293 275.34531 277.06348
 278.80191 280.48187 282.01611 283.37802 284.56070 285.61136 286.57352 287.45050
 288.24414 288.95667 289.58643 290.42960
 366.78100 356.32137 345.73975 334.59212 322.98149 311.16186 299.01824 286.80761
 274.50598 262.38935 250.38473 239.67210 229.78047 220.87085 213.03922 206.02759
 199.84796 194.77234 191.34071 189.36908 188.39245 188.44283 189.26420 190.55857
 192.26995 194.35132 196.60069 198.94606 201.37744 203.84381 205.91818 207.74655
 209.35893 210.49030 210.70567 210.92005 210.84342 210.53479 210.15416 209.77054
 209.37391 209.07028 208.86465 208.71503 208.62940 208.94677 209.31915 209.69452
 210.47389 211.63826 212.87464 214.64401 216.55838 218.58775 220.66913 222.73850
 224.78487 226.85525 228.93862 231.03099 233.14636 235.30474 237.54711 239.90348
 242.51085 244.74823 246.73660 248.48797 249.89135 251.00072 251.80909 252.11146
 252.13484 251.89521 251.24158 250.17595 248.76833 246.91570 244.81107 242.63045
 240.40782 238.19819 236.00456 233.82994 231.67631 229.52968 227.54205 225.68543
 223.95480 222.41317 221.02955 219.78792 218.65629 217.60266 216.69304 215.82041
 215.04878 214.21515 213.29953 212.64990 212.08627 212.26562 212.68933 212.96906
 213.49173 215.10124 216.48573 217.27232 218.71942 222.63019 228.38058 233.12810
 236.86635 240.68347 244.58589 248.38087 251.78574 254.74281 257.41306 260.05542
 262.50146 265.03064 267.57599 269.71228 271.65521 273.51294 275.23828 276.96719
 278.72382 280.42453 281.96609 283.33105 284.51498 285.56436 286.52847 287.40665
 288.20090 288.91388 289.54410 290.38947
 366.78100 356.32091 345.73882 334.59073 322.97964 311.15955 299.01546 286.80437
 274.50229 262.38520 250.38011 239.66702 229.77493 220.86484 213.03275 206.02066
 199.84057 194.76448 191.33239 189.36030 188.38321 188.43312 189.25404 190.54795
 192.25886 194.33977 196.58868 198.93359 201.36450 203.83041 205.90432 207.73223
 209.34414 210.47505 210.68996 210.90387 210.82679 210.51770 210.13661 209.75252
 209.35543 209.05134 208.84525 208.69516 208.60907 208.92598 209.29789 209.67280
 210.45171 211.61562 212.85153 214.62045 216.53436 218.56327 220.64418 222.71309
 224.75900 226.82891 228.91182 231.00373 233.11864 235.27655 237.51846 239.87437
 242.48128 244.71820 246.70611 248.45702 249.85993 250.96884 251.77675 252.07866
 252.10157 251.86148 251.20739 250.14130 248.73321 246.88012 244.77503 242.59394
 240.37086 238.16077 235.96668 233.79159 231.63750 229.49041 227.50232 225.64523
 223.91414 222.37205 220.98796 219.74587 218.61378 217.55969 216.64961 215.77652
 215.00443 214.17034 213.25425 212.60416 212.04007 212.24522 212.72995 213.09743
 213.62785 215.19174 216.55135 217.31270 218.79259 222.65619 228.35353 233.06052
 236.78476 240.61189 244.52783 248.30803 251.63628 254.56242 257.26318 259.93222
 262.35684 264.85275 267.38663 269.53818 271.51971 273.40866 275.14258 276.87650
 278.64609 280.38251 281.92877 283.29385 284.47885 285.52945 286.49329 287.37109
 288.16559 288.88098 289.51248 290.35867
 366.78100 356.32037 345.73774 334.58911 322.97749 311.15686 299.01223 286.80060
 274.49797 262.38034 250.37471 239.66108 229.76846 220.85783 213.02520 206.01257
 199.83194 194.75531 191.32268 189.35005 188.37243 188.42180 189.24217 190.53554
 192.24591 194.32628 196.57465 198.91903 201.34940 203.81477 205.88814 207.71551
 209.32688 210.45725 210.67162 210.88500 210.80737 210.49774 210.11611 209.73148
 209.33385 209.02922 208.82259 208.67197 208.58534 208.90171 209.27308 209.64745
 210.42582 211.58919 212.82456 214.59294 216.50631 218.53468 220.61505 222.68342
 224.72879 226.79816 228.88054 230.97191 233.08628 235.24365 237.48502 239.84039
 242.44676 244.68313 246.67051 248.42088 249.82325 250.93162 251.73899 252.04036
 252.06273 251.82210 251.16748 250.10085 248.69222 246.83859 244.73296 242.55133
 240.32770 238.11708 235.92245 233.74682 231.59219 229.44456 227.45593 225.59830
 223.86667 222.32405 220.93942 219.69679 218.56416 217.50953 216.59890 215.72527
 214.95264 214.11802 213.20139 212.55076 211.98613 212.22246 212.78082 213.20804
 213.76163 215.30380 216.61041 217.36160 218.90742 222.68901 228.31259 232.98665
 236.70215 240.54074 244.46767 248.22562 251.47203 254.36420 257.09613 259.79486
 262.20959 264.67712 267.19928 269.37296 271.40222 273.33224 275.07788 276.80853
 278.58737 280.33484 281.88342 283.24969 284.43387 285.48633 286.45105 287.32971
 288.12582 288.84225 289.47104 290.32364
 366.78100 356.32024 345.73747 334.58871 322.97694 311.15618 299.01141 286.79965
 274.49688 262.37912 250.37335 239.65959 229.76682 220.85606 213.02329 206.01053
 199.82977 194.75300 191.32024 189.34747 188.36971 188.41894 189.23918 190.53241
 192.24265 194.32288 196.57112 198.91535 201.34559 203.81082 205.88406 207.71130
 209.32253 210.45277 210.66700 210.88024 210.80247 210.49271 210.11094 209.72618
 209.32841 209.02365 208.81688 208.66612 208.57936 208.89559 209.26683 209.64106
 210.41930 211.58253 212.81777 214.58600 216.49924 218.52747 220.60771 222.67594
 224.72118 226.79041 228.87265 230.96389 233.07812 235.23536 237.47659 239.83183
 242.43806 244.67430 246.66153 248.41177 249.81400 250.92224 251.72947 252.03071
 252.05294 251.81218 251.15742 250.09065 248.68189 246.82812 244.72236 242.54059
 240.31683 238.10606 235.91130 233.73553 231.58077 229.43300 227.44424 225.58647
 223.85471 222.31195 220.92718 219.68442 218.55165 217.49689 216.58612 215.71236
 214.93959 214.10483 213.18806 212.53730 211.97253 212.22221 212.81213 213.32127
 213.87825 215.43260 216.76114 217.40132 218.95244 222.72063 228.28717 232.91476
 236.61549 240.46223 244.39546 248.12675 251.28967 254.15163 256.91907 259.65155
 262.06735 264.51071 267.01730 269.21634 271.29700 273.27148 275.03070 276.75583
 278.53635 280.29266 281.84369 283.21014 284.39645 285.45038 286.41809 287.29825
 288.09711 288.81512 289.44513 290.29968
 366.78100 356.32073 345.73847 334.59020 322.97894 311.15867 299.01441 286.80314
 274.50087 262.38361 250.37834 239.66508 229.77281 220.86255 213.03028 206.01801
 199.83775 194.76148 191.32922 189.35695 188.37969 188.42942 189.25015 190.54389
 192.25462 194.33536 196.58409 198.92883 201.35956 203.82529 205.89903 207.72676
 209.33850 210.46923 210.68397 210.89770 210.82043 210.51117 210.12990 209.74564
 209.34837 209.04411 208.83784 208.68758 208.60131 208.91804 209.28978 209.66451
 210.44325 211.60698 212.84272 214.61145 216.52518 218.55392 220.63465 222.70339
 224.74912 226.81886 228.90159 230.99332 233.10806 235.26579 237.50753 239.86326
 242.47000 244.70673 246.69446 248.44520 249.84793 250.95667 251.76440 252.06614
 252.08887 251.84860 251.19434 250.12807 248.71981 246.86654 244.76128 242.58001
 240.35674 238.14648 235.95221 233.77695 231.62268 229.47542 227.48715 225.62988
 223.89862 222.35635 220.97209 219.72982 218.59756 217.54329 216.63302 215.75976
 214.98749 214.15323 213.23696 212.58670 212.02243 212.25749 212.81288 213.44066
 214.00703 215.49992 216.94284 217.54941 219.04561 222.71935 228.23546 232.81451
 236.50507 240.36990 244.31578 248.02370 251.10895 253.94310 256.74609 259.51218
 261.93509 264.35352 266.83737 269.05890 271.19016 273.21243 274.98456 276.70828
 278.48755 280.24850 281.79999 283.16754 284.35367 285.40970 286.37701 287.25958
 288.05908 288.77649 289.40866 290.26413
 366.78100 356.32128 345.73955 334.59183 322.98111 311.16138 299.01766 286.80694
 274.50522 262.38849 250.38377 239.67105 229.77932 220.86960 213.03788 206.02615
 199.84643 194.77071 191.33898 189.36726 188.39054 188.44082 189.26209 190.55637
 192.26765 194.34892 196.59820 198.94348 201.37475 203.84103 205.91531 207.74358
 209.35586 210.48714 210.70241 210.91669 210.83997 210.53125 210.15052 209.76680
 209.37008 209.06635 208.86063 208.71091 208.62518 208.94246 209.31474 209.69001
 210.46929 211.63357 212.86985 214.63912 216.55340 218.58268 220.66395 222.73323
 224.77951 226.84978 228.93306 231.02534 233.14061 235.29889 237.54117 239.89745
 242.50472 244.74200 246.73028 248.48155 249.88483 250.99411 251.80238 252.10466
 252.12794 251.88821 251.23449 250.16877 248.76104 246.90832 244.80360 242.62288
 240.40015 238.19043 235.99671 233.82198 231.66826 229.52154 227.53381 225.67709
 223.94637 222.40464 221.02092 219.77920 218.64748 217.59375 216.68403 215.81131
 215.03958 214.20586 213.29014 212.64041 212.07669 212.29887 212.82379 213.53041
 214.15756 215.56407 217.08258 217.71155 219.15207 222.70682 228.17972 232.72528
 236.41382 240.29913 244.25409 247.93388 250.93913 253.73764 256.56934 259.36404
 261.79633 264.19196 266.65112 268.89795 271.08234 273.15591 274.94571 276.67563
 278.44263 280.20303 281.75580 283.12320 284.31046 285.36551 286.33313 287.21664
 288.01825 288.73419 289.36890 290.22977
 366.78100 356.32170 345.74041 334.59311 322.98282 311.16352 299.02023 286.80993
 274.50864 262.39234 250.38805 239.67575 229.78446 220.87516 213.04386 206.03257
 199.85327 194.77798 191.34668 189.37539 188.39909 188.44980 189.27150 190.56621
 192.27791 194.35962 196.60932 198.95502 201.38673 203.85343 205.92814 207.75684
 209.36955 210.50125 210.71696 210.93166 210.85537 210.54707 210.16678 209.78348
 209.38718 209.08389 208.87859 208.72930 208.64400 208.96171 209.33441 209.71012
 210.48982 211.65453 212.89123 214.66094 216.57564 218.60534 220.68705 222.75675
 224.80346 226.87416 228.95787 231.05057 233.16628 235.32498 237.56769 239.92439
 242.53210 244.76980 246.75850 248.51021 249.91391 251.02362 251.83232 252.13503
 252.15873 251.91944 251.26614 250.20085 248.79355 246.94126 244.83696 242.65666
 240.43437 238.22507 236.03178 233.85748 231.70419 229.55789 227.57060 225.71430
 223.98401 222.44271 221.05941 219.81812 218.68682 217.63353 216.72423 215.85194
 215.08064 214.24735 213.33205 212.68276 212.11946 212.33757 212.85286 213.59236
 214.32458 215.66093 217.15361 217.85611 219.27505 222.71013 228.13972 232.66522
 236.34473 240.24161 244.19351 247.83423 250.75468 253.51410 256.37296 259.19543
 261.64474 264.02737 266.46832 268.74927 270.99155 273.11801 274.92813 276.65631
 278.40045 280.15967 281.71234 283.08041 284.26743 285.32242 286.29022 287.17371
 287.97427 288.69589 289.32767 290.19147
 366.78100 356.32212 345.74124 334.59437 322.98449 311.16561 299.02273 286.81285
 274.51197 262.39610 250.39222 239.68034 229.78946 220.88058 213.04971 206.03883
 199.85995 194.78507 191.35419 189.38331 188.40744 188.45856 189.28068 190.57580
 192.28792 194.37004 196.62017 198.96629 201.39841 203.86553 205.94065 207.76978
 209.38290 210.51502 210.73114 210.94626 210.87038 210.56251 210.18263 209.79975
 209.40387 209.10099 208.89612 208.74724 208.66236 208.98048 209.35360 209.72972
 210.50985 211.67497 212.91209 214.68221 216.59733 218.62745 220.70958 222.77970
 224.82682 226.89794 228.98206 231.07519 233.19131 235.35043 237.59355 239.95067
 242.55879 244.79692 246.78604 248.53816 249.94228 251.05240 251.86153 252.16465
 252.18877 251.94989 251.29701 250.23213 248.82526 246.97338 244.86950 242.68962
 240.46774 238.25886 236.06599 233.89211 231.73923 229.59335 227.60647 225.75060
 224.02072 222.47984 221.09696 219.85608 218.72520 217.67233 216.76345 215.89157
 215.12069 214.28781 213.37294 212.72406 212.16118 212.37718 212.88750 213.65460
 214.49458 215.77568 217.17412 217.98267 219.42982 222.72868 228.11786 232.61183
 236.27138 240.17174 244.11244 247.70807 250.54733 253.27438 256.16397 259.01645
 261.49426 263.87564 266.30450 268.62485 270.92477 273.10489 274.93921 276.66367
 278.37747 280.12100 281.67090 283.03769 284.22513 285.28131 286.25092 287.13785
 287.94702 288.67407 289.31058 290.17514
 366.78100 356.32236 345.74172 334.59508 322.98544 311.16680 299.02416 286.81452
 274.51388 262.39824 250.39460 239.68296 229.79232 220.88368 213.05304 206.04240
 199.86375 194.78911 191.35847 189.38783 188.41219 188.46355 189.28591 190.58127
 192.29363 194.37599 196.62635 198.97271 201.40507 203.87243 205.94779 207.77715
 209.39051 210.52287 210.73923 210.95459 210.87895 210.57131 210.19167 209.80903
 209.41339 209.11075 208.90611 208.75747 208.67283 208.99119 209.36454 209.74090
 210.52126 211.68662 212.92398 214.69434 216.60970 218.64006 220.72242 222.79278
 224.84014 226.91150 228.99586 231.08922 233.20558 235.36494 237.60830 239.96566
 242.57402 244.81238 246.80174 248.55410 249.95846 251.06882 251.87818 252.18154
 252.20590 251.96726 251.31462 250.24998 248.84333 246.99169 244.88805 242.70841
 240.48677 238.27813 236.08549 233.91185 231.75921 229.61357 227.62693 225.77129
 224.04165 222.50101 221.11837 219.87773 218.74709 217.69445 216.78581 215.91417
 215.14353 214.31089 213.39625 212.74761 212.18497 212.40819 212.93559 213.73003
 214.64182 215.87671 217.17870 218.11253 219.61961 222.75919 228.11075 232.55507
 236.18820 240.09009 244.01651 247.56648 250.33302 253.03413 255.95372 258.83786
 261.35144 263.73703 266.15784 268.51678 270.86819 273.09494 274.95602 276.68210
 278.41110 280.07516 281.61758 282.98547 284.17307 285.23099 286.20087 287.08914
 287.89935 288.62677 289.26648 290.12973
 366.78100 356.32232 345.74164 334.59495 322.98527 311.16659 299.02391 286.81422
 274.51354 262.39786 250.39418 239.68249 229.79181 220.88313 213.05245 206.04177
 199.86308 194.78840 191.35772 189.38704 188.41135 188.46267 189.28499 190.58031
 192.29263 194.37494 196.62526 198.97158 201.40390 203.87121 205.94653 207.77585
 209.38917 210.52148 210.73780 210.95312 210.87744 210.56976 210.19007 209.80739
 209.41171 209.10903 208.90434 208.75566 208.67098 208.98930 209.36261 209.73893
 210.51925 211.68457 212.92189 214.69220 216.60752 218.63784 220.72016 222.79047
 224.83779 226.90911 228.99343 231.08674 233.20306 235.36238 237.60570 239.96302
 242.57133 244.80965 246.79897 248.55129 249.95560 251.06592 251.87524 252.17856
 252.20288 251.96419 251.31151 250.24683 248.84015 246.98846 244.88478 242.70510
 240.48342 238.27473 236.08205 233.90837 231.75569 229.61001 227.62332 225.76764
 224.03796 222.49728 221.11459 219.87391 218.74323 217.69055 216.78186 215.91018
 215.13950 214.30682 213.39214 212.74345 212.18077 212.42560 213.00403 213.81158
 214.75848 215.94597 217.19113 218.26762 219.83212 222.80826 228.10690 232.49879
 236.10849 240.01268 243.91982 247.42009 250.12068 252.79916 255.74352 258.65802
 261.21036 263.60416 266.02045 268.41418 270.80637 273.06845 274.94620 276.68082
 278.43045 280.03461 281.57315 282.94119 284.12973 285.18686 286.15707 287.04517
 287.85541 288.58365 289.22330 290.08725
 366.78100 356.32237 345.74175 334.59512 322.98550 311.16687 299.02425 286.81462
 274.51400 262.39837 250.39475 239.68312 229.79250 220.88387 213.05324 206.04262
 199.86399 194.78937 191.35874 189.38812 188.41249 188.46387 189.28624 190.58162
 192.29399 194.37637 196.62674 198.97311 201.40549 203.87286 205.94824 207.77761
 209.39099 210.52336 210.73974 210.95511 210.87949 210.57186 210.19224 209.80961
 209.41398 209.11136 208.90673 208.75811 208.67348 208.99186 209.36523 209.74161
 210.52198 211.68736 212.92473 214.69511 216.61048 218.64086 220.72323 222.79360
 224.84098 226.91235 228.99673 231.09010 233.20648 235.36585 237.60923 239.96660
 242.57498 244.81335 246.80273 248.55510 249.95947 251.06985 251.87922 252.18260
 252.20697 251.96835 251.31572 250.25110 248.84447 246.99285 244.88922 242.70960
 240.48797 238.27934 236.08672 233.91309 231.76047 229.61484 227.62822 225.77259
 224.04297 222.50234 221.11972 219.87909 218.74847 217.69584 216.78721 215.91559
 215.14496 214.31234 213.39771 212.74909 212.18646 212.44928 213.07021 213.88902
 214.86301 216.01355 217.24332 218.44151 220.03513 222.87177 228.09036 232.44269
 236.03014 239.93633 243.81589 247.25835 249.89903 252.56068 255.52777 258.47073
 261.06375 263.47598 265.89471 268.32150 270.74927 273.03580 274.92575 276.66461
 278.42715 280.00189 281.53741 282.90500 284.09436 285.14883 286.11954 287.00723
 287.81577 288.54388 289.18399 290.04285
 366.78100 356.32292 345.74284 334.59676 322.98768 311.16960 299.02752 286.81845
 274.51837 262.40329 250.40021 239.68913 229.79905 220.89097 213.06089 206.05081
 199.87273 194.79865 191.36857 189.39849 188.42341 188.47534 189.29826 190.59418
 192.30710 194.39002 196.64094 198.98786 201.42078 203.88870 205.96462 207.79454
 209.40846 210.54138 210.75831 210.97423 210.89915 210.59207 210.21299 209.83091
 209.43583 209.13375 208.92967 208.78159 208.69751 209.01643 209.39035 209.76727
 210.54820 211.71412 212.95204 214.72296 216.63888 218.66980 220.75272 222.82364
 224.87156 226.94348 229.02840 231.12232 233.23924 235.39916 237.64309 240.00101
 242.60993 244.84885 246.83877 248.59169 249.99661 251.10753 251.91745 252.22137
 252.24629 252.00821 251.35613 250.29206 248.88598 247.03490 244.93182 242.75274
 240.53166 238.32358 236.13150 233.95842 231.80634 229.66126 227.67518 225.82010
 224.09102 222.55095 221.16887 219.92879 218.79871 217.74663 216.83855 215.96747
 215.19739 214.36531 213.45123 212.80315 212.24107 212.49963 213.11053 213.95824
 214.97314 216.11725 217.34732 218.60574 220.20976 222.95064 228.05971 232.38713
 235.95087 239.85051 243.68774 247.06091 249.65390 252.30765 255.29901 258.26993
 260.90863 263.35419 265.78986 268.25693 270.71512 273.02014 274.92490 276.66193
 278.42432 279.97864 281.50809 282.87305 284.05969 285.11267 286.08163 286.96835
 287.77606 288.50745 289.14603 290.00671
 366.78100 356.32419 345.74537 334.60056 322.99274 311.17593 299.03512 286.82730
 274.52849 262.41468 250.41286 239.70305 229.81423 220.90742 213.07861 206.06979
 199.89298 194.82016 191.39135 189.42254 188.44872 188.50191 189.32610 190.62328
 192.33747 194.42165 196.67384 199.02203 201.45621 203.92540 206.00258 207.83377
 209.44896 210.58314 210.80133 211.01852 210.94470 210.63889 210.26107 209.88026
 209.48645 209.18563 208.98282 208.83600 208.75319 209.07338 209.44856 209.82675
 210.60894 211.77612 213.01531 214.78749 216.70468 218.73687 220.82105 222.89324
 224.94242 227.01561 229.10180 231.19698 233.31517 235.47635 237.72154 240.08073
 242.69091 244.93110 246.92229 248.67647 250.08266 251.19484 252.00603 252.31122
 252.33740 252.10059 251.44977 250.38696 248.98215 247.13233 245.03052 242.85271
 240.63289 238.42608 236.23526 234.06345 231.91264 229.76882 227.78401 225.93019
 224.20238 222.66357 221.28275 220.04394 218.91513 217.86431 216.95750 216.08768
 215.31887 214.48806 213.57524 212.92843 212.36761 212.58821 213.10938 214.03587
 215.08604 216.23915 217.48203 218.75560 220.37312 223.04944 228.03275 232.34442
 235.88121 239.75970 243.53621 246.82373 249.38150 252.03464 255.05132 258.05350
 260.74661 263.24216 265.71381 268.22211 270.70233 273.01849 274.93924 276.67380
 278.42761 279.97568 281.48230 282.84082 284.02423 285.07675 286.04428 286.93130
 287.74451 288.47269 289.11694 289.97592
 366.78100 356.32586 345.74871 334.60557 322.99942 311.18428 299.04513 286.83899
 274.54184 262.42970 250.42955 239.72141 229.83426 220.92912 213.10197 206.09483
 199.91968 194.84854 191.42139 189.45425 188.48210 188.53696 189.36281 190.66167
 192.37752 194.46338 196.71723 199.06709 201.50294 203.97380 206.05265 207.88551
 209.50236 210.63822 210.85807 211.07693 211.00478 210.70064 210.32449 209.94535
 209.55320 209.25406 209.05291 208.90777 208.82662 209.14848 209.52533 209.90519
 210.68904 211.85790 213.09875 214.87261 216.79146 218.82532 220.91117 222.98503
 225.03588 227.11074 229.19859 231.29545 233.41530 235.57816 237.82501 240.18587
 242.79772 245.03958 247.03243 248.78829 250.19614 251.31000 252.12285 252.42971
 252.45756 252.22242 251.57327 250.51213 249.10898 247.26084 245.16069 242.98455
 240.76640 238.56126 236.37211 234.20197 232.05282 229.91068 227.92753 226.07539
 224.34924 222.81210 221.43295 220.19581 219.06866 218.01952 217.11437 216.24623
 215.47908 214.64994 213.73879 213.09365 212.53450 212.69887 213.08720 214.11595
 215.19786 216.35968 217.62096 218.91148 220.55655 223.15794 228.02089 232.31244
 235.82370 239.66673 243.36630 246.55754 249.08720 251.74373 254.78593 257.82574
 260.58469 263.14441 265.66220 268.20361 270.69720 273.01917 274.95282 276.68686
 278.43106 280.01639 281.43008 282.78400 283.96979 285.02512 285.99402 286.88159
 287.69626 288.42923 289.07153 289.92178
 366.78100 356.32764 345.75229 334.61093 323.00658 311.19322 299.05586 286.85151
 274.55615 262.44579 250.44744 239.74108 229.85573 220.95237 213.12701 206.12166
 199.94830 194.87894 191.45359 189.48823 188.51788 188.57452 189.40216 190.70281
 192.42045 194.50809 196.76374 199.11538 201.55303 204.02567 206.10631 207.94096
 209.55960 210.69725 210.91889 211.13953 211.06918 210.76682 210.39246 210.01511
 209.62475 209.32740 209.12804 208.98468 208.90533 209.22897 209.60761 209.98926
 210.77490 211.94555 213.18819 214.96383 216.88448 218.92012 221.00776 223.08341
 225.13605 227.21270 229.30234 231.40098 233.52263 235.68727 237.93591 240.29856
 242.91220 245.15585 247.15049 248.90813 250.31778 251.43342 252.24807 252.55671
 252.58635 252.35300 251.70564 250.64628 249.24493 247.39857 245.30022 243.12586
 240.90950 238.70615 236.51879 234.35043 232.20308 230.06272 228.08137 226.23101
 224.50665 222.97130 221.59394 220.35858 219.23323 218.18587 217.28252 216.41616
 215.65080 214.82345 213.91409 213.27074 212.71338 212.81783 213.06461 214.17847
 215.31158 216.49255 217.76022 219.08047 220.75711 223.27196 228.01865 232.27748
 235.77167 239.57021 243.18118 246.26936 248.77231 251.43835 254.50699 257.58887
 260.42114 263.05289 265.61920 268.19055 270.69788 273.02551 274.97266 276.71072
 278.44406 280.03195 281.39719 282.74698 283.93286 284.98572 285.95166 286.84048
 287.65466 288.38956 289.03070 289.88068
 366.78100 356.32908 345.75516 334.61525 323.01233 311.20041 299.06449 286.86157
 274.56766 262.45874 250.46182 239.75690 229.87298 220.97107 213.14715 206.14323
 199.97131 194.90339 191.47947 189.51556 188.54664 188.60472 189.43380 190.73588
 192.45497 194.54405 196.80113 199.15421 201.59329 204.06738 206.14946 207.98554
 209.60562 210.74470 210.96779 211.18987 211.12095 210.82003 210.44711 210.07120
 209.68228 209.38636 209.18844 209.04652 208.96860 209.29369 209.67377 210.05685
 210.84393 212.01601 213.26010 215.03718 216.95926 218.99634 221.08542 223.16251
 225.21659 227.29467 229.38575 231.48583 233.60892 235.77500 238.02508 240.38916
 243.00424 245.24933 247.24541 249.00449 250.41557 251.53265 252.34874 252.65882
 252.68990 252.45798 251.81206 250.75414 249.35423 247.50931 245.41239 243.23947
 241.02455 238.82264 236.63672 234.46980 232.32388 230.18496 228.20505 226.35613
 224.63321 223.09929 221.72337 220.48946 219.36554 218.31962 217.41770 216.55278
 215.78887 214.96295 214.05503 213.41311 212.85719 212.92094 213.07158 214.20363
 215.42596 216.65186 217.89537 219.23831 220.96837 223.39044 228.03276 232.25031
 235.72302 239.46886 242.97998 245.96141 248.44176 251.12566 254.22366 257.35007
 260.25610 262.95987 265.57446 268.18207 270.70535 273.03793 275.00079 276.74832
 278.47244 280.06094 281.44342 282.70914 283.88123 284.92944 285.89371 286.77927
 287.59381 288.32648 288.94992 289.78253
 366.78100 356.33004 345.75708 334.61812 323.01616 311.20520 299.07024 286.86828
 274.57532 262.46736 250.47140 239.76745 229.88449 220.98353 213.16057 206.15761
 199.98665 194.91969 191.49673 189.53377 188.56581 188.62485 189.45489 190.75793
 192.47797 194.56801 196.82605 199.18009 201.62013 204.09517 206.17821 208.01526
 209.63630 210.77634 211.00038 211.22342 211.15546 210.85550 210.48354 210.10858
 209.72062 209.42566 209.22870 209.08774 209.01078 209.33682 209.71786 210.10190
 210.88994 212.06298 213.30802 215.08606 217.00911 219.04715 221.13719 223.21523
 225.27027 227.34931 229.44135 231.54239 233.66643 235.83347 238.08451 240.44955
 243.06559 245.31163 247.30867 249.06871 250.48075 251.59879 252.41583 252.72687
 252.75892 252.52796 251.88300 250.82604 249.42708 247.58312 245.48716 243.31520
 241.10124 238.90028 236.71532 234.54936 232.40440 230.26644 228.28748 226.43952
 224.71756 223.18460 221.80964 220.57668 219.45372 218.40877 217.50781 216.64385
 215.88089 215.05593 214.14897 213.50801 212.95305 212.99930 213.10857 214.21733
 215.52632 216.80194 218.04005 219.38708 221.14645 223.52017 228.05438 232.23340
 235.68799 239.38155 242.78763 245.65892 248.11639 250.81978 253.94725 257.11490
 260.08957 262.86429 265.53250 268.18085 270.71603 273.04407 275.01300 276.76950
 278.49124 280.07275 281.47070 282.67456 283.84381 284.89514 285.85941 286.74365
 287.56110 288.29245 288.91132 289.74173
 366.78100 356.33088 345.75876 334.62064 323.01952 311.20940 299.07528 286.87416
 274.58204 262.47492 250.47980 239.77668 229.89456 220.99444 213.17232 206.17020
 200.00008 194.93396 191.51184 189.54972 188.58260 188.64248 189.47336 190.77724
 192.49812 194.58900 196.84788 199.20276 201.64364 204.11952 206.20340 208.04128
 209.66316 210.80404 211.02892 211.25280 211.18568 210.88656 210.51544 210.14132
 209.75419 209.46007 209.26395 209.12383 209.04771 209.37459 209.75647 210.14135
 210.93023 212.10411 213.34999 215.12887 217.05275 219.09163 221.18251 223.26139
 225.31727 227.39715 229.49003 231.59191 233.71679 235.88467 238.13655 240.50243
 243.11931 245.36619 247.36407 249.12495 250.53783 251.65671 252.47459 252.78647
 252.81935 252.58923 251.94511 250.88899 249.49087 247.64775 245.55263 243.38151
 241.16839 238.96827 236.78415 234.61903 232.47491 230.33779 228.35967 226.51255
 224.79143 223.25931 221.88519 220.65307 219.53095 218.48683 217.58671 216.72359
 215.96147 215.13735 214.23123 213.59111 213.03699 213.07123 213.15210 214.22311
 215.66528 216.92494 218.07549 219.51622 221.37357 223.64204 228.11008 232.27797
 235.68854 239.32143 242.61269 245.35855 247.78137 250.50601 253.66481 256.87415
 259.91641 262.76718 265.49805 268.18567 270.72311 273.03519 275.00247 276.77039
 278.50064 280.08249 281.47528 282.65631 283.81485 284.85971 285.81754 286.70007
 287.51483 288.24075 288.85562 289.68036
 366.78100 356.33184 345.76068 334.62351 323.02335 311.21419 299.08103 286.88087
 274.58971 262.48354 250.48938 239.78722 229.90606 221.00690 213.18574 206.18457
 200.01541 194.95025 191.52909 189.56793 188.60177 188.66260 189.49444 190.79928
 192.52112 194.61296 196.87280 199.22863 201.67047 204.14731 206.23215 208.07099
 209.69382 210.83566 211.06150 211.28634 211.22018 210.92202 210.55185 210.17869
 209.79253 209.49937 209.30421 209.16505 209.08988 209.41772 209.80056 210.18640
 210.97624 212.15108 213.39791 215.17775 217.10259 219.14243 221.23427 223.31411
 225.37094 227.45178 229.54562 231.64846 233.77430 235.94313 238.19597 240.56281
 243.18065 245.42849 247.42733 249.18916 250.60300 251.72284 252.54168 252.85452
 252.88836 252.65919 252.01603 250.96087 249.56371 247.72155 245.62739 243.45722
 241.24506 239.04590 236.86274 234.69858 232.55542 230.41925 228.44209 226.59593
 224.87577 223.34461 221.97144 220.74028 219.61912 218.57596 217.67680 216.81464
 216.05347 215.23031 214.32515 213.68599 213.13283 213.14908 213.18744 214.25261
 215.73668 217.03654 218.16083 219.61267 221.57780 223.90216 228.19193 232.31914
 235.68741 239.25017 242.41171 245.02368 247.41586 250.17537 253.37627 256.63516
 259.75189 262.68539 265.47787 268.19394 270.72296 273.01505 274.98044 276.75916
 278.49567 280.07578 281.47638 282.64395 283.78961 284.82782 285.77982 286.65857
 287.47311 288.18982 288.80298 289.62396
 366.78100 356.33311 345.76321 334.62732 323.02842 311.22053 299.08863 286.88974
 274.59985 262.49495 250.50206 239.80116 229.92127 221.02337 213.20348 206.20359
 200.03569 194.97180 191.55190 189.59201 188.62711 188.68922 189.52232 190.82843
 192.55154 194.64464 196.90575 199.26285 201.70596 204.18406 206.27017 208.11028
 209.73438 210.87749 211.10459 211.33070 211.26580 210.96891 210.60002 210.22812
 209.84323 209.55133 209.35744 209.21954 209.14565 209.47476 209.85886 210.24597
 211.03707 212.21318 213.46128 215.24239 217.16849 219.20960 221.30271 223.38381
 225.44192 227.52402 229.61913 231.72323 233.85034 236.02045 238.27455 240.64266
 243.26176 245.51087 247.51097 249.27408 250.68919 251.81029 252.63040 252.94450
 252.97961 252.75171 252.10982 251.05593 249.66003 247.81914 245.72624 243.55735
 241.34645 239.14856 236.96667 234.80377 232.66188 230.52698 228.55109 226.70619
 224.98730 223.45740 222.08551 220.85562 219.73572 218.69383 217.79593 216.93504
 216.17514 215.35325 214.44936 213.81146 213.25957 213.24113 213.19760 214.32190
 215.79852 217.08362 218.30948 219.77411 221.74713 224.13457 228.25075 232.33917
 235.67430 239.16449 242.18845 244.67349 247.05562 249.86353 253.11174 256.41980
 259.60760 262.61710 265.45953 268.19333 270.71188 272.98206 274.94208 276.72818
 278.46884 280.04633 281.44522 282.61420 283.78137 284.82733 285.78256 286.66299
 287.47534 288.17990 288.79211 289.61011
 366.78100 356.33425 345.76549 334.63074 323.03299 311.22624 299.09548 286.89773
 274.60898 262.50522 250.51347 239.81372 229.93497 221.03821 213.21946 206.22071
 200.05395 194.99120 191.57245 189.61370 188.64994 188.71319 189.54744 190.85469
 192.57893 194.67318 196.93543 199.29367 201.73792 204.21717 206.30442 208.14566
 209.77091 210.91516 211.14340 211.37065 211.30690 211.01115 210.64339 210.27264
 209.88889 209.59813 209.40538 209.26863 209.19588 209.52612 209.91137 210.29962
 211.09186 212.26911 213.51836 215.30061 217.22785 219.27010 221.36435 223.44660
 225.50584 227.58909 229.68534 231.79058 233.91883 236.09008 238.34533 240.71457
 243.33482 245.58507 247.58631 249.35056 250.76681 251.88906 252.71030 253.02555
 253.06180 252.83504 252.19429 251.14154 249.74679 247.90703 245.81528 243.64753
 241.43777 239.24102 237.06027 234.89852 232.75776 230.62401 228.64926 226.80550
 225.08775 223.55900 222.18825 220.95949 219.84074 218.79999 217.90324 217.04348
 216.28473 215.46398 214.56122 213.92447 213.37372 213.32469 213.20883 214.39470
 215.88106 217.10129 218.44582 219.96294 221.89267 224.31674 228.29831 232.35037
 235.66351 239.07761 241.96989 244.34254 246.72893 249.58275 252.86797 256.21396
 259.46890 262.54901 265.43878 268.19116 270.70013 272.94791 274.90475 276.69788
 278.43866 280.01483 281.41519 282.61932 283.73264 284.76501 285.71478 286.59763
 287.42053 288.11771 288.73029 289.55310
 366.78100 356.33490 345.76679 334.63269 323.03558 311.22948 299.09937 286.90227
 274.61417 262.51106 250.51996 239.82085 229.94275 221.04664 213.22854 206.23044
 200.06433 195.00223 191.58412 189.62602 188.66291 188.72681 189.56170 190.86960
 192.59450 194.68939 196.95229 199.31118 201.75608 204.23597 206.32387 208.16577
 209.79166 210.93656 211.16545 211.39335 211.33024 211.03514 210.66804 210.29793
 209.91483 209.62472 209.43262 209.29651 209.22441 209.55531 209.94120 210.33010
 211.12299 212.30089 213.55078 215.33368 217.26158 219.30447 221.39937 223.48226
 225.54216 227.62605 229.72295 231.82885 233.95774 236.12964 238.38553 240.75543
 243.37632 245.62722 247.62911 249.39401 250.81091 251.93380 252.75570 253.07159
 253.10849 252.88238 252.24228 251.19018 249.79607 247.95697 245.86586 243.69876
 241.48965 239.29355 237.11345 234.95234 232.81224 230.67913 228.70503 226.86192
 225.14482 223.61672 222.24661 221.01851 219.90040 218.86030 217.96419 217.10509
 216.34699 215.52688 214.62478 213.98867 213.43857 213.38181 213.24768 214.45750
 215.95636 217.14178 218.55594 220.11554 222.02176 224.48576 228.37254 232.39128
 235.66016 238.99432 241.76852 244.02971 246.40375 249.29489 252.61412 256.00394
 259.32986 262.48132 265.41556 268.18390 270.68307 272.91129 274.86581 276.66159
 278.39496 279.96527 281.36563 282.56512 283.72675 284.77328 285.74249 286.61639
 287.38828 288.07312 288.67862 289.50110
 366.78100 356.33552 345.76804 334.63456 323.03808 311.23261 299.10313 286.90665
 274.61917 262.51669 250.52621 239.82773 229.95025 221.05477 213.23730 206.23982
 200.07434 195.01286 191.59538 189.63790 188.67542 188.73994 189.57547 190.88399
 192.60951 194.70503 196.96855 199.32807 201.77359 204.25411 206.34263 208.18516
 209.81168 210.95720 211.18672 211.41524 211.35276 211.05828 210.69180 210.32232
 209.93985 209.65037 209.45889 209.32341 209.25193 209.58345 209.96997 210.35949
 211.15301 212.33154 213.58206 215.36558 217.29410 219.33762 221.43314 223.51666
 225.57718 227.66170 229.75923 231.86575 233.99527 236.16779 238.42431 240.79483
 243.41635 245.66787 247.67040 249.43592 250.85344 251.97696 252.79948 253.11600
 253.15352 252.92804 252.28856 251.23709 249.84361 248.00513 245.91465 243.74817
 241.53969 239.34421 237.16473 235.00425 232.86478 230.73230 228.75882 226.91634
 225.19986 223.67238 222.30290 221.07542 219.95794 218.91847 218.02299 217.16451
 216.40703 215.58755 214.68607 214.05059 213.50111 213.43884 213.29173 214.50375
 216.03673 217.23569 218.67522 220.22697 222.11328 224.62862 228.47279 232.45657
 235.65530 238.88573 241.53484 243.70969 246.09241 249.01164 252.35997 255.80559
 259.21252 262.42786 265.40247 268.18909 270.68274 272.90060 274.85706 276.64621
 278.35770 279.91382 281.31201 282.56219 283.62695 284.66882 285.64105 286.51263
 287.26984 287.94769 288.55048 289.37943
 366.78100 356.33604 345.76909 334.63613 323.04017 311.23522 299.10626 286.91030
 274.62335 262.52139 250.53143 239.83348 229.95652 221.06156 213.24461 206.24765
 200.08269 195.02174 191.60478 189.64782 188.68587 188.75091 189.58695 190.89600
 192.62204 194.71808 196.98213 199.34217 201.78821 204.26926 206.35830 208.20134
 209.82839 210.97443 211.20447 211.43352 211.37156 211.07760 210.71165 210.34269
 209.96073 209.67178 209.48082 209.34586 209.27490 209.60695 209.99399 210.38403
 211.17808 212.35712 213.60816 215.39221 217.32125 219.36529 221.46134 223.54538
 225.60642 227.69147 229.78951 231.89655 234.02660 236.19964 238.45668 240.82773
 243.44977 245.70181 247.70486 249.47090 250.88894 252.01299 252.83603 253.15307
 253.19112 252.96616 252.32720 251.27625 249.88329 248.04533 245.95538 243.78942
 241.58146 239.38651 237.20755 235.04759 232.90864 230.77668 228.80372 226.96177
 225.24581 223.71885 222.34990 221.12294 220.00598 218.96703 218.07207 217.21411
 216.45716 215.63820 214.73724 214.10229 213.55333 213.49957 213.38968 214.48708
 216.08830 217.19017 218.66348 220.31100 222.19038 224.69542 228.48140 232.52133
 235.64688 238.85600 241.38203 243.38586 245.72632 248.71553 252.14821 255.67039
 259.13870 262.40134 265.39023 268.17468 270.67636 272.87973 274.84189 276.63318
 278.30850 279.85294 281.25577 282.43484 283.61017 284.67126 285.65921 286.55817
 287.35474 288.09283 288.73981 289.56427
 366.78100 356.33858 345.77417 334.64375 323.05034 311.24792 299.12151 286.92809
 274.64368 262.54426 250.55685 239.86143 229.98702 221.09460 213.28019 206.28577
 200.12336 195.06494 191.65053 189.69611 188.73670 188.80428 189.64287 190.95445
 192.68304 194.78162 197.04820 199.41079 201.85937 204.34296 206.43454 208.28013
 209.90971 211.05830 211.29088 211.52247 211.46305 211.17164 210.80822 210.44181
 210.06239 209.77598 209.58756 209.45515 209.38673 209.72132 210.11090 210.50349
 211.30007 212.48166 213.73524 215.52182 217.45341 219.49999 221.59858 223.68516
 225.74875 227.83633 229.93692 232.04650 234.17909 236.35467 238.61426 240.98784
 243.61243 245.86701 247.87260 249.64118 251.06177 252.18835 253.01394 253.33352
 253.37411 253.15169 252.51528 251.46686 250.07644 248.24103 246.15361 243.99020
 241.78478 239.59237 237.41595 235.25854 233.12212 230.99271 229.02229 227.18288
 225.46946 223.94505 222.57863 221.35422 220.23980 219.20339 218.31097 217.45556
 216.70114 215.88473 214.98631 214.35390 213.80748 213.67949 213.46617 214.48164
 216.01917 217.11432 218.77667 220.58751 222.48962 224.93015 228.63019 232.52399
 235.54442 238.61218 241.09097 243.16873 245.55833 248.56194 252.00330 255.58195
 259.09247 262.36340 265.35391 268.12784 270.61130 272.80814 274.78369 276.58914
 278.24628 279.76819 281.32721 282.72037 283.95764 285.13452 286.26636 287.29172
 288.21390 289.03513 289.75253 290.66678
 366.78100 356.34166 345.78033 334.65299 323.06266 311.26332 299.13999 286.94965
 274.66831 262.57198 250.58764 239.89531 230.02397 221.13463 213.32330 206.33196
 200.17263 195.11729 191.70596 189.75462 188.79828 188.86895 189.71061 191.02528
 192.75694 194.85860 197.12827 199.49393 201.94560 204.43226 206.52693 208.37559
 210.00825 211.15992 211.39558 211.63025 211.57391 211.28557 210.92524 210.56190
 210.18557 209.90223 209.71690 209.58756 209.52222 209.85989 210.25255 210.64822
 211.44788 212.63254 213.88921 215.67887 217.61354 219.66320 221.76487 223.85453
 225.92119 228.01186 230.11552 232.22819 234.36385 236.54251 238.80518 241.18184
 243.80951 246.06717 248.07584 249.84750 251.27116 252.40083 253.22949 253.55216
 253.59582 253.37648 252.74315 251.69781 250.31048 248.47814 246.39381 244.23347
 242.03113 239.84180 237.66846 235.51413 233.38079 231.25445 229.28712 227.45078
 225.74045 224.21911 222.85578 221.63444 220.52310 219.48977 218.60043 217.74810
 216.99676 216.18342 215.28809 214.65875 214.11542 213.89679 213.51711 214.41525
 216.09195 217.55099 219.20067 220.90004 222.70996 225.12227 228.82118 232.51132
 235.54089 238.48370 240.82690 242.80573 245.17079 248.27316 251.79900 255.43866
 258.95547 262.23053 265.24936 268.00153 270.44308 272.62189 274.66248 276.63773
 278.62625 280.44659 282.08112 283.66925 285.06366 286.29733 287.42291 288.44257
 289.35968 290.17633 290.88977 291.79895
 366.78100 356.34241 345.78182 334.65522 323.06563 311.26704 299.14445 286.95485
 274.67426 262.57867 250.59508 239.90348 230.03289 221.14430 213.33371 206.34311
 200.18452 195.12993 191.71934 189.76874 188.81315 188.88456 189.72697 191.04237
 192.77478 194.87719 197.14760 199.51400 201.96641 204.45382 206.54923 208.39864
 210.03204 211.18445 211.42086 211.65627 211.60067 211.31308 210.95349 210.59090
 210.21530 209.93271 209.74812 209.61953 209.55493 209.89334 210.28675 210.68316
 211.48356 212.66897 213.92638 215.71679 217.65219 219.70260 221.80501 223.89542
 225.96282 228.05423 230.15864 232.27205 234.40845 236.58786 238.85127 241.22868
 243.85709 246.11549 248.12490 249.89731 251.32172 252.45212 253.28153 253.60494
 253.64935 253.43075 252.79816 251.75357 250.36698 248.53538 246.45179 244.29220
 242.09061 239.90201 237.72942 235.57583 233.44324 231.31764 229.35105 227.51546
 225.80587 224.28527 222.92268 221.70209 220.59150 219.55891 218.67031 217.81872
 217.06813 216.25554 215.36094 214.73235 214.18976 213.97882 213.62689 214.45015
 216.08998 217.73590 219.43279 221.12849 222.89296 225.33096 228.92618 232.55710
 235.53162 238.41570 240.67975 242.59407 244.93800 248.05533 251.66699 255.30461
 258.79697 262.02927 264.98987 267.70331 270.16040 272.46075 274.69855 276.91815
 279.02301 280.87866 282.64136 284.20935 285.56631 286.76688 287.86221 288.85449
 289.74695 290.54169 291.23596 292.12073
 366.78100 356.34044 345.77789 334.64933 323.05778 311.25722 299.13267 286.94111
 274.65856 262.56100 250.57545 239.88189 230.00934 221.11878 213.30623 206.31367
 200.15312 195.09656 191.68401 189.73145 188.77390 188.84334 189.68379 190.99723
 192.72768 194.82812 197.09657 199.46101 201.91146 204.39690 206.49035 208.33779
 209.96924 211.11968 211.35412 211.58757 211.53001 211.24046 210.87890 210.51435
 210.13679 209.85224 209.66568 209.53513 209.46857 209.80502 210.19646 210.59091
 211.38935 212.57280 213.82824 215.61669 217.55013 219.59858 221.69902 223.78747
 225.85291 227.94236 230.04480 232.15625 234.29069 236.46814 238.72958 241.10503
 243.73147 245.98791 247.99536 249.76580 251.18825 252.31669 253.14414 253.46558
 253.50803 253.28747 252.65292 251.60636 250.21781 248.38425 246.29870 244.13714
 241.93359 239.74303 237.56848 235.41292 233.27837 231.15081 229.18226 227.34470
 225.63315 224.11059 222.74604 221.52348 220.41093 219.37637 218.48582 217.63226
 216.87971 216.06515 215.16859 214.53804 213.99348 213.88835 213.76369 214.61354
 216.13002 217.84991 219.55205 221.19913 222.93387 225.38799 228.88336 232.44556
 235.36362 238.13326 240.31410 242.13597 244.52081 247.84215 251.58719 255.25136
 258.77704 262.04117 265.05472 267.85535 270.33710 272.49902 274.41211 275.97830
 277.70032 279.51605 281.23029 282.93689 284.41382 285.72052 286.91269 287.99271
 288.96405 289.82904 290.58469 291.54767
 366.78100 356.33940 345.77580 334.64621 323.05361 311.25201 299.12641 286.93381
 274.65022 262.55162 250.56502 239.87042 229.99682 221.10523 213.29163 206.29803
 200.13643 195.07884 191.66524 189.71164 188.75304 188.82144 189.66085 190.97325
 192.70265 194.80205 197.06945 199.43286 201.88226 204.36666 206.45906 208.30546
 209.93587 211.08527 211.31867 211.55107 211.49247 211.20188 210.83928 210.47368
 210.09508 209.80948 209.62189 209.49029 209.42269 209.75809 210.14849 210.54190
 211.33930 212.52170 213.77610 215.56351 217.49591 219.54331 221.64271 223.73011
 225.79452 227.88292 229.98432 232.09472 234.22812 236.40453 238.66493 241.03933
 243.66473 245.92013 247.92654 249.69594 251.11734 252.24474 253.07114 253.39155
 253.43295 253.21135 252.57575 251.52815 250.13856 248.30396 246.21736 244.05476
 241.85016 239.65857 237.48297 235.32637 233.19077 231.06218 229.09258 227.25398
 225.54138 224.01778 222.65219 221.42859 220.31499 219.27939 218.38779 217.53320
 216.77960 215.96400 215.06640 214.43480 213.88921 213.81467 213.74101 214.91469
 216.23296 217.54167 219.54559 221.30930 222.99496 225.31616 228.81914 232.22127
 234.98640 237.64946 239.87131 241.90154 244.40073 247.73811 251.48526 255.17720
 258.71655 261.98843 264.98996 267.74625 270.16327 272.24710 274.08051 275.69513
 277.18243 278.63333 280.16345 281.55862 282.80740 284.03830 285.19479 286.24249
 287.18478 288.02390 288.75696 289.69110
 366.78100 356.34072 345.77844 334.65016 323.05889 311.25861 299.13433 286.94305
 274.66077 262.56349 250.57821 239.88494 230.01266 221.12238 213.31010 206.31782
 200.15754 195.10127 191.68899 189.73671 188.77943 188.84915 189.68987 191.00359
 192.73432 194.83504 197.10376 199.46848 201.91920 204.40492 206.49864 208.34637
 209.97809 211.12881 211.36353 211.59725 211.53997 211.25070 210.88942 210.52514
 210.14786 209.86358 209.67730 209.54702 209.48075 209.81747 210.20919 210.60391
 211.40263 212.58635 213.84207 215.63080 217.56452 219.61324 221.71396 223.80268
 225.86840 227.95812 230.06085 232.17257 234.30729 236.48501 238.74673 241.12245
 243.74918 246.00590 248.01362 249.78434 251.20706 252.33578 253.16350 253.48523
 253.52795 253.30767 252.67339 251.62711 250.23883 248.40555 246.32028 244.15900
 241.95572 239.76544 237.59116 235.43588 233.30160 231.17433 229.20605 227.36877
 225.65749 224.13521 222.77093 221.54866 220.43638 219.40210 218.51182 217.65854
 216.90626 216.09198 215.19571 214.56543 214.02115 213.88979 213.61737 214.92093
 216.75854 217.60880 219.56215 221.41069 223.07643 225.22256 228.71059 232.11981
 234.93985 237.49374 239.52927 241.45277 244.03169 247.60222 251.45935 255.17702
 258.73615 261.99481 264.92786 267.61823 269.97147 271.97937 273.75491 275.39758
 276.90359 278.36151 279.83786 281.20563 282.39325 283.44861 284.41898 285.30658
 286.15170 286.90979 287.57205 288.41602
 366.78100 356.34112 345.77923 334.65135 323.06046 311.26058 299.13669 286.94581
 274.66392 262.56704 250.58215 239.88927 230.01739 221.12750 213.31562 206.32373
 200.16385 195.10796 191.69608 189.74419 188.78731 188.85742 189.69854 191.01266
 192.74377 194.84489 197.11400 199.47912 201.93023 204.41635 206.51046 208.35858
 209.99069 211.14181 211.37693 211.61104 211.55416 211.26527 210.90439 210.54050
 210.16362 209.87973 209.69385 209.56397 209.49808 209.83520 210.22731 210.62243
 211.42154 212.60566 213.86177 215.65089 217.58500 219.63412 221.73524 223.82435
 225.89047 227.98058 230.08370 232.19581 234.33093 236.50904 238.77116 241.14727
 243.77439 246.03151 248.03962 249.81074 251.23385 252.36297 253.19108 253.51320
 253.55631 253.33643 252.70254 251.65666 250.26878 248.43589 246.35101 244.19012
 241.98724 239.79735 237.62347 235.46858 233.33470 231.20781 229.23993 227.40305
 225.69216 224.17028 222.80639 221.58451 220.47262 219.43874 218.54885 217.69597
 216.94409 216.13020 215.23432 214.60443 214.06055 213.93547 213.63998 214.82805
 217.12386 217.92226 219.67361 221.48886 223.19882 225.35077 228.75945 232.13297
 234.89534 237.32588 239.21016 241.08966 243.75745 247.55209 251.42293 255.15924
 258.72501 261.96591 264.82111 267.50781 269.81680 271.76651 273.51181 275.18069
 276.78769 278.29935 279.77170 281.13129 282.30515 283.34296 284.29529 285.17435
 285.98801 286.69250 287.31506 288.10883
 366.78100 356.34135 345.77970 334.65205 323.06140 311.26175 299.13810 286.94745
 274.66580 262.56915 250.58450 239.89185 230.02020 221.13055 213.31890 206.32725
 200.16760 195.11196 191.70031 189.74866 188.79201 188.86236 189.70371 191.01806
 192.74941 194.85076 197.12011 199.48546 201.93681 204.42316 206.51751 208.36586
 209.99821 211.14956 211.38491 211.61926 211.56261 211.27396 210.91331 210.54966
 210.17301 209.88936 209.70371 209.57406 209.50841 209.84576 210.23811 210.63346
 211.43281 212.61716 213.87352 215.66287 217.59722 219.64657 221.74792 223.83727
 225.90362 227.99397 230.09732 232.20967 234.34502 236.52337 238.78572 241.16207
 243.78942 246.04677 248.05512 249.82647 251.24982 252.37917 253.20752 253.52987
 253.57322 253.35357 252.71992 251.67427 250.28662 248.45397 246.36932 244.20867
 242.00602 239.81637 237.64272 235.48808 233.35443 231.22778 229.26013 227.42348
 225.71283 224.19118 222.82753 221.60588 220.49423 219.46058 218.57093 217.71828
 216.96663 216.15298 215.25733 214.62768 214.08403 213.98148 213.74326 214.77315
 217.18019 218.24094 219.77428 221.50342 223.21489 225.36636 228.71016 232.13695
 234.77466 237.05400 238.83595 240.73701 243.56880 247.40315 251.28070 255.06578
 258.66196 261.89056 264.75458 267.42630 269.71298 271.65265 273.41614 275.10925
 276.73511 278.25305 279.70212 281.05035 282.23053 283.27994 284.23770 285.12430
 285.93051 286.65784 287.29272 288.10184
 366.78100 356.34134 345.77968 334.65202 323.06136 311.26170 299.13803 286.94737
 274.66571 262.56905 250.58439 239.89173 230.02007 221.13041 213.31875 206.32709
 200.16743 195.11177 191.70010 189.74844 188.79178 188.86212 189.70346 191.01780
 192.74914 194.85048 197.11982 199.48516 201.93650 204.42284 206.51717 208.36551
 209.99785 211.14919 211.38453 211.61887 211.56221 211.27355 210.91289 210.54923
 210.17257 209.88891 209.70324 209.57358 209.50792 209.84526 210.23760 210.63294
 211.43228 212.61662 213.87296 215.66230 217.59664 219.64598 221.74731 223.83665
 225.90299 227.99333 230.09667 232.20901 234.34435 236.52269 238.78503 241.16137
 243.78871 246.04605 248.05438 249.82572 251.24906 252.37840 253.20674 253.52908
 253.57242 253.35276 252.71910 251.67344 250.28578 248.45312 246.36845 244.20779
 242.00513 239.81547 237.64181 235.48715 233.35349 231.22683 229.25917 227.42251
 225.71185 224.19019 222.82652 221.60486 220.49320 219.45954 218.56988 217.71722
 216.96556 216.15190 215.25624 214.62658 214.08292 214.02216 213.92047 214.84364
 216.88506 218.22826 219.86307 221.65373 223.40894 225.50900 228.68121 232.14314
 234.55586 236.71063 238.51131 240.59790 243.58130 247.28015 251.19296 255.02379
 258.59857 261.81381 264.71198 267.35239 269.65222 271.62314 273.38947 275.02966
 276.53864 278.05170 279.59534 280.97092 282.17163 283.24860 284.25702 285.21826
 286.08282 286.85269 287.52527 288.38235
 366.78100 356.33904 345.77508 334.64511 323.05215 311.25019 299.12423 286.93127
 274.64731 262.54834 250.56138 239.86642 229.99246 221.10050 213.28654 206.29257
 200.13061 195.07265 191.65869 189.70473 188.74577 188.81380 189.65284 190.96488
 192.69392 194.79296 197.06000 199.42303 201.87207 204.35611 206.44815 208.29419
 209.92423 211.07326 211.30630 211.53834 211.47938 211.18842 210.82546 210.45949
 210.08053 209.79457 209.60661 209.47465 209.40668 209.74172 210.13176 210.52480
 211.32184 212.50388 213.75791 215.54495 217.47699 219.52403 221.62307 223.71011
 225.77414 227.86218 229.96322 232.07326 234.20630 236.38234 238.64237 241.01641
 243.64145 245.89649 247.90253 249.67157 251.09260 252.21964 253.04568 253.36572
 253.40676 253.18480 252.54883 251.50087 250.11091 248.27595 246.18899 244.02602
 241.82106 239.62910 237.45314 235.29618 233.16022 231.03125 229.06129 227.22233
 225.50937 223.98541 222.61945 221.39548 220.28152 219.24556 218.35360 217.49864
 216.74468 215.92871 215.03075 214.39879 213.85283 213.92889 214.13878 214.99153
 216.64626 218.13898 220.01810 221.88974 223.63220 225.68918 228.77327 232.19464
 234.48148 236.50537 238.24770 240.35904 243.37585 247.18896 251.13396 254.97711
 258.54663 261.74399 264.64108 267.30338 269.58810 271.49170 273.16788 274.76740
 276.30386 277.86948 279.41779 280.79391 281.99463 283.07236 284.08789 285.05435
 285.92358 286.69763 287.37384 288.23557
 366.78100 356.33708 345.77116 334.63925 323.04433 311.24041 299.11249 286.91758
 274.63166 262.53074 250.54182 239.84490 229.96899 221.07507 213.25915 206.26323
 200.09932 195.03940 191.62348 189.66756 188.70665 188.77273 189.60981 190.91989
 192.64697 194.74406 197.00914 199.37022 201.81730 204.29939 206.38947 208.23355
 209.86163 211.00871 211.23980 211.46988 211.40896 211.11604 210.75113 210.38321
 210.00229 209.71437 209.52446 209.39054 209.32062 209.65370 210.04178 210.43287
 211.22795 212.40803 213.66011 215.44520 217.37528 219.42036 221.51744 223.60252
 225.66461 227.75069 229.84977 231.95785 234.08894 236.26302 238.52110 240.89318
 243.51627 245.76935 247.77343 249.54051 250.95959 252.08468 252.90876 253.22684
 253.26592 253.04201 252.40409 251.35417 249.96225 248.12533 246.03642 243.87150
 241.66458 239.47066 237.29275 235.13383 232.99591 230.86499 228.89307 227.05216
 225.33724 223.81132 222.44340 221.21749 220.10157 219.06365 218.16973 217.31282
 216.55690 215.73898 214.83906 214.20514 213.65723 213.83337 214.24956 215.18274
 216.77118 218.27235 220.18144 222.01007 223.70869 225.80708 228.92136 232.12735
 234.36337 236.21304 237.91849 240.10138 243.19138 247.04042 251.02901 254.89935
 258.49792 261.70282 264.55646 267.21387 269.48111 271.35410 273.00073 274.59113
 276.17978 277.77625 279.32318 280.69449 281.88562 282.94290 283.90936 284.79855
 285.60983 286.34015 286.98407 287.80466
 366.78100 356.33623 345.76946 334.63669 323.04091 311.23614 299.10737 286.91160
 274.62483 262.52306 250.53328 239.83551 229.95874 221.06397 213.24720 206.25043
 200.08565 195.02488 191.60811 189.65134 188.68957 188.75480 189.59102 190.90025
 192.62648 194.72271 196.98694 199.34717 201.79339 204.27462 206.36385 208.20708
 209.83431 210.98054 211.21077 211.43999 211.37822 211.08445 210.71868 210.34991
 209.96814 209.67936 209.48859 209.35382 209.28305 209.61528 210.00251 210.39273
 211.18696 212.36619 213.61742 215.40165 217.33088 219.37510 221.47133 223.55556
 225.61679 227.70202 229.80025 231.90747 234.03770 236.21093 238.46816 240.83939
 243.46162 245.71384 247.71707 249.48330 250.90153 252.02576 252.84899 253.16622
 253.20444 252.97967 252.34090 251.29013 249.89736 248.05959 245.96981 243.80404
 241.59627 239.40150 237.22273 235.06296 232.92418 230.79241 228.81964 226.97787
 225.26210 223.73533 222.36655 221.13978 220.02301 218.98424 218.08947 217.23170
 216.47492 215.65615 214.75538 214.12061 213.57184 213.80792 214.36569 215.32068
 216.87473 218.43739 220.34547 222.11079 223.78433 225.90092 228.97417 232.03307
 234.17511 235.86334 237.51154 239.80495 243.07124 246.96181 250.98279 254.85921
 258.44507 261.63452 264.47052 267.12616 269.38248 271.25665 272.92099 274.52274
 276.11115 277.67554 279.19794 280.56531 281.75204 282.80493 283.76736 284.64548
 285.44492 286.16318 286.77805 287.57007
 366.78100 356.33556 345.76811 334.63467 323.03822 311.23278 299.10333 286.90689
 274.61944 262.51700 250.52655 239.82811 229.95066 221.05522 213.23777 206.24033
 200.07489 195.01344 191.59600 189.63855 188.67611 188.74066 189.57622 190.88477
 192.61033 194.70588 196.96944 199.32899 201.77455 204.25510 206.34366 208.18621
 209.81277 210.95833 211.18788 211.41644 211.35399 211.05955 210.69310 210.32366
 209.94121 209.65177 209.46032 209.32488 209.25343 209.58499 209.97154 210.36110
 211.15466 212.33321 213.58377 215.36732 217.29588 219.33943 221.43499 223.51854
 225.57910 227.66365 229.76121 231.86776 233.99732 236.16987 238.42643 240.79699
 243.41854 245.67010 247.67265 249.43821 250.85576 251.97932 252.80187 253.11843
 253.15598 252.93054 252.29109 251.23965 249.84620 248.00776 245.91731 243.75087
 241.54243 239.34698 237.16754 235.00709 232.86765 230.73520 228.76176 226.91931
 225.20287 223.67542 222.30598 221.07853 219.96109 218.92164 218.02620 217.16776
 216.41031 215.59087 214.68942 214.05398 213.50453 213.79921 214.49542 215.43469
 216.87627 218.46600 220.47141 222.22963 223.88715 226.00977 229.03273 231.99352
 234.00880 235.55080 237.16849 239.57266 242.97061 246.91232 250.94858 254.82773
 258.40427 261.57730 264.40012 267.03516 269.26089 271.11758 272.77658 274.39090
 276.01117 277.58325 279.09875 280.46338 281.64941 282.70023 283.66315 284.54120
 285.33978 286.05338 286.67435 287.47281
 366.78100 356.33439 345.76577 334.63116 323.03354 311.22693 299.09632 286.89870
 274.61009 262.50647 250.51486 239.81525 229.93663 221.04002 213.22140 206.22279
 200.05618 194.99356 191.57495 189.61633 188.65272 188.71611 189.55049 190.85788
 192.58226 194.67665 196.93904 199.29742 201.74181 204.22120 206.30858 208.14997
 209.77535 210.91974 211.14813 211.37551 211.31190 211.01628 210.64867 210.27806
 209.89444 209.60383 209.41121 209.27460 209.20199 209.53237 209.91776 210.30614
 211.09853 212.27592 213.52530 215.30769 217.23507 219.27746 221.37185 223.45423
 225.51362 227.59700 229.69339 231.79878 233.92716 236.09855 238.35393 240.72332
 243.34371 245.59409 247.59548 249.35986 250.77625 251.89864 252.72002 253.03541
 253.07179 252.84518 252.20457 251.15195 249.75734 247.91772 245.82611 243.65850
 241.44888 239.25227 237.07166 234.91004 232.76943 230.63581 228.66120 226.81759
 225.09997 223.57136 222.20074 220.97213 219.85352 218.81290 217.91629 217.05667
 216.29806 215.47745 214.57483 213.93822 213.38760 213.76178 214.64583 215.58719
 216.87413 218.44891 220.55528 222.34088 223.98488 226.09229 229.08246 231.94609
 233.83646 235.25479 236.86873 239.38693 242.87427 246.85692 250.90553 254.78784
 258.35529 261.51263 264.32672 266.95175 269.15933 270.96088 272.51096 274.27493
 275.92496 277.51871 279.02960 280.39066 281.57382 282.62430 283.58661 284.46201
 285.25891 285.97278 286.59622 287.40891
 366.78100 356.33326 345.76352 334.62778 323.02904 311.22130 299.08956 286.89082
 274.60108 262.49634 250.50360 239.80286 229.92312 221.02538 213.20564 206.20590
 200.03816 194.97442 191.55468 189.59494 188.63020 188.69247 189.52573 190.83199
 192.55525 194.64851 196.90977 199.26703 201.71029 204.18855 206.27481 208.11507
 209.73933 210.88259 211.10985 211.33611 211.27137 210.97463 210.60589 210.23415
 209.84941 209.55767 209.36393 209.22619 209.15245 209.48171 209.86597 210.25323
 211.04449 212.22075 213.46901 215.25027 217.17653 219.21779 221.31105 223.39231
 225.45057 227.53283 229.62809 231.73235 233.85961 236.02987 238.28414 240.65240
 243.27166 245.52092 247.52118 249.28444 250.69970 251.82096 252.64122 252.95548
 252.99074 252.76300 252.12126 251.06752 249.67178 247.83104 245.73830 243.56956
 241.35882 239.16108 236.97934 234.81660 232.67486 230.54012 228.56438 226.71964
 225.00090 223.47116 222.09942 220.86968 219.74994 218.70820 217.81046 216.94972
 216.18998 215.36824 214.46450 213.82676 213.27502 213.72168 214.77693 215.75072
 216.91090 218.44833 220.62604 222.45232 224.08353 226.14989 229.10667 231.87860
 233.63997 234.94174 236.56708 239.20747 242.79103 246.80156 250.86130 254.74965
 258.31418 261.46603 264.27792 266.90576 269.08942 270.80231 272.24231 274.12677
 275.87833 277.46753 278.97388 280.32895 281.50500 282.54846 283.50430 284.37546
 285.16629 285.87369 286.49011 287.27722
 366.78100 356.33264 345.76227 334.62591 323.02655 311.21819 299.08582 286.88646
 274.59610 262.49073 250.49737 239.79601 229.91564 221.01728 213.19692 206.19656
 200.02819 194.96383 191.54347 189.58310 188.61774 188.67938 189.51202 190.81765
 192.54029 194.63293 196.89356 199.25020 201.69284 204.17048 206.25611 208.09575
 209.71939 210.86202 211.08866 211.31430 211.24893 210.95157 210.58221 210.20985
 209.82448 209.53212 209.33776 209.19939 209.12503 209.45367 209.83731 210.22394
 211.01458 212.19022 213.43785 215.21849 217.14413 219.18476 221.27740 223.35804
 225.41568 227.49731 229.59195 231.69559 233.82222 235.99186 238.24550 240.61314
 243.23177 245.48041 247.48005 249.24268 250.65732 251.77796 252.59760 252.91123
 252.94587 252.71751 252.07514 251.02078 249.62442 247.78305 245.68969 243.52033
 241.30897 239.11060 236.92824 234.76488 232.62251 230.48715 228.51079 226.66543
 224.94606 223.41570 222.04334 220.81297 219.69261 218.65025 217.75189 216.89052
 216.13016 215.30780 214.40343 213.76507 213.21271 213.70776 214.87738 215.88765
 216.99757 218.49414 220.70030 222.53990 224.14265 226.15251 229.07060 231.80583
 233.41754 234.59515 236.24167 239.01216 242.70993 246.74908 250.81371 254.71574
 258.29156 261.44974 264.24814 266.86935 269.03619 270.72214 272.07016 273.98254
 275.75940 277.37634 278.89160 280.25204 281.43457 282.48364 283.44147 284.31616
 285.11359 285.82443 286.44287 287.23602
 366.78100 356.33234 345.76169 334.62503 323.02537 311.21672 299.08406 286.88440
 274.59375 262.48809 250.49443 239.79278 229.91212 221.01346 213.19281 206.19215
 200.02349 194.95884 191.53818 189.57752 188.61187 188.67321 189.50555 190.81090
 192.53324 194.62558 196.88593 199.24227 201.68461 204.16196 206.24730 208.08664
 209.70999 210.85233 211.07867 211.30402 211.23836 210.94070 210.57105 210.19839
 209.81273 209.52008 209.32542 209.18676 209.11211 209.44045 209.82379 210.21014
 211.00048 212.17582 213.42317 215.20351 217.12885 219.16920 221.26154 223.34188
 225.39923 227.48057 229.57491 231.67826 233.80460 235.97394 238.22729 240.59463
 243.21297 245.46132 247.46066 249.22300 250.63735 251.75769 252.57703 252.89038
 252.92472 252.69606 252.05341 250.99875 249.60209 247.76044 245.66678 243.49712
 241.28547 239.08681 236.90415 234.74050 232.59784 230.46218 228.48553 226.63987
 224.92021 223.38956 222.01690 220.78624 219.66559 218.62293 217.72427 216.86262
 216.10196 215.27930 214.37465 213.73599 213.18333 213.71733 214.97900 215.99280
 217.07898 218.48802 220.72969 222.60123 224.18604 226.12340 228.97626 231.76901
 233.21703 234.28406 235.92210 238.78784 242.58066 246.71848 250.81505 254.71687
 258.28308 261.43585 264.23090 266.80402 268.95422 270.65540 272.14026 273.89746
 275.60416 277.22986 278.74661 280.11383 281.30133 282.36032 283.32306 284.21332
 285.01883 285.74619 286.38345 287.19556
 366.78100 356.33233 345.76167 334.62500 323.02533 311.21667 299.08400 286.88433
 274.59367 262.48800 250.49433 239.79267 229.91200 221.01333 213.19267 206.19200
 200.02333 194.95867 191.53800 189.57733 188.61167 188.67300 189.50533 190.81067
 192.53300 194.62533 196.88567 199.24200 201.68433 204.16166 206.24700 208.08633
 209.70966 210.85200 211.07833 211.30366 211.23800 210.94033 210.57066 210.19800
 209.81233 209.51966 209.32500 209.18633 209.11166 209.44000 209.82333 210.20966
 211.00000 212.17533 213.42266 215.20300 217.12833 219.16866 221.26100 223.34133
 225.39866 227.48000 229.57433 231.67766 233.80400 235.97333 238.22666 240.59400
 243.21233 245.46066 247.46000 249.22233 250.63666 251.75700 252.57633 252.88966
 252.92400 252.69533 252.05266 250.99800 249.60133 247.75966 245.66600 243.49633
 241.28466 239.08600 236.90333 234.73966 232.59699 230.46133 228.48466 226.63899
 224.91933 223.38866 222.01599 220.78533 219.66466 218.62199 217.72333 216.86166
 216.10099 215.27833 214.37366 213.73499 213.18233 213.73911 215.05583 216.09732
 217.14908 218.46082 220.74162 222.64993 224.23615 226.09581 228.88232 231.70509
 233.02045 234.04449 235.69856 238.64410 242.48598 246.70709 250.84256 254.73557
 258.27161 261.40509 264.21017 266.74789 268.86566 270.54898 272.13406 273.85345
 275.50974 277.08429 278.59769 279.97412 281.17734 282.25562 283.25293 284.15814
 284.97986 285.72247 286.37122 287.19794
 366.78100 356.33230 345.76160 334.62491 323.02521 311.21651 299.08381 286.88412
 274.59342 262.48772 250.49402 239.79233 229.91163 221.01293 213.19223 206.19154
 200.02284 194.95814 191.53744 189.57675 188.61105 188.67235 189.50465 190.80996
 192.53226 194.62456 196.88486 199.24117 201.68347 204.16077 206.24607 208.08538
 209.70868 210.85098 211.07728 211.30259 211.23689 210.93919 210.56949 210.19680
 209.81110 209.51840 209.32370 209.18501 209.11031 209.43861 209.82191 210.20822
 210.99852 212.17382 213.42112 215.20142 217.12673 219.16703 221.25933 223.33963
 225.39694 227.47824 229.57254 231.67584 233.80215 235.97145 238.22475 240.59205
 243.21036 245.45866 247.45796 249.22026 250.63457 251.75487 252.57417 252.88747
 252.92178 252.69308 252.05038 250.99568 249.59899 247.75729 245.66359 243.49389
 241.28220 239.08350 236.90080 234.73710 232.59441 230.45871 228.48201 226.63631
 224.91662 223.38592 222.01322 220.78252 219.66183 218.61913 217.72043 216.85873
 216.09804 215.27534 214.37064 213.73194 213.17924 213.75591 215.12062 216.18858
 217.24417 218.53311 220.78842 222.66344 224.21423 226.02644 228.76152 231.54507
 232.69563 233.74040 235.54286 238.61206 242.53847 246.76541 250.90628 254.78732
 258.30661 261.44293 264.27371 266.80023 268.88477 270.62784 272.25238 273.89029
 275.51178 277.10510 278.49146 279.72318 280.89914 281.96555 282.97125 283.90417
 284.74634 285.49631 286.15149 286.98642
 366.78100 356.33270 345.76240 334.62610 323.02680 311.21850 299.08620 286.88690
 274.59660 262.49130 250.49800 239.79670 229.91640 221.01810 213.19780 206.19750
 200.02920 194.96490 191.54460 189.58430 188.61900 188.68071 189.51341 190.81911
 192.54181 194.63451 196.89521 199.25191 201.69461 204.17231 206.25801 208.09771
 209.72141 210.86411 211.09081 211.31651 211.25121 210.95391 210.58461 210.21231
 209.82701 209.53471 209.34041 209.20211 209.12781 209.45651 209.84021 210.22691
 211.01761 212.19331 213.44101 215.22171 217.14741 219.18811 221.28081 223.36151
 225.41921 227.50091 229.59561 231.69931 233.82601 235.99572 238.24942 240.61712
 243.23582 245.48452 247.48422 249.24692 250.66162 251.78232 252.60202 252.91572
 252.95042 252.72212 252.07982 251.02552 249.62922 247.78792 245.69462 243.52532
 241.31402 239.11572 236.93342 234.77012 232.62782 230.49252 228.51622 226.67092
 224.95162 223.42132 222.04902 220.81872 219.69842 218.65612 217.75782 216.89652
 216.13622 215.31392 214.40962 213.77132 213.21902 213.79840 215.17520 216.30797
 217.31819 218.59727 220.83635 222.67461 224.20511 226.00514 228.64467 231.24094
 232.32784 233.54997 235.55148 238.70282 242.63086 246.84021 250.97404 254.84692
 258.34970 261.47522 264.32349 266.87549 268.90256 270.62042 272.27872 273.91504
 275.56641 277.17224 278.47546 279.68881 280.86182 281.94229 283.02359 284.01398
 284.90469 285.69788 286.39081 287.27383
 366.78100 356.33334 345.76367 334.62801 323.02934 311.22168 299.09001 286.89135
 274.60168 262.49702 250.50435 239.80369 229.92402 221.02636 213.20669 206.20703
 200.03937 194.97570 191.55604 189.59637 188.63171 188.69404 189.52738 190.83371
 192.55705 194.65038 196.91172 199.26905 201.71239 204.19072 206.27706 208.11739
 209.74173 210.88507 211.11240 211.33874 211.27407 210.97741 210.60874 210.23708
 209.85241 209.56075 209.36708 209.22942 209.15575 209.48509 209.86942 210.25676
 211.04810 212.22443 213.47277 215.25410 217.18044 219.22177 221.31511 223.39644
 225.45478 227.53711 229.63245 231.73678 233.86412 236.03445 238.28879 240.65712
 243.27646 245.52580 247.52613 249.28947 250.70480 251.82614 252.64647 252.96081
 252.99614 252.76848 252.12681 251.07315 249.67748 247.83682 245.74415 243.57549
 241.36483 239.16716 236.98550 234.82283 232.68117 230.54650 228.57084 226.72617
 225.00751 223.47784 222.10618 220.87651 219.75685 218.71518 217.81752 216.95686
 216.19719 215.37553 214.47186 213.83420 213.28253 213.84486 215.19075 216.37619
 217.54799 218.84679 220.99820 222.78635 224.27461 226.00098 228.57817 230.99513
 232.05164 233.36775 235.53406 238.75783 242.70903 246.91656 251.05270 254.92883
 258.43176 261.53552 264.37076 266.89642 268.91827 270.66986 272.31711 273.92615
 275.56448 276.99075 278.18854 279.54440 280.84195 282.09018 283.22897 284.26065
 285.18854 286.01483 286.73666 287.65656
 366.78100 356.33191 345.76082 334.62372 323.02363 311.21454 299.08145 286.88136
 274.59026 262.48417 250.49008 239.78799 229.90690 221.00780 213.18671 206.18562
 200.01653 194.95144 191.53034 189.56925 188.60316 188.66407 189.49598 190.80088
 192.52279 194.61470 196.87461 199.23052 201.67242 204.14933 206.23424 208.07315
 209.69606 210.83796 211.06387 211.28878 211.22269 210.92460 210.55450 210.18141
 209.79532 209.50223 209.30714 209.16804 209.09295 209.42086 209.80377 210.18968
 210.97958 212.15449 213.40140 215.18131 217.10622 219.14612 221.23803 223.31794
 225.37485 227.45576 229.54966 231.65257 233.77848 235.94739 238.20030 240.56720
 243.18511 245.43302 247.43193 249.19384 250.60774 251.72765 252.54656 252.85947
 252.89338 252.66428 252.02119 250.96610 249.56901 247.72692 245.63282 243.46273
 241.25064 239.05155 236.86846 234.70436 232.56127 230.42518 228.44809 226.60200
 224.88190 223.35081 221.97772 220.74663 219.62554 218.58244 217.68335 216.82126
 216.06017 215.23708 214.33199 213.69289 213.13980 213.78815 215.31296 216.39354
 217.59875 219.01093 221.12090 222.86258 224.30478 225.98503 228.53912 230.78958
 231.84961 233.28975 235.48486 238.74762 242.73630 246.96724 251.13164 255.03368
 258.54672 261.63742 264.49533 267.08243 269.11526 270.79239 272.28604 273.95078
 275.58118 276.88071 278.18250 279.56335 280.92639 282.24860 283.45486 284.54770
 285.53058 286.40582 287.17041 288.14481
 366.78100 356.33058 345.75817 334.61975 323.01833 311.20791 299.07350 286.87208
 274.57966 262.47225 250.47683 239.77341 229.89100 220.99058 213.16816 206.16574
 199.99533 194.92891 191.50649 189.54408 188.57666 188.63624 189.46682 190.77041
 192.49099 194.58157 196.84016 199.19474 201.63532 204.11091 206.19449 208.03207
 209.65365 210.79424 211.01882 211.24240 211.17499 210.87557 210.50415 210.12973
 209.74232 209.44790 209.25148 209.11107 209.03465 209.36123 209.74282 210.12740
 210.91598 212.08956 213.33515 215.11373 217.03731 219.07590 221.16648 223.24506
 225.30064 227.38023 229.47281 231.57439 233.69898 235.86656 238.11814 240.48373
 243.10031 245.34689 247.34447 249.10506 250.51764 251.63622 252.45381 252.76539
 252.79797 252.56755 251.92314 250.86672 249.46830 247.62489 245.52947 243.35805
 241.14463 238.94422 236.75980 234.59438 232.44997 230.31255 228.33413 226.48672
 224.76530 223.23288 221.85846 220.62605 219.50363 218.45921 217.55880 216.69538
 215.93296 215.10854 214.20213 213.56171 213.00729 213.73267 215.43140 216.51979
 217.62390 219.12755 221.20499 222.92137 224.34648 226.03641 228.51518 230.49088
 231.54788 233.06200 235.31593 238.67076 242.71513 246.97842 251.15599 255.04460
 258.53168 261.65201 264.54565 267.15063 269.20599 270.82266 272.29721 274.00452
 275.66379 276.97403 278.30765 279.69525 281.05307 282.45306 283.73035 284.88748
 285.92819 286.85495 287.66455 288.69629
 366.78100 356.33134 345.75967 334.62201 323.02134 311.21168 299.07801 286.87735
 274.58569 262.47902 250.48436 239.78169 229.90003 221.00037 213.17870 206.17704
 200.00737 194.94171 191.52004 189.55838 188.59172 188.65205 189.48339 190.78772
 192.50906 194.60040 196.85973 199.21507 201.65640 204.13274 206.21707 208.05541
 209.67775 210.81908 211.04442 211.26875 211.20209 210.90342 210.53276 210.15910
 209.77243 209.47877 209.28310 209.14344 209.06778 209.39511 209.77745 210.16278
 210.95212 212.12645 213.37279 215.15213 217.07646 219.11580 221.20713 223.28647
 225.34281 227.42314 229.51648 231.61881 233.74415 235.91248 238.16482 240.53116
 243.14849 245.39583 247.39416 249.15550 250.56883 251.68817 252.50651 252.81884
 252.85218 252.62251 251.97885 250.92319 249.52552 247.68286 245.58819 243.41753
 241.20486 239.00520 236.82154 234.65687 232.51321 230.37654 228.39888 226.55222
 224.83155 223.29989 221.92622 220.69456 219.57289 218.52923 217.62957 216.76690
 216.00524 215.18157 214.27591 213.63624 213.08258 213.79144 215.45937 216.66086
 217.89026 219.51321 221.41467 223.02888 224.41000 226.02351 228.48221 230.00009
 231.13687 232.65262 235.04195 238.54529 242.68582 246.99492 251.18489 255.05275
 258.49930 261.61279 264.50836 267.05225 269.12271 270.71057 272.24045 273.88495
 275.49002 277.16064 278.87775 280.61600 282.12033 283.45126 284.66553 285.76556
 286.75494 287.63599 288.40564 289.38651
 366.78100 356.33312 345.76323 334.62735 323.02847 311.22058 299.08870 286.88982
 274.59993 262.49505 250.50217 239.80128 229.92140 221.02352 213.20363 206.20375
 200.03587 194.97198 191.55210 189.59222 188.62733 188.68945 189.52257 190.82868
 192.55180 194.64492 196.90603 199.26315 201.70627 204.18438 206.27050 208.11062
 209.73473 210.87785 211.10497 211.33108 211.26620 210.96932 210.60043 210.22855
 209.84367 209.55178 209.35790 209.22002 209.14613 209.47525 209.85937 210.24648
 211.03760 212.21372 213.46183 215.24295 217.16907 219.21018 221.30330 223.38442
 225.44253 227.52465 229.61977 231.72388 233.85100 236.02112 238.27523 240.64335
 243.26247 245.51158 247.51170 249.27482 250.68993 251.81105 252.63117 252.94528
 252.98040 252.75252 252.11063 251.05675 249.66087 247.81998 245.72710 243.55822
 241.34733 239.14945 236.96757 234.80468 232.66280 230.52792 228.55203 226.70715
 224.98827 223.45838 222.08650 220.85662 219.73673 218.69485 217.79697 216.93608
 216.17620 215.35432 214.45043 213.81255 213.26067 213.89970 215.43559 216.76685
 218.14288 219.74417 221.55548 223.19189 224.49626 225.80592 228.60980 229.64290
 230.75732 232.42378 234.99147 238.61470 242.76466 247.05261 251.24046 255.13031
 258.53595 261.59726 264.45468 266.96268 268.90604 270.52798 272.28214 274.04013
 275.80844 278.07864 280.06775 281.81433 283.32587 284.66318 285.88324 286.98856
 287.98267 288.86795 289.64130 290.62683
 366.78100 356.33426 345.76553 334.63079 323.03306 311.22632 299.09558 286.89785
 274.60911 262.50538 250.51364 239.81390 229.93517 221.03843 213.21970 206.22096
 200.05422 194.99149 191.57275 189.61402 188.65028 188.71354 189.54781 190.85507
 192.57934 194.67360 196.93586 199.29413 201.73839 204.21766 206.30492 208.14618
 209.77145 210.91571 211.14397 211.37124 211.30750 211.01177 210.64403 210.27329
 209.88956 209.59882 209.40609 209.26935 209.19661 209.52688 209.91214 210.30041
 211.09267 212.26993 213.51920 215.30146 217.22873 219.27099 221.36525 223.44752
 225.50678 227.59005 229.68631 231.79157 233.91984 236.09110 238.34637 240.71563
 243.33589 245.58616 247.58742 249.35169 250.76795 251.89021 252.71148 253.02674
 253.06301 252.83627 252.19553 251.14280 249.74806 247.90833 245.81659 243.64885
 241.43912 239.24238 237.06165 234.89991 232.75917 230.62544 228.65070 226.80697
 225.08923 223.56049 222.18976 220.96102 219.84228 218.80155 217.90481 217.04508
 216.28634 215.46560 214.56287 213.92613 213.37540 213.97096 215.43053 216.86372
 218.32347 219.86655 221.66298 223.30402 224.58012 225.80487 228.36685 229.38588
 230.40985 232.17609 234.89072 238.60040 242.77281 247.05542 251.22812 255.09840
 258.52689 261.57797 264.38068 266.88345 268.80304 270.53485 272.29672 273.99884
 275.69714 277.80103 279.66373 281.29932 282.71478 283.96710 285.10968 286.14474
 287.07568 287.90469 288.62888 289.55179
 366.78100 356.33229 345.76158 334.62487 323.02516 311.21645 299.08374 286.88403
 274.59332 262.48761 250.49390 239.79219 229.91148 221.01277 213.19206 206.19135
 200.02264 194.95793 191.53722 189.57651 188.61080 188.67209 189.50438 190.80967
 192.53196 194.62425 196.88454 199.24083 201.68312 204.16041 206.24570 208.08499
 209.70828 210.85057 211.07686 211.30215 211.23644 210.93873 210.56902 210.19631
 209.81060 209.51789 209.32318 209.18447 209.10976 209.43805 209.82134 210.20763
 210.99792 212.17321 213.42050 215.20079 217.12608 219.16637 221.25866 223.33895
 225.39625 227.47754 229.57183 231.67512 233.80141 235.97070 238.22399 240.59128
 243.20957 245.45786 247.45715 249.21944 250.63373 251.75402 252.57331 252.88660
 252.92089 252.69218 252.04947 250.99476 249.59805 247.75634 245.66263 243.49292
 241.28121 239.08250 236.89979 234.73608 232.59337 230.45766 228.48095 226.63524
 224.91553 223.38482 222.01211 220.78140 219.66069 218.61798 217.71927 216.85756
 216.09685 215.27414 214.36943 213.73072 213.17801 213.87831 215.55533 216.95787
 218.33170 219.89185 221.72205 223.32910 224.64426 225.95595 228.13692 229.22142
 230.09471 231.79956 234.61368 238.49727 242.72635 247.01889 251.18506 255.02396
 258.42322 261.39725 264.27261 266.83002 268.91971 270.41592 272.16055 273.94498
 275.52191 277.30511 279.11295 280.72241 282.11526 283.34756 284.47186 285.49039
 286.40646 287.22220 287.93484 288.84299
 366.78100 356.32970 345.75641 334.61711 323.01482 311.20352 299.06823 286.86593
 274.57264 262.46434 250.46805 239.76375 229.88046 220.97916 213.15587 206.15257
 199.98128 194.91398 191.49069 189.52739 188.55910 188.61780 189.44751 190.75021
 192.46992 194.55962 196.81733 199.17103 201.61074 204.08544 206.16815 208.00485
 209.62556 210.76526 210.98897 211.21167 211.14338 210.84308 210.47079 210.09549
 209.70720 209.41190 209.21461 209.07331 208.99602 209.32172 209.70243 210.08613
 210.87384 212.04654 213.29125 215.06895 216.99166 219.02936 221.11907 223.19677
 225.25148 227.33018 229.42189 231.52259 233.64630 235.81300 238.06371 240.42841
 243.04412 245.28982 247.28653 249.04623 250.45794 251.57564 252.39235 252.70305
 252.73476 252.50346 251.85817 250.80087 249.40158 247.55728 245.46099 243.28869
 241.07440 238.87310 236.68781 234.52151 232.37622 230.23792 228.25863 226.41033
 224.68804 223.15474 221.77945 220.54615 219.42286 218.37756 217.47626 216.61197
 215.84867 215.02338 214.11608 213.47479 212.91949 213.73515 215.66924 217.10136
 218.28500 219.79625 221.67552 223.27167 224.62007 226.02556 228.02835 229.23398
 230.02603 231.75031 234.64297 238.51099 242.76328 247.08458 251.25912 255.10915
 258.51273 261.47668 264.26727 266.87598 269.01968 270.52829 272.05829 273.87683
 275.34259 276.95081 278.55817 280.15549 281.56421 282.81058 283.94766 284.97781
 285.90433 286.72937 287.45010 288.36862
 366.78100 356.33142 345.75984 334.62226 323.02169 311.21211 299.07853 286.87795
 274.58637 262.47979 250.48521 239.78264 229.90106 221.00148 213.17990 206.17832
 200.00874 194.94316 191.52159 189.56001 188.59343 188.65385 189.48527 190.78969
 192.51111 194.60254 196.86196 199.21738 201.65880 204.13522 206.21964 208.05806
 209.68049 210.82191 211.04733 211.27175 211.20517 210.90659 210.53601 210.16243
 209.77586 209.48228 209.28670 209.14712 209.07154 209.39896 209.78138 210.16681
 210.95623 212.13065 213.37707 215.15649 217.08091 219.12033 221.21176 223.29118
 225.34760 227.42802 229.52144 231.62386 233.74928 235.91771 238.17013 240.53655
 243.15397 245.40139 247.39981 249.16123 250.57466 251.69408 252.51250 252.82492
 252.85834 252.62876 251.98518 250.92961 249.53203 247.68945 245.59487 243.42429
 241.21171 239.01213 236.82856 234.66398 232.52040 230.38382 228.40624 226.55966
 224.83908 223.30751 221.93393 220.70235 219.58077 218.53719 217.63761 216.77503
 216.01346 215.18988 214.28430 213.64472 213.09114 213.80650 215.56636 217.28540
 218.56741 219.98035 221.71701 223.16785 224.43733 225.85541 227.77800 228.87347
 229.71230 231.57146 234.62428 238.57466 242.87990 247.24901 251.44971 255.32150
 258.72440 261.72656 264.54907 267.11548 269.27740 270.49649 272.21021 273.87482
 275.44583 277.08044 278.67789 280.29843 281.72952 282.99570 284.15085 285.19739
 286.13861 286.97675 287.70895 288.64206
 366.78100 356.33548 345.76796 334.63444 323.03793 311.23241 299.10289 286.90637
 274.61885 262.51633 250.52582 239.82730 229.94978 221.05426 213.23674 206.23922
 200.07371 195.01219 191.59467 189.63715 188.67463 188.73911 189.57460 190.88308
 192.60856 194.70404 196.96752 199.32700 201.77249 204.25297 206.34145 208.18393
 209.81041 210.95589 211.18538 211.41386 211.35134 211.05682 210.69030 210.32078
 209.93826 209.64875 209.45723 209.32171 209.25019 209.58167 209.96815 210.35764
 211.15112 212.32960 213.58008 215.36356 217.29204 219.33553 221.43101 223.51449
 225.57497 227.65945 229.75693 231.86342 233.99290 236.16538 238.42186 240.79234
 243.41382 245.66531 247.66779 249.43327 250.85075 251.97423 252.79671 253.11319
 253.15068 252.92516 252.28564 251.23412 249.84060 248.00208 245.91157 243.74505
 241.53653 239.34101 237.16149 235.00097 232.86146 230.72894 228.75542 226.91290
 225.19638 223.66886 222.29935 221.07183 219.95431 218.91479 218.01927 217.16075
 216.40324 215.58372 214.68220 214.04668 213.49716 214.01530 215.38904 217.33566
 219.01434 220.44353 221.97298 223.20955 224.33403 225.69926 227.45699 228.32434
 229.16159 231.11501 234.35350 238.44820 242.87540 247.29280 251.52777 255.42796
 258.87091 261.96832 264.78064 267.32028 269.45380 270.54791 272.15765 273.91177
 275.65118 277.40009 279.13846 280.80045 282.23874 283.51129 284.67227 285.72406
 286.67001 287.51242 288.24829 289.18610
 366.78100 356.33642 345.76983 334.63725 323.04167 311.23708 299.10850 286.91292
 274.62634 262.52475 250.53517 239.83759 229.96100 221.06642 213.24984 206.25325
 200.08867 195.02809 191.61151 189.65492 188.69334 188.75876 189.59517 190.90459
 192.63101 194.72742 196.99184 199.35226 201.79868 204.28009 206.36951 208.21293
 209.84034 210.98676 211.21718 211.44659 211.38501 211.09143 210.72585 210.35726
 209.97568 209.68710 209.49651 209.36193 209.29135 209.62376 210.01118 210.40160
 211.19602 212.37543 213.62685 215.41127 217.34068 219.38510 221.48152 223.56593
 225.62735 227.71277 229.81118 231.91860 234.04902 236.22244 238.47985 240.85127
 243.47369 245.72610 247.72952 249.49594 250.91435 252.03877 252.86219 253.17961
 253.21802 252.99344 252.35486 251.30427 249.91169 248.07411 245.98452 243.81894
 241.61136 239.41678 237.23819 235.07861 232.94003 230.80844 228.83586 226.99428
 225.27869 223.75211 222.38353 221.15695 220.04036 219.00178 218.10720 217.24961
 216.49303 215.67445 214.77386 214.13928 213.59070 214.07982 215.36041 217.23521
 219.18010 220.79842 222.27074 223.40738 224.43495 225.77271 227.30963 228.07594
 228.80544 230.74937 234.09380 238.28656 242.74626 247.16177 251.38774 255.27686
 258.73996 261.83560 264.64059 267.23093 269.42578 270.82663 272.09552 274.15439
 276.01904 277.81638 279.47226 281.12259 282.55081 283.81439 284.96722 286.01163
 286.95096 287.78741 288.51813 289.44937
 366.78100 356.33580 345.76860 334.63540 323.03920 311.23400 299.10480 286.90860
 274.62140 262.51920 250.52899 239.83079 229.95359 221.05839 213.24119 206.24399
 200.07879 195.01759 191.60039 189.64319 188.68099 188.74579 189.58159 190.89039
 192.61619 194.71199 196.97579 199.33559 201.78138 204.26218 206.35098 208.19378
 209.82058 210.96638 211.19618 211.42498 211.36278 211.06858 210.70238 210.33318
 209.95098 209.66178 209.47058 209.33538 209.26418 209.59598 209.98278 210.37257
 211.16637 212.34517 213.59597 215.37977 217.30857 219.35237 221.44817 223.53197
 225.59277 227.67757 229.77537 231.88217 234.01197 236.18477 238.44157 240.81237
 243.43417 245.68596 247.68876 249.45456 250.87236 251.99616 252.81896 253.13576
 253.17356 252.94836 252.30916 251.25796 249.86476 248.02656 245.93636 243.77016
 241.56196 239.36676 237.18756 235.02736 232.88815 230.75595 228.78275 226.94055
 225.22435 223.69715 222.32795 221.10075 219.98355 218.94435 218.04915 217.19095
 216.43375 215.61455 214.71335 214.07815 213.52895 214.05518 215.39482 217.22641
 219.17487 220.87054 222.43318 223.59036 224.52829 225.80557 227.29039 227.96587
 228.67427 230.57175 233.97446 238.21964 242.69168 247.09715 251.30499 255.17722
 258.62286 261.68585 264.47900 267.05630 269.33548 271.02350 272.21735 274.07916
 276.14960 277.95636 279.55704 281.07718 282.51642 283.78979 284.95154 286.00400
 286.95059 287.79352 288.52988 289.46829
 366.78100 356.33685 345.77070 334.63854 323.04339 311.23924 299.11109 286.91593
 274.62978 262.52863 250.53948 239.84232 229.96617 221.07202 213.25587 206.25971
 200.09556 195.03541 191.61926 189.66310 188.70195 188.76780 189.60465 190.91449
 192.64134 194.73819 197.00304 199.36388 201.81073 204.29258 206.38243 208.22628
 209.85412 211.00097 211.23182 211.46167 211.40051 211.10736 210.74221 210.37406
 209.99290 209.70475 209.51460 209.38045 209.31029 209.64314 210.03099 210.42184
 211.21668 212.39653 213.64838 215.43323 217.36307 219.40792 221.50477 223.58962
 225.65146 227.73731 229.83616 231.94401 234.07486 236.24870 238.50655 240.87840
 243.50125 245.75409 247.75794 249.52479 250.94364 252.06848 252.89233 253.21018
 253.24903 253.02487 252.38672 251.33657 249.94442 248.10726 246.01811 243.85296
 241.64581 239.45165 237.27350 235.11435 232.97620 230.84504 228.87289 227.03174
 225.31659 223.79044 222.42228 221.19613 220.07998 219.04183 218.14767 217.29052
 216.53437 215.71622 214.81606 214.18191 213.63376 214.11786 215.38109 217.26155
 219.32768 221.03897 222.62799 223.72807 224.57568 225.77509 227.14412 227.76456
 228.33237 230.31801 233.86127 238.18713 242.69971 247.14127 251.36038 255.23904
 258.66821 261.71671 264.50006 267.08130 269.32028 271.07089 272.37744 274.13892
 276.18048 278.00671 279.64124 281.29211 282.73822 284.01764 285.18491 286.24237
 287.19345 288.04037 288.78024 289.72311
 366.78100 356.33866 345.77433 334.64399 323.05065 311.24832 299.12198 286.92864
 274.64431 262.54497 250.55764 239.86230 229.98796 221.09563 213.28129 206.28695
 200.12462 195.06628 191.65194 189.69761 188.73827 188.80593 189.64460 190.95626
 192.68492 194.78359 197.05025 199.41292 201.86158 204.34524 206.43691 208.28257
 209.91223 211.06090 211.29356 211.52522 211.46589 211.17455 210.81121 210.44488
 210.06554 209.77920 209.59087 209.45853 209.39020 209.72486 210.11452 210.50719
 211.30385 212.48551 213.73918 215.52584 217.45750 219.50417 221.60283 223.68949
 225.75316 227.84082 229.94148 232.05115 234.18381 236.35948 238.61914 240.99280
 243.61747 245.87213 247.87779 249.64646 251.06712 252.19378 253.01945 253.33911
 253.37977 253.15744 252.52110 251.47277 250.08243 248.24709 246.15976 243.99642
 241.79108 239.59875 237.42241 235.26507 233.12874 230.99940 229.02906 227.18973
 225.47639 223.95205 222.58572 221.36138 220.24705 219.21071 218.31837 217.46304
 216.70870 215.89236 214.99403 214.36169 213.81535 214.22878 215.35513 217.25102
 219.51176 221.34492 222.87086 223.81441 224.59671 225.73700 227.06395 227.54578
 227.86731 229.94850 233.67519 238.10446 242.66846 247.13443 251.37407 255.26797
 258.68927 261.79056 264.56595 267.12503 269.37265 271.14539 272.47552 274.29608
 276.39252 278.26953 280.16501 281.87210 283.34946 284.65656 285.84906 286.92941
 287.90106 288.76633 289.52219 290.48544
 366.78100 356.33920 345.77540 334.64559 323.05279 311.25099 299.12519 286.93238
 274.64858 262.54978 250.56298 239.86818 229.99437 221.10257 213.28877 206.29497
 200.13316 195.07536 191.66156 189.70776 188.74895 188.81715 189.65635 190.96855
 192.69775 194.79694 197.06414 199.42734 201.87654 204.36073 206.45293 208.29913
 209.92933 211.07853 211.31172 211.54392 211.48512 211.19432 210.83151 210.46571
 210.08691 209.80111 209.61331 209.48150 209.41370 209.74890 210.13910 210.53229
 211.32949 212.51169 213.76589 215.55308 217.48528 219.53248 221.63168 223.71888
 225.78307 227.87127 229.97247 232.08267 234.21586 236.39206 238.65226 241.02646
 243.65166 245.90685 247.91305 249.68225 251.10345 252.23064 253.05684 253.37704
 253.41824 253.19644 252.56063 251.51283 250.12303 248.28823 246.20142 244.03862
 241.83382 239.64202 237.46622 235.30941 233.17361 231.04481 229.07501 227.23620
 225.52340 223.99960 222.63380 221.40999 220.29619 219.26039 218.36859 217.51379
 216.75998 215.94418 215.04638 214.41458 213.86877 214.27065 215.34796 217.19006
 219.58441 221.55586 223.03824 223.94978 224.70117 225.78851 226.92065 227.25018
 227.69919 229.83264 233.58574 238.01935 242.59879 247.06412 251.29402 255.17813
 258.63739 261.74060 264.55817 267.12027 269.42514 271.42624 272.97476 274.43671
 276.45798 278.29907 280.03043 281.71759 283.17767 284.46945 285.64804 286.71576
 287.67603 288.53116 289.27820 290.23019
 366.78100 356.33867 345.77435 334.64402 323.05070 311.24837 299.12204 286.92872
 274.64439 262.54507 250.55774 239.86241 229.98809 221.09576 213.28144 206.28711
 200.12479 195.06646 191.65213 189.69781 188.73848 188.80616 189.64483 190.95650
 192.68518 194.78385 197.05053 199.41320 201.86187 204.34555 206.43722 208.28290
 209.91257 211.06124 211.29392 211.52559 211.46627 211.17494 210.81161 210.44529
 210.06596 209.77964 209.59131 209.45898 209.39066 209.72533 210.11501 210.50768
 211.30435 212.48603 213.73970 215.52638 217.45805 219.50473 221.60340 223.69007
 225.75375 227.84142 229.94210 232.05177 234.18444 236.36012 238.61979 240.99347
 243.61814 245.87281 247.87849 249.64716 251.06784 252.19451 253.02018 253.33986
 253.38053 253.15821 252.52188 251.47355 250.08323 248.24790 246.16058 243.99725
 241.79192 239.59960 237.42327 235.26595 233.12962 231.00030 229.02997 227.19064
 225.47732 223.95299 222.58667 221.36234 220.24801 219.21169 218.31936 217.46404
 216.70971 215.89338 214.99506 214.36273 213.81641 214.25655 215.38278 217.13373
 219.55986 221.65378 223.17868 224.09845 224.82739 225.83751 226.84032 226.92722
 227.53743 229.66681 233.46410 237.93854 242.52388 246.99896 251.23901 255.13084
 258.59906 261.69522 264.50778 267.07428 269.40335 271.45084 273.24557 274.75980
 276.48523 278.29193 279.88318 281.34335 282.75522 284.00433 285.14398 286.17642
 287.10498 287.93188 288.65424 289.57477
 366.78100 356.33716 345.77132 334.63949 323.04465 311.24081 299.11297 286.91813
 274.63230 262.53146 250.54262 239.84578 229.96994 221.07610 213.26027 206.26443
 200.10059 195.04075 191.62491 189.66908 188.70824 188.77440 189.61156 190.92172
 192.64889 194.74605 197.01121 199.37237 201.81953 204.30170 206.39186 208.23602
 209.86418 211.01134 211.24251 211.47267 211.41183 211.11899 210.75415 210.38631
 210.00548 209.71764 209.52780 209.39396 209.32412 209.65729 210.04545 210.43661
 211.23177 212.41193 213.66410 215.44926 217.37942 219.42458 221.52174 223.60691
 225.66907 227.75523 229.85439 231.96255 234.09371 236.26788 238.52604 240.89820
 243.52136 245.77452 247.77869 249.54585 250.96501 252.09017 252.91433 253.23250
 253.27166 253.04782 252.40998 251.36014 249.96831 248.13147 246.04263 243.87779
 241.67095 239.47712 237.29928 235.14044 233.00260 230.87176 228.89992 227.05909
 225.34425 223.81841 222.45057 221.22473 220.10890 219.07106 218.17722 217.32038
 216.56454 215.74671 214.84687 214.21303 213.66519 214.19453 215.49178 217.08165
 219.43803 221.75075 223.35388 224.24194 224.95534 225.92372 226.88449 226.63866
 227.29836 229.42139 233.30969 237.83055 242.43730 246.92595 251.17093 255.07262
 258.56720 261.67343 264.47842 267.03098 269.35175 271.40094 273.21838 274.84683
 276.57822 278.37628 279.94571 281.35297 282.64517 283.87076 284.98892 286.00189
 286.91296 287.72427 288.43301 289.33621
 366.78100 356.33467 345.76635 334.63202 323.03470 311.22837 299.09804 286.90072
 274.61239 262.50907 250.51774 239.81841 229.94009 221.04376 213.22544 206.22711
 200.06078 194.99846 191.58013 189.62181 188.65848 188.72215 189.55683 190.86450
 192.58918 194.68385 196.94652 199.30520 201.74987 204.22955 206.31722 208.15889
 209.78457 210.92924 211.15792 211.38559 211.32226 211.02694 210.65961 210.28928
 209.90596 209.61563 209.42331 209.28698 209.21465 209.54533 209.93100 210.31968
 211.11235 212.29002 213.53970 215.32237 217.25005 219.29272 221.38739 223.47007
 225.52974 227.61342 229.71009 231.81576 233.94444 236.11611 238.37179 240.74146
 243.36213 245.61281 247.61448 249.37916 250.79583 251.91850 252.74018 253.05585
 253.09253 252.86620 252.22587 251.17355 249.77922 247.93990 245.84857 243.68124
 241.47192 239.27559 237.09527 234.93394 232.79361 230.66029 228.68596 226.84264
 225.12531 223.59698 222.22666 220.99833 219.88001 218.83968 217.94335 217.08403
 216.32570 215.50538 214.60305 213.96672 213.41640 214.07246 215.63924 217.12328
 219.20753 221.64423 223.39543 224.33316 225.07788 226.05788 227.10130 226.39554
 227.14374 229.20740 233.17853 237.71825 242.33585 246.82246 251.05925 254.95294
 258.45361 261.58646 264.40680 266.95715 269.26944 271.34183 273.19861 274.93225
 276.70560 278.47177 280.03339 281.41708 282.64743 283.76508 284.86960 285.87048
 286.77066 287.57227 288.27255 289.16495
 366.78100 356.33338 345.76376 334.62815 323.02953 311.22191 299.09029 286.89167
 274.60205 262.49744 250.50482 239.80420 229.92458 221.02696 213.20735 206.20773
 200.04011 194.97649 191.55687 189.59726 188.63264 188.69502 189.52840 190.83478
 192.55816 194.65155 196.91293 199.27031 201.71369 204.19207 206.27846 208.11884
 209.74322 210.88660 211.11398 211.34036 211.27575 210.97913 210.61051 210.23889
 209.85427 209.56266 209.36904 209.23142 209.15780 209.48718 209.87157 210.25895
 211.05033 212.22671 213.47509 215.25647 217.18286 219.22424 221.31762 223.39900
 225.45738 227.53977 229.63515 231.73953 233.86691 236.03729 238.29168 240.66006
 243.27944 245.52882 247.52920 249.29258 250.70797 251.82935 252.64973 252.96411
 252.99949 252.77188 252.13026 251.07664 249.68102 247.84040 245.74778 243.57917
 241.36855 239.17093 236.98931 234.82669 232.68508 230.55046 228.57484 226.73022
 225.01160 223.48199 222.11037 220.88075 219.76113 218.71951 217.82189 216.96128
 216.20166 215.38004 214.47642 213.83880 213.28719 214.00786 215.72345 217.27043
 219.16191 221.48605 223.32095 224.37837 225.18103 226.21153 227.25926 226.26799
 226.99451 229.06180 233.09641 237.63518 242.26247 246.74579 250.97417 254.86710
 258.37292 261.50775 264.32397 266.87964 269.18668 271.25739 273.12021 274.90564
 276.74530 278.52042 280.08090 281.46152 282.68088 283.78198 284.82858 285.81354
 286.69937 287.48825 288.17737 289.05557
 366.78100 356.33296 345.76293 334.62689 323.02786 311.21982 299.08779 286.88875
 274.59872 262.49368 250.50065 239.79961 229.91958 221.02154 213.20151 206.20147
 200.03344 194.96940 191.54937 189.58933 188.62430 188.68626 189.51923 190.82519
 192.54816 194.64112 196.90209 199.25905 201.70202 204.17998 206.26595 208.10591
 209.72987 210.87284 211.09980 211.32577 211.26073 210.96370 210.59466 210.22263
 209.83759 209.54556 209.35152 209.21349 209.13945 209.46842 209.85238 210.23935
 211.03031 212.20628 213.45424 215.23521 217.16117 219.20214 221.29510 223.37607
 225.43403 227.51600 229.61096 231.71493 233.84189 236.01185 238.26582 240.63378
 243.25275 245.50171 247.50168 249.26464 250.67961 251.80057 252.62054 252.93450
 252.96947 252.74143 252.09940 251.04536 249.64933 247.80829 245.71526 243.54622
 241.33519 239.13715 236.95512 234.79208 232.65005 230.51501 228.53898 226.69394
 224.97491 223.44487 222.07284 220.84280 219.72276 218.68073 217.78269 216.92166
 216.16162 215.33959 214.43555 213.79752 213.24548 213.99600 215.78368 217.36578
 219.21140 221.44991 223.23221 224.33549 225.22070 226.30745 227.27005 226.44583
 226.95238 229.03897 233.05907 237.58267 242.21312 246.69107 250.91328 254.81192
 258.33301 261.48291 264.30151 266.86874 269.19467 271.27362 273.13824 274.90860
 276.78726 278.57211 280.13486 281.51996 282.74719 283.85529 284.94904 285.94580
 286.84225 287.64053 288.33792 289.22665
 366.78100 356.33359 345.76419 334.62878 323.03038 311.22297 299.09157 286.89316
 274.60376 262.49935 250.50695 239.80654 229.92714 221.02973 213.21033 206.21092
 200.04352 194.98011 191.56071 189.60130 188.63690 188.69949 189.53309 190.83968
 192.56328 194.65687 196.91847 199.27606 201.71966 204.19825 206.28485 208.12544
 209.75004 210.89363 211.12123 211.34782 211.28342 210.98701 210.61861 210.24720
 209.86279 209.57139 209.37798 209.24058 209.16717 209.49677 209.88136 210.26896
 211.06055 212.23715 213.48574 215.26734 217.19393 219.23553 221.32912 223.41072
 225.46931 227.55191 229.64750 231.75210 233.87969 236.05029 238.30488 240.67348
 243.29307 245.54267 247.54326 249.30686 250.72245 251.84405 252.66464 252.97924
 253.01483 252.78743 252.14602 251.09262 249.69721 247.85680 245.76440 243.59599
 241.38559 239.18818 237.00678 234.84437 232.70297 230.56856 228.59316 226.74875
 225.03035 223.50094 222.12954 220.90013 219.78073 218.73932 217.84192 216.98151
 216.22211 215.40070 214.49730 213.85989 213.30849 214.03679 215.78247 217.48459
 219.28389 221.43799 223.15578 224.25485 225.19926 226.33968 227.32962 226.53972
 226.90698 228.99489 233.01805 237.53174 242.16508 246.63652 250.85364 254.76062
 258.30026 261.46658 264.29465 266.86761 269.23233 271.35568 273.23489 274.97098
 276.83661 278.61023 280.17175 281.55203 282.77106 283.87454 284.97409 285.97025
 286.86615 287.66394 288.36090 289.24908
 366.78100 356.33534 345.76768 334.63402 323.03736 311.23170 299.10205 286.90539
 274.61773 262.51507 250.52441 239.82575 229.94809 221.05243 213.23477 206.23711
 200.07145 195.00980 191.59214 189.63448 188.67182 188.73616 189.57150 190.87984
 192.60518 194.70052 196.96386 199.32321 201.76855 204.24889 206.33723 208.17957
 209.80591 210.95125 211.18059 211.40893 211.34627 211.05161 210.68496 210.31530
 209.93264 209.64298 209.45132 209.31566 209.24400 209.57534 209.96168 210.35102
 211.14436 212.32271 213.57305 215.35639 217.28473 219.32807 221.42341 223.50675
 225.56709 227.65143 229.74877 231.85512 233.98446 236.15680 238.41314 240.78348
 243.40482 245.65616 247.65850 249.42384 250.84118 251.96452 252.78687 253.10321
 253.14055 252.91489 252.27523 251.22357 249.82991 247.99125 245.90059 243.73393
 241.52527 239.32962 237.14996 234.98930 232.84964 230.71698 228.74332 226.90066
 225.18400 223.65634 222.28668 221.05902 219.94137 218.90171 218.00605 217.14739
 216.38973 215.57007 214.66841 214.03275 213.48309 214.13647 215.72150 217.57133
 219.41467 221.44458 223.13290 224.22452 225.17055 226.30022 227.29449 226.52031
 226.81784 228.94646 232.98257 237.49541 242.13559 246.60893 250.82858 254.75005
 258.31171 261.48712 264.31226 266.87231 269.24475 271.40839 273.32745 275.05115
 276.86197 278.62860 280.18848 281.56857 282.78516 283.88699 284.99789 286.00424
 286.90936 287.71539 288.41953 289.31683
 366.78100 356.33649 345.76997 334.63746 323.04195 311.23744 299.10892 286.91341
 274.62690 262.52538 250.53587 239.83836 229.96185 221.06733 213.25082 206.25431
 200.08979 195.02928 191.61277 189.65626 188.69474 188.76023 189.59672 190.90620
 192.63269 194.72918 196.99367 199.35415 201.80064 204.28213 206.37162 208.21510
 209.84259 210.98908 211.21956 211.44905 211.38754 211.09403 210.72851 210.36000
 209.97849 209.68997 209.49946 209.36495 209.29444 209.62692 210.01441 210.40490
 211.19938 212.37887 213.63036 215.41485 217.34433 219.38882 221.48531 223.56979
 225.63128 227.71677 229.81526 231.92274 234.05323 236.22672 238.48420 240.85569
 243.47818 245.73067 247.73415 249.50064 250.91913 252.04361 252.86710 253.18459
 253.22308 252.99856 252.36005 251.30954 249.91703 248.07951 245.99000 243.82449
 241.61697 239.42246 237.24395 235.08444 232.94592 230.81441 228.84190 227.00038
 225.28487 223.75836 222.38985 221.16333 220.04682 219.00831 218.11379 217.25628
 216.49977 215.68126 214.78074 214.14623 213.59772 214.20975 215.69151 217.57600
 219.53992 221.46712 223.14201 224.24097 225.16510 226.27127 227.32513 226.30847
 226.62993 228.82707 232.93773 237.45630 242.11632 246.59816 250.82260 254.76534
 258.35925 261.55911 264.39212 266.95209 269.31781 271.50342 273.44812 275.19662
 276.89804 278.62219 280.17807 281.55377 282.75735 283.83923 284.89313 285.90451
 286.81412 287.62415 288.33176 289.23352
 366.78100 356.33686 345.77072 334.63858 323.04345 311.23931 299.11117 286.91603
 274.62989 262.52875 250.53961 239.84248 229.96634 221.07220 213.25606 206.25992
 200.09578 195.03565 191.61951 189.66337 188.70223 188.76809 189.60495 190.91481
 192.64168 194.73854 197.00340 199.36426 201.81112 204.29298 206.38284 208.22671
 209.85457 211.00143 211.23229 211.46215 211.40101 211.10787 210.74274 210.37460
 209.99346 209.70532 209.51518 209.38104 209.31090 209.64377 210.03163 210.42249
 211.21735 212.39721 213.64907 215.43394 217.36380 219.40866 221.50552 223.59038
 225.65224 227.73810 229.83697 231.94483 234.07569 236.24955 238.50741 240.87927
 243.50213 245.75500 247.75886 249.52572 250.94458 252.06944 252.89330 253.21116
 253.25003 253.02589 252.38775 251.33761 249.94547 248.10833 246.01919 243.85406
 241.64692 239.45278 237.27464 235.11550 232.97736 230.84623 228.87409 227.03295
 225.31781 223.79167 222.42353 221.19739 220.08126 219.04312 218.14898 217.29184
 216.53570 215.71756 214.81742 214.18329 213.63515 214.24210 215.68829 217.57217
 219.71933 221.64035 223.20714 224.32419 225.25479 226.28969 227.17545 226.15349
 226.50272 228.77029 232.85179 237.37720 242.05508 246.53346 250.75809 254.72318
 258.34863 261.58435 264.43039 267.00629 269.39465 271.59842 273.56381 275.32523
 276.96994 278.59177 280.13486 281.50134 282.69272 283.75812 284.74371 285.63831
 286.47327 287.22641 287.88434 288.72278
 366.78100 356.33731 345.77162 334.63993 323.04525 311.24156 299.11387 286.91918
 274.63349 262.53280 250.54411 239.84742 229.97174 221.07805 213.26236 206.26667
 200.10298 195.04329 191.62760 189.67191 188.71123 188.77754 189.61485 190.92516
 192.65247 194.74978 197.01509 199.37641 201.82372 204.30603 206.39634 208.24065
 209.86896 211.01627 211.24758 211.47790 211.41721 211.12452 210.75983 210.39214
 210.01145 209.72376 209.53407 209.40039 209.33070 209.66401 210.05232 210.44363
 211.23894 212.41925 213.67157 215.45688 217.38719 219.43250 221.52981 223.61512
 225.67743 227.76374 229.86306 231.97137 234.10268 236.27699 238.53530 240.90761
 243.53092 245.78423 247.78855 249.55586 250.97517 252.10048 252.92479 253.24310
 253.28241 253.05872 252.42104 251.37135 249.97966 248.14297 246.05428 243.88959
 241.68290 239.48922 237.31153 235.15284 233.01515 230.88446 228.91277 227.07208
 225.35739 223.83171 222.46402 221.23833 220.12264 219.08495 218.19126 217.33457
 216.57888 215.76120 214.86151 214.22782 213.68013 214.27631 215.68480 217.63068
 219.80603 221.73270 223.24396 224.40041 225.36992 226.37971 227.12935 226.16939
 226.39734 228.76071 232.77428 237.31218 241.94997 246.41168 250.64073 254.62143
 258.27246 261.53275 264.38904 266.98312 269.40579 271.65649 273.63895 275.38986
 277.03662 278.60275 280.07715 281.43146 282.61688 283.67398 284.64944 285.52457
 286.29095 287.00076 287.64224 288.45975
 366.78100 356.33764 345.77228 334.64093 323.04657 311.24321 299.11585 286.92149
 274.63614 262.53578 250.54742 239.85106 229.97570 221.08235 213.26699 206.27163
 200.10827 195.04891 191.63356 189.67820 188.71784 188.78448 189.62212 190.93277
 192.66041 194.75805 197.02369 199.38533 201.83297 204.31562 206.40626 208.25090
 209.87954 211.02718 211.25883 211.48947 211.42911 211.13675 210.77239 210.40504
 210.02468 209.73732 209.54796 209.41460 209.34525 209.67889 210.06753 210.45917
 211.25481 212.43546 213.68810 215.47374 217.40438 219.45002 221.54767 223.63331
 225.69595 227.78259 229.88223 231.99088 234.12252 236.29716 238.55580 240.92844
 243.55209 245.80573 247.81037 249.57801 250.99765 252.12330 252.94794 253.26658
 253.30622 253.08286 252.44550 251.39615 250.00479 248.16843 246.08007 243.91571
 241.70936 239.51600 237.33864 235.18028 233.04292 230.91257 228.94121 227.10085
 225.38649 223.86113 222.49378 221.26842 220.15306 219.11570 218.22234 217.36599
 216.61063 215.79327 214.89391 214.26055 213.71320 214.30293 215.69626 217.74104
 219.81953 221.70332 223.23264 224.40887 225.42830 226.47569 227.18962 226.28503
 226.34888 228.71635 232.71661 237.24988 241.84715 246.28879 250.52274 254.50900
 258.17007 261.44446 264.33292 266.95468 269.40515 271.68823 273.68402 275.41876
 277.05573 278.61649 280.04053 281.36554 282.54849 283.60516 284.57892 285.44022
 286.17441 286.85272 287.46658 288.27130
 366.78100 356.33779 345.77259 334.64138 323.04718 311.24397 299.11677 286.92256
 274.63735 262.53715 250.54894 239.85274 229.97753 221.08433 213.26912 206.27391
 200.11071 195.05150 191.63630 189.68109 188.72088 188.78768 189.62547 190.93627
 192.66406 194.76186 197.02765 199.38944 201.83724 204.32003 206.41083 208.25562
 209.88442 211.03221 211.26400 211.49480 211.43459 211.14239 210.77818 210.41098
 210.03077 209.74356 209.55436 209.42115 209.35195 209.68574 210.07454 210.46633
 211.26212 212.44292 213.69571 215.48151 217.41230 219.45809 221.55589 223.64168
 225.70448 227.79127 229.89107 231.99986 234.13165 236.30645 238.56524 240.93804
 243.56183 245.81563 247.82042 249.58821 251.00801 252.13380 252.95860 253.27739
 253.31719 253.09398 252.45677 251.40757 250.01636 248.18016 246.09195 243.92775
 241.72154 239.52833 237.35113 235.19292 233.05572 230.92551 228.95430 227.11410
 225.39989 223.87469 222.50748 221.28228 220.16707 219.12986 218.23666 217.38045
 216.62525 215.80804 214.90884 214.27563 213.72842 214.31998 215.71761 217.84154
 219.85785 221.63788 223.16722 224.35829 225.43501 226.54137 227.27670 226.41417
 226.36545 228.68158 232.67537 237.19315 241.75087 246.17432 250.41576 254.41620
 258.09702 261.39182 264.30539 266.94473 269.40967 271.69803 273.68427 275.42700
 277.08145 278.63519 280.02713 281.32962 282.50787 283.56256 284.54663 285.41528
 286.04538 286.71527 287.32013 288.12640
 366.78100 356.33838 345.77376 334.64314 323.04952 311.24689 299.12027 286.92665
 274.64203 262.54241 250.55479 239.85917 229.98455 221.09192 213.27730 206.28268
 200.12006 195.06144 191.64682 189.69220 188.73258 188.79995 189.63833 190.94971
 192.67809 194.77647 197.04285 199.40523 201.85361 204.33699 206.42836 208.27374
 209.90312 211.05150 211.28388 211.51526 211.45564 211.16402 210.80039 210.43377
 210.05415 209.76753 209.57891 209.44629 209.37767 209.71205 210.10143 210.49380
 211.29018 212.47156 213.72494 215.51132 217.44270 219.48908 221.58746 223.67383
 225.73721 227.82459 229.92497 232.03435 234.16673 236.34211 238.60149 240.97486
 243.59924 245.85362 247.85900 249.62738 251.04776 252.17414 252.99952 253.31890
 253.35927 253.13665 252.50003 251.45141 250.06079 248.22517 246.13755 243.97393
 241.76830 239.57568 237.39906 235.24144 233.10482 230.97520 229.00458 227.16496
 225.45133 223.92671 222.56009 221.33547 220.22085 219.18423 218.29161 217.43599
 216.68137 215.86474 214.96612 214.33350 213.78688 214.36089 215.71704 217.91205
 219.95233 221.59166 223.03735 224.25827 225.41553 226.57932 227.35660 226.56059
 226.43806 228.66388 232.65062 237.14699 241.66496 246.07344 250.31793 254.32721
 258.02121 261.33444 264.27524 266.94110 269.42502 271.72601 273.70410 275.43042
 277.08112 278.63852 280.02625 281.30734 282.47903 283.53128 284.50348 285.37439
 286.04779 286.67737 287.27527 288.06686
 366.78100 356.33954 345.77607 334.64661 323.05414 311.25268 299.12721 286.93475
 274.65129 262.55282 250.56636 239.87189 229.99843 221.10696 213.29350 206.30004
 200.13857 195.08111 191.66764 189.71418 188.75571 188.82425 189.66379 190.97632
 192.70586 194.80539 197.07293 199.43646 201.88600 204.37054 206.46307 208.30961
 209.94014 211.08968 211.32321 211.55575 211.49729 211.20682 210.84436 210.47889
 210.10043 209.81496 209.62750 209.49604 209.42857 209.76411 210.15464 210.54818
 211.34571 212.52825 213.78279 215.57032 217.50286 219.55039 221.64993 223.73746
 225.80200 227.89054 229.99207 232.10261 234.23614 236.41268 238.67322 241.04775
 243.67329 245.92882 247.93536 249.70489 251.12643 252.25397 253.08050 253.40104
 253.44257 253.22111 252.58564 251.53818 250.14872 248.31425 246.22779 244.06532
 241.86086 239.66939 237.49393 235.33747 233.20200 231.07354 229.10407 227.26561
 225.55314 224.02968 222.66422 221.44075 220.32729 219.29182 218.40036 217.54589
 216.79243 215.97697 215.07950 214.44804 213.90257 214.43372 215.68860 217.95380
 220.08981 221.61070 222.92325 224.08598 225.28513 226.55594 227.44341 226.74995
 226.56104 228.66631 232.63440 237.11937 241.60304 245.99086 250.23650 254.25328
 257.95621 261.28186 264.24188 266.93274 269.44678 271.76462 273.72504 275.44214
 277.09048 278.62289 279.99005 281.26166 282.43121 283.48111 284.44714 285.31552
 286.06168 286.66537 287.25723 288.04752
 366.78100 356.33987 345.77674 334.64761 323.05547 311.25434 299.12921 286.93708
 274.65395 262.55582 250.56969 239.87556 230.00242 221.11129 213.29816 206.30503
 200.14390 195.08677 191.67364 189.72050 188.76237 188.83124 189.67111 190.98398
 192.71385 194.81372 197.08159 199.44545 201.89532 204.38019 206.47306 208.31993
 209.95080 211.10067 211.33453 211.56740 211.50927 211.21914 210.85701 210.49188
 210.11375 209.82862 209.64148 209.51035 209.44322 209.77909 210.16996 210.56383
 211.36170 212.54456 213.79943 215.58730 217.52017 219.56804 221.66791 223.75578
 225.82065 227.90951 230.01138 232.12225 234.25612 236.43299 238.69386 241.06873
 243.69460 245.95046 247.95733 249.72720 251.14907 252.27694 253.10381 253.42468
 253.46654 253.24541 252.61028 251.56315 250.17402 248.33989 246.25376 244.09163
 241.88749 239.69636 237.52123 235.36510 233.22997 231.10184 229.13271 227.29457
 225.58244 224.05931 222.69418 221.47105 220.35792 219.32279 218.43166 217.57752
 216.82439 216.00926 215.11213 214.48100 213.93587 214.46634 215.71964 217.92458
 220.19406 221.75903 222.85567 223.88654 225.08708 226.47458 227.47578 226.90503
 226.66829 228.66016 232.63312 237.11084 241.55420 245.93135 250.18729 254.22964
 257.97433 261.33856 264.30612 266.96497 269.43869 271.73886 273.66440 275.34875
 277.03784 278.62497 280.01257 281.24692 282.40704 283.45505 284.41702 285.28476
 286.04990 286.67761 287.26617 288.05331
 366.78100 356.33954 345.77607 334.64661 323.05414 311.25268 299.12722 286.93475
 274.65129 262.55282 250.56636 239.87190 229.99843 221.10697 213.29350 206.30004
 200.13858 195.08111 191.66765 189.71418 188.75572 188.82426 189.66379 190.97633
 192.70586 194.80540 197.07294 199.43647 201.88601 204.37054 206.46308 208.30962
 209.94015 211.08969 211.32323 211.55576 211.49730 211.20683 210.84437 210.47891
 210.10044 209.81498 209.62751 209.49605 209.42859 209.76412 210.15466 210.54819
 211.34573 212.52827 213.78280 215.57034 217.50287 219.55041 221.64995 223.73748
 225.80202 227.89055 229.99209 232.10263 234.23616 236.41270 238.67323 241.04777
 243.67331 245.92884 247.93538 249.70491 251.12645 252.25399 253.08052 253.40106
 253.44259 253.22113 252.58567 251.53820 250.14874 248.31427 246.22781 244.06535
 241.86088 239.66942 237.49395 235.33749 233.20203 231.07356 229.10410 227.26563
 225.55317 224.02971 222.66424 221.44078 220.32731 219.29185 218.40039 217.54592
 216.79246 215.97700 215.07953 214.44807 213.90260 214.47113 215.81433 217.80367
 220.24638 221.66591 222.82516 223.95703 225.11824 226.42863 227.34752 226.81100
 226.52017 228.53412 232.60458 237.13589 241.58423 245.95914 250.23959 254.32013
 258.11301 261.53625 264.53690 267.17938 269.57593 271.76596 273.61691 275.23489
 276.83807 278.38324 279.80170 281.13281 282.31665 283.37381 284.34515 285.22757
 286.02197 286.75229 287.39713 288.21890
 366.78100 356.33810 345.77319 334.64229 323.04839 311.24549 299.11858 286.92468
 274.63978 262.53988 250.55197 239.85607 229.98117 221.08827 213.27336 206.27846
 200.11556 195.05666 191.64175 189.68685 188.72695 188.79405 189.63214 190.94324
 192.67134 194.76944 197.03553 199.39763 201.84573 204.32883 206.41992 208.26502
 209.89412 211.04222 211.27431 211.50541 211.44551 211.15361 210.78970 210.42280
 210.04290 209.75599 209.56709 209.43419 209.36529 209.69938 210.08848 210.48058
 211.27668 212.45777 213.71087 215.49697 217.42807 219.47416 221.57226 223.65836
 225.72146 227.80855 229.90865 232.01775 234.14985 236.32494 238.58404 240.95714
 243.58124 245.83533 247.84043 249.60853 251.02863 252.15472 252.97982 253.29892
 253.33902 253.11611 252.47921 251.43031 250.03940 248.20350 246.11560 243.95170
 241.74579 239.55289 237.37599 235.21809 233.08118 230.95128 228.98038 227.14048
 225.42657 223.90167 222.53477 221.30987 220.19496 219.15806 218.26516 217.40926
 216.65435 215.83745 214.93855 214.30565 213.75874 214.41785 215.99991 217.80432
 219.90497 221.40695 223.00835 224.12636 225.15244 226.48438 227.19923 226.88171
 226.17889 228.33188 232.54352 237.12849 241.57802 245.95644 250.26466 254.37474
 258.20053 261.67242 264.74832 267.44565 269.86588 272.00537 273.75534 275.32571
 276.87302 278.34766 279.79517 281.12650 282.31018 283.37296 284.36404 285.28085
 286.10544 286.83972 287.48117 288.29861
 366.78100 356.33909 345.77519 334.64528 323.05238 311.25047 299.12457 286.93166
 274.64775 262.54885 250.56194 239.86704 229.99313 221.10123 213.28732 206.29341
 200.13151 195.07360 191.65970 189.70579 188.74689 188.81498 189.65407 190.96617
 192.69526 194.79436 197.06145 199.42455 201.87364 204.35773 206.44983 208.29592
 209.92602 211.07511 211.30821 211.54030 211.48139 211.19049 210.82758 210.46168
 210.08277 209.79687 209.60896 209.47705 209.40915 209.74424 210.13434 210.52743
 211.32453 212.50662 213.76071 215.54781 217.47990 219.52700 221.62609 223.71319
 225.77728 227.86537 229.96647 232.07656 234.20966 236.38575 238.64585 241.01994
 243.64503 245.90013 247.90622 249.67532 251.09641 252.22351 253.04960 253.36969
 253.41079 253.18888 252.55298 251.50507 250.11517 248.28026 246.19335 244.03045
 241.82554 239.63364 237.45773 235.30083 233.16492 231.03601 229.06611 227.22720
 225.51430 223.99039 222.62449 221.40058 220.28667 219.25077 218.35886 217.50396
 216.75005 215.93415 215.03624 214.40433 213.85843 214.46188 215.91606 218.11630
 219.68762 221.38516 223.11838 224.05045 225.09744 226.46886 227.50879 227.04863
 226.40800 228.24377 232.45718 237.03931 241.37698 245.68443 249.97693 254.07213
 257.90018 261.43140 264.64539 267.54291 270.15665 272.47415 274.38132 275.91315
 277.30243 278.62946 279.90256 281.16971 282.33569 283.38254 284.35614 285.27032
 286.11301 286.86343 287.51895 288.35437
 366.78100 356.34127 345.77954 334.65180 323.06107 311.26134 299.13761 286.94688
 274.66514 262.56841 250.58368 239.89095 230.01921 221.12948 213.31775 206.32602
 200.16629 195.11055 191.69882 189.74709 188.79036 188.86063 189.70189 191.01616
 192.74743 194.84870 197.11797 199.48323 201.93450 204.42077 206.51504 208.36331
 209.99557 211.14684 211.38211 211.61638 211.55964 211.27091 210.91018 210.54645
 210.16972 209.88598 209.70025 209.57052 209.50479 209.84206 210.23432 210.62959
 211.42886 212.61313 213.86940 215.65866 217.59293 219.64220 221.74347 223.83273
 225.89900 227.98927 230.09254 232.20481 234.34007 236.51834 238.78061 241.15688
 243.78415 246.04141 248.04968 249.82095 251.24422 252.37349 253.20175 253.52402
 253.56729 253.34756 252.71382 251.66809 250.28036 248.44763 246.36290 244.20216
 241.99943 239.80970 237.63597 235.48124 233.34750 231.22077 229.25304 227.41631
 225.70558 224.18384 222.82011 221.59838 220.48665 219.45292 218.56318 217.71045
 216.95872 216.14499 215.24925 214.61952 214.07579 214.56775 215.73003 218.32784
 219.96490 221.52565 223.03409 223.88976 224.88301 226.25990 227.60735 227.30183
 226.98053 228.58606 232.48314 237.03813 241.31879 245.52003 249.72926 253.74402
 257.48965 260.97076 264.20435 267.18887 269.92398 272.37210 274.46066 276.18701
 277.65305 278.95712 280.16107 281.29852 282.38977 283.41748 284.36533 285.23380
 286.02704 286.73700 287.39053 288.23651
 366.78100 356.34217 345.78134 334.65450 323.06467 311.26584 299.14301 286.95318
 274.67234 262.57651 250.59268 239.90085 230.03001 221.14118 213.33035 206.33952
 200.18069 195.12585 191.71502 189.76419 188.80836 188.87953 189.72169 191.03686
 192.76903 194.87120 197.14136 199.50753 201.95970 204.44687 206.54204 208.39120
 210.02437 211.17654 211.41271 211.64788 211.59204 211.30421 210.94438 210.58155
 210.20571 209.92288 209.73805 209.60922 209.54439 209.88255 210.27572 210.67189
 211.47206 212.65723 213.91439 215.70456 217.63973 219.68990 221.79206 223.88223
 225.94940 228.04057 230.14474 232.25790 234.39407 236.57324 238.83641 241.21358
 243.84174 246.09991 248.10908 249.88125 251.30541 252.43558 253.26475 253.58792
 253.63209 253.41325 252.78042 251.73559 250.34876 248.51693 246.43309 244.27326
 242.07143 239.88260 237.70977 235.55593 233.42310 231.29727 229.33044 227.49460
 225.78477 224.26394 222.90111 221.68028 220.56944 219.53661 218.64778 217.79595
 217.04512 216.23228 215.33745 214.70862 214.16579 214.62788 215.71965 218.22029
 220.24570 221.67949 222.94954 223.73204 224.65303 226.01422 227.50281 227.38083
 227.10620 228.67186 232.51201 237.12494 241.47243 245.63202 249.80528 253.81184
 257.53589 260.95062 264.07840 266.96277 269.63113 272.02106 274.06824 275.85684
 277.45502 278.86099 280.12308 281.28632 282.39481 283.42593 284.37643 285.24524
 286.03696 286.75336 287.36511 288.17551
 366.78100 356.34194 345.78088 334.65383 323.06377 311.26471 299.14165 286.95159
 274.67054 262.57448 250.59042 239.89836 230.02730 221.13825 213.32719 206.33613
 200.17707 195.12201 191.71096 189.75990 188.80384 188.87478 189.71672 191.03167
 192.76361 194.86555 197.13549 199.50144 201.95338 204.44032 206.53526 208.38420
 210.01715 211.16909 211.40503 211.63997 211.58391 211.29586 210.93580 210.57274
 210.19668 209.91362 209.72857 209.59951 209.53445 209.87239 210.26533 210.66128
 211.46122 212.64616 213.90310 215.69304 217.62799 219.67793 221.77987 223.86981
 225.93675 228.02770 230.13164 232.24458 234.38052 236.55946 238.82241 241.19935
 243.82729 246.08523 248.09417 249.86612 251.29006 252.42000 253.24894 253.57188
 253.61583 253.39677 252.76371 251.71865 250.33159 248.49954 246.41548 244.25542
 242.05336 239.86431 237.69125 235.53719 233.40413 231.27807 229.31102 227.47496
 225.76490 224.24384 222.88078 221.65973 220.54867 219.51561 218.62655 217.77449
 217.02344 216.21038 215.31532 214.68626 214.14320 214.63289 215.78981 218.07156
 220.38492 221.82030 222.89922 223.63754 224.50972 225.83386 227.35837 227.32254
 227.10190 228.68164 232.53641 237.19719 241.60077 245.76183 249.92192 253.94301
 257.68741 261.09329 264.16681 266.96823 269.57202 271.90146 273.84372 275.58984
 277.24551 278.72202 280.03326 281.23697 282.37796 283.41919 284.37369 285.24680
 286.04272 286.75833 287.37466 288.18222
 366.78100 356.34178 345.78057 334.65335 323.06314 311.26392 299.14071 286.95049
 274.66928 262.57306 250.58885 239.89663 230.02541 221.13620 213.32498 206.33377
 200.17455 195.11934 191.70812 189.75691 188.80069 188.87148 189.71326 191.02805
 192.75983 194.86161 197.13140 199.49718 201.94897 204.43575 206.53054 208.37932
 210.01211 211.16389 211.39968 211.63446 211.57824 211.29003 210.92981 210.56660
 210.19038 209.90717 209.72195 209.59274 209.52752 209.86531 210.25809 210.65387
 211.45366 212.63844 213.89523 215.68501 217.61980 219.66958 221.77137 223.86115
 225.92794 228.01872 230.12250 232.23529 234.37107 236.54986 238.81264 241.18943
 243.81721 246.07500 248.08378 249.85557 251.27935 252.40914 253.23792 253.56070
 253.60449 253.38527 252.75206 251.70684 250.31963 248.48741 246.40320 244.24298
 242.04077 239.85155 237.67833 235.52412 233.39090 231.26469 229.29747 227.46126
 225.75104 224.22983 222.86661 221.64540 220.53418 219.50096 218.61175 217.75953
 217.00832 216.19510 215.29989 214.67067 214.12746 214.63737 215.84210 218.02054
 220.40752 221.91586 222.90538 223.60948 224.42282 225.70514 227.23958 227.26993
 227.08276 228.66600 232.54462 237.23853 241.65665 245.81180 249.95213 253.97580
 257.72357 261.12482 264.18677 266.97342 269.57297 271.89719 273.76865 275.45032
 277.11694 278.62936 279.96869 281.20636 282.36615 283.41263 284.37048 285.24719
 286.04346 286.76166 287.38101 288.19299
 366.78100 356.34208 345.78117 334.65425 323.06433 311.26542 299.14250 286.95258
 274.67167 262.57575 250.59183 239.89992 230.02900 221.14009 213.32917 206.33825
 200.17934 195.12442 191.71350 189.76259 188.80667 188.87775 189.71984 191.03492
 192.76700 194.86909 197.13917 199.50525 201.95734 204.44442 206.53950 208.38859
 210.02167 211.17376 211.40984 211.64492 211.58901 211.30109 210.94117 210.57826
 210.20234 209.91942 209.73451 209.60559 209.54067 209.87876 210.27184 210.66792
 211.46801 212.65309 213.91017 215.70026 217.63534 219.68542 221.78751 223.87759
 225.94468 228.03576 230.13984 232.25293 234.38901 236.56809 238.83118 241.20826
 243.83634 246.09443 248.10351 249.87559 251.29968 252.42976 253.25884 253.58193
 253.62601 253.40709 252.77418 251.72926 250.34234 248.51043 246.42651 244.26660
 242.06468 239.87576 237.70285 235.54893 233.41601 231.29010 229.32318 227.48726
 225.77735 224.25643 222.89351 221.67260 220.56168 219.52876 218.63985 217.78793
 217.03701 216.22410 215.32918 214.70027 214.15735 214.66371 215.86005 218.02670
 220.39246 221.96307 222.92545 223.58099 224.33086 225.57706 227.13864 227.28252
 227.13422 228.68250 232.56250 237.28479 241.71181 245.84265 249.95644 253.97192
 257.70407 261.09155 264.15009 266.94730 269.56781 271.91187 273.75272 275.38153
 277.03873 278.56757 279.91873 281.18945 282.35919 283.40619 284.36682 285.24429
 286.04501 286.76474 287.38864 288.20337
 366.78100 356.34266 345.78233 334.65599 323.06665 311.26832 299.14598 286.95664
 274.67631 262.58097 250.59763 239.90630 230.03596 221.14762 213.33729 206.34695
 200.18861 195.13428 191.72394 189.77360 188.81827 188.88993 189.73259 191.04826
 192.78092 194.88358 197.15425 199.52091 201.97357 204.46124 206.55690 208.40656
 210.04023 211.19289 211.42955 211.66522 211.60988 211.32254 210.96321 210.60087
 210.22553 209.94320 209.75886 209.63052 209.56619 209.90485 210.29851 210.69518
 211.49584 212.68150 213.93917 215.72983 217.66549 219.71616 221.81882 223.90948
 225.97715 228.06881 230.17347 232.28714 234.42380 236.60346 238.86713 241.24479
 243.87345 246.13212 248.14178 249.91444 251.33911 252.46977 253.29943 253.62310
 253.66776 253.44942 252.81709 251.77275 250.38641 248.55508 246.47174 244.31240
 242.11107 239.92273 237.75039 235.59706 233.46472 231.33938 229.37305 227.53771
 225.82837 224.30804 222.94570 221.72536 220.61503 219.58269 218.69435 217.84302
 217.09268 216.28034 215.38601 214.75767 214.21533 214.70596 215.86514 218.02794
 220.39287 222.00587 222.96245 223.53818 224.18806 225.39603 227.01152 227.31076
 227.21761 228.72441 232.59799 237.34764 241.78949 245.90321 249.99515 253.98473
 257.69037 261.05621 264.10727 266.91214 269.55081 271.91104 273.74045 275.33859
 276.98563 278.52191 279.88049 281.18283 282.35809 283.40649 284.36850 285.24988
 286.05154 286.77740 287.39938 288.22165
 366.78100 356.34327 345.78354 334.65782 323.06909 311.27136 299.14963 286.96090
 274.68117 262.58645 250.60372 239.91299 230.04326 221.15553 213.34580 206.35608
 200.19835 195.14462 191.73489 189.78516 188.83043 188.90271 189.74598 191.06225
 192.79552 194.89879 197.17006 199.53734 201.99061 204.47888 206.57515 208.42542
 210.05969 211.21297 211.45024 211.68651 211.63178 211.34505 210.98632 210.62460
 210.24987 209.96814 209.78441 209.65668 209.59295 209.93223 210.32650 210.72377
 211.52504 212.71131 213.96958 215.76086 217.69713 219.74840 221.85167 223.94294
 226.01121 228.10349 230.20876 232.32303 234.46030 236.64057 238.90484 241.28312
 243.91239 246.17166 248.18193 249.95520 251.38047 252.51175 253.34202 253.66629
 253.71156 253.49383 252.86210 251.81838 250.43265 248.60192 246.51919 244.36046
 242.15974 239.97201 237.80028 235.64755 233.51582 231.39109 229.42537 227.59064
 225.88191 224.36218 223.00045 221.78072 220.67100 219.63927 218.75154 217.90081
 217.15108 216.33935 215.44563 214.81790 214.27617 214.75163 215.87498 218.00853
 220.40118 222.05315 223.00854 223.51138 224.05823 225.17790 226.82361 227.30783
 227.31544 228.79913 232.64594 237.41222 241.87976 245.98354 250.05324 254.01688
 257.68973 261.02933 264.06836 266.87488 269.52417 271.88858 273.71152 275.29651
 276.94061 278.48068 279.85104 281.18301 282.36264 283.41293 284.37744 285.25909
 286.06384 286.79092 287.41928 288.24506
 366.78100 356.34370 345.78440 334.65910 323.07080 311.27350 299.15220 286.96390
 274.68460 262.59030 250.60800 239.91769 230.04839 221.16109 213.35179 206.36249
 200.20519 195.15189 191.74259 189.79329 188.83899 188.91169 189.75539 191.07209
 192.80579 194.90949 197.18119 199.54889 202.00259 204.49129 206.58799 208.43869
 210.07339 211.22708 211.46478 211.70148 211.64718 211.36088 211.00258 210.64128
 210.26698 209.98568 209.80238 209.67508 209.61178 209.95148 210.34618 210.74388
 211.54558 212.73228 213.99098 215.78268 217.71938 219.77108 221.87478 223.96647
 226.03517 228.12787 230.23357 232.34827 234.48597 236.66667 238.93137 241.31007
 243.93977 246.19947 248.21017 249.98387 251.40957 252.54127 253.37197 253.69667
 253.74237 253.52507 252.89377 251.85047 250.46517 248.63486 246.55256 244.39426
 242.19396 240.00666 237.83536 235.68306 233.55176 231.42746 229.46216 227.62786
 225.91956 224.40026 223.03896 221.81966 220.71036 219.67906 218.79176 217.94146
 217.19216 216.38086 215.48756 214.86025 214.31895 214.78870 215.89853 217.97856
 220.39578 222.10214 223.06200 223.47873 223.91208 224.97139 226.63826 227.28816
 227.38000 228.84532 232.70277 237.49812 241.98483 246.09134 250.13728 254.06679
 257.70175 261.00797 264.02783 266.83218 269.48602 271.84558 273.66022 275.24567
 276.89514 278.44040 279.83804 281.18314 282.36835 283.42224 284.38858 285.27316
 286.08011 286.80823 287.44525 288.27197
 366.78100 356.34393 345.78486 334.65979 323.07172 311.27465 299.15358 286.96551
 274.68644 262.59237 250.61030 239.92023 230.05116 221.16409 213.35502 206.36595
 200.20888 195.15581 191.74674 189.79767 188.84360 188.91653 189.76046 191.07739
 192.81132 194.91524 197.18717 199.55510 202.00903 204.49796 206.59489 208.44582
 210.08075 211.23468 211.47261 211.70954 211.65547 211.36940 211.01133 210.65026
 210.27619 209.99512 209.81205 209.68498 209.62191 209.96184 210.35677 210.75470
 211.55663 212.74356 214.00249 215.79442 217.73135 219.78328 221.88721 223.97914
 226.04807 228.14100 230.24693 232.36186 234.49979 236.68072 238.94565 241.32458
 243.95451 246.21444 248.22537 249.99930 251.42523 252.55716 253.38809 253.71302
 253.75895 253.54188 252.91081 251.86773 250.48266 248.65259 246.57052 244.41245
 242.21238 240.02531 237.85424 235.70217 233.57110 231.44703 229.48196 227.64789
 225.93982 224.42075 223.05968 221.84061 220.73154 219.70047 218.81340 217.96333
 217.21426 216.40319 215.51012 214.88305 214.34198 214.81581 215.93526 217.94772
 220.36398 222.14742 223.13223 223.48224 223.78574 224.67847 226.37793 227.23480
 227.48248 228.99734 232.79535 237.58566 242.10612 246.22740 250.23453 254.11821
 257.70969 260.97766 263.97717 266.77951 269.43539 271.78366 273.58969 275.18341
 276.84531 278.39612 279.83759 281.19232 282.37930 283.43619 284.40488 285.29105
 286.09973 286.83057 287.46802 288.30081
 366.78100 356.34405 345.78509 334.66014 323.07218 311.27523 299.15428 286.96632
 274.68737 262.59341 250.61146 239.92151 230.05255 221.16560 213.35665 206.36769
 200.21074 195.15778 191.74883 189.79988 188.84592 188.91897 189.76301 191.08006
 192.81411 194.91815 197.19020 199.55824 202.01229 204.50134 206.59838 208.44943
 210.08447 211.23852 211.47657 211.71361 211.65966 211.37370 211.01575 210.65480
 210.28084 209.99989 209.81694 209.68998 209.62703 209.96707 210.36212 210.76017
 211.56221 212.74926 214.00830 215.80035 217.73740 219.78944 221.89349 223.98553
 226.05458 228.14763 230.25367 232.36872 234.50676 236.68781 238.95286 241.33190
 243.96195 246.22199 248.23304 250.00709 251.43313 252.56518 253.39623 253.72127
 253.76732 253.55036 252.91941 251.87646 250.49150 248.66155 246.57959 244.42164
 242.22169 240.03473 237.86378 235.71182 233.58087 231.45692 229.49196 227.65801
 225.95005 224.43110 223.07015 221.85119 220.74224 219.71128 218.82433 217.97438
 217.22542 216.41447 215.52152 214.89456 214.35361 214.83670 215.97806 217.92426
 220.30949 222.17516 223.21054 223.51311 223.68945 224.39694 226.09453 227.12932
 227.55920 229.16631 232.90662 237.67728 242.23131 246.36447 250.33888 254.17435
 257.71927 260.94855 263.92682 266.72620 269.38199 271.71793 273.51807 275.12314
 276.79865 278.35776 279.84018 281.20041 282.38800 283.44531 284.41486 285.30301
 286.11215 286.84644 287.48257 288.32043
 366.78100 356.34409 345.78518 334.66027 323.07235 311.27544 299.15453 286.96662
 274.68771 262.59380 250.61188 239.92197 230.05306 221.16615 213.35724 206.36833
 200.21142 195.15850 191.74959 189.80068 188.84677 188.91986 189.76395 191.08104
 192.81512 194.91921 197.19130 199.55939 202.01348 204.50257 206.59965 208.45074
 210.08583 211.23992 211.47801 211.71510 211.66119 211.37527 211.01736 210.65645
 210.28254 210.00163 209.81872 209.69181 209.62889 209.96898 210.36407 210.76216
 211.56425 212.75134 214.01042 215.80251 217.73960 219.79169 221.89578 223.98787
 226.05696 228.15004 230.25613 232.37122 234.50931 236.69040 238.95549 241.33457
 243.96466 246.22475 248.23584 250.00993 251.43602 252.56811 253.39919 253.72428
 253.77037 253.55346 252.92255 251.87964 250.49473 248.66481 246.58290 244.42499
 242.22508 240.03817 237.86726 235.71534 233.58443 231.46052 229.49561 227.66170
 225.95379 224.43488 223.07396 221.85505 220.74614 219.71523 218.82832 217.97841
 217.22950 216.41858 215.52567 214.89876 214.35785 214.85309 216.02316 217.91098
 220.24500 222.18037 223.28084 223.55112 223.61359 224.15598 225.81873 226.98846
 227.60521 229.32718 233.02220 237.77237 242.35210 246.50566 250.45506 254.23926
 257.73526 260.92505 263.88150 266.67682 269.32895 271.65106 273.44617 275.06357
 276.75330 278.32053 279.84799 281.21692 282.40704 283.46640 284.43747 285.32770
 286.13721 286.87143 287.51285 288.36740
 366.78100 356.34407 345.78514 334.66021 323.07228 311.27534 299.15441 286.96648
 274.68755 262.59362 250.61169 239.92176 230.05283 221.16589 213.35696 206.36803
 200.21110 195.15817 191.74924 189.80031 188.84638 188.91944 189.76351 191.08058
 192.81465 194.91872 197.19079 199.55886 202.01293 204.50200 206.59906 208.45013
 210.08520 211.23927 211.47734 211.71441 211.66048 211.37455 211.01661 210.65568
 210.28175 210.00082 209.81789 209.69096 209.62803 209.96810 210.36317 210.76123
 211.56330 212.75037 214.00944 215.80151 217.73858 219.79065 221.89472 223.98678
 226.05585 228.14892 230.25499 232.37006 234.50813 236.68920 238.95427 241.33333
 243.96340 246.22347 248.23454 250.00861 251.43468 252.56675 253.39782 253.72289
 253.76895 253.55202 252.92109 251.87816 250.49323 248.66330 246.58137 244.42344
 242.22350 240.03657 237.86564 235.71371 233.58278 231.45885 229.49392 227.65999
 225.95206 224.43312 223.07219 221.85326 220.74433 219.71340 218.82647 217.97654
 217.22761 216.41667 215.52374 214.89681 214.35588 214.86548 216.06944 217.90469
 220.17976 222.16609 223.33405 223.58472 223.54968 223.95250 225.55353 226.81331
 227.61861 229.48027 233.14581 237.87404 242.47781 246.65472 250.57851 254.31007
 257.75555 260.90573 263.83942 266.62881 269.27396 271.58292 273.37674 275.00989
 276.71640 278.30716 279.84622 281.22101 282.41571 283.47827 284.45255 285.34293
 286.15353 286.88754 287.52582 288.38470
 366.78100 356.34412 345.78524 334.66036 323.07248 311.27560 299.15472 286.96684
 274.68796 262.59408 250.61220 239.92232 230.05344 221.16656 213.35767 206.36879
 200.21191 195.15903 191.75015 189.80127 188.84739 188.92051 189.76463 191.08175
 192.81587 194.91999 197.19211 199.56023 202.01435 204.50347 206.60059 208.45171
 210.08683 211.24095 211.47907 211.71619 211.66231 211.37643 211.01855 210.65767
 210.28378 210.00290 209.82002 209.69314 209.63026 209.97038 210.36550 210.76362
 211.56574 212.75286 214.01198 215.80410 217.74122 219.79334 221.89746 223.98958
 226.05870 228.15182 230.25794 232.37306 234.51118 236.69230 238.95742 241.33654
 243.96666 246.22678 248.23789 250.01201 251.43813 252.57025 253.40137 253.72649
 253.77261 253.55573 252.92485 251.88197 250.49709 248.66721 246.58533 244.42745
 242.22757 240.04069 237.86981 235.71793 233.58705 231.46317 229.49829 227.66441
 225.95653 224.43765 223.07677 221.85789 220.74900 219.71812 218.83124 217.98136
 217.23248 216.42160 215.52872 214.90184 214.36096 214.88176 216.11218 217.90224
 220.12000 222.13567 223.36372 223.60320 223.49193 223.78609 225.30588 226.61621
 227.60818 229.62653 233.27647 237.98328 242.60704 246.80304 250.70222 254.38245
 257.77670 260.88882 263.80087 266.58249 269.21832 271.51028 273.30295 274.95291
 276.67212 278.30606 279.85223 281.22983 282.42743 283.49316 284.46698 285.35843
 286.16669 286.89835 287.53964 288.39587
 366.78100 356.34428 345.78557 334.66085 323.07314 311.27642 299.15571 286.96799
 274.68928 262.59556 250.61385 239.92413 230.05542 221.16870 213.35999 206.37127
 200.21456 195.16184 191.75312 189.80441 188.85069 188.92398 189.76826 191.08555
 192.81983 194.92412 197.19640 199.56469 202.01897 204.50826 206.60554 208.45683
 210.09211 211.24640 211.48468 211.72197 211.66825 211.38253 211.02482 210.66410
 210.29039 210.00967 209.82696 209.70024 209.63753 209.97781 210.37310 210.77138
 211.57367 212.76095 214.02024 215.81252 217.74981 219.80209 221.90637 223.99866
 226.06794 228.16123 230.26751 232.38280 234.52108 236.70237 238.96765 241.34694
 243.97722 246.23751 248.24879 250.02308 251.44936 252.58165 253.41293 253.73822
 253.78450 253.56778 252.93707 251.89435 250.50964 248.67992 246.59821 244.44049
 242.24078 240.05406 237.88335 235.73163 233.60092 231.47720 229.51249 227.67877
 225.97106 224.45234 223.09162 221.87291 220.76419 219.73348 218.84676 217.99705
 217.24833 216.43762 215.54490 214.91819 214.37747 214.90509 216.15166 217.89513
 220.07062 222.10272 223.37328 223.59552 223.42278 223.64264 225.07855 226.40758
 227.58769 229.78255 233.42427 238.10310 242.74141 246.94891 250.82256 254.45454
 257.79950 260.87268 263.76135 266.53448 269.15707 271.43225 273.23068 274.90115
 276.64627 278.29721 279.84485 281.22382 282.42151 283.48627 284.46213 285.35080
 286.15625 286.88358 287.52090 288.37485
 366.78100 356.34418 345.78536 334.66055 323.07273 311.27591 299.15509 286.96727
 274.68846 262.59464 250.61282 239.92300 230.05418 221.16737 213.35855 206.36973
 200.21291 195.16009 191.75128 189.80246 188.84864 188.92182 189.76600 191.08319
 192.81737 194.92155 197.19373 199.56191 202.01610 204.50528 206.60246 208.45364
 210.08882 211.24301 211.48119 211.71837 211.66455 211.37874 211.02092 210.66010
 210.28628 210.00546 209.82265 209.69583 209.63301 209.97319 210.36837 210.76656
 211.56874 212.75592 214.01510 215.80728 217.74447 219.79665 221.90083 223.99301
 226.06219 228.15538 230.26156 232.37674 234.51492 236.69610 238.96129 241.34047
 243.97065 246.23083 248.24201 250.01620 251.44238 252.57456 253.40574 253.73092
 253.77711 253.56029 252.92947 251.88665 250.50183 248.67202 246.59020 244.43238
 242.23256 240.04574 237.87493 235.72311 233.59229 231.46847 229.50365 227.66984
 225.96202 224.44320 223.08238 221.86356 220.75475 219.72393 218.83711 217.98729
 217.23847 216.42766 215.53484 214.90802 214.36720 214.91568 216.21155 217.87875
 219.98857 222.04848 223.36429 223.57411 223.35603 223.52130 224.86078 226.18352
 227.53761 229.91542 233.57640 238.23131 242.88011 247.10268 250.95958 254.55113
 257.85300 260.88565 263.74042 266.49118 269.09695 271.35007 273.11899 274.79514
 276.52798 278.31500 279.87485 281.25095 282.44666 283.51077 284.48752 285.37823
 286.18744 286.91846 287.57437 288.43353
 366.78100 356.34410 345.78520 334.66029 323.07239 311.27549 299.15459 286.96669
 274.68779 262.59388 250.61198 239.92208 230.05318 221.16628 213.35738 206.36847
 200.21157 195.15867 191.74977 189.80087 188.84697 188.92006 189.76416 191.08126
 192.81536 194.91946 197.19155 199.55965 202.01375 204.50285 206.59995 208.45105
 210.08614 211.24024 211.47834 211.71544 211.66154 211.37564 211.01773 210.65683
 210.28293 210.00203 209.81913 209.69223 209.62932 209.96942 210.36452 210.76262
 211.56472 212.75181 214.01091 215.80301 217.74011 219.79221 221.89631 223.98840
 226.05750 228.15060 230.25670 232.37180 234.50990 236.69099 238.95609 241.33519
 243.96529 246.22539 248.23648 250.01058 251.43668 252.56878 253.39988 253.72498
 253.77107 253.55417 252.92327 251.88037 250.49547 248.66557 246.58366 244.42576
 242.22586 240.03896 237.86806 235.71616 233.58525 231.46135 229.49645 227.66255
 225.95465 224.43574 223.07484 221.85594 220.74704 219.71614 218.82924 217.97933
 217.23043 216.41953 215.52663 214.89973 214.35883 214.92546 216.26421 217.89668
 219.86317 221.92941 223.35432 223.57365 223.31493 223.43562 224.67320 225.94644
 227.45718 230.00803 233.70628 238.35477 243.00977 247.24551 251.09753 254.66441
 257.93777 260.94006 263.76389 266.49768 269.08377 271.32022 273.09326 274.78165
 276.54523 278.29068 279.85388 281.23129 282.42581 283.48495 284.45181 285.32724
 286.11044 286.78864 287.34515 288.05435
 366.78100 356.34448 345.78595 334.66143 323.07391 311.27738 299.15686 286.96933
 274.69081 262.59729 250.61576 239.92624 230.05772 221.17119 213.36267 206.37415
 200.21762 195.16510 191.75657 189.80805 188.85453 188.92800 189.77248 191.08996
 192.82443 194.92891 197.20139 199.56986 202.02434 204.51381 206.61129 208.46277
 210.09824 211.25272 211.49120 211.72867 211.67515 211.38963 211.03210 210.67158
 210.29805 210.01753 209.83501 209.70848 209.64596 209.98644 210.38191 210.78039
 211.58287 212.77034 214.02982 215.82229 217.75977 219.81225 221.91672 224.00920
 226.07868 228.17215 230.27863 232.39411 234.53258 236.71406 238.97953 241.35901
 243.98949 246.24996 248.26144 250.03592 251.46239 252.59487 253.42635 253.75182
 253.79830 253.58177 252.95125 251.90873 250.52420 248.69468 246.61316 244.45563
 242.25611 240.06959 237.89906 235.74754 233.61702 231.49349 229.52897 227.69544
 225.98792 224.46940 223.10887 221.89035 220.78183 219.75130 218.86478 218.01526
 217.26673 216.45621 215.56368 214.93716 214.39664 214.95743 216.28233 217.92104
 219.83565 221.87234 223.32082 223.54485 223.26506 223.37325 224.53029 225.75381
 227.37982 230.10535 233.84454 238.46730 243.10956 247.34578 251.19418 254.73929
 257.98944 260.97461 263.78998 266.51236 269.08188 271.32458 273.12469 274.80096
 276.52011 278.29315 279.84598 281.21548 282.40564 283.45914 284.42505 285.30319
 286.10104 286.82590 287.48624 288.36020
 366.78100 356.34498 345.78697 334.66295 323.07593 311.27991 299.15990 286.97288
 274.69486 262.60184 250.62083 239.93181 230.06379 221.17777 213.36976 206.38174
 200.22572 195.17371 191.76569 189.81767 188.86465 188.93864 189.78362 191.10160
 192.83658 194.94157 197.21455 199.58353 202.03851 204.52850 206.62648 208.47846
 210.11444 211.26943 211.50841 211.74639 211.69338 211.40836 211.05134 210.69132
 210.31831 210.03829 209.85627 209.73025 209.66824 210.00922 210.40520 210.80418
 211.60717 212.79515 214.05513 215.84812 217.78610 219.83908 221.94406 224.03705
 226.10703 228.20101 230.30799 232.42398 234.56296 236.74494 239.01092 241.39091
 244.02189 246.28287 248.29486 250.06984 251.49682 252.62980 253.46179 253.78777
 253.83475 253.61873 252.98872 251.94670 250.56268 248.73366 246.65265 244.49563
 242.29661 240.11060 237.94058 235.78956 233.65954 231.53653 229.57251 227.73949
 226.03247 224.51446 223.15444 221.93642 220.82840 219.79839 218.91237 218.06335
 217.31533 216.50532 215.61330 214.98728 214.44727 214.99971 216.30495 217.90515
 219.82918 221.85471 223.27931 223.47305 223.15900 223.27724 224.39302 225.61111
 227.32697 230.18378 233.96222 238.57649 243.20825 247.44470 251.28821 254.81100
 258.03241 260.99127 263.78687 266.48981 269.02756 271.24231 273.06790 274.77979
 276.52716 278.28586 279.84360 281.21588 282.40546 283.46173 284.42825 285.30939
 286.11295 286.84628 287.48453 288.32486
 366.78100 356.34524 345.78748 334.66372 323.07696 311.28120 299.16144 286.97468
 274.69693 262.60417 250.62341 239.93465 230.06689 221.18113 213.37337 206.38561
 200.22985 195.17809 191.77033 189.82257 188.86981 188.94405 189.78930 191.10754
 192.84278 194.94802 197.22126 199.59050 202.04574 204.53598 206.63422 208.48646
 210.12270 211.27794 211.51718 211.75542 211.70266 211.41791 211.06115 210.70139
 210.32863 210.04887 209.86711 209.74135 209.67959 210.02083 210.41707 210.81631
 211.61955 212.80779 214.06803 215.86127 217.79952 219.85276 221.95800 224.05124
 226.12148 228.21572 230.32296 232.43920 234.57844 236.76068 239.02692 241.40716
 244.03840 246.29964 248.31189 250.08713 251.51437 252.64761 253.47985 253.80609
 253.85333 253.63757 253.00781 251.96605 250.58229 248.75353 246.67277 244.51601
 242.31725 240.13150 237.96174 235.81098 233.68122 231.55846 229.59470 227.76194
 226.05518 224.53742 223.17766 221.95990 220.85214 219.82238 218.93662 218.08786
 217.34011 216.53035 215.63859 215.01283 214.47307 215.03011 216.34618 217.89059
 219.77310 221.80676 223.23233 223.38828 223.03734 223.17807 224.25311 225.47900
 227.30473 230.26009 234.08107 238.69814 243.32698 247.57608 251.42636 254.93350
 258.12537 261.04898 263.80768 266.48117 268.98108 271.16183 272.98642 274.73032
 276.51123 278.27881 279.84186 281.21655 282.41122 283.46771 284.43378 285.31708
 286.12628 286.86038 287.48517 288.31909
 366.78100 356.34572 345.78843 334.66515 323.07886 311.28358 299.16430 286.97801
 274.70073 262.60845 250.62816 239.93988 230.07259 221.18731 213.38003 206.39274
 200.23746 195.18617 191.77889 189.83161 188.87932 188.95404 189.79976 191.11847
 192.85419 194.95990 197.23362 199.60334 202.05905 204.54977 206.64848 208.50120
 210.13792 211.29363 211.53335 211.77207 211.71978 211.43550 211.07921 210.71993
 210.34765 210.06836 209.88708 209.76179 209.70051 210.04223 210.43894 210.83866
 211.64238 212.83109 214.09181 215.88552 217.82424 219.87796 221.98367 224.07739
 226.14810 228.24282 230.35054 232.46725 234.60697 236.78968 239.05640 241.43712
 244.06883 246.33055 248.34327 250.11898 251.54670 252.68041 253.51313 253.83985
 253.88756 253.67228 253.04299 252.00171 250.61843 248.79014 246.70986 244.55358
 242.35529 240.17001 238.00072 235.85044 233.72116 231.59887 229.63559 227.80330
 226.09702 224.57974 223.22045 222.00317 220.89589 219.86660 218.98132 218.13303
 217.38575 216.57647 215.68518 215.05990 214.52061 215.06935 216.36581 217.90176
 219.72438 221.71681 223.14984 223.30719 222.93860 223.10898 224.12984 225.34389
 227.26276 230.31458 234.18864 238.81416 243.43680 247.69487 251.55258 255.05161
 258.22495 261.12491 263.85352 266.49576 268.95645 271.10266 272.92264 274.66986
 276.50677 278.28305 279.84561 281.21930 282.40948 283.46341 284.42215 285.30130
 286.11273 286.84686 287.46466 288.30200
 366.78100 356.34658 345.79015 334.66773 323.08231 311.28789 299.16946 286.98404
 274.70762 262.61619 250.63677 239.94935 230.08292 221.19850 213.39208 206.40566
 200.25123 195.20081 191.79439 189.84796 188.89654 188.97212 189.81870 191.13827
 192.87485 194.98143 197.25600 199.62658 202.08316 204.57473 206.67431 208.52789
 210.16547 211.32204 211.56262 211.80220 211.75077 211.46735 211.11193 210.75350
 210.38208 210.10366 209.92324 209.79881 209.73839 210.08097 210.47854 210.87912
 211.68370 212.87328 214.13485 215.92943 217.86901 219.92358 222.03016 224.12474
 226.19631 228.29189 230.40047 232.51805 234.65862 236.84220 239.10978 241.49135
 244.12393 246.38651 248.40009 250.17666 251.60524 252.73982 253.57339 253.90097
 253.94955 253.73512 253.10670 252.06628 250.68386 248.85643 246.77701 244.62159
 242.42416 240.23974 238.07132 235.92189 233.79347 231.67205 229.70963 227.87820
 226.17278 224.65636 223.29793 222.08151 220.97509 219.94667 219.06224 218.21482
 217.46840 216.65997 215.76955 215.14513 214.60670 215.12796 216.35950 217.89772
 219.72452 221.66258 223.03195 223.14832 222.80075 223.04016 224.02020 225.25391
 227.25920 230.37097 234.29918 238.93077 243.53854 247.79312 251.66287 255.16289
 258.32513 261.20096 263.89520 266.50534 268.91580 271.01544 272.83414 274.66507
 276.48911 278.26959 279.83289 281.20956 282.40332 283.46432 284.43814 285.32849
 286.12762 286.82883 287.45050 288.27646
 366.78100 356.34618 345.78937 334.66655 323.08073 311.28591 299.16710 286.98128
 274.70446 262.61264 250.63283 239.94501 230.07819 221.19338 213.38656 206.39974
 200.24492 195.19411 191.78729 189.84047 188.88866 188.96384 189.81002 191.12920
 192.86539 194.97157 197.24575 199.61593 202.07212 204.56330 206.66248 208.51567
 210.15285 211.30903 211.54921 211.78840 211.73658 211.45276 211.09694 210.73813
 210.36631 210.08749 209.90668 209.78186 209.72104 210.06322 210.46041 210.86059
 211.66477 212.85396 214.11514 215.90932 217.84850 219.90269 222.00887 224.10305
 226.17423 228.26942 230.37760 232.49478 234.63497 236.81815 239.08533 241.46651
 244.09870 246.36088 248.37406 250.15024 251.57843 252.71261 253.54579 253.87298
 253.92116 253.70634 253.07752 252.03671 250.65389 248.82607 246.74626 244.59044
 242.39262 240.20780 238.03899 235.88917 233.76035 231.63853 229.67572 227.84390
 226.13808 224.62127 223.26245 222.04563 220.93881 219.91000 219.02518 218.17736
 217.43054 216.62173 215.73091 215.10609 214.56728 215.12582 216.44547 217.79570
 219.66066 221.65907 222.98447 222.96997 222.55640 222.90727 223.84384 225.10429
 227.22682 230.41423 234.41240 239.05972 243.67340 247.96751 251.85533 255.35608
 258.50510 261.34784 263.98557 266.53406 268.88358 270.92484 272.71295 274.49689
 276.53052 278.32010 279.87836 281.25345 282.44867 283.51169 284.49026 285.37997
 286.17566 286.90128 287.55820 288.39539
 366.78100 356.34526 345.78751 334.66377 323.07703 311.28128 299.16154 286.97480
 274.69705 262.60431 250.62357 239.93482 230.06708 221.18134 213.37359 206.38585
 200.23011 195.17836 191.77062 189.82288 188.87013 188.94439 189.78965 191.10790
 192.84316 194.94842 197.22167 199.59093 202.04619 204.53644 206.63470 208.48696
 210.12321 211.27847 211.51773 211.75598 211.70324 211.41850 211.06175 210.70201
 210.32927 210.04952 209.86778 209.74204 209.68029 210.02155 210.41781 210.81707
 211.62032 212.80858 214.06884 215.86209 217.80035 219.85361 221.95886 224.05212
 226.12238 228.21663 230.32389 232.44015 234.57940 236.76166 239.02792 241.40817
 244.03943 246.30069 248.31294 250.08820 251.51546 252.64871 253.48097 253.80723
 253.85448 253.63874 253.00900 251.96725 250.58351 248.75477 246.67402 244.51728
 242.31854 240.13279 237.96305 235.81231 233.68256 231.55982 229.59608 227.76333
 226.05659 224.53885 223.17910 221.96136 220.85362 219.82387 218.93813 218.08939
 217.34164 216.53190 215.64016 215.01441 214.47467 215.09738 216.57076 217.76149
 219.37950 221.45473 223.00900 223.02275 222.46849 222.70364 223.47908 224.95477
 227.09305 230.41194 234.52869 239.16319 243.76227 248.06050 252.04370 255.59828
 258.75507 261.58713 264.20074 266.66513 268.90662 270.86157 272.53049 274.55801
 276.53177 278.29092 279.79105 281.14835 282.33701 283.39377 284.36633 285.25760
 286.06168 286.77771 287.40323 288.20038
 366.78100 356.34590 345.78880 334.66570 323.07960 311.28450 299.16540 286.97930
 274.70220 262.61010 250.63000 239.94191 230.07481 221.18971 213.38261 206.39551
 200.24041 195.18931 191.78221 189.83511 188.88301 188.95791 189.80381 191.12271
 192.85861 194.96451 197.23841 199.60831 202.06421 204.55511 206.65401 208.50691
 210.14382 211.29972 211.53962 211.77852 211.72642 211.44232 211.08622 210.72712
 210.35502 210.07592 209.89482 209.76972 209.70862 210.05052 210.44742 210.84732
 211.65122 212.84012 214.10102 215.89492 217.83382 219.88773 221.99363 224.08753
 226.15843 228.25333 230.36123 232.47813 234.61803 236.80093 239.06783 241.44873
 244.08063 246.34253 248.35543 250.13133 251.55923 252.69313 253.52603 253.85293
 253.90083 253.68573 253.05663 252.01554 250.63244 248.80434 246.72424 244.56814
 242.37004 240.18494 238.01584 235.86574 233.73664 231.61454 229.65144 227.81934
 226.11324 224.59614 223.23704 222.01994 220.91284 219.88374 218.99864 218.15054
 217.40345 216.59435 215.70325 215.07815 214.53905 215.13907 216.56424 217.84915
 219.20302 221.19405 222.96915 223.14101 222.51237 222.56326 223.26433 224.90358
 227.04099 230.46016 234.62152 239.25792 243.82993 248.16045 252.19435 255.79375
 258.96640 261.77786 264.35327 266.76489 268.94131 270.80170 272.50595 274.52087
 276.46521 278.18106 279.63489 280.97882 282.14392 283.18701 284.15475 285.04608
 285.84775 286.56161 287.18524 287.97998
 366.78100 356.34688 345.79076 334.66864 323.08352 311.28940 299.17128 286.98616
 274.71004 262.61892 250.63980 239.95268 230.08656 221.20245 213.39633 206.41021
 200.25609 195.20597 191.79985 189.85373 188.90261 188.97849 189.82537 191.14525
 192.88213 194.98901 197.26389 199.63477 202.09165 204.58353 206.68341 208.53729
 210.17517 211.33205 211.57293 211.81281 211.76169 211.47857 211.12345 210.76534
 210.39422 210.11610 209.93598 209.81186 209.75174 210.09462 210.49250 210.89338
 211.69826 212.88814 214.15002 215.94490 217.88478 219.93966 222.04654 224.14142
 226.21330 228.30918 230.41806 232.53594 234.67682 236.86070 239.12858 241.51046
 244.14335 246.40623 248.42011 250.19699 251.62587 252.76075 253.59463 253.92251
 253.97139 253.75727 253.12915 252.08903 250.70691 248.87979 246.80067 244.64555
 242.44843 240.26431 238.09619 235.94707 233.81895 231.69783 229.73571 227.90459
 226.19947 224.68335 223.32524 222.10912 221.00300 219.97488 219.09076 218.24364
 217.49752 216.68940 215.79928 215.17516 214.63704 215.19621 216.52983 217.90326
 219.16643 221.02437 222.84477 223.13884 222.55150 222.49016 223.16373 224.82031
 226.96121 230.45547 234.66095 239.30432 243.86662 248.19702 252.24139 255.86829
 259.07437 261.91580 264.49658 266.89783 269.05716 270.90268 272.55789 274.50839
 276.41080 278.01514 279.31735 280.62073 281.76837 282.80548 283.78040 284.69388
 285.51544 286.24707 286.88620 287.70068
 366.78100 356.34724 345.79147 334.66971 323.08494 311.29118 299.17341 286.98865
 274.71289 262.62212 250.64336 239.95659 230.09083 221.20706 213.40130 206.41554
 200.26177 195.21201 191.80624 189.86048 188.90972 188.98595 189.83319 191.15342
 192.89066 194.99789 197.27313 199.64437 202.10160 204.59384 206.69407 208.54831
 210.18654 211.34378 211.58502 211.82525 211.77449 211.49172 211.13696 210.77919
 210.40843 210.13067 209.95090 209.82714 209.76737 210.11061 210.50885 210.91008
 211.71532 212.90555 214.16779 215.96302 217.90326 219.95850 222.06573 224.16097
 226.23320 228.32944 230.43867 232.55691 234.69815 236.88238 239.15062 241.53285
 244.16609 246.42932 248.44356 250.22080 251.65003 252.78527 253.61950 253.94774
 253.99698 253.78321 253.15545 252.11568 250.73392 248.90715 246.82839 244.67363
 242.47686 240.29310 238.12533 235.97657 233.84880 231.72804 229.76628 227.93551
 226.23075 224.71498 223.35722 222.14145 221.03569 220.00793 219.12416 218.27740
 217.53163 216.72387 215.83411 215.21034 214.67258 215.22171 216.53343 217.91055
 219.15778 220.87395 222.64969 223.03825 222.57970 222.45354 223.09068 224.75356
 226.92204 230.48457 234.75404 239.34924 243.89992 248.23830 252.28700 255.92712
 259.15128 262.01172 264.61169 267.02750 269.19955 271.06924 272.72116 274.55481
 276.40652 277.97296 279.21912 280.45380 281.59637 282.63098 283.59311 284.47696
 285.27191 285.97980 286.59821 287.38629
 366.78100 356.34757 345.79214 334.67071 323.08628 311.29285 299.17542 286.99099
 274.71556 262.62513 250.64670 239.96027 230.09484 221.21141 213.40598 206.42055
 200.26712 195.21769 191.81226 189.86683 188.91640 188.99298 189.84055 191.16112
 192.89869 195.00626 197.28183 199.65340 202.11097 204.60354 206.70411 208.55868
 210.19725 211.35482 211.59639 211.83696 211.78653 211.50410 211.14967 210.79224
 210.42181 210.14438 209.96495 209.84152 209.78209 210.12566 210.52423 210.92580
 211.73137 212.92194 214.18451 215.98008 217.92065 219.97622 222.08379 224.17936
 226.25193 228.34850 230.45807 232.57664 234.71821 236.90278 239.17135 241.55393
 244.18750 246.45107 248.46564 250.24321 251.67278 252.80835 253.64292 253.97149
 254.02106 253.80763 253.18020 252.14077 250.75934 248.93291 246.85448 244.70005
 242.50362 240.32019 238.15276 236.00433 233.87690 231.75647 229.79504 227.96461
 226.26018 224.74475 223.38732 222.17189 221.06646 220.03903 219.15560 218.30917
 217.56374 216.75631 215.86688 215.24345 214.70602 215.24562 216.53812 217.90149
 219.18466 220.70982 222.45528 222.94894 222.56351 222.37019 223.00844 224.70198
 226.94080 230.55252 234.88338 239.42810 243.95000 248.29224 252.34064 255.97826
 259.21536 262.10294 264.71848 267.15570 269.34482 271.23355 272.92035 274.67905
 276.45593 278.00290 279.25409 280.51224 281.68390 282.74347 283.76187 284.69458
 285.53348 286.28049 286.93307 287.76471
 366.78100 356.34790 345.79279 334.67169 323.08758 311.29448 299.17737 286.99327
 274.71817 262.62806 250.64996 239.96385 230.09875 221.21564 213.41054 206.42544
 200.27233 195.22323 191.81812 189.87302 188.92291 188.99981 189.84771 191.16860
 192.90650 195.01439 197.29029 199.66218 202.12008 204.61298 206.71387 208.56877
 210.20766 211.36556 211.60745 211.84835 211.79825 211.51614 211.16204 210.80493
 210.43483 210.15772 209.97862 209.85552 209.79641 210.14031 210.53920 210.94110
 211.74699 212.93789 214.20079 215.99668 217.93758 219.99347 222.10137 224.19726
 226.27016 228.36706 230.47695 232.59585 234.73774 236.92264 239.19153 241.57443
 244.20833 246.47222 248.48712 250.26501 251.69491 252.83080 253.66570 253.99460
 254.04449 253.83139 253.20428 252.16518 250.78407 248.95797 246.87987 244.72576
 242.52966 240.34655 238.17945 236.03134 233.90424 231.78414 229.82303 227.99293
 226.28882 224.77372 223.41661 222.20151 221.09641 220.06930 219.18620 218.34009
 217.59499 216.78788 215.89878 215.27568 214.73857 215.26785 216.53807 217.87877
 219.23274 220.65422 222.31870 222.78918 222.42422 222.25018 222.97304 224.64754
 226.97165 230.62668 235.01724 239.54738 244.02173 248.34282 252.37601 256.00696
 259.25595 262.16406 264.79507 267.25055 269.43567 271.31161 273.00632 274.76028
 276.51654 278.03146 279.32693 280.65536 281.83820 282.90247 283.90967 284.82214
 285.64282 286.37363 287.01202 287.82562
 366.78100 356.34776 345.79252 334.67128 323.08704 311.29380 299.17656 286.99232
 274.71708 262.62684 250.64860 239.96236 230.09712 221.21388 213.40864 206.42340
 200.27016 195.22092 191.81568 189.87044 188.92020 188.99695 189.84471 191.16547
 192.90323 195.01099 197.28675 199.65851 202.11627 204.60903 206.70979 208.56455
 210.20331 211.36107 211.60283 211.84359 211.79335 211.51111 211.15687 210.79963
 210.42939 210.15215 209.97291 209.84967 209.79043 210.13419 210.53295 210.93471
 211.74047 212.93123 214.19399 215.98975 217.93051 219.98627 222.09403 224.18979
 226.26255 228.35931 230.46907 232.58783 234.72959 236.91435 239.18310 241.56586
 244.19962 246.46338 248.47814 250.25590 251.68566 252.82142 253.65618 253.98494
 254.03470 253.82146 253.19422 252.15498 250.77374 248.94750 246.86926 244.71502
 242.51878 240.33554 238.16830 236.02006 233.89282 231.77258 229.81134 227.98110
 226.27686 224.76162 223.40438 222.18914 221.08390 220.05666 219.17342 218.32718
 217.58194 216.77470 215.88546 215.26222 214.72498 215.26097 216.54166 217.85942
 219.23718 220.58980 222.16634 222.55200 222.18320 222.04855 222.91759 224.53386
 226.97517 230.70497 235.17955 239.72322 244.15436 248.43791 252.44856 256.04999
 259.30359 262.20743 264.84067 267.29706 269.47156 271.33392 273.05673 274.80960
 276.52560 278.02554 279.32449 280.62766 281.79965 282.84009 283.80811 284.69608
 285.49469 286.20587 286.82715 287.61890
 366.78100 356.34747 345.79194 334.67041 323.08588 311.29236 299.17483 286.99030
 274.71477 262.62424 250.64571 239.95918 230.09365 221.21013 213.40460 206.41907
 200.26554 195.21601 191.81048 189.86495 188.91442 188.99090 189.83837 191.15884
 192.89631 195.00378 197.27925 199.65072 202.10819 204.60067 206.70114 208.55561
 210.19408 211.35155 211.59302 211.83349 211.78296 211.50043 211.14591 210.78838
 210.41785 210.14032 209.96079 209.83726 209.77773 210.12120 210.51968 210.92115
 211.72662 212.91709 214.17956 215.97503 217.91550 219.97097 222.07845 224.17392
 226.24639 228.34286 230.45233 232.57080 234.71227 236.89674 239.16522 241.54769
 244.18116 246.44463 248.45910 250.23657 251.66604 252.80151 253.63598 253.96446
 254.01393 253.80040 253.17287 252.13334 250.75181 248.92528 246.84675 244.69223
 242.49570 240.31217 238.14464 235.99611 233.86858 231.74805 229.78652 227.95600
 226.25147 224.73594 223.37841 222.16288 221.05735 220.02982 219.14629 218.29977
 217.55424 216.74671 215.85718 215.23365 214.69612 215.25096 216.57585 217.82776
 219.27057 220.58879 222.14345 222.52255 222.01672 221.83443 222.75899 224.45979
 227.00128 230.79446 235.31071 239.87943 244.31171 248.58260 252.59013 256.17892
 259.32736 262.28400 264.90842 267.30167 269.42975 271.27328 273.01663 274.79593
 276.51260 277.97778 279.31604 280.58685 281.74664 282.81400 283.81784 284.72726
 285.54517 286.27353 286.90982 287.72067
 366.78100 356.34738 345.79176 334.67014 323.08552 311.29189 299.17427 286.98965
 274.71403 262.62341 250.64479 239.95817 230.09255 221.20893 213.40330 206.41768
 200.26406 195.21444 191.80882 189.86320 188.91258 188.98896 189.83634 191.15671
 192.89409 195.00147 197.27685 199.64823 202.10561 204.59799 206.69837 208.55275
 210.19112 211.34850 211.58988 211.83026 211.77964 211.49702 211.14240 210.78478
 210.41416 210.13653 209.95691 209.83329 209.77367 210.11705 210.51543 210.91681
 211.72219 212.91257 214.17494 215.97032 217.91070 219.96608 222.07346 224.16884
 226.24122 228.33760 230.44698 232.56535 234.70673 236.89111 239.15949 241.54187
 244.17525 246.43863 248.45301 250.23039 251.65976 252.79514 253.62952 253.95790
 254.00728 253.79366 253.16604 252.12642 250.74480 248.91818 246.83955 244.68493
 242.48831 240.30469 238.13707 235.98845 233.86083 231.74021 229.77859 227.94796
 226.24334 224.72772 223.37010 222.15448 221.04886 220.02124 219.13762 218.29100
 217.54537 216.73775 215.84813 215.22451 214.68689 215.25851 216.61949 217.79649
 219.28603 220.73953 222.26668 222.54091 221.89497 221.64664 222.56467 224.38503
 226.99771 230.88570 235.42279 240.01921 244.47673 248.74287 252.74896 256.33160
 259.43881 262.29974 264.97729 267.39273 269.47382 271.27744 273.01303 274.79431
 276.43646 277.79929 279.21301 280.61328 281.91544 283.06750 284.11859 285.07080
 285.92719 286.68982 287.35605 288.20508
 366.78100 356.34770 345.79239 334.67109 323.08678 311.29348 299.17618 286.99187
 274.71657 262.62626 250.64796 239.96166 230.09635 221.21305 213.40774 206.42244
 200.26914 195.21983 191.81453 189.86922 188.91892 188.99562 189.84331 191.16401
 192.90170 195.00940 197.28510 199.65679 202.11449 204.60718 206.70788 208.56258
 210.20127 211.35897 211.60066 211.84136 211.79106 211.50875 211.15445 210.79714
 210.42684 210.14953 209.97023 209.84693 209.78762 210.13132 210.53001 210.93171
 211.73741 212.92810 214.19080 215.98649 217.92719 219.98289 222.09058 224.18628
 226.25897 228.35567 230.46537 232.58406 234.72576 236.91045 239.17915 241.56185
 244.19554 246.45924 248.47393 250.25163 251.68133 252.81702 253.65172 253.98041
 254.03011 253.81681 253.18950 252.15020 250.76889 248.94259 246.86429 244.70998
 242.51368 240.33037 238.16307 236.01477 233.88746 231.76716 229.80585 227.97555
 226.27125 224.75594 223.39864 222.18333 221.07803 220.05073 219.16742 218.32112
 217.57581 216.76851 215.87921 215.25590 214.71860 215.28510 216.62883 217.78542
 219.29332 220.85405 222.32402 222.43724 221.66689 221.44751 222.35609 224.16801
 226.90503 230.92206 235.55357 240.17827 244.65421 248.91527 252.88641 256.48120
 259.64182 262.49777 265.13098 267.47372 269.50095 271.27209 273.00586 274.80444
 276.31357 277.96869 279.64496 281.18857 282.52448 283.70636 284.78470 285.76157
 286.64017 287.42255 288.10605 288.97705
 366.78100 356.34802 345.79304 334.67207 323.08809 311.29511 299.17813 286.99416
 274.71918 262.62920 250.65122 239.96525 230.10027 221.21729 213.41231 206.42734
 200.27436 195.22538 191.82040 189.87542 188.92545 189.00247 189.85049 191.17151
 192.90954 195.01756 197.29358 199.66560 202.12363 204.61665 206.71767 208.57269
 210.21172 211.36974 211.61176 211.85278 211.80280 211.52083 211.16685 210.80987
 210.43989 210.16292 209.98394 209.86096 209.80198 210.14601 210.54503 210.94705
 211.75307 212.94410 214.20712 216.00314 217.94416 220.00019 222.10821 224.20423
 226.27725 228.37427 230.48430 232.60332 234.74534 236.93036 239.19939 241.58241
 244.21643 246.48045 248.49548 250.27350 251.70352 252.83954 253.67457 254.00359
 254.05361 253.84063 253.21365 252.17468 250.79370 248.96772 246.88974 244.73577
 242.53979 240.35681 238.18983 236.04186 233.91488 231.79490 229.83392 228.00395
 226.29997 224.78499 223.42801 222.21303 221.10806 220.08108 219.19810 218.35212
 217.60715 216.80017 215.91119 215.28821 214.75124 215.29999 216.60886 217.77124
 219.28728 220.89894 222.20039 222.18661 221.41924 221.32518 222.17868 224.06903
 226.91437 231.00845 235.68492 240.31557 244.80350 249.05502 252.97949 256.55396
 259.75708 262.64291 265.26633 267.62384 269.66458 271.42371 273.16595 274.94043
 276.53619 278.25082 279.88467 281.38126 282.67642 283.82233 284.86777 285.81488
 286.66669 287.42523 288.08789 288.93237
 366.78100 356.34772 345.79244 334.67116 323.08688 311.29360 299.17632 286.99203
 274.71675 262.62647 250.64819 239.96191 230.09663 221.21335 213.40807 206.42279
 200.26951 195.22023 191.81495 189.86966 188.91938 188.99610 189.84382 191.16454
 192.90226 195.00998 197.28570 199.65742 202.11514 204.60786 206.70858 208.56329
 210.20201 211.35973 211.60145 211.84217 211.79189 211.50961 211.15533 210.79805
 210.42777 210.15049 209.97121 209.84792 209.78864 210.13236 210.53108 210.93280
 211.73852 212.92924 214.19196 215.98768 217.92840 219.98412 222.09184 224.18755
 226.26027 228.35699 230.46671 232.58543 234.72715 236.91187 239.18059 241.56331
 244.19703 246.46075 248.47547 250.25318 251.68290 252.81862 253.65334 253.98206
 254.03178 253.81850 253.19122 252.15194 250.77066 248.94438 246.86610 244.71181
 242.51553 240.33225 238.16497 236.01669 233.88941 231.76913 229.80785 227.97757
 226.27329 224.75801 223.40073 222.18544 221.08016 220.05288 219.16960 218.32332
 217.57804 216.77076 215.88148 215.25820 214.72092 215.27469 216.59767 217.75833
 219.21179 220.89447 222.09564 221.97841 221.19731 221.11800 222.04231 224.04843
 227.03142 231.13026 235.79439 240.43997 244.93764 249.20222 253.08075 256.56528
 259.72696 262.61124 265.23944 267.62225 269.70496 271.52072 273.27454 275.02597
 276.60379 278.13913 279.59543 280.97980 282.20721 283.29315 284.28391 285.18146
 285.98871 286.70755 287.33554 288.13583
 366.78100 356.34711 345.79123 334.66934 323.08445 311.29057 299.17268 286.98779
 274.71190 262.62102 250.64213 239.95524 230.08936 221.20547 213.39958 206.41370
 200.25981 195.20992 191.80404 189.85815 188.90726 188.98337 189.83049 191.15060
 192.88771 194.99483 197.26994 199.64105 202.09817 204.59028 206.69039 208.54451
 210.18262 211.33973 211.58085 211.82096 211.77007 211.48718 211.13230 210.77441
 210.40352 210.12564 209.94575 209.82186 209.76198 210.10509 210.50320 210.90432
 211.70943 212.89954 214.16165 215.95677 217.89688 219.95199 222.05911 224.15422
 226.22633 228.32245 230.43156 232.54967 234.69079 236.87490 239.14301 241.52512
 244.15824 246.42135 248.43546 250.21258 251.64169 252.77680 253.61092 253.93903
 253.98814 253.77426 253.14637 252.10648 250.72459 248.89771 246.81882 244.66393
 242.46705 240.28316 238.11527 235.96639 233.83850 231.71761 229.75573 227.92484
 226.21995 224.70406 223.34618 222.13029 221.02440 219.99652 219.11263 218.26574
 217.51986 216.71197 215.82208 215.19820 214.66031 215.24245 216.62314 217.74669
 219.17157 220.88069 222.15662 221.95816 220.98201 220.86552 221.78705 223.86415
 226.99702 231.19940 235.90717 240.57390 245.10971 249.37881 253.25188 256.68976
 259.78955 262.63147 265.22534 267.58313 269.65225 271.48657 273.29950 275.04520
 276.59174 277.99637 279.37604 280.78503 282.02069 283.11395 284.11139 285.01498
 285.82767 286.55136 287.18359 287.98926
 366.78100 356.34663 345.79027 334.66790 323.08253 311.28816 299.16980 286.98443
 274.70806 262.61669 250.63733 239.94996 230.08359 221.19922 213.39286 206.40649
 200.25212 195.20175 191.79539 189.84902 188.89765 188.97328 189.81992 191.13955
 192.87618 194.98281 197.25745 199.62808 202.08471 204.57635 206.67598 208.52961
 210.16724 211.32388 211.56451 211.80414 211.75277 211.46941 211.11404 210.75567
 210.38430 210.10594 209.92557 209.80120 209.74083 210.08347 210.48110 210.88173
 211.68636 212.87600 214.13763 215.93226 217.87189 219.92653 222.03316 224.12779
 226.19942 228.29506 230.40369 232.52132 234.66196 236.84559 239.11322 241.49485
 244.12749 246.39012 248.40375 250.18038 251.60902 252.74365 253.57728 253.90491
 253.95355 253.73918 253.11081 252.07044 250.68808 248.86071 246.78134 244.62597
 242.42861 240.24424 238.07587 235.92650 233.79814 231.67677 229.71440 227.88304
 226.17767 224.66130 223.30293 222.08657 220.98020 219.95183 219.06746 218.22010
 217.47373 216.66536 215.77499 215.15063 214.61226 215.21855 216.64357 217.72655
 219.16942 220.86514 222.13609 221.92191 220.87917 220.64435 221.48689 223.79713
 226.99265 231.28119 236.03499 240.72346 245.26512 249.51880 253.37424 256.79346
 259.87473 262.71378 265.31143 267.66174 269.72748 271.56174 273.39575 275.15714
 276.63937 277.94254 279.44208 280.88892 282.14102 283.24881 284.25952 285.17514
 285.99863 286.73196 287.37259 288.18896
 366.78100 356.34619 345.78938 334.66657 323.08076 311.28595 299.16713 286.98132
 274.70451 262.61270 250.63289 239.94508 230.07827 221.19346 213.38665 206.39984
 200.24502 195.19421 191.78740 189.84059 188.88878 188.96397 189.81016 191.12935
 192.86554 194.97173 197.24591 199.61610 202.07229 204.56348 206.66267 208.51586
 210.15305 211.30924 211.54943 211.78862 211.73680 211.45299 211.09718 210.73837
 210.36656 210.08775 209.90694 209.78213 209.72132 210.06351 210.46069 210.86088
 211.66507 212.85426 214.11545 215.90964 217.84883 219.90302 222.00921 224.10340
 226.17458 228.26977 230.37796 232.49515 234.63534 236.81853 239.08572 241.46691
 244.09910 246.36129 248.37448 250.15066 251.57885 252.71304 253.54623 253.87342
 253.92161 253.70680 253.07799 252.03718 250.65437 248.82655 246.74674 244.59093
 242.39312 240.20831 238.03950 235.88969 233.76088 231.63907 229.67626 227.84444
 226.13863 224.62182 223.26301 222.04620 220.93939 219.91058 219.02577 218.17796
 217.43115 216.62233 215.73152 215.10671 214.56790 215.18877 216.64659 217.71744
 219.13008 220.83011 222.05659 221.81706 220.73997 220.36989 221.29750 223.79256
 227.07425 231.38757 236.15421 240.86891 245.42186 249.67416 253.51241 256.90115
 259.92889 262.73502 265.33191 267.67932 269.76260 271.64914 273.51535 275.25256
 276.61865 277.78088 279.10275 280.53186 281.78247 282.88898 283.89847 284.81302
 285.63553 286.36801 287.00787 287.82330
 366.78100 356.34596 345.78893 334.66589 323.07986 311.28482 299.16578 286.97975
 274.70271 262.61067 250.63064 239.94260 230.07557 221.19053 213.38349 206.39646
 200.24142 195.19038 191.78335 189.83631 188.88428 188.95924 189.80520 191.12417
 192.86013 194.96609 197.24006 199.61002 202.06599 204.55695 206.65591 208.50888
 210.14584 211.30181 211.54177 211.78073 211.72870 211.44466 211.08862 210.72959
 210.35755 210.07852 209.89748 209.77244 209.71141 210.05337 210.45033 210.85030
 211.65426 212.84323 214.10419 215.89815 217.83712 219.89108 221.99705 224.09101
 226.16197 228.25694 230.36490 232.48186 234.62183 236.80479 239.07176 241.45272
 244.08468 246.34665 248.35961 250.13557 251.56354 252.69750 253.53047 253.85743
 253.90539 253.69036 253.06132 252.02028 250.63725 248.80921 246.72918 244.57314
 242.37510 240.19007 238.02103 235.87100 233.74196 231.61992 229.65689 227.82485
 226.11881 224.60178 223.24274 222.02571 220.91867 219.88963 219.00460 218.15656
 217.40952 216.60049 215.70945 215.08442 214.54538 215.17294 216.64616 217.72275
 219.09673 220.78496 222.05580 221.78467 220.59198 220.07990 221.01120 223.73499
 227.10950 231.48798 236.28021 241.01723 245.58662 249.84886 253.67953 257.05966
 260.04944 262.79028 265.34756 267.66492 269.74072 271.62863 273.48383 275.23541
 276.60641 277.69595 279.01190 280.44934 281.69333 282.79391 283.79803 284.70773
 285.52588 286.25446 286.89090 287.70200
 366.78100 356.34579 345.78858 334.66537 323.07916 311.28395 299.16474 286.97852
 274.70131 262.60910 250.62889 239.94068 230.07347 221.18826 213.38105 206.39384
 200.23863 195.18742 191.78021 189.83300 188.88078 188.95557 189.80136 191.12015
 192.85594 194.96173 197.23552 199.60531 202.06110 204.55189 206.65068 208.50347
 210.14026 211.29604 211.53583 211.77462 211.72241 211.43820 211.08199 210.72278
 210.35057 210.07136 209.89015 209.76494 209.70373 210.04552 210.44230 210.84209
 211.64588 212.83467 214.09546 215.88925 217.82804 219.88183 221.98762 224.08141
 226.15220 228.24699 230.35478 232.47156 234.61135 236.79414 239.06093 241.44172
 244.07351 246.33530 248.34809 250.12388 251.55167 252.68546 253.51825 253.84504
 253.89282 253.67761 253.04840 252.00719 250.62398 248.79577 246.71556 244.55935
 242.36114 240.17593 238.00672 235.85651 233.72730 231.60509 229.64187 227.80966
 226.10345 224.58624 223.22703 222.00982 220.90261 219.87340 218.98819 218.13998
 217.39277 216.58356 215.69235 215.06713 214.52792 215.15221 216.62463 217.72314
 219.05083 220.68881 221.85368 221.56520 220.41559 219.90446 220.91812 223.72383
 227.23724 231.61757 236.40399 241.15553 245.73402 250.00703 253.83591 257.21646
 260.20068 262.90219 265.41724 267.73001 269.82013 271.74847 273.64755 275.35629
 276.47156 277.12665 277.88672 279.17596 280.41757 281.51608 282.51834 283.42627
 284.24289 284.97006 285.60532 286.41489
 366.78100 356.34513 345.78725 334.66338 323.07651 311.28063 299.16076 286.97388
 274.69601 262.60314 250.62226 239.93339 230.06552 221.17964 213.37177 206.38390
 200.22802 195.17615 191.76828 189.82040 188.86753 188.94165 189.78678 191.10491
 192.84003 194.94516 197.21829 199.58741 202.04254 204.53267 206.63079 208.48292
 210.11904 211.27417 211.51330 211.75142 211.69855 211.41368 211.05680 210.69693
 210.32406 210.04418 209.86231 209.73643 209.67456 210.01569 210.41181 210.81094
 211.61407 212.80219 214.06232 215.85545 217.79357 219.84670 221.95183 224.04495
 226.11508 228.20920 230.31633 232.43246 234.57158 236.75371 239.01984 241.39996
 244.03109 246.29222 248.30434 250.07947 251.50659 252.63972 253.47185 253.79797
 253.84510 253.62923 252.99935 251.95748 250.57361 248.74473 246.66386 244.50699
 242.30811 240.12224 237.95236 235.80149 233.67162 231.54874 229.58487 227.75200
 226.04512 224.52725 223.16738 221.94950 220.84163 219.81175 218.92588 218.07701
 217.32913 216.51926 215.62739 215.00151 214.46164 215.09720 216.60150 217.75610
 218.92020 220.49355 221.66382 221.23936 220.04472 219.56703 220.90781 223.55998
 227.38403 231.71616 236.50908 241.27251 245.84163 250.09694 253.93417 257.33542
 260.33951 263.02133 265.46170 267.74005 269.87064 271.86047 273.74118 275.41742
 276.57715 277.19446 277.49478 277.72815 278.45242 279.42166 280.43948 281.36157
 282.19089 282.92938 283.57452 284.39670
 366.78100 356.34437 345.78574 334.66111 323.07348 311.27686 299.15623 286.96860
 274.68997 262.59634 250.61471 239.92508 230.05645 221.16983 213.36120 206.37257
 200.21594 195.16331 191.75468 189.80605 188.85242 188.92580 189.77017 191.08754
 192.82191 194.92628 197.19865 199.56702 202.02139 204.51077 206.60814 208.45951
 210.09488 211.24925 211.48762 211.72499 211.67136 211.38574 211.02811 210.66748
 210.29385 210.01322 209.83059 209.70396 209.64133 209.98171 210.37708 210.77545
 211.57782 212.76519 214.02456 215.81693 217.75430 219.80668 221.91105 224.00342
 226.07279 228.16616 230.27253 232.38790 234.52627 236.70765 238.97302 241.35239
 243.98276 246.24313 248.25450 250.02887 251.45524 252.58762 253.41899 253.74436
 253.79073 253.57410 252.94347 251.90084 250.51621 248.68659 246.60496 244.44733
 242.24770 240.06107 237.89044 235.73881 233.60818 231.48456 229.51993 227.68630
 225.97867 224.46004 223.09941 221.88078 220.77215 219.74153 218.85490 218.00527
 217.25664 216.44601 215.55338 214.92675 214.38612 215.04439 216.60071 217.79106
 218.90700 220.48672 221.69608 221.09889 219.73486 219.17914 220.67087 223.35176
 227.46054 231.81244 236.62740 241.40771 245.98239 250.23045 254.05945 257.47357
 260.50446 263.20300 265.60519 267.77097 269.82101 271.81589 273.73593 275.41180
 276.55624 277.17377 277.45004 277.69669 278.16959 278.87814 279.77783 280.68695
 281.51443 282.25128 282.89502 283.71533
 354.97500 345.04800 334.58700 324.11500 313.32600 302.53700 291.65000 280.76700
 269.93100 259.19300 248.62200 238.61700 229.08700 220.35500 212.54000 205.53500
 199.46400 194.49300 191.14300 189.19000 188.08900 188.01400 188.72400 189.90600
 191.46900 193.38200 195.40300 197.55600 199.80700 202.06000 204.28800 206.47900
 208.55200 210.37800 212.02500 213.65900 214.99800 216.11800 217.17200 218.25900
 219.49400 220.64500 221.67900 222.61400 223.54500 224.98200 226.57100 228.19000
 229.79700 231.81100 233.86500 235.97200 238.24200 240.55300 242.89900 245.25300
 247.48800 249.53500 251.36600 252.84800 254.09800 255.16700 256.02700 256.25300
 256.09500 255.54300 253.93500 252.56600 251.38400 250.24500 249.05200 247.70100
 246.01600 243.99600 241.78400 239.39300 236.81300 234.22300 231.65800 229.14400
 226.74000 224.47300 222.33500 220.32500 218.44000 216.67700 214.96200 213.47200
 212.20000 211.10800 210.26000 209.63900 209.24400 209.03100 209.05800 209.33300
 209.78400 210.62600 211.33100 212.39100 213.62500 214.84668 217.72949 219.47640
 220.32566 220.86828 220.88710 220.27371 219.43733 218.84250 219.04934 220.86203
 222.60583 225.72206 229.03064 232.61777 236.12270 239.51333 242.70767 245.68587
 248.41061 250.90679 253.19353 254.91714 256.48655 257.94920 259.39966 260.69384
 261.81714 262.77997 263.71679 264.54570 265.26305 265.89772 266.47676 267.00133
 267.47312 267.89325 268.26027 268.72800
