|-------------------------------------------------------------------------|
|   File Name : in_temp.dat
|   Subject   : temperature profiles used for initial guess atmosphere
|   File Type : input of gmtr
|   Data Type : atmospherical data
|   Author/s  : WRF-Chem
|   Date      : Fri Jul 26 15:39:24 2024
|-------------------------------------------------------------------------|

 WRF-Chem temperature
#
 values of T (K)    (8f10.5)
#
 354.97500 345.04800 334.58700 324.11500 313.32600 302.53700 291.65000 280.76700
 269.93100 259.19300 248.62200 238.61700 229.08700 220.35500 212.54000 205.53500
 199.46400 194.49300 191.14300 189.19000 188.08900 188.01400 188.72400 189.90600
 191.46900 193.38200 195.40300 197.55600 199.80700 202.06000 204.28800 206.47900
 208.55200 210.37800 212.02500 213.65900 214.99800 216.11800 217.17200 218.25900
 219.49400 220.64500 221.67900 222.61400 223.54500 224.98200 226.57100 228.19000
 229.79700 231.81100 233.86500 235.97200 238.24200 240.55300 242.89900 245.25300
 247.48800 249.53500 251.36600 252.84800 254.09800 255.16700 256.02700 256.25300
 256.09500 255.54300 253.93500 252.56600 251.38400 250.24500 249.05200 247.70100
 246.01600 243.99600 241.78400 239.39300 236.81300 234.22300 231.65800 229.14400
 226.74000 224.47300 222.33500 220.32500 218.44000 216.67700 214.96200 213.47200
 212.20000 211.10800 210.26000 209.63900 209.24400 209.03100 209.05800 209.33300
 209.78400 210.62600 211.33100 212.39100 213.62500 214.84668 217.72949 219.47640
 220.32566 220.86828 220.88710 220.27371 219.43733 218.84250 219.04934 220.86203
 222.60583 225.72206 229.03064 232.61777 236.12270 239.51333 242.70767 245.68587
 248.41061 250.90679 253.19353 254.91714 256.48655 257.94920 259.39966 260.69384
 261.81714 262.77997 263.71679 264.54570 265.26305 265.89772 266.47676 267.00133
 267.47312 267.89325 268.26027 268.72800
 366.78100 356.33500 345.76700 334.63300 323.03600 311.23000 299.10000 286.90300
 274.61500 262.51200 250.52100 239.82200 229.94400 221.04800 213.23000 206.23200
 200.06600 195.00400 191.58600 189.62800 188.66500 188.72900 189.56400 190.87200
 192.59700 194.69200 196.95500 199.31400 201.75900 204.23900 206.32700 208.16900
 209.79500 210.94000 211.16900 211.39700 211.33400 211.03900 210.67200 210.30200
 209.91900 209.62900 209.43700 209.30100 209.22900 209.56000 209.94600 210.33500
 211.12800 212.30600 213.55600 215.33900 217.26700 219.31000 221.40500 223.48800
 225.54800 227.63200 229.72900 231.83500 233.96400 236.13600 238.39200 240.76200
 243.38300 245.63400 247.63600 249.40100 250.81800 251.94100 252.76300 253.07900
 253.11600 252.89000 252.25000 251.19800 249.80400 247.96500 245.87400 243.70700
 241.49800 239.30200 237.12200 234.96100 232.82100 230.68800 228.71400 226.87100
 225.15400 223.62600 222.25600 221.02800 219.91000 218.87000 217.97400 217.11500
 216.35700 215.53700 214.63500 213.99900 213.44900 212.85855 212.01316 212.61654
 214.26826 216.08686 218.14273 220.53346 223.40855 226.78828 231.49734 235.90155
 239.42278 243.28576 247.23140 251.11907 254.80144 258.23331 261.38913 264.27520
 266.89312 269.26852 271.44504 273.08845 274.58484 275.98591 277.39845 278.65879
 279.75272 280.69038 281.56708 282.34086 283.01050 283.60295 284.14348 284.63317
 285.07358 285.46577 285.80838 286.24500
 381.81900 372.39900 361.20600 349.77600 337.62200 324.85300 311.81000 298.35300
 284.86000 271.32400 258.56100 246.30400 236.08700 226.79600 218.44800 211.29000
 205.52200 200.89400 197.38100 194.84800 193.01500 192.31500 192.25000 192.43100
 192.91200 193.53700 194.13600 194.71200 195.26200 195.83100 196.39300 196.97600
 197.60400 198.14900 198.58400 199.05700 199.69500 200.37800 201.05400 201.70800
 202.31300 202.85700 203.35500 203.86200 204.56900 205.29700 206.02600 206.98700
 208.19300 209.44100 210.96900 212.57600 214.46200 216.51300 218.63000 220.85300
 223.34100 225.96200 228.73900 231.69700 234.70600 237.70600 240.69200 243.65700
 246.73700 249.69900 252.52100 255.06300 257.29000 259.23300 260.63300 261.68000
 262.46100 262.79800 262.69100 262.22400 261.06900 259.52500 257.70700 255.50700
 253.00100 250.30200 247.39800 244.45200 241.65400 239.05400 236.73300 234.59000
 232.59500 230.72500 228.83400 226.82600 224.66600 222.38700 220.10400 217.71500
 215.45900 213.06600 210.54600 208.09300 205.35400 202.08130 196.05959 200.71215
 209.01611 216.90438 223.84126 229.78593 235.00632 240.20838 245.98943 250.68668
 254.32982 257.93487 261.55666 264.96801 268.15192 271.06452 273.76717 276.25691
 278.57680 280.74479 282.77456 284.60533 286.27232 287.81705 289.31715 290.65561
 291.81734 292.81312 293.70701 294.49387 295.17482 295.77730 296.32696 296.82492
 297.27278 297.67160 298.02000 298.46400
 399.33000 389.90700 379.81300 368.66800 357.52200 345.30100 333.07400 320.22700
 307.21600 293.84800 280.37600 267.29600 254.61000 242.98700 232.15100 221.97700
 212.67200 204.28600 197.66900 192.82100 189.48600 187.45200 186.81400 187.08900
 187.78100 189.05400 190.64800 192.54200 194.63000 196.75200 198.67100 200.15800
 201.53500 202.48700 202.97500 203.34000 203.53900 203.49700 203.38500 203.24700
 203.00500 202.78600 202.60300 202.43700 202.42600 202.88800 203.42000 203.95100
 204.89500 205.99200 207.30100 208.95800 210.73800 213.10000 215.56400 218.18000
 220.96600 223.91800 226.96100 230.09200 233.29300 236.55700 239.95500 243.53700
 246.84500 249.39000 251.54200 253.47400 255.19500 256.48400 257.43100 258.05900
 258.21200 258.04000 257.58200 256.64300 255.23900 253.50700 251.40800 249.05600
 246.57600 243.99400 241.38900 238.83000 236.34400 233.98600 231.96900 230.11800
 228.42300 226.89900 225.54800 224.29700 223.10500 221.96500 220.95800 220.11300
 219.49000 218.92000 218.32500 217.88100 217.42300 216.96366 216.35568 216.80261
 217.73415 218.28582 218.64258 219.10077 220.44626 222.53987 226.38451 230.35736
 233.59734 237.39164 241.29814 245.22796 248.98002 252.51130 255.78595 258.80109
 261.54781 264.05210 266.34239 268.04198 269.58951 271.01303 272.35754 273.55718
 274.59842 275.49092 276.28989 276.99307 277.60161 278.14001 278.63122 279.07623
 279.47646 279.83287 280.14422 280.54100
 399.73800 389.78500 379.66200 368.15100 356.64100 344.35000 331.79200 318.88800
 305.72600 292.49300 279.20900 266.73800 254.69600 244.21100 234.45700 225.43300
 217.56900 210.45100 204.30000 199.30600 195.45800 192.57600 191.02700 190.38600
 190.23900 190.53400 191.16600 191.92500 192.79500 193.76600 194.73200 195.31200
 195.80000 196.05200 196.11500 196.11500 196.03900 195.72300 195.34000 194.98900
 194.75100 194.79200 195.13300 195.59800 196.50600 198.13600 199.85800 201.56600
 204.17900 206.82300 209.89300 213.28400 216.82800 220.60500 224.38700 228.20900
 232.03200 235.82500 239.56000 243.25800 246.84500 250.20100 253.70900 257.46800
 261.53000 264.22100 266.60100 268.68100 270.32900 271.74100 272.83600 273.47400
 273.89800 274.00200 273.75700 273.28800 272.37100 271.10000 269.58900 267.77900
 265.81600 263.72100 261.39300 258.91600 256.29800 253.42300 250.33100 247.11400
 243.83700 240.52900 237.24900 233.99900 230.72800 227.51500 224.25400 220.95200
 217.62700 213.65600 210.12100 206.78900 204.01000 201.99491 199.07309 198.76551
 199.40006 200.48994 201.46112 202.31912 203.45100 204.96110 207.47502 210.85391
 213.70530 217.29629 220.99574 224.72316 228.28753 231.64854 234.68024 237.40893
 239.70644 241.60899 243.46854 245.67368 247.68154 249.52395 251.24767 252.78566
 254.12057 255.26479 256.23740 257.09036 257.82852 258.48160 259.07744 259.61723
 260.10271 260.53504 260.91270 261.39400
 399.73800 389.78500 379.66200 368.15100 356.64100 344.35000 331.79200 318.88800
 305.72600 292.49300 279.20900 266.73800 254.69600 244.21100 234.45700 225.43300
 217.56900 210.45100 204.30000 199.30600 195.45800 192.57600 191.02700 190.38600
 190.23900 190.53400 191.16600 191.92500 192.79500 193.76600 194.73200 195.31200
 195.80000 196.05200 196.11500 196.11500 196.03900 195.72300 195.34000 194.98900
 194.75100 194.79200 195.13300 195.59800 196.50600 198.13600 199.85800 201.56600
 204.17900 206.82300 209.89300 213.28400 216.82800 220.60500 224.38700 228.20900
 232.03200 235.82500 239.56000 243.25800 246.84500 250.20100 253.70900 257.46800
 261.53000 264.22100 266.60100 268.68100 270.32900 271.74100 272.83600 273.47400
 273.89800 274.00200 273.75700 273.28800 272.37100 271.10000 269.58900 267.77900
 265.81600 263.72100 261.39300 258.91600 256.29800 253.42300 250.33100 247.11400
 243.83700 240.52900 237.24900 233.99900 230.72800 227.51500 224.25400 220.95200
 217.62700 213.65600 210.12100 206.78900 204.01000 201.99491 199.07309 198.76551
 199.40006 200.48994 201.46112 202.31912 203.45100 204.96110 207.47502 210.85391
 213.70530 217.29629 220.99574 224.72316 228.28753 231.64854 234.68024 237.40893
 239.70644 241.60899 243.46854 245.67368 247.68154 249.52395 251.24767 252.78566
 254.12057 255.26479 256.23740 257.09036 257.82852 258.48160 259.07744 259.61723
 260.10271 260.53504 260.91270 261.39400
 399.33000 389.90700 379.81300 368.66800 357.52200 345.30100 333.07400 320.22700
 307.21600 293.84800 280.37600 267.29600 254.61000 242.98700 232.15100 221.97700
 212.67200 204.28600 197.66900 192.82100 189.48600 187.45200 186.81400 187.08900
 187.78100 189.05400 190.64800 192.54200 194.63000 196.75200 198.67100 200.15800
 201.53500 202.48700 202.97500 203.34000 203.53900 203.49700 203.38500 203.24700
 203.00500 202.78600 202.60300 202.43700 202.42600 202.88800 203.42000 203.95100
 204.89500 205.99200 207.30100 208.95800 210.73800 213.10000 215.56400 218.18000
 220.96600 223.91800 226.96100 230.09200 233.29300 236.55700 239.95500 243.53700
 246.84500 249.39000 251.54200 253.47400 255.19500 256.48400 257.43100 258.05900
 258.21200 258.04000 257.58200 256.64300 255.23900 253.50700 251.40800 249.05600
 246.57600 243.99400 241.38900 238.83000 236.34400 233.98600 231.96900 230.11800
 228.42300 226.89900 225.54800 224.29700 223.10500 221.96500 220.95800 220.11300
 219.49000 218.92000 218.32500 217.88100 217.42300 216.96366 216.35568 216.80261
 217.73415 218.28582 218.64258 219.10077 220.44626 222.53987 226.38451 230.35736
 233.59734 237.39164 241.29814 245.22796 248.98002 252.51130 255.78595 258.80109
 261.54781 264.05210 266.34239 268.04198 269.58951 271.01303 272.35754 273.55718
 274.59842 275.49092 276.28989 276.99307 277.60161 278.14001 278.63122 279.07623
 279.47646 279.83287 280.14422 280.54100
 381.81900 372.39900 361.20600 349.77600 337.62200 324.85300 311.81000 298.35300
 284.86000 271.32400 258.56100 246.30400 236.08700 226.79600 218.44800 211.29000
 205.52200 200.89400 197.38100 194.84800 193.01500 192.31500 192.25000 192.43100
 192.91200 193.53700 194.13600 194.71200 195.26200 195.83100 196.39300 196.97600
 197.60400 198.14900 198.58400 199.05700 199.69500 200.37800 201.05400 201.70800
 202.31300 202.85700 203.35500 203.86200 204.56900 205.29700 206.02600 206.98700
 208.19300 209.44100 210.96900 212.57600 214.46200 216.51300 218.63000 220.85300
 223.34100 225.96200 228.73900 231.69700 234.70600 237.70600 240.69200 243.65700
 246.73700 249.69900 252.52100 255.06300 257.29000 259.23300 260.63300 261.68000
 262.46100 262.79800 262.69100 262.22400 261.06900 259.52500 257.70700 255.50700
 253.00100 250.30200 247.39800 244.45200 241.65400 239.05400 236.73300 234.59000
 232.59500 230.72500 228.83400 226.82600 224.66600 222.38700 220.10400 217.71500
 215.45900 213.06600 210.54600 208.09300 205.35400 202.08130 196.05959 200.71215
 209.01611 216.90438 223.84126 229.78593 235.00632 240.20838 245.98943 250.68668
 254.32982 257.93487 261.55666 264.96801 268.15192 271.06452 273.76717 276.25691
 278.57680 280.74479 282.77456 284.60533 286.27232 287.81705 289.31715 290.65561
 291.81734 292.81312 293.70701 294.49387 295.17482 295.77730 296.32696 296.82492
 297.27278 297.67160 298.02000 298.46400
 366.78100 356.33922 345.77544 334.64566 323.05288 311.25110 299.12532 286.93254
 274.64876 262.54998 250.56320 239.86842 229.99464 221.10286 213.28908 206.29530
 200.13352 195.07574 191.66196 189.70818 188.74940 188.81762 189.65684 190.96906
 192.69828 194.79750 197.06472 199.42794 201.87716 204.36139 206.45361 208.29983
 209.93005 211.07927 211.31249 211.54471 211.48593 211.19515 210.83237 210.46659
 210.08781 209.80203 209.61425 209.48247 209.41469 209.74991 210.14013 210.53335
 211.33057 212.51279 213.76701 215.55423 217.48645 219.53367 221.63289 223.72011
 225.78433 227.87255 229.97377 232.08399 234.21721 236.39343 238.65365 241.02787
 243.65309 245.90831 247.91453 249.68375 251.10497 252.23219 253.05841 253.37863
 253.41985 253.19807 252.56229 251.51451 250.12473 248.28995 246.20317 244.04039
 241.83561 239.64383 237.46805 235.31127 233.17549 231.04671 229.07694 227.23816
 225.52538 224.00160 222.63582 221.41204 220.29826 219.26248 218.37070 217.51592
 216.76214 215.94636 215.04858 214.41680 213.87102 212.93076 210.71953 209.93854
 210.34312 210.49643 211.75990 215.20891 219.55379 224.32928 230.08794 235.08994
 238.94133 242.94598 247.19147 251.35776 255.09062 258.47379 261.24609 263.62686
 266.43631 269.15213 271.72610 274.27466 276.40500 278.08258 279.39072 280.91275
 282.78088 284.55835 286.10229 287.46152 288.63867 289.67981 290.63007 291.48932
 292.25949 292.94568 293.54089 294.29953
 366.78100 356.33936 345.77571 334.64607 323.05343 311.25179 299.12614 286.93350
 274.64986 262.55122 250.56457 239.86993 229.99629 221.10465 213.29100 206.29736
 200.13572 195.07807 191.66443 189.71079 188.75215 188.82050 189.65986 190.97222
 192.70158 194.80093 197.06829 199.43165 201.88101 204.36536 206.45772 208.30408
 209.93444 211.08379 211.31715 211.54951 211.49086 211.20022 210.83758 210.47194
 210.09329 209.80765 209.62001 209.48837 209.42072 209.75608 210.14644 210.53980
 211.33715 212.51951 213.77387 215.56122 217.49358 219.54094 221.64030 223.72765
 225.79201 227.88037 229.98173 232.09208 234.22544 236.40180 238.66216 241.03651
 243.66187 245.91723 247.92359 249.69294 251.11430 252.24166 253.06801 253.38837
 253.42973 253.20809 252.57244 251.52480 250.13516 248.30052 246.21387 244.05123
 241.84659 239.65495 237.47930 235.32266 233.18702 231.05837 229.08873 227.25009
 225.53745 224.01380 222.64816 221.42452 220.31088 219.27523 218.38359 217.52895
 216.77531 215.95966 215.06202 214.43038 213.88474 212.96350 210.79652 210.02870
 210.34489 210.55838 211.78696 215.14607 219.51105 224.27853 229.99765 234.99213
 238.84033 242.84401 247.09882 251.27405 255.01663 258.43649 261.23868 263.62357
 266.42740 269.12683 271.67371 274.19269 276.31281 278.00272 279.33353 280.86621
 282.72113 284.47858 286.01956 287.37854 288.55585 289.59778 290.54803 291.40805
 292.17892 292.86633 293.46448 294.22467
 366.78100 356.33964 345.77629 334.64693 323.05457 311.25322 299.12786 286.93550
 274.65215 262.55379 250.56743 239.87307 229.99972 221.10836 213.29500 206.30165
 200.14029 195.08293 191.66958 189.71622 188.75786 188.82651 189.66615 190.97879
 192.70844 194.80808 197.07572 199.43937 201.88901 204.37365 206.46629 208.31294
 209.94358 211.09322 211.32687 211.55951 211.50115 211.21080 210.84844 210.48308
 210.10473 209.81937 209.63201 209.50066 209.43330 209.76894 210.15958 210.55323
 211.35087 212.53351 213.78816 215.57580 217.50844 219.55609 221.65573 223.74337
 225.80802 227.89666 229.99830 232.10895 234.24259 236.41923 238.67988 241.05452
 243.68016 245.93580 247.94245 249.71209 251.13373 252.26138 253.08802 253.40866
 253.45031 253.22895 252.59359 251.54624 250.15688 248.32252 246.23617 244.07381
 241.86945 239.67810 237.50274 235.34638 233.21102 231.08267 229.11331 227.27495
 225.56260 224.03924 222.67388 221.45053 220.33717 219.30181 218.41046 217.55610
 216.80274 215.98739 215.09003 214.45867 213.91331 213.00249 210.85982 210.12491
 210.35881 210.61307 211.82970 215.09695 219.44676 224.20839 229.90871 234.90326
 238.74959 242.75072 247.01016 251.18991 254.94008 258.39331 261.22321 263.61417
 266.41473 269.09976 271.61990 274.11017 276.22311 277.92719 279.28244 280.82361
 282.66699 284.40146 285.93750 287.29599 288.47318 289.51620 290.46671 291.32822
 292.10046 292.78787 293.38773 294.15189
 366.78100 356.33983 345.77666 334.64749 323.05532 311.25415 299.12897 286.93680
 274.65363 262.55546 250.56929 239.87512 230.00195 221.11078 213.29761 206.30444
 200.14326 195.08609 191.67292 189.71975 188.76158 188.83041 189.67024 190.98307
 192.71290 194.81273 197.08055 199.44438 201.89421 204.37904 206.47187 208.31870
 209.94953 211.09936 211.33319 211.56602 211.50784 211.21767 210.85550 210.49033
 210.11216 209.82699 209.63982 209.50865 209.44148 209.77731 210.16813 210.56196
 211.35979 212.54262 213.79745 215.58528 217.51811 219.56594 221.66577 223.75360
 225.81842 227.90725 230.00908 232.11991 234.25374 236.43057 238.69140 241.06623
 243.69206 245.94789 247.95471 249.72454 251.14637 252.27420 253.10103 253.42186
 253.46369 253.24252 252.60735 251.56018 250.17100 248.33683 246.25066 244.08849
 241.88432 239.69315 237.51798 235.36181 233.22664 231.09847 229.12929 227.29112
 225.57895 224.05578 222.69061 221.46744 220.35427 219.31910 218.42793 217.57376
 216.82058 216.00541 215.10824 214.47707 213.93190 213.03525 210.92561 210.21379
 210.38736 210.66646 211.87454 215.05850 219.36975 224.13310 229.82549 234.81985
 238.66286 242.65863 246.92018 251.10260 254.86040 258.34576 261.20203 263.60019
 266.39856 269.07001 271.56497 274.02612 276.13516 277.85587 279.23666 280.78397
 282.61490 284.32812 285.85715 287.21564 288.39377 289.43677 290.38831 291.24966
 292.02353 292.71146 293.31235 294.08029
 366.78100 356.33995 345.77690 334.64785 323.05580 311.25475 299.12970 286.93764
 274.65459 262.55654 250.57049 239.87644 230.00339 221.11234 213.29929 206.30624
 200.14519 195.08814 191.67509 189.72204 188.76398 188.83293 189.67288 190.98583
 192.71578 194.81573 197.08368 199.44763 201.89758 204.38253 206.47548 208.32243
 209.95338 211.10332 211.33727 211.57022 211.51217 211.22212 210.86007 210.49502
 210.11697 209.83192 209.64487 209.51382 209.44677 209.78272 210.17367 210.56761
 211.36556 212.54851 213.80346 215.59141 217.52436 219.57231 221.67226 223.76021
 225.82516 227.91411 230.01606 232.12701 234.26095 236.43790 238.69885 241.07380
 243.69975 245.95570 247.96265 249.73260 251.15455 252.28250 253.10945 253.43040
 253.47235 253.25129 252.61624 251.56919 250.18014 248.34609 246.26004 244.09799
 241.89394 239.70289 237.52784 235.37179 233.23674 231.10869 229.13963 227.30158
 225.58953 224.06648 222.70143 221.47838 220.36533 219.33028 218.43923 217.58518
 216.83213 216.01708 215.12003 214.48897 213.94392 213.06343 210.99139 210.29808
 210.42911 210.72063 211.91412 215.02914 219.28778 224.05544 229.74696 234.73680
 238.57396 242.56493 246.82910 251.01433 254.78116 258.29706 261.17609 263.57959
 266.37756 269.03500 271.50772 273.94101 276.04855 277.78833 279.19339 280.74783
 282.56665 284.25970 285.78210 287.14066 288.31873 289.36252 290.31451 291.17639
 291.95020 292.63922 293.24124 294.01266
 366.78100 356.34010 345.77720 334.64829 323.05639 311.25549 299.13059 286.93869
 274.65578 262.55788 250.57198 239.87808 230.00518 221.11427 213.30137 206.30847
 200.14757 195.09067 191.67776 189.72486 188.76696 188.83606 189.67616 190.98925
 192.71935 194.81945 197.08755 199.45165 201.90174 204.38684 206.47994 208.32704
 209.95814 211.10823 211.34233 211.57543 211.51753 211.22763 210.86572 210.50082
 210.12292 209.83802 209.65112 209.52021 209.45331 209.78941 210.18051 210.57461
 211.37270 212.55580 213.81090 215.59900 217.53210 219.58019 221.68029 223.76839
 225.83349 227.92259 230.02468 232.13578 234.26988 236.44698 238.70808 241.08317
 243.70927 245.96537 247.97247 249.74257 251.16466 252.29276 253.11986 253.44096
 253.48306 253.26215 252.62725 251.58035 250.19145 248.35755 246.27164 244.10974
 241.90584 239.71494 237.54004 235.38414 233.24923 231.12133 229.15243 227.31453
 225.60263 224.07972 222.71482 221.49192 220.37902 219.34412 218.45321 217.59931
 216.84641 216.03151 215.13461 214.50370 213.95880 213.09171 211.05087 210.38573
 210.47917 210.77602 211.95053 215.00844 219.20459 223.97343 229.67200 234.65356
 238.48315 242.47058 246.73790 250.92755 254.70451 258.24670 261.14365 263.55157
 266.34970 268.99573 271.44681 273.85501 275.96494 277.72595 279.15381 280.71442
 282.52112 284.19714 285.71371 287.07297 288.25113 289.29471 290.24707 291.10928
 291.88345 292.57172 293.17447 293.95050
 366.78100 356.34031 345.77762 334.64893 323.05724 311.25655 299.13186 286.94017
 274.65747 262.55978 250.57409 239.88040 230.00771 221.11702 213.30433 206.31164
 200.15095 195.09426 191.68157 189.72888 188.77119 188.84050 189.68081 190.99411
 192.72442 194.82473 197.09304 199.45735 201.90766 204.39297 206.48628 208.33359
 209.96490 211.11521 211.34952 211.58283 211.52514 211.23545 210.87376 210.50906
 210.13137 209.84668 209.65999 209.52930 209.46261 209.79892 210.19023 210.58454
 211.38285 212.56616 213.82147 215.60978 217.54309 219.59140 221.69170 223.78001
 225.84532 227.93463 230.03694 232.14825 234.28256 236.45987 238.72118 241.09649
 243.72280 245.97911 247.98642 249.75673 251.17904 252.30734 253.13465 253.45596
 253.49827 253.27758 252.64289 251.59620 250.20751 248.37382 246.28813 244.12644
 241.92275 239.73206 237.55737 235.40168 233.26699 231.13929 229.17060 227.33291
 225.62122 224.09853 222.73384 221.51115 220.39846 219.36377 218.47308 217.61939
 216.86670 216.05201 215.15532 214.52463 213.97993 213.12166 211.10144 210.47681
 210.53691 210.83371 211.98576 214.99390 219.11975 223.88893 229.59903 234.56921
 238.39101 242.37585 246.64687 250.84094 254.62936 258.19580 261.10547 263.51608
 266.31653 268.95236 271.38226 273.76938 275.88391 277.66721 279.11768 280.68192
 282.47958 284.14178 285.65399 287.01221 288.19000 289.23444 290.18756 291.04871
 291.82339 292.51370 293.11594 293.89008
 366.78100 356.34059 345.77819 334.64978 323.05837 311.25796 299.13356 286.94215
 274.65974 262.56234 250.57693 239.88352 230.01111 221.12071 213.30830 206.31589
 200.15549 195.09908 191.68667 189.73426 188.77686 188.84645 189.68704 191.00064
 192.73123 194.83182 197.10041 199.46501 201.91560 204.40119 206.49479 208.34238
 209.97397 211.12456 211.35916 211.59275 211.53534 211.24594 210.88453 210.52012
 210.14271 209.85831 209.67190 209.54149 209.47509 209.81168 210.20327 210.59786
 211.39646 212.58005 213.83564 215.62424 217.55783 219.60642 221.70701 223.79561
 225.86120 227.95079 230.05339 232.16498 234.29957 236.47716 238.73876 241.11435
 243.74094 245.99754 248.00513 249.77572 251.19831 252.32691 253.15450 253.47609
 253.51869 253.29828 252.66387 251.61746 250.22906 248.39565 246.31024 244.14884
 241.94543 239.75502 237.58061 235.42521 233.29080 231.16339 229.19499 227.35758
 225.64617 224.12376 222.75936 221.53695 220.42454 219.39014 218.49973 217.64632
 216.89391 216.07951 215.18310 214.55269 214.00829 213.15443 211.14452 210.56526
 210.60960 210.89574 212.01880 214.98524 219.03165 223.79887 229.52446 234.48245
 238.29846 242.28220 246.55618 250.75481 254.55559 258.14352 261.06219 263.47372
 266.27856 268.90509 271.31564 273.68271 275.80545 277.61325 279.08337 280.65247
 282.44040 284.09085 285.60153 286.95877 288.13809 289.18082 290.13388 290.99548
 291.76965 292.45895 293.06165 293.83548
 366.78100 356.34119 345.77937 334.65156 323.06074 311.26093 299.13712 286.94630
 274.66449 262.56767 250.58286 239.89005 230.01823 221.12842 213.31660 206.32479
 200.16498 195.10916 191.69735 189.74553 188.78872 188.85891 189.70009 191.01428
 192.74546 194.84665 197.11584 199.48102 201.93221 204.41839 206.51258 208.36076
 209.99295 211.14414 211.37932 211.61351 211.55669 211.26788 210.90707 210.54325
 210.16644 209.88262 209.69681 209.56700 209.50118 209.83837 210.23055 210.62574
 211.42493 212.60911 213.86530 215.65448 217.58867 219.63786 221.73904 223.82823
 225.89441 227.98460 230.08779 232.19997 234.33516 236.51334 238.77553 241.15172
 243.77890 246.03609 248.04427 249.81546 251.23865 252.36783 253.19602 253.51820
 253.56139 253.34158 252.70776 251.66195 250.27413 248.44132 246.35651 244.19569
 241.99288 239.80306 237.62925 235.47444 233.34062 231.21381 229.24599 227.40918
 225.69836 224.17655 222.81274 221.59092 220.47911 219.44529 218.55548 217.70267
 216.95085 216.13704 215.24122 214.61141 214.06760 213.20178 211.16399 210.66725
 210.68990 210.95642 212.05882 214.97404 218.94395 223.70238 229.45010 234.39442
 238.20589 242.19016 246.46606 250.66762 254.48186 258.08954 261.01505 263.42615
 266.23749 268.85580 271.24619 273.59518 275.72897 277.56247 279.04926 280.62259
 282.40436 284.04587 285.55499 286.91309 288.09167 289.13492 290.08688 290.94885
 291.72269 292.41183 293.01385 293.78683
 366.78100 356.34160 345.78020 334.65280 323.06240 311.26300 299.13960 286.94920
 274.66780 262.57140 250.58700 239.89460 230.02320 221.13380 213.32240 206.33100
 200.17160 195.11620 191.70480 189.75340 188.79700 188.86760 189.70920 191.02380
 192.75540 194.85700 197.12660 199.49220 201.94380 204.43040 206.52500 208.37360
 210.00620 211.15780 211.39340 211.62800 211.57160 211.28320 210.92280 210.55940
 210.18300 209.89960 209.71420 209.58480 209.51940 209.85700 210.24960 210.64520
 211.44480 212.62940 213.88600 215.67560 217.61020 219.65980 221.76140 223.85100
 225.91760 228.00820 230.11180 232.22440 234.36000 236.53860 238.80120 241.17780
 243.80540 246.06300 248.07160 249.84320 251.26680 252.39640 253.22500 253.54760
 253.59120 253.37180 252.73840 251.69300 250.30560 248.47320 246.38879 244.22839
 242.02599 239.83659 237.66319 235.50879 233.37539 231.24899 229.28159 227.44519
 225.73479 224.21339 222.84999 221.62859 220.51719 219.48379 218.59439 217.74199
 216.99059 216.17719 215.28179 214.65239 214.10899 213.23975 211.19366 210.74754
 210.79404 211.03691 212.07872 214.96855 218.86995 223.59656 229.36682 234.29861
 238.10887 242.09695 246.37549 250.58150 254.41145 258.03912 260.97086 263.37820
 266.19537 268.80368 271.17258 273.50412 275.65189 277.51062 279.01312 280.59259
 282.36920 284.00507 285.51486 286.87262 288.05099 289.09360 290.04535 290.90616
 291.67862 292.36642 292.96780 293.74045
 366.78100 356.34272 345.78244 334.65616 323.06688 311.26860 299.14632 286.95704
 274.67676 262.58148 250.59820 239.90692 230.03664 221.14836 213.33808 206.34780
 200.18952 195.13524 191.72496 189.77468 188.81940 188.89112 189.73384 191.04956
 192.78228 194.88500 197.15572 199.52244 201.97516 204.46288 206.55860 208.40832
 210.04204 211.19476 211.43148 211.66720 211.61192 211.32464 210.96536 210.60308
 210.22780 209.94552 209.76124 209.63296 209.56868 209.90740 210.30112 210.69784
 211.49856 212.68428 213.94200 215.73272 217.66844 219.71916 221.82188 223.91260
 225.98032 228.07204 230.17676 232.29048 234.42720 236.60692 238.87064 241.24836
 243.87708 246.13580 248.14552 249.91824 251.34296 252.47368 253.30340 253.62712
 253.67183 253.45355 252.82127 251.77699 250.39071 248.55943 246.47615 244.31687
 242.11559 239.92731 237.75503 235.60175 233.46947 231.34419 229.37791 227.54263
 225.83335 224.31307 222.95079 221.73051 220.62023 219.58795 218.69967 217.84839
 217.09811 216.28583 215.39155 214.76327 214.22099 213.31171 211.17189 210.86185
 210.91437 211.10287 212.14169 214.93901 218.74477 223.47829 229.28784 234.20750
 238.01793 242.01057 246.29169 250.50349 254.35005 257.99637 260.93085 263.32812
 266.14926 268.74448 271.09189 273.40604 275.56976 277.45209 278.96799 280.55634
 282.33313 283.96552 285.48047 286.83823 288.01624 289.05862 290.01105 290.87189
 291.64691 292.33646 292.93924 293.70300
 366.78100 356.34475 345.78649 334.66224 323.07498 311.27873 299.15848 286.97122
 274.69297 262.59971 250.61846 239.92921 230.06095 221.17470 213.36644 206.37819
 200.22194 195.16968 191.76143 189.81317 188.85992 188.93367 189.77841 191.09616
 192.83090 194.93565 197.20840 199.57714 202.03189 204.52163 206.61938 208.47113
 210.10687 211.26162 211.50036 211.73811 211.68486 211.39960 211.04235 210.68209
 210.30884 210.02859 209.84633 209.72008 209.65782 209.99857 210.39432 210.79306
 211.59581 212.78355 214.04330 215.83605 217.77379 219.82654 221.93128 224.02403
 226.09378 228.18752 230.29427 232.41001 234.54876 236.73051 238.99625 241.37600
 244.00674 246.26749 248.27924 250.05398 251.48073 252.61347 253.44522 253.77097
 253.81771 253.60146 252.97120 251.92895 250.54470 248.71544 246.63419 244.47693
 242.27768 240.09143 237.92117 235.76992 233.63966 231.51641 229.55216 227.71890
 226.01165 224.49339 223.13314 221.91489 220.80663 219.77638 218.89012 218.04087
 217.29262 216.48236 215.59011 214.96385 214.42360 213.43188 211.09837 210.93303
 211.19402 211.19135 212.01384 214.87959 218.69356 223.37680 229.21129 234.11852
 237.93260 241.93185 246.21539 250.43263 254.29422 257.95398 260.88565 263.27005
 266.09570 268.67859 271.00531 273.30655 275.49042 277.39691 278.92471 280.52274
 282.29861 283.92819 285.44904 286.80679 287.98315 289.02600 289.97687 290.83994
 291.61276 292.30234 292.90506 293.66379
 366.78100 356.34547 345.78795 334.66442 323.07790 311.28237 299.16285 286.97632
 274.69880 262.60627 250.62575 239.93722 230.06970 221.18417 213.37664 206.38912
 200.23359 195.18207 191.77454 189.82702 188.87449 188.94897 189.79444 191.11292
 192.84839 194.95386 197.22734 199.59681 202.05229 204.54276 206.64124 208.49371
 210.13019 211.28566 211.52514 211.76361 211.71109 211.42656 211.07003 210.71051
 210.33798 210.05846 209.87693 209.75141 209.68988 210.03136 210.42783 210.82731
 211.63078 212.81926 214.07973 215.87320 217.81168 219.86515 221.97063 224.06410
 226.13458 228.22905 230.33653 232.45300 234.59248 236.77495 239.04143 241.42190
 244.05337 246.31485 248.32732 250.10280 251.53027 252.66375 253.49622 253.82270
 253.87017 253.65465 253.02512 251.98359 250.60007 248.77154 246.69102 244.53449
 242.33597 240.15044 237.98092 235.83039 233.70087 231.57834 229.61482 227.78229
 226.07576 224.55824 223.19871 221.98119 220.87366 219.84414 218.95861 218.11009
 217.36256 216.55304 215.66151 215.03599 214.49646 213.49033 211.12169 210.91797
 211.34401 211.36743 212.08615 214.81061 218.55144 223.26793 229.13353 234.03915
 237.85970 241.86520 246.14587 250.36462 254.23746 257.90424 260.82761 263.20172
 266.03455 268.60760 270.91718 273.21036 275.41672 277.34824 278.88492 280.48959
 282.26395 283.89053 285.42215 286.77933 287.95578 288.99716 289.94958 290.81033
 291.58481 292.27551 292.87781 293.62875
 366.78100 356.34575 345.78850 334.66525 323.07900 311.28376 299.16451 286.97826
 274.70101 262.60876 250.62851 239.94026 230.07301 221.18776 213.38052 206.39327
 200.23802 195.18677 191.77952 189.83227 188.88002 188.95477 189.80052 191.11928
 192.85503 194.96078 197.23453 199.60428 202.06003 204.55078 206.64953 208.50228
 210.13903 211.29479 211.53454 211.77329 211.72104 211.43679 211.08054 210.72129
 210.34904 210.06979 209.88855 209.76330 209.70205 210.04380 210.44055 210.84030
 211.64405 212.83280 214.09355 215.88731 217.82606 219.87981 221.98556 224.07931
 226.15006 228.24481 230.35256 232.46931 234.60907 236.79182 239.05857 241.43932
 244.07107 246.33282 248.34557 250.12132 251.54907 252.68283 253.51558 253.84233
 253.89008 253.67483 253.04558 252.00433 250.62108 248.79283 246.71258 244.55634
 242.35809 240.17284 238.00359 235.85334 233.72409 231.60184 229.63859 227.80634
 226.10010 224.58285 223.22360 222.00635 220.89910 219.86985 218.98460 218.13635
 217.38910 216.57986 215.68861 215.06336 214.52411 213.52420 211.16913 210.91974
 211.41258 211.47557 212.20917 214.78891 218.42253 223.18027 229.07707 233.98665
 237.80537 241.80812 246.07806 250.29340 254.17561 257.84601 260.76056 263.12833
 265.97113 268.53656 270.83109 273.11755 275.34814 277.30444 278.84946 280.45898
 282.23105 283.85474 285.39597 286.75409 287.93005 288.97107 289.92117 290.78265
 291.55783 292.24814 292.84772 293.59552
 366.78100 356.34639 345.78978 334.66717 323.08156 311.28695 299.16834 286.98273
 274.70612 262.61451 250.63490 239.94729 230.08069 221.19608 213.38947 206.40286
 200.24825 195.19764 191.79103 189.84442 188.89281 188.96820 189.81459 191.13398
 192.87037 194.97676 197.25115 199.62154 202.07793 204.56932 206.66871 208.52210
 210.15949 211.31588 211.55627 211.79567 211.74406 211.46045 211.10484 210.74623
 210.37462 210.09601 209.91540 209.79079 209.73018 210.07257 210.46996 210.87035
 211.67474 212.86413 214.12552 215.91991 217.85930 219.91369 222.02008 224.11447
 226.18586 228.28125 230.38965 232.50704 234.64743 236.83082 239.09821 241.47960
 244.11199 246.37438 248.38777 250.16416 251.59255 252.72694 253.56033 253.88772
 253.93611 253.72150 253.09289 252.05228 250.66967 248.84206 246.76245 244.60684
 242.40923 240.22463 238.05602 235.90641 233.77780 231.65619 229.69358 227.86197
 226.15636 224.63975 223.28114 222.06453 220.95792 219.92931 219.04470 218.19709
 217.45048 216.64187 215.75126 215.12665 214.58804 213.57539 211.18948 210.93971
 211.49359 211.54570 212.30551 214.78706 218.33630 223.11122 229.03365 233.93643
 237.74496 241.74117 246.00099 250.21391 254.10971 257.78543 260.69409 263.05847
 265.90903 268.46548 270.74442 273.02597 275.28085 277.25967 278.81131 280.42734
 282.19852 283.82202 285.36832 286.72726 287.90378 288.94394 289.89401 290.75375
 291.52896 292.21939 292.81824 293.55585
 366.78100 356.34712 345.79125 334.66937 323.08449 311.29061 299.17274 286.98786
 274.71198 262.62111 250.64223 239.95535 230.08947 221.20560 213.39972 206.41384
 200.25997 195.21009 191.80421 189.85833 188.90746 188.98358 189.83070 191.15083
 192.88795 194.99507 197.27019 199.64132 202.09844 204.59056 206.69069 208.54481
 210.18293 211.34005 211.58118 211.82130 211.77042 211.48755 211.13267 210.77479
 210.40391 210.12604 209.94616 209.82228 209.76241 210.10553 210.50365 210.90477
 211.70990 212.90002 214.16214 215.95727 217.89739 219.95251 222.05963 224.15476
 226.22688 228.32300 230.43213 232.55025 234.69137 236.87549 239.14362 241.52574
 244.15886 246.42199 248.43611 250.21323 251.64235 252.77748 253.61160 253.93972
 253.98885 253.77497 253.14709 252.10721 250.72534 248.89846 246.81958 244.66471
 242.46783 240.28395 238.11607 235.96720 233.83932 231.71844 229.75657 227.92569
 226.22081 224.70493 223.34706 222.13118 221.02530 219.99743 219.11355 218.26667
 217.52079 216.71292 215.82304 215.19916 214.66129 213.63147 211.20424 210.95213
 211.57970 211.63098 212.37994 214.78909 218.28407 223.04547 228.99019 233.87418
 237.67140 241.66444 245.91957 250.13474 254.04726 257.73050 260.63635 262.99500
 265.84958 268.39359 270.65604 272.93454 275.21231 277.21146 278.76932 280.39340
 282.16476 283.79132 285.33923 286.69815 287.87405 288.91327 289.86374 290.72308
 291.49829 292.18768 292.78693 293.51678
 366.78100 356.34776 345.79252 334.67128 323.08704 311.29380 299.17656 286.99232
 274.71708 262.62684 250.64860 239.96236 230.09712 221.21388 213.40864 206.42340
 200.27016 195.22092 191.81568 189.87044 188.92020 188.99695 189.84471 191.16547
 192.90323 195.01099 197.28675 199.65851 202.11627 204.60903 206.70979 208.56455
 210.20331 211.36107 211.60283 211.84359 211.79335 211.51111 211.15687 210.79963
 210.42939 210.15215 209.97291 209.84967 209.79043 210.13419 210.53295 210.93471
 211.74047 212.93123 214.19399 215.98975 217.93051 219.98627 222.09403 224.18979
 226.26255 228.35931 230.46907 232.58783 234.72959 236.91435 239.18310 241.56586
 244.19962 246.46338 248.47814 250.25590 251.68566 252.82142 253.65618 253.98494
 254.03470 253.82146 253.19422 252.15498 250.77374 248.94750 246.86926 244.71502
 242.51878 240.33554 238.16830 236.02006 233.89282 231.77258 229.81134 227.98110
 226.27686 224.76162 223.40438 222.18914 221.08390 220.05666 219.17342 218.32718
 217.58194 216.77470 215.88546 215.26222 214.72498 213.68280 211.22556 210.95485
 211.65364 211.73720 212.45102 214.79828 218.24402 222.97781 228.94093 233.80496
 237.59337 241.58873 245.84126 250.06041 253.99094 257.68066 260.58267 262.93454
 265.78842 268.31854 270.56531 272.84363 275.14404 277.15863 278.72397 280.35696
 282.12878 283.76004 285.30954 286.66956 287.84235 288.88242 289.82977 290.68954
 291.46280 292.15048 292.74991 293.46506
 366.78100 356.34837 345.79374 334.67310 323.08947 311.29684 299.18021 286.99657
 274.72194 262.63231 250.65468 239.96904 230.10441 221.22178 213.41715 206.43251
 200.27988 195.23125 191.82662 189.88198 188.93235 189.00972 189.85809 191.17945
 192.91782 195.02619 197.30256 199.67492 202.13329 204.62666 206.72803 208.58339
 210.22276 211.38113 211.62350 211.86486 211.81523 211.53360 211.17997 210.82333
 210.45370 210.17707 209.99844 209.87580 209.81717 210.16154 210.56091 210.96327
 211.76964 212.96101 214.22438 216.02074 217.96211 220.01848 222.12685 224.22321
 226.29658 228.39395 230.50432 232.62368 234.76605 236.95142 239.22079 241.60415
 244.23852 246.50289 248.51826 250.29662 251.72699 252.86336 253.69873 254.02809
 254.07846 253.86583 253.23920 252.20056 250.81993 248.99430 246.91667 244.76303
 242.56740 240.38477 238.21814 236.07050 233.94387 231.82424 229.86361 228.03397
 226.33034 224.81571 223.45908 222.24444 221.13981 220.11318 219.23055 218.38491
 217.64028 216.83365 215.94502 215.32238 214.78575 213.73268 211.24883 210.95401
 211.71904 211.84691 212.53075 214.81807 218.20041 222.91132 228.88771 233.73637
 237.51709 241.51595 245.76665 249.99065 253.93777 257.63177 260.53189 262.87503
 265.72650 268.24048 270.47324 272.75409 275.07596 277.10587 278.67828 280.32175
 282.09491 283.73163 285.28217 286.63995 287.81137 288.84534 289.79056 290.65085
 291.42752 292.11829 292.71100 293.40329
 366.78100 356.34899 345.79498 334.67497 323.09196 311.29995 299.18393 287.00092
 274.72691 262.63790 250.66089 239.97588 230.11187 221.22986 213.42585 206.44184
 200.28982 195.24181 191.83780 189.89379 188.94478 189.02277 189.87176 191.19375
 192.93274 195.04173 197.31871 199.69170 202.15069 204.64468 206.74667 208.60266
 210.24265 211.40164 211.64463 211.88662 211.83760 211.55659 211.20358 210.84757
 210.47856 210.20255 210.02454 209.90253 209.84452 210.18951 210.58949 210.99248
 211.79947 212.99146 214.25545 216.05244 217.99443 220.05142 222.16041 224.25740
 226.33138 228.42937 230.54036 232.66035 234.80334 236.98933 239.25932 241.64331
 244.27830 246.54329 248.55927 250.33826 251.76925 252.90624 253.74223 254.07222
 254.12321 253.91120 253.28519 252.24718 250.86716 249.04215 246.96514 244.81213
 242.61712 240.43511 238.26910 236.12209 233.99608 231.87707 229.91705 228.08804
 226.38503 224.87102 223.51501 222.30100 221.19699 220.17098 219.28897 218.44396
 217.69994 216.89393 216.00592 215.38391 214.84790 213.78247 211.26866 210.95654
 211.78131 211.94608 212.61169 214.84499 218.15569 222.85321 228.83319 233.66887
 237.44325 241.44612 245.69540 249.92516 253.88860 257.58521 260.48059 262.82129
 265.66290 268.16302 270.38538 272.66949 275.00949 277.05069 278.62921 280.28491
 282.05933 283.70056 285.25110 286.61026 287.77478 288.80542 289.75037 290.60916
 291.38788 292.07895 292.66531 293.34091
 366.78100 356.34957 345.79615 334.67672 323.09430 311.30287 299.18745 287.00502
 274.73159 262.64317 250.66674 239.98232 230.11889 221.23747 213.43404 206.45061
 200.29919 195.25176 191.84834 189.90491 188.95649 189.03506 189.88464 191.20721
 192.94678 195.05636 197.33393 199.70751 202.16708 204.66166 206.76423 208.62080
 210.26138 211.42095 211.66453 211.90710 211.85868 211.57825 211.22582 210.87040
 210.50197 210.22655 210.04912 209.92770 209.87027 210.21584 210.61642 211.01999
 211.82757 213.02014 214.28472 216.08229 218.02487 220.08244 222.19201 224.28959
 226.36416 228.46274 230.57431 232.69489 234.83846 237.02503 239.29561 241.68018
 244.31576 246.58133 248.59791 250.37748 251.80905 252.94663 253.78320 254.11378
 254.16535 253.95393 253.32850 252.29107 250.91165 249.08722 247.01080 244.85837
 242.66395 240.48252 238.31710 236.17067 234.04524 231.92682 229.96739 228.13897
 226.43654 224.92312 223.56769 222.35426 221.25084 220.22541 219.34399 218.49956
 217.75614 216.95071 216.06328 215.44186 214.90643 213.83002 211.28946 210.96552
 211.83290 212.03946 212.69688 214.86765 218.11047 222.80132 228.77940 233.60263
 237.37050 241.37704 245.62660 249.86441 253.84480 257.54391 260.43814 262.76987
 265.60312 268.08560 270.29810 272.58621 274.94208 276.99057 278.58063 280.24911
 282.02289 283.66644 285.21686 286.57373 287.73230 288.76120 289.70361 290.56241
 291.34424 292.03723 292.63000 293.28464
 366.78100 356.35026 345.79752 334.67879 323.09705 311.30631 299.19157 287.00984
 274.73710 262.64936 250.67362 239.98989 230.12715 221.24641 213.44367 206.46094
 200.31020 195.26346 191.86072 189.91798 188.97025 189.04951 189.89977 191.22303
 192.96330 195.07356 197.35182 199.72608 202.18635 204.68161 206.78487 208.64213
 210.28340 211.44366 211.68792 211.93118 211.88344 211.60371 211.25197 210.89723
 210.52949 210.25476 210.07802 209.95728 209.90054 210.24681 210.64807 211.05233
 211.86059 213.05386 214.31912 216.11738 218.06064 220.11890 222.22917 224.32743
 226.40269 228.50195 230.61422 232.73548 234.87974 237.06700 239.33827 241.72353
 244.35979 246.62605 248.64332 250.42358 251.85584 252.99410 253.83136 254.16263
 254.21489 254.00415 253.37941 252.34268 250.96394 249.14020 247.06446 244.91273
 242.71899 240.53825 238.37351 236.22778 234.10304 231.98530 230.02656 228.19882
 226.49709 224.98435 223.62961 222.41687 221.31414 220.28940 219.40866 218.56492
 217.82219 217.01745 216.13071 215.50997 214.97523 213.88268 211.30322 210.97791
 211.88177 212.12482 212.78429 214.89116 218.06752 222.75327 228.72780 233.53391
 237.29652 241.30719 245.55930 249.80708 253.80476 257.50488 260.40134 262.72672
 265.54364 268.00668 270.21271 272.50757 274.87683 276.93362 278.53879 280.21881
 281.98871 283.63153 285.17877 286.53268 287.68771 288.70831 289.65210 290.51126
 291.29434 291.98685 292.52783 293.13748
 366.78100 356.35086 345.79871 334.68057 323.09942 311.30928 299.19513 287.01399
 274.74184 262.65470 250.67956 239.99641 230.13427 221.25412 213.45198 206.46983
 200.31969 195.27355 191.87140 189.92926 188.98211 189.06197 189.91282 191.23668
 192.97753 195.08839 197.36725 199.74210 202.20296 204.69881 206.80267 208.66052
 210.30238 211.46324 211.70809 211.95195 211.90480 211.62566 211.27451 210.92037
 210.55322 210.27908 210.10294 209.98279 209.92665 210.27350 210.67536 211.08021
 211.88907 213.08292 214.34878 216.14764 218.09149 220.15035 222.26120 224.36006
 226.43591 228.53577 230.64863 232.77048 234.91534 237.10319 239.37505 241.76090
 244.39776 246.66461 248.68247 250.46333 251.89618 253.03504 253.87289 254.20475
 254.25760 254.04746 253.42332 252.38717 251.00903 249.18588 247.11074 244.95959
 242.76645 240.58630 238.42216 236.27702 234.15287 232.03573 230.07758 228.25044
 226.54929 225.03715 223.68301 222.47086 221.36872 220.34457 219.46443 218.62128
 217.87914 217.07499 216.18885 215.56871 215.03456 213.93111 211.32515 210.98299
 211.92264 212.21672 212.86751 214.90544 218.03809 222.70792 228.67480 233.46255
 237.22134 241.23996 245.49590 249.75502 253.76857 257.46835 260.36481 262.69360
 265.48627 267.93314 270.13458 272.43616 274.81799 276.88278 278.50064 280.19070
 281.95566 283.59500 285.13849 286.48660 287.63794 288.65485 289.59689 290.46027
 291.24902 291.94263 292.43808 293.04614
 366.78100 356.35139 345.79978 334.68216 323.10155 311.31194 299.19833 287.01771
 274.74610 262.65949 250.68488 240.00227 230.14065 221.26104 213.45943 206.47782
 200.32821 195.28259 191.88098 189.93937 188.99276 189.07314 189.92453 191.24892
 192.99031 195.10170 197.38108 199.75647 202.21786 204.71425 206.81864 208.67702
 210.31941 211.48080 211.72619 211.97057 211.92396 211.64535 211.29474 210.94113
 210.57451 210.30090 210.12529 210.00568 209.95006 210.29745 210.69984 211.10523
 211.91462 213.10900 214.37539 216.17478 218.11917 220.17856 222.28994 224.38933
 226.46572 228.56611 230.67949 232.80188 234.94727 237.13566 239.40805 241.79443
 244.43182 246.69921 248.71760 250.49899 251.93237 253.07176 253.91015 254.24254
 254.29592 254.08631 253.46270 252.42709 251.04948 249.22686 247.15225 245.00164
 242.80903 240.62941 238.46580 236.32119 234.19758 232.08097 230.12335 228.29674
 226.59613 225.08452 223.73091 222.51929 221.41768 220.39407 219.51446 218.67184
 217.93023 217.12662 216.24101 215.62140 215.08778 213.97646 211.35110 210.98990
 211.96101 212.30188 212.95093 214.91467 218.00954 222.66148 228.62216 233.39624
 237.15146 241.17604 245.43742 249.70940 253.73985 257.43759 260.33032 262.66745
 265.43018 267.86310 270.06326 272.37103 274.76389 276.83414 278.46677 280.16751
 281.92606 283.56024 285.09427 286.43750 287.58112 288.59436 289.53598 290.39951
 291.19055 291.87842 292.34995 292.96329
 366.78100 356.35176 345.80053 334.68329 323.10306 311.31382 299.20059 287.02035
 274.74911 262.66288 250.68864 240.00641 230.14517 221.26594 213.46470 206.48346
 200.33423 195.28899 191.88776 189.94652 189.00029 189.08105 189.93281 191.25758
 192.99934 195.11111 197.39087 199.76664 202.22840 204.72516 206.82993 208.68869
 210.33146 211.49322 211.73899 211.98375 211.93751 211.65928 211.30904 210.95581
 210.58957 210.31634 210.14110 210.02186 209.96663 210.31439 210.71716 211.12292
 211.93269 213.12745 214.39421 216.19398 218.13874 220.19851 222.31027 224.41003
 226.48680 228.58756 230.70133 232.82409 234.96986 237.15862 239.43138 241.81815
 244.45591 246.72368 248.74244 250.52421 251.95797 253.09773 253.93650 254.26926
 254.32303 254.11379 253.49056 252.45532 251.07808 249.25585 247.18161 245.03138
 242.83914 240.65991 238.49667 236.35243 234.22920 232.11296 230.15573 228.32949
 226.62926 225.11802 223.76478 222.55355 221.45231 220.42908 219.54984 218.70761
 217.96637 217.16313 216.27790 215.65866 215.12543 214.01210 211.38177 211.00375
 212.00867 212.37245 213.00543 214.92940 217.98860 222.61995 228.56778 233.33072
 237.08417 241.11407 245.38347 249.67157 253.71944 257.41217 260.30850 262.64270
 265.37491 267.79028 269.98895 272.30695 274.70441 276.77771 278.43134 280.14621
 281.89633 283.52545 285.05011 286.38373 287.52072 288.53412 289.47687 290.33926
 291.12964 291.80334 292.25470 292.88123
 366.78100 356.35190 345.80081 334.68371 323.10361 311.31452 299.20142 287.02133
 274.75023 262.66413 250.69004 240.00794 230.14684 221.26775 213.46665 206.48555
 200.33646 195.29136 191.89026 189.94917 189.00307 189.08398 189.93588 191.26078
 193.00269 195.11459 197.39449 199.77040 202.23230 204.72920 206.83411 208.69301
 210.33591 211.49782 211.74372 211.98863 211.94253 211.66443 211.31434 210.96124
 210.59514 210.32205 210.14695 210.02785 209.97276 210.32066 210.72356 211.12947
 211.93937 213.13428 214.40118 216.20108 218.14599 220.20589 222.31779 224.41770
 226.49460 228.59550 230.70941 232.83231 234.97822 237.16712 239.44002 241.82693
 244.46483 246.73273 248.75164 250.53354 251.96744 253.10735 253.94625 254.27915
 254.33306 254.12396 253.50087 252.46577 251.08867 249.26658 247.19248 245.04238
 242.85029 240.67119 238.50809 236.36400 234.24090 232.12480 230.16771 228.34161
 226.64152 225.13042 223.77732 222.56623 221.46513 220.44203 219.56294 218.72084
 217.97974 217.17665 216.29155 215.67245 215.13936 214.03241 211.41713 211.03917
 212.03458 212.42770 213.08459 214.93208 217.94162 222.56503 228.52640 233.28302
 237.02577 241.06009 245.33707 249.64264 253.70721 257.39130 260.28461 262.61850
 265.31342 267.70135 269.90643 272.23914 274.64078 276.72122 278.40573 280.13229
 281.86838 283.48776 284.99780 286.32291 287.45297 288.45703 289.39761 290.26157
 291.04559 291.71725 292.18430 292.83609
 366.78100 356.35176 345.80052 334.68328 323.10303 311.31379 299.20055 287.02031
 274.74907 262.66283 250.68859 240.00634 230.14510 221.26586 213.46462 206.48338
 200.33414 195.28890 191.88766 189.94641 189.00017 189.08093 189.93269 191.25745
 192.99921 195.11097 197.39072 199.76648 202.22824 204.72500 206.82976 208.68852
 210.33128 211.49303 211.73879 211.98355 211.93731 211.65907 211.30883 210.95559
 210.58935 210.31610 210.14086 210.02162 209.96638 210.31414 210.71690 211.12266
 211.93241 213.12717 214.39393 216.19369 218.13845 220.19821 222.30997 224.40972
 226.48648 228.58724 230.70100 232.82376 234.96952 237.15828 239.43103 241.81779
 244.45555 246.72331 248.74207 250.52383 251.95759 253.09735 253.93610 254.26886
 254.32262 254.11338 253.49014 252.45490 251.07766 249.25541 247.18117 245.03093
 242.83869 240.65945 238.49621 236.35197 234.22872 232.11248 230.15524 228.32900
 226.62876 225.11752 223.76428 222.55304 221.45179 220.42855 219.54931 218.70707
 217.96583 217.16259 216.27735 215.65810 215.12486 214.03673 211.46593 211.05667
 212.10605 212.47501 213.07576 214.91223 217.93741 222.55206 228.48705 233.23610
 236.96997 241.00580 245.29012 249.61258 253.69391 257.36340 260.26434 262.58038
 265.24414 267.60846 269.82065 272.17258 274.57803 276.66428 278.37695 280.11258
 281.83841 283.44675 284.94623 286.26328 287.38782 288.38602 289.32578 290.19174
 290.98419 291.62964 292.11398 292.78940
 366.78100 356.35158 345.80017 334.68275 323.10234 311.31292 299.19950 287.01909
 274.74767 262.66126 250.68684 240.00442 230.14301 221.26359 213.46217 206.48076
 200.33134 195.28593 191.88451 189.94309 188.99668 189.07726 189.92885 191.25343
 192.99501 195.10660 197.38618 199.76177 202.22335 204.71993 206.82452 208.68310
 210.32569 211.48727 211.73285 211.97744 211.93102 211.65260 211.30219 210.94877
 210.58236 210.30894 210.13352 210.01411 209.95869 210.30628 210.70886 211.11444
 211.92403 213.11861 214.38520 216.18478 218.12936 220.18895 222.30053 224.40012
 226.47670 228.57728 230.69087 232.81345 234.95903 237.14762 239.42020 241.80679
 244.44437 246.71195 248.73054 250.51212 251.94571 253.08529 253.92387 254.25646
 254.31004 254.10063 253.47721 252.44179 251.06438 249.24196 247.16755 245.01713
 242.82471 240.64530 238.48188 236.33746 234.21405 232.09763 230.14022 228.31380
 226.61338 225.10197 223.74855 222.53714 221.43572 220.41230 219.53289 218.69047
 217.94906 217.14564 216.26022 215.64081 215.10739 214.04106 211.52171 211.04408
 212.13483 212.53571 213.15379 215.00047 217.91255 222.46722 228.44656 233.19101
 236.90596 240.94368 245.23732 249.57837 253.67470 257.33212 260.22552 262.56824
 265.18222 267.51508 269.74298 272.10553 274.51376 276.60587 278.35233 280.10257
 281.80441 283.39606 284.88025 286.19138 287.29999 288.26492 289.20163 290.07074
 290.86755 291.52759 292.03064 292.71777
 366.78100 356.35120 345.79941 334.68161 323.10082 311.31102 299.19722 287.01643
 274.74463 262.65783 250.68304 240.00024 230.13845 221.25865 213.45685 206.47506
 200.32526 195.27946 191.87767 189.93587 188.98908 189.06928 189.92048 191.24469
 192.98589 195.09710 197.37630 199.75150 202.21271 204.70891 206.81311 208.67132
 210.31352 211.47473 211.71993 211.96413 211.91734 211.63854 211.28775 210.93395
 210.56715 210.29336 210.11756 209.99776 209.94197 210.28917 210.69138 211.09658
 211.90578 213.09999 214.36619 216.16539 218.10960 220.16880 222.28001 224.37921
 226.45541 228.55562 230.66882 232.79103 234.93623 237.12443 239.39664 241.78284
 244.42004 246.68725 248.70545 250.48666 251.91986 253.05906 253.89727 254.22947
 254.28267 254.07288 253.44908 252.41329 251.03549 249.21269 247.13790 244.98710
 242.79431 240.61451 238.45071 236.30592 234.18212 232.06532 230.10753 228.28073
 226.57994 225.06814 223.71434 222.50255 221.40075 220.37695 219.49716 218.65436
 217.91257 217.10877 216.22297 215.60318 215.06938 214.03159 211.57968 211.09834
 212.18500 212.55972 213.18307 215.03723 217.84201 222.36261 228.41090 233.14159
 236.83693 240.88084 245.19131 249.55830 253.68196 257.34564 260.24969 262.55325
 265.13046 267.46271 269.68179 272.05515 274.46509 276.56308 278.32843 280.06750
 281.77097 283.36642 284.84662 286.14719 287.24872 288.25540 289.20676 290.06906
 290.83472 291.46426 291.98376 292.70377
 366.78100 356.35013 345.79727 334.67840 323.09654 311.30567 299.19081 287.00894
 274.73608 262.64821 250.67235 239.98848 230.12562 221.24475 213.44189 206.45902
 200.30816 195.26129 191.85843 189.91556 188.96770 189.04683 189.89697 191.22010
 192.96023 195.07037 197.34850 199.72264 202.18277 204.67791 206.78104 208.63818
 210.27931 211.43945 211.68358 211.92672 211.87885 211.59899 211.24712 210.89226
 210.52439 210.24953 210.07266 209.95180 209.89493 210.24107 210.64220 211.04633
 211.85447 213.04760 214.31274 216.11087 218.05401 220.11214 222.22228 224.32041
 226.39555 228.49468 230.60682 232.72795 234.87209 237.05922 239.33036 241.71549
 244.35163 246.61776 248.63490 250.41503 251.84717 252.98530 253.82244 254.15357
 254.20570 253.99484 253.36997 252.33311 250.95424 249.13038 247.05451 244.90265
 242.70878 240.52792 238.36305 236.21719 234.09232 231.97446 230.01559 228.18773
 226.48586 224.97300 223.61813 222.40527 221.30240 220.27754 219.39667 218.55280
 217.80994 217.00507 216.11821 215.49734 214.96248 213.98566 211.68556 211.18863
 212.22197 212.55551 213.18130 215.02449 217.81934 222.26973 228.33650 233.06776
 236.73929 240.80045 245.12993 249.51974 253.63774 257.20590 260.34583 262.70856
 265.18536 267.47983 269.71518 272.05374 274.41306 276.48746 278.27740 280.04062
 281.69775 283.24796 284.68805 285.95035 287.05307 288.07739 289.02710 289.86786
 290.55289 291.13156 291.62897 292.25677
 366.78100 356.34904 345.79508 334.67512 323.09216 311.30020 299.18424 287.00128
 274.72732 262.63836 250.66140 239.97644 230.11248 221.23052 213.42656 206.44260
 200.29064 195.24268 191.83872 189.89476 188.94580 189.02384 189.87288 191.19492
 192.93396 195.04300 197.32004 199.69308 202.15212 204.64616 206.74820 208.60424
 210.24428 211.40332 211.64636 211.88840 211.83944 211.55848 211.20552 210.84956
 210.48060 210.20464 210.02668 209.90472 209.84676 210.19180 210.59184 210.99488
 211.80192 212.99396 214.25800 216.05504 217.99708 220.05412 222.16316 224.26020
 226.33424 228.43228 230.54332 232.66336 234.80640 236.99244 239.26248 241.64652
 244.28156 246.54660 248.56264 250.34168 251.77272 252.90976 253.74580 254.07584
 254.12688 253.91492 253.28896 252.25100 250.87104 249.04608 246.96912 244.81616
 242.62120 240.43924 238.27328 236.12632 234.00036 231.88140 229.92144 228.09248
 226.38952 224.87556 223.51960 222.30564 221.20168 220.17572 219.29376 218.44880
 217.70484 216.89888 216.01092 215.38896 214.85300 213.93896 211.79897 211.25356
 212.22826 212.57098 213.18820 215.02879 217.86346 222.21080 228.23515 232.98314
 236.63884 240.72342 245.06619 249.45662 253.62196 257.25125 260.38391 262.87039
 265.26901 267.52521 269.73660 272.04364 274.34476 276.37640 278.17883 279.92715
 281.56909 283.11426 284.52466 285.76584 286.88013 287.89706 288.81616 289.59174
 290.25330 290.83972 291.35056 292.00156
 366.78100 356.34878 345.79455 334.67433 323.09110 311.29888 299.18266 286.99943
 274.72521 262.63598 250.65876 239.97353 230.10931 221.22709 213.42286 206.43864
 200.28641 195.23819 191.83397 189.88974 188.94052 189.01829 189.86707 191.18884
 192.92762 195.03640 197.31317 199.68595 202.14472 204.63850 206.74028 208.59605
 210.23583 211.39460 211.63738 211.87915 211.82993 211.54871 211.19548 210.83926
 210.47003 210.19381 210.01559 209.89336 209.83514 210.17991 210.57969 210.98246
 211.78924 212.98102 214.24479 216.04157 217.98334 220.04012 222.14890 224.24567
 226.31945 228.41722 230.52800 232.64777 234.79055 236.97633 239.24610 241.62988
 244.26465 246.52943 248.54521 250.32398 251.75476 252.89153 253.72731 254.05708
 254.10786 253.89564 253.26941 252.23119 250.85096 249.02574 246.94852 244.79529
 242.60007 240.41784 238.25162 236.10439 233.97817 231.85895 229.89872 228.06950
 226.36627 224.85205 223.49583 222.28160 221.17738 220.15115 219.26893 218.42370
 217.67948 216.87326 215.98503 215.36281 214.82658 213.92749 211.82581 211.31949
 212.25664 212.65073 213.25015 215.06920 217.89340 222.15677 228.14752 232.88290
 236.52881 240.62262 244.99280 249.43234 253.58917 257.21750 260.42877 262.98529
 265.34756 267.56354 269.75665 272.02170 274.29172 276.31396 278.10898 279.85953
 281.46274 282.96518 284.33774 285.54245 286.61411 287.60846 288.51797 289.29501
 289.94180 290.50259 290.99246 291.61670
 366.78100 356.34912 345.79525 334.67537 323.09250 311.30062 299.18475 287.00187
 274.72800 262.63912 250.66225 239.97737 230.11350 221.23162 213.42775 206.44387
 200.29200 195.24412 191.84025 189.89637 188.94750 189.02562 189.87475 191.19687
 192.93600 195.04512 197.32225 199.69537 202.15450 204.64862 206.75075 208.60687
 210.24700 211.40612 211.64925 211.89137 211.84250 211.56162 211.20875 210.85287
 210.48400 210.20812 210.03025 209.90837 209.85050 210.19562 210.59575 210.99887
 211.80600 212.99812 214.26225 216.05937 218.00150 220.05862 222.16775 224.26487
 226.33900 228.43712 230.54825 232.66837 234.81150 236.99762 239.26775 241.65187
 244.28700 246.55212 248.56825 250.34737 251.77850 252.91562 253.75175 254.08187
 254.13300 253.92112 253.29525 252.25737 250.87750 249.05262 246.97575 244.82287
 242.62800 240.44612 238.28025 236.13337 234.00750 231.88862 229.92875 228.09987
 226.39700 224.88312 223.52725 222.31337 221.20950 220.18362 219.30175 218.45687
 217.71300 216.90712 216.01925 215.39737 214.86150 213.94804 211.81221 211.42632
 212.30281 212.71565 213.29573 215.08238 217.88678 222.11243 228.09082 232.81976
 236.45685 240.55199 244.93549 249.40121 253.56419 257.12469 260.43561 263.01370
 265.35196 267.55054 269.73938 271.98633 274.24741 276.28293 278.08459 279.81659
 281.41464 282.86957 284.21756 285.40363 286.46552 287.45737 288.35818 289.09354
 289.73892 290.34055 290.86798 291.54013
 366.78100 356.34971 345.79641 334.67712 323.09483 311.30354 299.18824 287.00595
 274.73266 262.64437 250.66807 239.98378 230.12049 221.23920 213.43590 206.45261
 200.30132 195.25403 191.85073 189.90744 188.95915 189.03786 189.88756 191.21027
 192.94998 195.05968 197.33739 199.71110 202.17081 204.66551 206.76822 208.62493
 210.26564 211.42534 211.66905 211.91176 211.86347 211.58317 211.23088 210.87559
 210.50730 210.23200 210.05471 209.93342 209.87613 210.22183 210.62254 211.02625
 211.83395 213.02666 214.29137 216.08908 218.03178 220.08949 222.19920 224.29691
 226.37161 228.47032 230.58203 232.70274 234.84644 237.03315 239.30386 241.68857
 244.32427 246.58998 248.60669 250.38639 251.81810 252.95581 253.79252 254.12322
 254.17493 253.96364 253.33835 252.30105 250.92176 249.09747 247.02118 244.86888
 242.67459 240.49330 238.32801 236.18171 234.05642 231.93813 229.97884 228.15054
 226.44825 224.93496 223.57966 222.36637 221.26308 220.23779 219.35649 218.51220
 217.76891 216.96362 216.07632 215.45503 214.91974 213.98874 211.81793 211.50076
 212.37711 212.78951 213.32889 215.03249 217.83110 222.07812 228.02959 232.77364
 236.39673 240.49957 244.88490 249.33389 253.48708 257.06674 260.40717 263.01166
 265.31317 267.50970 269.69162 271.93613 274.19070 276.22101 278.05713 279.80685
 281.33191 282.77124 284.08871 285.24353 286.27731 287.24759 288.12573 288.82666
 289.51944 290.17599 290.74951 291.48044
 366.78100 356.34959 345.79618 334.67677 323.09436 311.30295 299.18754 287.00513
 274.73172 262.64331 250.66690 239.98249 230.11908 221.23766 213.43425 206.45084
 200.29943 195.25202 191.84861 189.90520 188.95679 189.03538 189.88497 191.20756
 192.94715 195.05674 197.33433 199.70792 202.16751 204.66210 206.76469 208.62128
 210.26187 211.42146 211.66505 211.90764 211.85923 211.57881 211.22640 210.87099
 210.50258 210.22717 210.04976 209.92835 209.87094 210.21653 210.61712 211.02071
 211.82830 213.02089 214.28548 216.08307 218.02566 220.08325 222.19284 224.29043
 226.36502 228.46361 230.57520 232.69579 234.83938 237.02596 239.29655 241.68114
 244.31673 246.58232 248.59891 250.37850 251.81009 252.94768 253.78427 254.11486
 254.16645 253.95504 253.32963 252.29222 250.91281 249.08840 247.01199 244.85958
 242.66517 240.48376 238.31835 236.17194 234.04653 231.92812 229.96870 228.14029
 226.43788 224.92447 223.56906 222.35565 221.25224 220.22683 219.34542 218.50101
 217.75760 216.95219 216.06478 215.44337 214.90796 213.99492 211.86095 211.50035
 212.44801 212.91917 213.39510 214.96983 217.74773 222.02394 227.98489 232.70811
 236.32523 240.44276 244.84142 249.29707 253.45474 257.01413 260.38397 262.97278
 265.26328 267.44427 269.64005 271.89584 274.17365 276.24002 278.11542 279.86182
 281.35904 282.74606 284.04221 285.18481 286.17688 287.11981 288.00626 288.74435
 289.45682 290.14856 290.75702 291.53247
 366.78100 356.34855 345.79410 334.67364 323.09019 311.29774 299.18129 286.99783
 274.72338 262.63393 250.65648 239.97102 230.10657 221.22412 213.41967 206.43522
 200.28276 195.23431 191.82986 189.88541 188.93595 189.01350 189.86205 191.18360
 192.92215 195.03069 197.30724 199.67979 202.13834 204.63188 206.73343 208.58898
 210.22853 211.38707 211.62962 211.87117 211.82172 211.54027 211.18681 210.83036
 210.46091 210.18446 210.00600 209.88355 209.82510 210.16965 210.56920 210.97174
 211.77829 212.96984 214.23339 216.02993 217.97148 220.02803 222.13658 224.23312
 226.30667 228.40422 230.51477 232.63432 234.77686 236.96241 239.23196 241.61551
 244.25005 246.51460 248.53015 250.30870 251.73924 252.87579 253.71134 254.04089
 254.09144 253.87898 253.25253 252.21408 250.83363 249.00817 246.93072 244.77727
 242.58182 240.39937 238.23291 236.08546 233.95901 231.83956 229.87910 228.04965
 226.34620 224.83175 223.47529 222.26084 221.15639 220.12994 219.24749 218.40203
 217.65758 216.85113 215.96268 215.34022 214.80377 213.94440 211.91893 211.50636
 212.48308 213.05322 213.50046 214.96733 217.69218 221.96118 227.97472 232.61217
 236.24417 240.37480 244.80194 249.29359 253.47972 256.96017 260.23047 262.87897
 265.12927 267.29453 269.53027 271.83304 274.15503 276.28061 278.19193 279.94949
 281.46829 282.81357 284.10760 285.26175 286.25681 287.18295 288.06555 288.82513
 289.52316 290.19519 290.81577 291.61819
 366.78100 356.34765 345.79230 334.67095 323.08660 311.29325 299.17590 286.99155
 274.71620 262.62585 250.64750 239.96115 230.09580 221.21245 213.40710 206.42175
 200.26840 195.21905 191.81370 189.86835 188.91799 188.99464 189.84229 191.16294
 192.90059 195.00824 197.28389 199.65554 202.11319 204.60584 206.70649 208.56114
 210.19979 211.35744 211.59909 211.83974 211.78939 211.50704 211.15269 210.79534
 210.42499 210.14764 209.96829 209.84494 209.78559 210.12924 210.52789 210.92954
 211.73519 212.92584 214.18849 215.98414 217.92479 219.98044 222.08809 224.18374
 226.25639 228.35304 230.46268 232.58133 234.72298 236.90763 239.17628 241.55893
 244.19258 246.45623 248.47088 250.24853 251.67818 252.81383 253.64848 253.97713
 254.02678 253.81343 253.18608 252.14673 250.76538 248.93903 246.86068 244.70633
 242.50998 240.32663 238.15928 236.01093 233.88358 231.76323 229.80188 227.97153
 226.26718 224.75183 223.39448 222.17913 221.07378 220.04643 219.16308 218.31673
 217.57138 216.76402 215.87467 215.25132 214.71397 213.90099 211.98022 211.53528
 212.50018 213.13515 213.58896 215.02528 217.69516 221.92790 227.95378 232.50397
 236.14388 240.28017 244.73317 249.25395 253.45560 256.93738 260.06259 262.68918
 264.93677 267.12201 269.39368 271.74899 274.10663 276.25159 278.18738 279.93527
 281.44897 282.83453 284.14349 285.29803 286.27313 287.19629 288.10681 288.83273
 289.46283 290.11722 290.71432 291.50385
 366.78100 356.34637 345.78975 334.66712 323.08150 311.28687 299.16824 286.98262
 274.70599 262.61436 250.63474 239.94711 230.08049 221.19586 213.38923 206.40261
 200.24798 195.19735 191.79073 189.84410 188.89248 188.96785 189.81422 191.13360
 192.86997 194.97635 197.25072 199.62109 202.07747 204.56884 206.66821 208.52159
 210.15896 211.31534 211.55571 211.79508 211.74346 211.45983 211.10420 210.74558
 210.37395 210.09533 209.91470 209.79007 209.72945 210.07182 210.46919 210.86957
 211.67394 212.86332 214.12469 215.91906 217.85844 219.91281 222.01919 224.11356
 226.18493 228.28031 230.38868 232.50605 234.64643 236.82980 239.09718 241.47855
 244.11092 246.37330 248.38667 250.16304 251.59142 252.72579 253.55917 253.88654
 253.93491 253.72029 253.09166 252.05104 250.66841 248.84078 246.76116 244.60553
 242.40790 240.22328 238.05465 235.90503 233.77640 231.65477 229.69215 227.86052
 226.15489 224.63827 223.27964 222.06302 220.95639 219.92776 219.04314 218.19551
 217.44888 216.64026 215.74963 215.12501 214.58638 213.84129 212.08095 211.64062
 212.39178 213.06602 213.64816 215.11980 217.76782 221.95717 227.94388 232.48753
 236.10425 240.24020 244.70045 249.23059 253.44879 256.96423 259.96304 262.54095
 264.80551 267.00143 269.29868 271.67361 274.00381 276.15244 278.09229 279.85254
 281.41492 282.81116 284.10364 285.25031 286.24866 287.21405 288.09131 288.74457
 289.36426 289.99677 290.58835 291.36319
 366.78100 356.34650 345.78999 334.66749 323.08199 311.28748 299.16898 286.98348
 274.70698 262.61547 250.63597 239.94847 230.08196 221.19746 213.39096 206.40445
 200.24995 195.19945 191.79294 189.84644 188.89494 188.97044 189.81693 191.13643
 192.87293 194.97942 197.25392 199.62442 202.08091 204.57241 206.67191 208.52541
 210.16290 211.31940 211.55990 211.79939 211.74789 211.46439 211.10888 210.75038
 210.37888 210.10037 209.91987 209.79537 209.73487 210.07736 210.47486 210.87536
 211.67985 212.86935 214.13085 215.92534 217.86484 219.91934 222.02583 224.12033
 226.19183 228.28733 230.39582 232.51332 234.65382 236.83731 239.10481 241.48631
 244.11880 246.38130 248.39480 250.17129 251.59979 252.73429 253.56779 253.89528
 253.94378 253.72928 253.10077 252.06027 250.67777 248.85026 246.77076 244.61526
 242.41776 240.23325 238.06475 235.91525 233.78674 231.66524 229.70274 227.87123
 226.16573 224.64923 223.29072 222.07422 220.96772 219.93922 219.05471 218.20721
 217.46071 216.65220 215.76170 215.13720 214.59869 213.86119 212.12256 211.75935
 212.43893 213.01421 213.61250 215.03204 217.70486 221.93295 227.86749 232.48514
 236.06494 240.21384 244.68521 249.21312 253.42680 257.09308 260.07092 262.65317
 264.92166 267.12473 269.37671 271.66687 273.94528 276.05298 278.02194 279.69937
 281.14835 282.57837 283.88394 285.00146 285.99570 286.91245 287.66025 288.28940
 288.93460 289.55618 290.09973 290.79044
 366.78100 356.35002 345.79705 334.67807 323.09610 311.30512 299.19015 287.00817
 274.73520 262.64722 250.67125 239.98727 230.12430 221.24332 213.44035 206.45737
 200.30640 195.25942 191.85645 189.91347 188.96550 189.04452 189.89454 191.21757
 192.95759 195.06762 197.34564 199.71967 202.17969 204.67472 206.77774 208.63477
 210.27579 211.43582 211.67984 211.92287 211.87489 211.59492 211.24294 210.88797
 210.51999 210.24502 210.06804 209.94707 209.89009 210.23611 210.63714 211.04116
 211.84919 213.04221 214.30724 216.10526 218.04829 220.10631 222.21634 224.31436
 226.38939 228.48841 230.60044 232.72146 234.86549 237.05251 239.32354 241.70856
 244.34459 246.61061 248.62763 250.40766 251.83968 252.97771 253.81473 254.14576
 254.19778 253.98681 253.36183 252.32486 250.94588 249.12191 247.04593 244.89396
 242.69998 240.51901 238.35403 236.20806 234.08308 231.96511 230.00613 228.17816
 226.47618 224.96320 223.60823 222.39525 221.29228 220.26730 219.38633 218.54235
 217.79938 216.99440 216.10743 215.48645 214.95148 214.08528 212.08743 211.70543
 212.56461 213.08319 213.64273 215.00911 217.69870 221.94408 227.67853 232.34032
 235.94902 240.10944 244.58287 249.08534 253.19968 256.86960 260.08829 262.73352
 265.07483 267.30542 269.57278 271.82632 273.93164 276.06564 278.05750 279.69342
 281.04434 282.34961 283.53488 284.61816 285.49179 286.24066 287.06534 287.86127
 288.57669 289.21375 289.77029 290.47952
 366.78100 356.35081 345.79862 334.68043 323.09924 311.30905 299.19486 287.01368
 274.74149 262.65430 250.67911 239.99592 230.13373 221.25354 213.45135 206.46916
 200.31897 195.27278 191.87059 189.92840 188.98122 189.06103 189.91184 191.23565
 192.97646 195.08727 197.36608 199.74089 202.20170 204.69751 206.80132 208.65913
 210.30094 211.46175 211.70657 211.95038 211.90319 211.62400 211.27281 210.91862
 210.55143 210.27724 210.10105 209.98086 209.92467 210.27148 210.67329 211.07811
 211.88692 213.08073 214.34654 216.14535 218.08916 220.14797 222.25878 224.35759
 226.43340 228.53321 230.64602 232.76783 234.91265 237.10046 239.37227 241.75808
 244.39489 246.66170 248.67951 250.46032 251.89313 253.03194 253.86975 254.20156
 254.25437 254.04418 253.42000 252.38381 251.00562 249.18243 247.10724 244.95605
 242.76286 240.58267 238.41848 236.27329 234.14910 232.03191 230.07372 228.24654
 226.54535 225.03316 223.67897 222.46678 221.36459 220.34040 219.46021 218.61702
 217.87483 217.07064 216.18445 215.56426 215.03008 214.15942 212.14883 211.61011
 212.44621 213.30426 214.03789 215.18933 217.71234 221.88876 227.58958 232.20876
 235.80879 239.98491 244.47385 248.96376 253.04668 256.64972 259.91788 262.65244
 265.00470 267.31369 269.62518 271.77188 274.00211 276.23450 278.14673 279.64621
 281.04150 282.39633 283.57309 284.60831 285.44736 286.28519 287.18332 288.01382
 288.76074 289.42590 290.00696 290.74747
 366.78100 356.34880 345.79460 334.67440 323.09121 311.29901 299.18281 286.99961
 274.72541 262.63621 250.65901 239.97381 230.10962 221.22742 213.42322 206.43902
 200.28682 195.23862 191.83442 189.89023 188.94103 189.01883 189.86763 191.18943
 192.92823 195.03703 197.31383 199.68664 202.14544 204.63924 206.74104 208.59684
 210.23664 211.39544 211.63824 211.88005 211.83085 211.54965 211.19645 210.84025
 210.47105 210.19485 210.01666 209.89446 209.83626 210.18106 210.58086 210.98366
 211.79046 212.98226 214.24607 216.04287 217.98467 220.04147 222.15027 224.24707
 226.32087 228.41868 230.52948 232.64928 234.79208 236.97788 239.24768 241.63148
 244.26628 246.53109 248.54689 250.32569 251.75649 252.89329 253.72909 254.05889
 254.10970 253.89750 253.27130 252.23310 250.85290 249.02770 246.95050 244.79730
 242.60211 240.41991 238.25371 236.10651 233.98031 231.86111 229.90091 228.07171
 226.36852 224.85432 223.49812 222.28392 221.17972 220.15352 219.27132 218.42613
 217.68193 216.87573 215.98753 215.36533 214.82913 214.05945 212.25746 211.67198
 212.45145 213.41707 214.34784 215.37103 217.69038 221.79222 227.54425 232.09232
 235.71895 239.92195 244.42014 248.89996 252.98538 256.54114 259.72479 262.35745
 264.70416 267.08328 269.42554 271.72198 274.01648 276.18597 278.07129 279.63019
 281.10345 282.52179 283.71011 284.73187 285.63062 286.45557 287.26920 288.07721
 288.83319 289.51605 290.11258 290.87277
 366.78100 356.34634 345.78968 334.66702 323.08135 311.28669 299.16803 286.98237
 274.70571 262.61405 250.63439 239.94672 230.08006 221.19540 213.38874 206.40208
 200.24742 195.19676 191.79009 189.84343 188.89177 188.96711 189.81345 191.13279
 192.86913 194.97546 197.24980 199.62014 202.07648 204.56782 206.66716 208.52050
 210.15783 211.31417 211.55451 211.79385 211.74219 211.45853 211.10286 210.74420
 210.37254 210.09388 209.91322 209.78856 209.72790 210.07023 210.46757 210.86791
 211.67225 212.86159 214.12293 215.91727 217.85660 219.91094 222.01728 224.11162
 226.18296 228.27830 230.38664 232.50397 234.64431 236.82765 239.09499 241.47633
 244.10867 246.37101 248.38434 250.16068 251.58902 252.72336 253.55670 253.88404
 253.93238 253.71771 253.08905 252.04839 250.66573 248.83807 246.75841 244.60275
 242.40508 240.22042 238.05176 235.90210 233.77344 231.65178 229.68912 227.85745
 226.15179 224.63513 223.27647 222.05981 220.95315 219.92449 219.03982 218.19216
 217.44550 216.63684 215.74618 215.12152 214.58286 213.96422 212.51251 211.76031
 212.38834 213.20914 214.20259 215.47525 217.79572 221.81641 227.42200 232.01834
 235.63461 239.83632 244.34637 248.83093 252.89908 256.38895 259.52975 262.34708
 264.78662 267.10754 269.39380 271.69565 274.02097 276.22464 278.06686 279.54422
 280.83234 282.09702 283.23489 284.26431 285.16022 285.95236 286.72787 287.43619
 288.07321 288.64050 289.13608 289.76764
 366.78100 356.34373 345.78446 334.65919 323.07092 311.27365 299.15238 286.96411
 274.68484 262.59057 250.60830 239.91803 230.04876 221.16149 213.35222 206.36295
 200.20568 195.15241 191.74314 189.79387 188.83960 188.91232 189.75605 191.07278
 192.80651 194.91024 197.18197 199.54970 202.00343 204.49216 206.58889 208.43962
 210.07435 211.22808 211.46581 211.70254 211.64827 211.36200 211.00373 210.64246
 210.26819 209.98692 209.80365 209.67638 209.61311 209.95284 210.34757 210.74530
 211.54703 212.73376 213.99249 215.78422 217.72095 219.77268 221.87641 223.96814
 226.03687 228.12960 230.23533 232.35006 234.48779 236.66852 238.93324 241.31197
 243.94170 246.20143 248.21216 249.98589 251.41162 252.54335 253.37408 253.69881
 253.74454 253.52727 252.89600 251.85273 250.46746 248.63719 246.55492 244.39665
 242.19638 240.00911 237.83784 235.68557 233.55430 231.43003 229.46476 227.63049
 225.92222 224.40295 223.04168 221.82241 220.71314 219.68187 218.79460 217.94433
 217.19506 216.38379 215.49052 214.86325 214.32198 213.88069 212.75726 211.83075
 212.34732 213.19908 214.31996 215.71587 218.00708 221.99275 227.52309 232.02219
 235.66418 239.85620 244.35011 248.81831 252.86665 256.39978 259.49362 262.25583
 264.85489 267.25571 269.54630 271.76288 274.13565 276.31107 278.02292 279.47266
 280.69672 281.87369 283.04654 284.39252 285.55734 286.58792 287.52817 288.37994
 289.14603 289.82825 290.42422 291.18372
 366.78100 356.34213 345.78126 334.65440 323.06453 311.26566 299.14279 286.95293
 274.67206 262.57619 250.59232 239.90045 230.02959 221.14072 213.32985 206.33898
 200.18011 195.12525 191.71438 189.76351 188.80764 188.87878 189.72091 191.03604
 192.76817 194.87030 197.14044 199.50657 201.95870 204.44583 206.54096 208.39010
 210.02323 211.17536 211.41149 211.64663 211.59076 211.30289 210.94302 210.58015
 210.20429 209.92142 209.73655 209.60768 209.54282 209.88095 210.27408 210.67021
 211.47034 212.65548 213.91261 215.70274 217.63787 219.68800 221.79014 223.88027
 225.94740 228.03853 230.14267 232.25580 234.39193 236.57106 238.83419 241.21133
 243.83946 246.09759 248.10672 249.87885 251.30299 252.43312 253.26225 253.58538
 253.62952 253.41065 252.77778 251.73291 250.34604 248.51418 246.43031 244.27044
 242.06857 239.87971 237.70684 235.55297 233.42010 231.29423 229.32737 227.49150
 225.78163 224.26076 222.89789 221.67703 220.56616 219.53329 218.64442 217.79256
 217.04169 216.22882 215.33395 214.70508 214.16222 213.82402 212.89868 211.84677
 212.15820 213.07855 214.39076 215.89975 218.12050 222.04327 227.57324 232.06239
 235.69521 239.87799 244.36476 248.83687 252.92418 256.54413 259.61914 262.39053
 265.01132 267.47916 269.80078 271.84061 273.99472 276.15759 277.93790 279.44772
 280.89072 282.14532 283.77896 285.42252 286.84485 288.10324 289.25134 290.29144
 291.22690 292.05991 292.78763 293.71503
 366.78100 356.34313 345.78327 334.65740 323.06853 311.27066 299.14880 286.95993
 274.68006 262.58520 250.60233 239.91146 230.04159 221.15373 213.34386 206.35399
 200.19613 195.14226 191.73239 189.78252 188.82766 188.89979 189.74292 191.05906
 192.79219 194.89532 197.16645 199.53359 201.98672 204.47485 206.57098 208.42112
 210.05525 211.20838 211.44552 211.68165 211.62678 211.33991 210.98105 210.61918
 210.24431 209.96245 209.77858 209.65071 209.58684 209.92598 210.32011 210.71724
 211.51838 212.70451 213.96264 215.75377 217.68991 219.74104 221.84417 223.93531
 226.00344 228.09557 230.20070 232.31484 234.45197 236.63210 238.89624 241.27437
 243.90350 246.16263 248.17277 249.94590 251.37103 252.50217 253.33230 253.65643
 253.70156 253.48370 252.85183 251.80796 250.42210 248.59123 246.50836 244.34949
 242.14863 239.96076 237.78889 235.63603 233.50416 231.37929 229.41342 227.57856
 225.86969 224.34982 222.98795 221.76809 220.65822 219.62635 218.73849 217.88762
 217.13775 216.32588 215.43202 214.80415 214.26228 213.87018 212.89954 211.99153
 212.03203 212.89253 214.33911 215.96788 218.25327 222.07693 227.49043 231.99445
 235.61972 239.81566 244.30351 248.76743 252.81296 256.37000 259.43112 262.18597
 264.90335 267.49057 269.90381 272.01199 273.86548 276.00937 277.89182 279.58572
 281.08487 282.43903 283.74390 285.10043 286.40186 287.55463 288.60635 289.55914
 290.41608 291.17920 291.84583 292.69537
 366.78100 356.34377 345.78455 334.65932 323.07109 311.27387 299.15264 286.96441
 274.68518 262.59096 250.60873 239.91850 230.04928 221.16205 213.35282 206.36360
 200.20637 195.15314 191.74392 189.79469 188.84046 188.91323 189.75701 191.07378
 192.80755 194.91133 197.18310 199.55087 202.00465 204.49342 206.59019 208.44097
 210.07574 211.22951 211.46729 211.70406 211.64983 211.36360 211.00538 210.64415
 210.26992 209.98870 209.80547 209.67824 209.61502 209.95479 210.34956 210.74734
 211.54911 212.73588 213.99465 215.78643 217.72320 219.77497 221.87875 223.97052
 226.03929 228.13207 230.23784 232.35261 234.49039 236.67116 238.93593 241.31470
 243.94448 246.20425 248.21502 249.98880 251.41457 252.54634 253.37712 253.70189
 253.74766 253.53044 252.89921 251.85598 250.47075 248.64053 246.55830 244.40007
 242.19985 240.01262 237.84139 235.68917 233.55794 231.43371 229.46849 227.63426
 225.92603 224.40681 223.04558 221.82635 220.71712 219.68590 218.79867 217.94844
 217.19922 216.38799 215.49476 214.86754 214.32631 213.90776 212.90706 212.12331
 211.99486 212.73463 214.24655 215.98201 218.32983 222.09627 227.45850 231.98149
 235.59164 239.78416 244.26492 248.68651 252.68713 256.16882 259.11890 261.89395
 264.62811 267.27826 269.70978 271.84619 273.90286 276.01291 277.85498 279.45941
 281.02704 282.35623 283.57092 284.75354 285.82199 286.82251 287.74164 288.57431
 289.32321 289.99008 290.57269 291.31512
 366.78100 356.34332 345.78363 334.65795 323.06926 311.27158 299.14989 286.96121
 274.68152 262.58684 250.60415 239.91347 230.04378 221.15610 213.34641 206.35673
 200.19905 195.14536 191.73568 189.78599 188.83131 188.90362 189.74694 191.06325
 192.79657 194.89988 197.17120 199.53851 201.99183 204.48014 206.57646 208.42678
 210.06109 211.21441 211.45172 211.68804 211.63335 211.34667 210.98798 210.62630
 210.25161 209.96993 209.78624 209.65856 209.59487 209.93419 210.32851 210.72582
 211.52714 212.71345 213.97177 215.76308 217.69940 219.75071 221.85403 223.94534
 226.01366 228.10597 230.21129 232.32560 234.46292 236.64324 238.90755 241.28587
 243.91518 246.17450 248.18481 249.95813 251.38344 252.51476 253.34507 253.66939
 253.71470 253.49702 252.86533 251.82165 250.43596 248.60528 246.52260 244.36391
 242.16323 239.97554 237.80386 235.65117 233.51949 231.39480 229.42912 227.59443
 225.88575 224.36606 223.00438 221.78469 220.67501 219.64333 218.75564 217.90496
 217.15527 216.34359 215.44990 214.82222 214.28053 213.91595 213.01877 212.15936
 212.05701 212.72466 214.22023 216.03360 218.41905 222.16547 227.50349 232.00241
 235.58891 239.75688 244.23373 248.64429 252.61501 255.99785 258.86124 261.75278
 264.58386 267.28024 269.75015 271.82947 273.90115 276.01050 277.81812 279.29559
 280.61307 281.94824 283.15042 284.25967 285.33185 286.30252 287.18811 287.99039
 288.71194 289.35449 289.91583 290.63116
 366.78100 356.34286 345.78273 334.65659 323.06746 311.26932 299.14718 286.95805
 274.67791 262.58277 250.59964 239.90850 230.03837 221.15023 213.34009 206.34996
 200.19182 195.13768 191.72755 189.77741 188.82228 188.89414 189.73700 191.05287
 192.78573 194.88860 197.15946 199.52632 201.97919 204.46705 206.56291 208.41278
 210.04664 211.19951 211.43637 211.67223 211.61710 211.32996 210.97083 210.60869
 210.23355 209.95142 209.76728 209.63914 209.57501 209.91387 210.30774 210.70460
 211.50546 212.69133 213.94919 215.74005 217.67592 219.72678 221.82965 223.92051
 225.98837 228.08024 230.18510 232.29897 234.43583 236.61569 238.87956 241.25742
 243.88628 246.14515 248.15501 249.92788 251.35274 252.48360 253.31347 253.63733
 253.68220 253.46406 252.83192 251.78779 250.40165 248.57051 246.48738 244.32824
 242.12711 239.93897 237.76683 235.61370 233.48156 231.35642 229.39029 227.55515
 225.84602 224.32588 222.96374 221.74361 220.63347 219.60134 218.71320 217.86206
 217.11193 216.29979 215.40565 214.77752 214.23538 213.95284 213.14925 212.09229
 212.12263 212.88055 214.33459 216.13432 218.45584 222.18515 227.59915 232.05881
 235.64392 239.76704 244.19577 248.54927 252.46107 255.74147 258.58585 261.60510
 264.54416 267.24893 269.65945 271.75400 274.03207 276.04797 277.79565 279.12350
 280.30899 281.53534 283.05704 284.44864 285.65292 286.71841 287.69052 288.57117
 289.36322 290.06854 290.68469 291.46994
 366.78100 356.33920 345.77541 334.64561 323.05281 311.25101 299.12522 286.93242
 274.64862 262.54982 250.56303 239.86823 229.99443 221.10263 213.28884 206.29504
 200.13324 195.07544 191.66165 189.70785 188.74905 188.81726 189.65646 190.96866
 192.69786 194.79707 197.06427 199.42747 201.87667 204.36088 206.45308 208.29928
 209.92948 211.07869 211.31189 211.54409 211.48529 211.19450 210.83170 210.46590
 210.08711 209.80131 209.61351 209.48171 209.41392 209.74912 210.13932 210.53252
 211.32973 212.51193 213.76613 215.55333 217.48554 219.53274 221.63194 223.71914
 225.78335 227.87155 229.97275 232.08295 234.21616 236.39236 238.65256 241.02677
 243.65197 245.90717 247.91337 249.68258 251.10378 252.23098 253.05718 253.37739
 253.41859 253.19679 252.56099 251.51320 250.12340 248.28860 246.20180 244.03901
 241.83421 239.64241 237.46662 235.30982 233.17402 231.04522 229.07543 227.23663
 225.52383 224.00003 222.63424 221.41044 220.29664 219.26084 218.36905 217.51425
 216.76045 215.94465 215.04686 214.41506 213.86926 213.84544 213.38724 211.97125
 211.96907 212.93532 214.42093 216.28178 218.64381 222.20728 227.58665 232.09898
 235.72580 239.86298 244.27425 248.63530 252.59760 255.87697 258.68491 261.55518
 264.34933 266.96588 269.35938 271.83902 274.18018 276.06665 277.69556 279.09406
 280.23450 281.17984 281.99786 282.71616 283.33777 283.88773 284.38950 284.84406
 285.25290 285.61694 285.93500 286.34030
 366.78100 356.33438 345.76577 334.63115 323.03354 311.22692 299.09631 286.89869
 274.61008 262.50646 250.51485 239.81523 229.93662 221.04000 213.22139 206.22277
 200.05616 194.99354 191.57493 189.61631 188.65270 188.71608 189.55047 190.85785
 192.58224 194.67662 196.93901 199.29739 201.74178 204.22116 206.30855 208.14993
 209.77532 210.91970 211.14809 211.37547 211.31186 211.01624 210.64863 210.27801
 209.89440 209.60378 209.41117 209.27455 209.20194 209.53232 209.91771 210.30609
 211.09848 212.27586 213.52525 215.30763 217.23502 219.27740 221.37179 223.45417
 225.51356 227.59694 229.69333 231.79871 233.92710 236.09848 238.35387 240.72325
 243.34364 245.59402 247.59541 249.35979 250.77618 251.89856 252.71995 253.03533
 253.07172 252.84510 252.20449 251.15187 249.75726 247.91764 245.82603 243.65841
 241.44880 239.25218 237.07157 234.90995 232.76934 230.63572 228.66111 226.81749
 225.09988 223.57126 222.20065 220.97203 219.85342 218.81280 217.91619 217.05657
 216.29796 215.47734 214.57473 213.93811 213.38750 213.65292 213.66801 211.95485
 211.61812 212.68025 214.35878 216.31682 218.74670 222.33870 227.60042 232.14548
 235.78595 239.96062 244.40178 248.78798 252.79500 256.20923 259.10056 261.79361
 264.47708 266.98315 269.39694 271.92987 274.14786 276.00320 277.65231 278.87039
 279.75995 280.52246 281.18225 281.76163 282.26300 282.70660 283.11133 283.47797
 283.80771 284.10138 284.35791 284.68481
 366.78100 356.33706 345.77111 334.63917 323.04423 311.24028 299.11234 286.91740
 274.63145 262.53051 250.54157 239.84462 229.96868 221.07474 213.25879 206.26285
 200.09891 195.03897 191.62302 189.66708 188.70614 188.77219 189.60925 190.91931
 192.64636 194.74342 197.00848 199.36953 201.81659 204.29865 206.38870 208.23276
 209.86082 211.00787 211.23893 211.46899 211.40804 211.11510 210.75016 210.38221
 210.00127 209.71333 209.52338 209.38944 209.31950 209.65256 210.04061 210.43167
 211.22673 212.40678 213.65884 215.44390 217.37395 219.41901 221.51607 223.60112
 225.66318 227.74924 229.84829 231.95635 234.08741 236.26146 238.51952 240.89158
 243.51463 245.76769 247.77175 249.53880 250.95786 252.08292 252.90697 253.22503
 253.26409 253.04015 252.40220 251.35226 249.96032 248.12337 246.03443 243.86949
 241.66254 239.46860 237.29066 235.13171 232.99377 230.86283 228.89088 227.04994
 225.33500 223.80905 222.44111 221.21517 220.09922 219.06128 218.16734 217.31039
 216.55445 215.73651 214.83656 214.20262 213.65468 213.75873 213.64330 212.25677
 211.56842 212.36874 214.07381 216.19380 218.70898 222.29956 227.60426 232.10892
 235.74626 239.94263 244.41637 248.85594 252.95366 256.45453 259.31293 261.93506
 264.68274 267.28799 269.57687 271.79550 274.04163 275.95898 277.57767 279.06964
 281.45615 283.50174 285.27185 286.82617 288.17126 289.36136 290.44711 291.43076
 292.31543 293.10321 293.79144 294.66846
 366.78100 356.34427 345.78553 334.66080 323.07307 311.27633 299.15560 286.96787
 274.68913 262.59540 250.61367 239.92394 230.05520 221.16847 213.35974 206.37100
 200.21427 195.16154 191.75280 189.80407 188.85034 188.92360 189.76787 191.08514
 192.81940 194.92367 197.19594 199.56421 202.01847 204.50774 206.60501 208.45627
 210.09154 211.24581 211.48407 211.72134 211.66761 211.38187 211.02414 210.66341
 210.28967 210.00894 209.82621 209.69948 209.63674 209.97701 210.37228 210.77054
 211.57281 212.76008 214.01934 215.81161 217.74888 219.80114 221.90541 223.99768
 226.06694 228.16021 230.26648 232.38175 234.52001 236.70128 238.96655 241.34581
 243.97608 246.23635 248.24761 250.02188 251.44815 252.58041 253.41168 253.73695
 253.78321 253.56648 252.93575 251.89301 250.50828 248.67855 246.59682 244.43908
 242.23935 240.05262 237.88188 235.73015 233.59942 231.47568 229.51095 227.67722
 225.96948 224.45075 223.09002 221.87128 220.76255 219.73182 218.84509 217.99535
 217.24662 216.43589 215.54315 214.91642 214.37569 214.08551 213.33925 212.49014
 211.95610 212.37935 213.93184 215.97699 218.53412 222.33455 227.48996 232.02255
 235.64658 239.82133 244.26802 248.64343 252.66075 256.12952 259.05698 261.73572
 264.47064 267.12491 269.51880 271.74280 273.92731 275.81259 277.52719 279.38431
 281.19614 282.93283 284.62906 286.12897 287.42703 288.57547 289.62326 290.57248
 291.42618 292.18643 292.85056 293.69690
 366.78100 356.34644 345.78988 334.66732 323.08176 311.28720 299.16864 286.98309
 274.70653 262.61497 250.63541 239.94785 230.08129 221.19673 213.39017 206.40361
 200.24905 195.19849 191.79193 189.84537 188.89382 188.96926 189.81570 191.13514
 192.87158 194.97802 197.25246 199.62290 202.07934 204.57078 206.67022 208.52366
 210.16111 211.31755 211.55799 211.79743 211.74587 211.46231 211.10675 210.74819
 210.37663 210.09807 209.91751 209.79295 209.73239 210.07484 210.47228 210.87272
 211.67716 212.86660 214.12804 215.92248 217.86192 219.91636 222.02280 224.11724
 226.18868 228.28412 230.39257 232.51001 234.65045 236.83389 239.10133 241.48277
 244.11521 246.37765 248.39109 250.16753 251.59597 252.73041 253.56386 253.89130
 253.93974 253.72518 253.09662 252.05606 250.67350 248.84594 246.76638 244.61082
 242.41326 240.22870 238.06014 235.91059 233.78203 231.66047 229.69791 227.86635
 226.16079 224.64423 223.28567 222.06911 220.96255 219.93399 219.04943 218.20187
 217.45532 216.64676 215.75620 215.13164 214.59308 214.19809 213.25046 212.44785
 212.06041 212.38144 213.85876 215.91643 218.58228 222.39711 227.44511 231.96199
 235.59758 239.74576 244.15468 248.47676 252.42004 255.82466 258.73560 261.45685
 264.29819 266.97330 269.44424 271.73413 273.83887 275.72391 277.37424 279.19690
 280.89511 282.43140 283.78473 285.06451 286.23364 287.28781 288.24960 289.12094
 289.90457 290.60242 291.21207 291.98895
 366.78100 356.34452 345.78605 334.66157 323.07410 311.27762 299.15715 286.96967
 274.69119 262.59772 250.61624 239.92677 230.05829 221.17182 213.36334 206.37486
 200.21839 195.16591 191.75744 189.80896 188.85549 188.92901 189.77353 191.09106
 192.82558 194.93011 197.20263 199.57116 202.02568 204.51520 206.61273 208.46425
 210.09978 211.25430 211.49283 211.73035 211.67687 211.39140 211.03392 210.67345
 210.29997 210.01950 209.83702 209.71054 209.64807 209.98859 210.38412 210.78264
 211.58517 212.77269 214.03221 215.82474 217.76226 219.81479 221.91931 224.01184
 226.08136 228.17488 230.28141 232.39693 234.53546 236.71698 238.98251 241.36203
 243.99255 246.25308 248.26460 250.03913 251.46565 252.59818 253.42970 253.75522
 253.80175 253.58527 252.95480 251.91232 250.52785 248.69837 246.61689 244.45942
 242.25994 240.07347 237.90299 235.75152 233.62104 231.49756 229.53309 227.69961
 225.99214 224.47366 223.11319 221.89471 220.78623 219.75576 218.86928 218.01981
 217.27133 216.46086 215.56838 214.94190 214.40143 214.10457 213.38515 212.54518
 211.92149 212.21968 213.74542 215.87112 218.55629 222.36472 227.43311 231.91034
 235.62589 239.76335 244.15262 248.45410 252.37830 255.77226 258.70212 261.47717
 264.27942 266.96481 269.45010 271.73108 273.80350 275.64468 277.30200 279.09430
 280.76749 282.21719 283.31451 284.40280 285.29303 286.11432 287.06674 287.95627
 288.75629 289.46869 290.09103 290.88416
 366.78100 356.34367 345.78433 334.65900 323.07066 311.27333 299.15199 286.96366
 274.68433 262.58999 250.60766 239.91732 230.04799 221.16066 213.35132 206.36199
 200.20465 195.15132 191.74198 189.79265 188.83832 188.91098 189.75465 191.07131
 192.80498 194.90865 197.18031 199.54798 202.00164 204.49031 206.58697 208.43764
 210.07231 211.22597 211.46364 211.70030 211.64597 211.35964 211.00130 210.63997
 210.26563 209.98430 209.80096 209.67363 209.61030 209.94996 210.34463 210.74229
 211.54396 212.73063 213.98929 215.78096 217.71762 219.76929 221.87295 223.96462
 226.03329 228.12595 230.23162 232.34628 234.48395 236.66462 238.92928 241.30795
 243.93761 246.19728 248.20794 249.98161 251.40728 252.53894 253.36961 253.69427
 253.73994 253.52261 252.89127 251.84794 250.46260 248.63227 246.54993 244.39160
 242.19127 240.00393 237.83260 235.68026 233.54893 231.42459 229.45926 227.62493
 225.91659 224.39726 223.03592 221.81659 220.70726 219.67592 218.78859 217.93825
 217.18892 216.37758 215.48425 214.85692 214.31558 214.05898 213.44229 212.73439
 211.97011 212.18083 213.67323 215.81470 218.48944 222.26888 227.34155 231.80669
 235.59578 239.75468 244.15543 248.45955 252.38942 255.80072 258.76007 261.53632
 264.29794 266.97339 269.46411 271.74063 273.77194 275.55426 277.16800 279.04489
 280.70920 282.09424 283.18597 284.19705 285.08966 285.70358 286.46075 287.35901
 288.18576 288.92200 289.56516 290.38477
 366.78100 356.34309 345.78318 334.65727 323.06836 311.27045 299.14853 286.95962
 274.67971 262.58480 250.60189 239.91098 230.04107 221.15316 213.34325 206.35334
 200.19542 195.14151 191.73160 189.78169 188.82678 188.89887 189.74196 191.05805
 192.79114 194.89423 197.16532 199.53240 201.98549 204.47358 206.56967 208.41976
 210.05385 211.20694 211.44403 211.68012 211.62521 211.33829 210.97938 210.61747
 210.24256 209.96065 209.77674 209.64883 209.58492 209.92401 210.31810 210.71518
 211.51627 212.70236 213.96045 215.75154 217.68763 219.73872 221.84181 223.93290
 226.00099 228.09308 230.19816 232.31225 234.44934 236.62943 238.89352 241.27161
 243.90070 246.15979 248.16988 249.94297 251.36805 252.49914 253.32923 253.65332
 253.69841 253.48050 252.84859 251.80468 250.41877 248.58786 246.50495 244.34603
 242.14512 239.95721 237.78530 235.63239 233.50048 231.37557 229.40966 227.57475
 225.86584 224.34592 222.98401 221.76410 220.65419 219.62228 218.73437 217.88346
 217.13355 216.32164 215.42773 214.79982 214.25790 214.03748 213.50339 212.80901
 212.02632 212.24287 213.70113 215.82516 218.44395 222.16739 227.19446 231.66447
 235.48557 239.66159 244.07938 248.37512 252.29341 255.70950 258.70282 261.53030
 264.31354 266.99158 269.48166 271.76010 273.73349 275.43936 277.12042 278.97668
 280.67117 282.02509 282.97992 284.00363 284.98755 285.64240 286.51624 287.44849
 288.29248 289.04404 289.70059 290.53729
 366.78100 356.34161 345.78022 334.65283 323.06244 311.26306 299.13967 286.94928
 274.66789 262.57150 250.58711 239.89472 230.02333 221.13394 213.32256 206.33117
 200.17178 195.11639 191.70500 189.75361 188.79722 188.86783 189.70944 191.02405
 192.75567 194.85728 197.12689 199.49250 201.94411 204.43072 206.52533 208.37394
 210.00655 211.15817 211.39378 211.62839 211.57200 211.28361 210.92322 210.55983
 210.18344 209.90005 209.71467 209.58528 209.51989 209.85750 210.25011 210.64572
 211.44533 212.62994 213.88655 215.67616 217.61078 219.66039 221.76200 223.85161
 225.91822 228.00883 230.11244 232.22505 234.36066 236.53928 238.80189 241.17850
 243.80611 246.06372 248.07233 249.84394 251.26755 252.39716 253.22578 253.54839
 253.59200 253.37261 252.73922 251.69383 250.30644 248.47405 246.38966 244.22927
 242.02689 239.83750 237.66411 235.50972 233.37633 231.24994 229.28255 227.44616
 225.73577 224.21439 222.85100 221.62961 220.51822 219.48483 218.59544 217.74305
 216.99166 216.17827 215.28289 214.65350 214.11011 213.98314 213.64117 212.81245
 211.91765 212.22986 213.80806 215.99820 218.60869 222.25307 227.15405 231.64798
 235.39392 239.60141 244.00729 248.28307 252.17810 255.58978 258.60593 261.49515
 264.32004 267.01828 269.52182 271.78226 273.69589 275.36786 277.15323 278.99112
 280.64026 281.87469 282.87106 283.89038 284.93594 286.02591 287.05774 287.99249
 288.83322 289.58188 290.23590 291.06937
 366.78100 356.34151 345.78002 334.65254 323.06205 311.26256 299.13907 286.94859
 274.66710 262.57061 250.58612 239.89363 230.02215 221.13266 213.32117 206.32968
 200.17020 195.11471 191.70322 189.75173 188.79524 188.86576 189.70727 191.02178
 192.75329 194.85480 197.12432 199.48983 201.94134 204.42785 206.52237 208.37088
 210.00339 211.15490 211.39041 211.62493 211.56844 211.27995 210.91946 210.55598
 210.17949 209.89600 209.71051 209.58102 209.51554 209.85305 210.24556 210.64107
 211.44059 212.62510 213.88161 215.67112 217.60563 219.65515 221.75666 223.84617
 225.91268 228.00320 230.10671 232.21922 234.35473 236.53324 238.79576 241.17227
 243.79978 246.05729 248.06581 249.83732 251.26083 252.39034 253.21885 253.54137
 253.58488 253.36539 252.73190 251.68641 250.29893 248.46644 246.38195 244.22146
 242.01898 239.82949 237.65600 235.50151 233.36802 231.24154 229.27405 227.43756
 225.72707 224.20559 222.84210 221.62061 220.50912 219.47563 218.58615 217.73366
 216.98217 216.16868 215.27320 214.64371 214.10022 213.99181 213.68564 212.89174
 211.86134 212.09814 213.82628 216.15744 218.79108 222.40410 227.24496 231.69107
 235.39796 239.60670 244.00377 248.26787 252.15474 255.57269 258.59729 261.51544
 264.34540 267.02414 269.55301 271.80447 273.62991 275.30350 277.19003 278.97955
 280.60287 281.82275 282.77917 284.12872 285.34698 286.44742 287.45139 288.36090
 289.17892 289.90738 290.54376 291.35474
 366.78100 356.34191 345.78081 334.65372 323.06363 311.26454 299.14144 286.95135
 274.67026 262.57417 250.59007 239.89798 230.02689 221.13780 213.32670 206.33561
 200.17652 195.12143 191.71033 189.75924 188.80315 188.87406 189.71596 191.03087
 192.76278 194.86468 197.13459 199.50050 201.95241 204.43931 206.53422 208.38313
 210.01604 211.16794 211.40385 211.63876 211.58267 211.29457 210.93448 210.57139
 210.19530 209.91220 209.72711 209.59802 209.53293 209.87083 210.26374 210.65965
 211.45956 212.64446 213.90137 215.69128 217.62618 219.67609 221.77800 223.86791
 225.93481 228.02572 230.12963 232.24254 234.37844 236.55735 238.82026 241.19717
 243.82507 246.08298 248.09189 249.86380 251.28770 252.41761 253.24652 253.56943
 253.61333 253.39424 252.76115 251.71605 250.32896 248.49687 246.41278 244.25268
 242.05059 239.86150 237.68841 235.53431 233.40122 231.27513 229.30804 227.47194
 225.76185 224.24076 222.87767 221.65657 220.54548 219.51239 218.62330 217.77120
 217.02011 216.20702 215.31193 214.68283 214.13974 214.01643 213.68909 212.99538
 211.90175 211.95480 213.71460 216.13618 218.80573 222.44257 227.28555 231.71254
 235.41101 239.61343 244.00166 248.25006 252.12155 255.54391 258.59171 261.52454
 264.35349 267.03778 269.57947 271.79602 273.53857 275.20047 277.13583 278.96347
 280.59583 281.79999 282.93503 284.27197 285.40271 286.40335 287.31625 288.14331
 288.88715 289.54953 290.12817 290.86560
 366.78100 356.34099 345.77898 334.65096 323.05995 311.25994 299.13593 286.94492
 274.66291 262.56589 250.58088 239.88787 230.01586 221.12585 213.31383 206.32182
 200.16181 195.10580 191.69379 189.74178 188.78476 188.85475 189.69574 191.00973
 192.74072 194.84171 197.11069 199.47568 201.92667 204.41266 206.50665 208.35463
 209.98662 211.13761 211.37260 211.60659 211.54958 211.26056 210.89955 210.53554
 210.15853 209.87452 209.68850 209.55849 209.49248 209.82947 210.22146 210.61645
 211.41543 212.59942 213.85541 215.64440 217.57839 219.62738 221.72836 223.81735
 225.88334 227.97333 230.07632 232.18830 234.32329 236.50128 238.76327 241.13926
 243.76625 246.02323 248.03122 249.80221 251.22520 252.35419 253.18217 253.50416
 253.54715 253.32714 252.69313 251.64712 250.25910 248.42609 246.34108 244.18007
 241.97706 239.78705 237.61303 235.45802 233.32401 231.19700 229.22899 227.39197
 225.68096 224.15895 222.79494 221.57293 220.46092 219.42690 218.53689 217.68388
 216.93187 216.11786 215.22184 214.59183 214.04782 213.97891 213.75919 212.99776
 211.99226 212.00061 213.66705 216.07146 218.75381 222.41641 227.24939 231.68367
 235.37419 239.57684 243.95494 248.17714 252.01788 255.43895 258.52722 261.49997
 264.34683 267.03473 269.58261 271.76105 273.44937 275.09616 277.05829 278.87689
 280.44839 281.77737 283.08740 284.39279 285.57553 286.63309 287.59796 288.47205
 289.25818 289.95825 290.56982 291.34918
 366.78100 356.34026 345.77751 334.64877 323.05702 311.25628 299.13153 286.93979
 274.65704 262.55930 250.57355 239.87981 230.00706 221.11632 213.30357 206.31083
 200.15009 195.09334 191.68060 189.72785 188.77011 188.83936 189.67962 190.99287
 192.72313 194.82338 197.09164 199.45589 201.90615 204.39140 206.48466 208.33192
 209.96317 211.11343 211.34768 211.58094 211.52319 211.23345 210.87170 210.50696
 210.12921 209.84447 209.65772 209.52698 209.46023 209.79649 210.18775 210.58200
 211.38026 212.56351 213.81877 215.60702 217.54028 219.58853 221.68879 223.77704
 225.84230 227.93155 230.03381 232.14506 234.27932 236.45658 238.71783 241.09309
 243.71934 245.97560 247.98285 249.75311 251.17536 252.30362 253.13087 253.45213
 253.49438 253.27364 252.63889 251.59215 250.20341 248.36966 246.28392 244.12217
 241.91843 239.72768 237.55294 235.39719 233.26245 231.13470 229.16596 227.32821
 225.61647 224.09372 222.72898 221.50624 220.39349 219.35875 218.46800 217.61426
 216.86151 216.04677 215.15002 214.51928 213.97453 213.95554 213.82025 212.94081
 212.03236 212.11836 213.73718 216.10303 218.76952 222.42911 227.23425 231.65579
 235.33765 239.53894 243.90898 248.10724 251.91068 255.32100 258.46536 261.49179
 264.37454 267.05923 269.60727 271.75385 273.39960 275.04788 276.95834 278.75043
 280.34741 281.76117 283.12033 284.46689 285.66086 286.71722 287.68100 288.55411
 289.33936 290.03864 290.64954 291.42801
 366.78100 356.34109 345.77917 334.65126 323.06034 311.26043 299.13652 286.94560
 274.66369 262.56677 250.58186 239.88894 230.01703 221.12712 213.31520 206.32329
 200.16337 195.10746 191.69555 189.74363 188.78672 188.85680 189.69789 191.01197
 192.74306 194.84415 197.11323 199.47832 201.92940 204.41549 206.50958 208.35766
 209.98975 211.14083 211.37592 211.61001 211.55309 211.26418 210.90326 210.53935
 210.16243 209.87852 209.69261 209.56269 209.49678 209.83386 210.22595 210.62104
 211.42012 212.60421 213.86029 215.64938 217.58347 219.63255 221.73364 223.82272
 225.88881 227.97889 230.08198 232.19407 234.32915 236.50724 238.76932 241.14541
 243.77250 246.02958 248.03767 249.80875 251.23184 252.36092 253.18901 253.51110
 253.55418 253.33427 252.70035 251.65444 250.26653 248.43361 246.34870 244.18778
 241.98487 239.79496 237.62104 235.46613 233.33221 231.20530 229.23738 227.40047
 225.68956 224.16764 222.80373 221.58181 220.46990 219.43599 218.54607 217.69316
 216.94124 216.12733 215.23141 214.60150 214.05759 214.01416 213.80554 212.91978
 212.10118 212.19751 213.79391 216.14850 218.77852 222.43428 227.25102 231.64572
 235.32516 239.51869 243.87341 248.03912 251.81432 255.23166 258.42004 261.49652
 264.41449 267.03830 269.59482 271.72034 273.35904 275.04300 276.89981 278.64490
 280.28052 281.71371 283.18954 284.61325 285.84537 286.93546 287.92999 288.83099
 289.64133 290.36295 290.99332 291.79669
 366.78100 356.34320 345.78340 334.65760 323.06879 311.27099 299.14919 286.96039
 274.68059 262.58579 250.60299 239.91218 230.04238 221.15458 213.34478 206.35498
 200.19718 195.14338 191.73357 189.78377 188.82897 188.90117 189.74437 191.06057
 192.79377 194.89696 197.16816 199.53536 201.98856 204.47676 206.57296 208.42316
 210.05736 211.21055 211.44775 211.68395 211.62915 211.34235 210.98355 210.62175
 210.24694 209.96514 209.78134 209.65354 209.58974 209.92894 210.32314 210.72033
 211.52153 212.70773 213.96593 215.75713 217.69333 219.74453 221.84772 223.93892
 226.00712 228.09932 230.20452 232.31872 234.45592 236.63611 238.90031 241.27851
 243.90771 246.16691 248.17711 249.95031 251.37550 252.50670 253.33690 253.66110
 253.70630 253.48850 252.85670 251.81289 250.42709 248.59629 246.51349 244.35469
 242.15389 239.96609 237.79429 235.64148 233.50968 231.38488 229.41908 227.58428
 225.87548 224.35568 222.99387 221.77407 220.66427 219.63247 218.74467 217.89387
 217.14407 216.33226 215.43846 214.81066 214.26886 214.13432 213.73888 212.96249
 212.18321 212.23184 213.81163 216.13196 218.70618 222.37820 227.24710 231.61986
 235.31245 239.50548 243.84912 248.00261 251.77081 255.19128 258.40387 261.52301
 264.47583 267.11874 269.57605 271.69867 273.32776 275.05801 276.88654 278.59222
 280.17789 281.75748 283.38568 284.82828 286.07672 287.18127 288.18900 289.10193
 289.92300 290.65417 291.29294 292.10693
 366.78100 356.34474 345.78647 334.66221 323.07495 311.27869 299.15842 286.97116
 274.69290 262.59964 250.61837 239.92911 230.06085 221.17459 213.36632 206.37806
 200.22180 195.16954 191.76127 189.81301 188.85975 188.93349 189.77822 191.09596
 192.83070 194.93544 197.20817 199.57691 202.03165 204.52139 206.61912 208.47086
 210.10660 211.26134 211.50007 211.73781 211.68455 211.39929 211.04202 210.68176
 210.30850 210.02824 209.84597 209.71971 209.65745 209.99819 210.39392 210.79266
 211.59540 212.78313 214.04287 215.83561 217.77335 219.82608 221.93082 224.02356
 226.09330 228.18703 230.29377 232.40951 234.54825 236.72998 238.99572 241.37546
 244.00620 246.26693 248.27867 250.05341 251.48015 252.61288 253.44462 253.77036
 253.81710 253.60083 252.97057 251.92831 250.54405 248.71478 246.63352 244.47626
 242.27700 240.09073 237.92047 235.76921 233.63895 231.51568 229.55142 227.71816
 226.01090 224.49263 223.13237 221.91411 220.80585 219.77558 218.88932 218.04006
 217.29179 216.48153 215.58927 214.96301 214.42274 214.21111 213.68889 213.07236
 212.24393 212.19714 213.76862 216.04506 218.65465 222.36224 227.17827 231.58177
 235.28546 239.48978 243.82930 247.97282 251.73906 255.17810 258.42480 261.56149
 264.50931 267.15656 269.55911 271.66901 273.27850 275.11584 276.94345 278.64987
 280.15607 281.61932 283.23953 284.69876 285.96158 287.07886 288.09821 289.02167
 289.85220 290.59183 291.23792 292.06131
 366.78100 356.34457 345.78613 334.66170 323.07427 311.27784 299.15740 286.96997
 274.69154 262.59810 250.61667 239.92724 230.05880 221.17237 213.36394 206.37551
 200.21907 195.16664 191.75821 189.80977 188.85634 188.92991 189.77447 191.09204
 192.82661 194.93118 197.20374 199.57231 202.02688 204.51644 206.61401 208.46558
 210.10114 211.25571 211.49428 211.73185 211.67841 211.39298 211.03555 210.67511
 210.30168 210.02125 209.83881 209.71238 209.64995 209.99052 210.38608 210.78465
 211.58722 212.77478 214.03435 215.82692 217.76448 219.81705 221.92162 224.01419
 226.08375 228.17732 230.28389 232.39945 234.53802 236.71959 238.98515 241.36472
 243.99529 246.25586 248.26742 250.04199 251.46856 252.60112 253.43269 253.75826
 253.80482 253.58839 252.95796 251.91553 250.53109 248.70166 246.62023 244.46279
 242.26336 240.07693 237.90649 235.75506 233.62463 231.50120 229.53676 227.70333
 225.99590 224.47746 223.11703 221.89860 220.79016 219.75973 218.87330 218.02387
 217.27543 216.46500 215.57257 214.94613 214.40570 214.20041 213.70651 213.18951
 212.34969 212.12704 213.64124 215.93686 218.60391 222.32869 227.11050 231.53156
 235.23849 239.44263 243.76494 247.88882 251.65794 255.13112 258.41913 261.56274
 264.48688 267.10764 269.51755 271.62848 273.26770 275.12753 277.00540 278.71875
 280.20807 281.40222 282.95856 284.43631 285.71518 286.84668 287.87897 288.81418
 289.65527 290.40430 291.05859 291.89246
 366.78100 356.34329 345.78358 334.65787 323.06916 311.27145 299.14973 286.96102
 274.68131 262.58660 250.60389 239.91318 230.04347 221.15576 213.34605 206.35634
 200.19863 195.14491 191.73520 189.78549 188.83078 188.90307 189.74636 191.06265
 192.79594 194.89923 197.17052 199.53781 201.99109 204.47938 206.57567 208.42596
 210.06025 211.21354 211.45083 211.68712 211.63241 211.34570 210.98699 210.62527
 210.25056 209.96885 209.78514 209.65743 209.59372 209.93301 210.32730 210.72459
 211.52588 212.71217 213.97045 215.76174 217.69803 219.74932 221.85261 223.94390
 226.01219 228.10448 230.20977 232.32406 234.46134 236.64163 238.90592 241.28421
 243.91350 246.17279 248.18308 249.95637 251.38166 252.51295 253.34324 253.66752
 253.71281 253.49510 252.86339 251.81968 250.43397 248.60326 246.52055 244.36184
 242.16113 239.97342 237.80170 235.64899 233.51728 231.39257 229.42686 227.59215
 225.88344 224.36373 223.00202 221.78231 220.67260 219.64088 218.75317 217.90246
 217.15275 216.34104 215.44733 214.81962 214.27791 214.13730 213.77510 213.24973
 212.46967 212.12926 213.50114 215.80367 218.53130 222.28419 227.04355 231.47520
 235.19009 239.40161 243.71706 247.82780 251.60226 255.11975 258.46967 261.64722
 264.58530 267.20349 269.52338 271.59134 273.31183 275.19843 277.06424 278.72717
 280.19266 281.46249 282.99472 284.51456 285.82986 286.99359 288.05530 289.01712
 289.88217 290.65253 291.32547 292.18307
 366.78100 356.34257 345.78215 334.65572 323.06629 311.26787 299.14544 286.95602
 274.67559 262.58016 250.59674 239.90531 230.03488 221.14646 213.33603 206.34560
 200.18718 195.13275 191.72232 189.77190 188.81647 188.88805 189.73062 191.04619
 192.77877 194.88134 197.15191 199.51849 201.97106 204.45863 206.55421 208.40378
 210.03736 211.18993 211.42650 211.66208 211.60665 211.31922 210.95980 210.59737
 210.22194 209.93952 209.75509 209.62666 209.56224 209.90081 210.29439 210.69096
 211.49153 212.67711 213.93468 215.72525 217.66083 219.71140 221.81397 223.90455
 225.97212 228.06370 230.16827 232.28184 234.41842 236.59799 238.86156 241.23914
 243.86771 246.12628 248.13586 249.90843 251.33300 252.46358 253.29315 253.61673
 253.66130 253.44287 252.81045 251.76602 250.37959 248.54817 246.46474 244.30531
 242.10389 239.91546 237.74304 235.58961 233.45718 231.33176 229.36533 227.52990
 225.82048 224.30005 222.93762 221.71720 220.60677 219.57434 218.68592 217.83449
 217.08407 216.27164 215.37721 214.74879 214.20636 214.10184 213.81894 213.30539
 212.60971 212.20322 213.35651 215.65501 218.44310 222.22371 226.95273 231.41133
 235.12039 239.33369 243.63623 247.72452 251.49565 255.05801 258.46140 261.66919
 264.64987 267.32809 269.62192 271.66849 273.53592 275.39850 277.24615 278.90179
 280.33432 281.73029 283.27844 284.83621 286.24768 287.49646 288.63580 289.66797
 290.59625 291.42294 292.14508 293.06540
 366.78100 356.34305 345.78311 334.65716 323.06822 311.27027 299.14833 286.95938
 274.67943 262.58449 250.60154 239.91060 230.04065 221.15271 213.34276 206.35281
 200.19487 195.14092 191.73098 189.78103 188.82609 188.89814 189.74119 191.05725
 192.79030 194.89336 197.16441 199.53146 201.98452 204.47257 206.56863 208.41868
 210.05274 211.20579 211.44284 211.67890 211.62395 211.33701 210.97806 210.61612
 210.24117 209.95922 209.77528 209.64733 209.58339 209.92244 210.31650 210.71355
 211.51460 212.70066 213.95871 215.74977 217.68582 219.73688 221.83993 223.93098
 225.99904 228.09109 230.19615 232.31020 234.44726 236.62731 238.89136 241.26942
 243.89847 246.15753 248.16758 249.94063 251.36569 252.49674 253.32680 253.65085
 253.69591 253.47796 252.84601 251.80207 250.41612 248.58518 246.50223 244.34329
 242.14234 239.95439 237.78245 235.62950 233.49756 231.37261 229.40667 227.57172
 225.86277 224.34283 222.98088 221.76094 220.65099 219.61905 218.73110 217.88015
 217.13021 216.31826 215.42432 214.79637 214.25443 214.13718 213.82477 213.29546
 212.62515 212.33621 213.39783 215.61909 218.43440 222.21556 226.96344 231.35988
 235.07022 239.25952 243.52599 247.57152 251.31677 254.89807 258.32712 261.54062
 264.52139 267.21420 269.52081 271.60681 273.66122 275.70404 277.64310 279.38321
 280.83746 282.33084 283.93277 285.55350 286.99579 288.27182 289.43604 290.49072
 291.43930 292.28403 293.02194 293.96234
 366.78100 356.34279 345.78259 334.65638 323.06717 311.26896 299.14676 286.95755
 274.67734 262.58213 250.59893 239.90772 230.03751 221.14931 213.33910 206.34889
 200.19068 195.13648 191.72627 189.77606 188.82085 188.89265 189.73544 191.05123
 192.78403 194.88682 197.15761 199.52440 201.97720 204.46499 206.56078 208.41057
 210.04437 211.19716 211.43395 211.66975 211.61454 211.32733 210.96812 210.60592
 210.23071 209.94850 209.76429 209.63609 209.57188 209.91067 210.30446 210.70126
 211.50205 212.68784 213.94564 215.73643 217.67222 219.72301 221.82581 223.91660
 225.98439 228.07618 230.18098 232.29477 234.43156 236.61136 238.87515 241.25294
 243.88173 246.14053 248.15032 249.92311 251.34790 252.47870 253.30849 253.63228
 253.67708 253.45887 252.82666 251.78245 250.39625 248.56504 246.48183 244.32262
 242.12142 239.93321 237.76100 235.60780 233.47559 231.35038 229.38417 227.54897
 225.83976 224.31955 222.95734 221.73714 220.62693 219.59472 218.70652 217.85531
 217.10510 216.29289 215.39869 214.77048 214.22827 214.13428 213.86354 213.24362
 212.50157 212.30673 213.46021 215.67723 218.51662 222.29477 227.09618 231.41985
 235.11536 239.27512 243.52112 247.53951 251.23050 254.79056 258.21634 261.39426
 264.35431 267.06958 269.41846 271.33646 273.42432 275.61365 277.63715 279.43585
 281.05472 282.63528 284.15503 285.54886 286.77991 287.86908 288.86276 289.76300
 290.57266 291.29364 291.92349 292.72617
 366.78100 356.34110 345.77921 334.65131 323.06041 311.26051 299.13662 286.94572
 274.66382 262.56693 250.58203 239.88913 230.01724 221.12734 213.31544 206.32354
 200.16365 195.10775 191.69585 189.74396 188.78706 188.85716 189.69827 191.01237
 192.74347 194.84457 197.11368 199.47878 201.92988 204.41599 206.51009 208.35819
 209.99029 211.14140 211.37650 211.61060 211.55371 211.26481 210.90391 210.54002
 210.16312 209.87922 209.69332 209.56343 209.49753 209.83463 210.22674 210.62184
 211.42094 212.60504 213.86115 215.65025 217.58435 219.63346 221.73456 223.82366
 225.88977 227.97987 230.08297 232.19507 234.33018 236.50828 238.77038 241.14649
 243.77359 246.03069 248.03880 249.80990 251.23300 252.36210 253.19021 253.51231
 253.55541 253.33552 252.70162 251.65572 250.26782 248.43493 246.35003 244.18913
 241.98624 239.79634 237.62244 235.46755 233.33365 231.20675 229.23885 227.40196
 225.69106 224.16916 222.80527 221.58337 220.47147 219.43757 218.54768 217.69478
 216.94288 216.12899 215.23309 214.60319 214.05930 214.05046 213.96222 213.24586
 212.42923 212.19540 213.42104 215.64798 218.50047 222.30708 227.15320 231.51547
 235.19835 239.33209 243.55275 247.55962 251.24588 254.82074 258.24689 261.38455
 264.31912 267.00253 269.29486 271.21298 273.09674 275.22818 277.20569 278.99710
 280.58780 282.04062 283.43457 284.78928 286.04416 287.16580 288.18912 289.11618
 289.94998 290.69244 291.34109 292.16769
 366.78100 356.34088 345.77876 334.65064 323.05953 311.25941 299.13529 286.94417
 274.66205 262.56493 250.57981 239.88670 230.01458 221.12446 213.31234 206.32022
 200.16010 195.10398 191.69187 189.73975 188.78263 188.85251 189.69339 191.00727
 192.73815 194.83903 197.10792 199.47280 201.92368 204.40956 206.50344 208.35132
 209.98320 211.13409 211.36897 211.60285 211.54573 211.25661 210.89549 210.53137
 210.15426 209.87014 209.68402 209.55390 209.48778 209.82466 210.21654 210.61143
 211.41031 212.59419 213.85007 215.63895 217.57283 219.62171 221.72260 223.81148
 225.87736 227.96724 230.07012 232.18200 234.31688 236.49477 238.75665 241.13253
 243.75941 246.01629 248.02417 249.79505 251.21794 252.34682 253.17470 253.49658
 253.53946 253.31934 252.68522 251.63910 250.25099 248.41787 246.33275 244.17163
 241.96851 239.77839 237.60427 235.44916 233.31504 231.18792 229.21980 227.38268
 225.67156 224.14944 222.78533 221.56321 220.45109 219.41697 218.52685 217.67373
 216.92161 216.10750 215.21138 214.58126 214.03714 214.04622 213.98401 213.28827
 212.55536 212.36848 213.50694 215.58992 218.36757 222.19533 227.10231 231.45717
 235.15926 239.30196 243.52330 247.50824 251.18103 254.79242 258.27209 261.44360
 264.35168 266.99094 269.26941 271.15802 272.99655 274.94998 276.92163 278.62772
 280.00034 281.00912 282.22000 283.76343 285.15546 286.38705 287.51068 288.52863
 289.44415 290.25946 290.97168 291.87930
 366.78100 356.34230 345.78160 334.65490 323.06520 311.26650 299.14380 286.95410
 274.67340 262.57770 250.59400 239.90230 230.03160 221.14290 213.33220 206.34150
 200.18280 195.12809 191.71739 189.76669 188.81099 188.88229 189.72459 191.03989
 192.77219 194.87449 197.14479 199.51109 201.96339 204.45069 206.54599 208.39529
 210.02859 211.18089 211.41719 211.65249 211.59679 211.30909 210.94939 210.58669
 210.21099 209.92829 209.74359 209.61489 209.55019 209.88849 210.28179 210.67809
 211.47839 212.66369 213.92099 215.71128 217.64658 219.69688 221.79918 223.88948
 225.95678 228.04808 230.15238 232.26568 234.40198 236.58128 238.84458 241.22188
 243.85018 246.10848 248.11778 249.89008 251.31438 252.44468 253.27398 253.59728
 253.64158 253.42288 252.79018 251.74548 250.35878 248.52708 246.44338 244.28368
 242.08198 239.89328 237.72058 235.56688 233.43418 231.30847 229.34177 227.50607
 225.79637 224.27567 222.91297 221.69227 220.58157 219.54887 218.66017 217.80847
 217.05777 216.24507 215.35037 214.72167 214.17897 214.15192 213.95793 213.28853
 212.67888 212.63141 213.56805 215.55127 218.27620 222.02791 227.03372 231.40529
 235.09705 239.21129 243.38448 247.33322 251.05106 254.72351 258.23413 261.43637
 264.33600 266.95081 269.18762 271.14151 273.02844 274.89163 276.61731 278.19891
 279.48062 280.44553 281.28049 282.01364 282.64810 283.20947 283.72162 284.18558
 284.60287 284.97449 285.29910 285.71280
 366.78100 356.34293 345.78286 334.65679 323.06772 311.26965 299.14758 286.95851
 274.67844 262.58337 250.60030 239.90923 230.03916 221.15109 213.34102 206.35095
 200.19288 195.13881 191.72874 189.77867 188.82360 188.89553 189.73846 191.05439
 192.78732 194.89025 197.16118 199.52811 201.98104 204.46897 206.56490 208.41483
 210.04876 211.20169 211.43862 211.67455 211.61948 211.33241 210.97334 210.61127
 210.23620 209.95413 209.77006 209.64199 209.57792 209.91685 210.31078 210.70770
 211.50863 212.69456 213.95249 215.74342 217.67935 219.73028 221.83321 223.92414
 225.99207 228.08400 230.18893 232.30286 234.43979 236.61972 238.88365 241.26158
 243.89051 246.14944 248.15937 249.93230 251.35723 252.48816 253.31809 253.64202
 253.68695 253.46888 252.83681 251.79274 250.40667 248.57560 246.49253 244.33346
 242.13239 239.94432 237.77225 235.61918 233.48711 231.36204 229.39597 227.56090
 225.85183 224.33176 222.96969 221.74962 220.63955 219.60748 218.71941 217.86834
 217.11827 216.30620 215.41213 214.78406 214.24199 214.22240 213.97572 213.28592
 212.57156 212.43983 213.57803 215.58963 218.33153 222.14085 226.97617 231.40610
 235.08142 239.19540 243.37201 247.34579 251.11652 254.83257 258.40201 261.65430
 264.62350 267.16718 269.20944 271.12903 273.04123 275.04129 276.88275 278.34009
 279.60495 280.68915 281.62735 282.45117 283.16409 283.79486 284.37033 284.89166
 285.36057 285.77811 286.14288 286.60773
 366.78100 356.34181 345.78061 334.65342 323.06322 311.26403 299.14084 286.95064
 274.66945 262.57325 250.58906 239.89687 230.02567 221.13648 213.32528 206.33409
 200.17489 195.11970 191.70851 189.75731 188.80112 188.87192 189.71373 191.02854
 192.76034 194.86215 197.13195 199.49776 201.94957 204.43637 206.53118 208.37998
 210.01279 211.16460 211.40040 211.63521 211.57901 211.29082 210.93063 210.56743
 210.19124 209.90804 209.72285 209.59365 209.52846 209.86627 210.25907 210.65488
 211.45468 212.63949 213.89630 215.68610 217.62091 219.67071 221.77252 223.86233
 225.92913 228.01994 230.12374 232.23655 234.37236 236.55116 238.81397 241.19077
 243.81858 246.07639 248.08519 249.85700 251.28080 252.41061 253.23942 253.56222
 253.60603 253.38683 252.75364 251.70844 250.32125 248.48906 246.40486 244.24467
 242.04247 239.85328 237.68009 235.52589 233.39270 231.26650 229.29931 227.46312
 225.75292 224.23173 222.86853 221.64734 220.53615 219.50295 218.61376 217.76156
 217.01037 216.19718 215.30198 214.67279 214.12959 214.17125 214.04752 213.34129
 212.61758 212.42833 213.51637 215.51651 218.34666 222.12570 227.00076 231.38994
 235.05656 239.18428 243.37917 247.35785 251.13319 254.89232 258.54065 261.90366
 265.01474 267.80383 270.02298 271.74667 273.22934 274.85358 276.87820 278.19208
 279.25748 280.17072 280.96097 281.65485 282.25534 282.78665 283.27136 283.71051
 284.10544 284.45715 284.76437 285.15594
 366.78100 356.34097 345.77895 334.65092 323.05990 311.25987 299.13585 286.94482
 274.66280 262.56577 250.58075 239.88772 230.01570 221.12567 213.31365 206.32162
 200.16160 195.10557 191.69355 189.74152 188.78450 188.85447 189.69545 191.00942
 192.74040 194.84137 197.11035 199.47532 201.92630 204.41227 206.50625 208.35422
 209.98620 211.13717 211.37215 211.60612 211.54910 211.26007 210.89905 210.53502
 210.15800 209.87397 209.68795 209.55792 209.49190 209.82887 210.22085 210.61582
 211.41480 212.59877 213.85475 215.64372 217.57770 219.62667 221.72765 223.81662
 225.88260 227.97257 230.07555 232.18752 234.32250 236.50047 238.76245 241.13842
 243.76540 246.02237 248.03035 249.80132 251.22430 252.35327 253.18125 253.50322
 253.54620 253.32617 252.69215 251.64612 250.25810 248.42507 246.34004 244.17902
 241.97599 239.78597 237.61194 235.45692 233.32289 231.19587 229.22784 227.39082
 225.67979 224.15777 222.79374 221.57172 220.45969 219.42567 218.53564 217.68262
 216.93059 216.11657 215.22054 214.59052 214.04649 214.11415 214.10202 213.41257
 212.77408 212.59134 213.40570 215.29199 218.18222 222.07423 226.97659 231.38646
 235.03799 239.11710 243.27550 247.24303 250.98503 254.66873 258.25873 261.59021
 264.76865 267.81265 270.49698 272.57996 274.15552 275.40155 276.56146 278.21945
 279.34558 280.12210 280.79404 281.38406 281.89468 282.34644 282.75861 283.13199
 283.46780 283.76688 284.02811 284.36105
 366.78100 356.34222 345.78144 334.65466 323.06488 311.26610 299.14332 286.95354
 274.67276 262.57698 250.59320 239.90142 230.03064 221.14185 213.33107 206.34029
 200.18151 195.12673 191.71595 189.76517 188.80939 188.88061 189.72283 191.03805
 192.77027 194.87249 197.14271 199.50893 201.96115 204.44837 206.54359 208.39281
 210.02603 211.17825 211.41447 211.64969 211.59391 211.30613 210.94634 210.58356
 210.20778 209.92500 209.74022 209.61144 209.54666 209.88488 210.27810 210.67432
 211.47454 212.65976 213.91698 215.70720 217.64242 219.69264 221.79486 223.88508
 225.95230 228.04352 230.14774 232.26096 234.39718 236.57640 238.83961 241.21683
 243.84505 246.10327 248.11249 249.88471 251.30893 252.43915 253.26837 253.59159
 253.63581 253.41703 252.78425 251.73947 250.35269 248.52091 246.43713 244.27735
 242.07557 239.88679 237.71401 235.56023 233.42745 231.30167 229.33489 227.49910
 225.78932 224.26854 222.90576 221.68498 220.57420 219.54142 218.65264 217.80086
 217.05008 216.23730 215.34252 214.71374 214.17096 214.16573 214.05612 213.46666
 212.83127 212.63983 213.38501 215.15056 218.00510 222.03238 226.94984 231.37955
 235.03282 239.11401 243.28137 247.26508 251.01120 254.68080 258.21313 261.40436
 264.38150 267.27649 270.14532 272.69635 274.65683 276.26816 277.46664 278.10275
 279.32590 280.76880 282.44653 283.91968 285.19455 286.32251 287.35159 288.28387
 289.12234 289.86902 290.52130 291.35254
 366.78100 356.34409 345.78518 334.66027 323.07236 311.27545 299.15455 286.96664
 274.68773 262.59382 250.61191 239.92200 230.05309 221.16618 213.35727 206.36836
 200.21145 195.15855 191.74964 189.80073 188.84682 188.91991 189.76400 191.08109
 192.81518 194.91927 197.19136 199.55946 202.01355 204.50264 206.59973 208.45082
 210.08591 211.24000 211.47809 211.71518 211.66127 211.37536 211.01746 210.65655
 210.28264 210.00173 209.81882 209.69191 209.62900 209.96909 210.36418 210.76227
 211.56436 212.75146 214.01055 215.80264 217.73973 219.79182 221.89591 223.98800
 226.05709 228.15018 230.25627 232.37137 234.50946 236.69055 238.95564 241.33473
 243.96482 246.22491 248.23600 250.01009 251.43618 252.56827 253.39937 253.72446
 253.77055 253.55364 252.92273 251.87982 250.49491 248.66500 246.58309 244.42518
 242.22527 240.03837 237.86746 235.71555 233.58464 231.46073 229.49582 227.66191
 225.95400 224.43509 223.07418 221.85527 220.74637 219.71546 218.82855 217.97864
 217.22973 216.41882 215.52591 214.89900 214.35809 214.25444 213.97459 213.51328
 212.88437 212.58437 213.37646 215.17656 218.01036 222.00000 226.90819 231.34279
 235.00360 239.10069 243.28754 247.29703 251.07320 254.77071 258.32578 261.49435
 264.31027 266.89359 269.57761 272.23349 274.46576 276.24820 277.57254 278.17624
 279.39059 280.96777 282.65582 284.35672 285.82870 287.13104 288.31921 289.39563
 290.36374 291.22583 291.97894 292.93872
 366.78100 356.34460 345.78621 334.66181 323.07442 311.27802 299.15763 286.97023
 274.69184 262.59844 250.61704 239.92765 230.05925 221.17286 213.36446 206.37607
 200.21967 195.16727 191.75888 189.81048 188.85709 188.93069 189.77530 191.09290
 192.82751 194.93211 197.20471 199.57332 202.02792 204.51753 206.61513 208.46674
 210.10234 211.25694 211.49555 211.73315 211.67976 211.39436 211.03697 210.67657
 210.30318 210.02278 209.84038 209.71399 209.65159 209.99220 210.38780 210.78641
 211.58901 212.77662 214.03622 215.82882 217.76643 219.81903 221.92364 224.01624
 226.08585 228.17945 230.28605 232.40166 234.54026 236.72187 238.98747 241.36708
 243.99768 246.25829 248.26989 250.04449 251.47110 252.60370 253.43531 253.76091
 253.80752 253.59112 252.96072 251.91833 250.53393 248.70454 246.62314 244.46575
 242.26635 240.07996 237.90956 235.75816 233.62777 231.50437 229.53998 227.70658
 225.99919 224.48079 223.12040 221.90200 220.79360 219.76321 218.87681 218.02742
 217.27902 216.46863 215.57623 214.94983 214.40944 214.28316 213.96303 213.54578
 212.97774 212.59048 213.34918 215.16278 217.97826 221.93448 226.84953 231.26944
 234.93066 239.02534 243.20235 247.20164 250.98697 254.74467 258.38925 261.61401
 264.43408 266.90436 269.27859 271.75485 273.97852 275.79343 277.12756 278.09402
 279.35410 280.96652 282.53690 284.10547 285.50095 286.73560 287.86200 288.88248
 289.80026 290.61755 291.33154 292.24142
 366.78100 356.34349 345.78399 334.65848 323.06998 311.27247 299.15097 286.96246
 274.68296 262.58845 250.60595 239.91544 230.04594 221.15843 213.34893 206.35942
 200.20192 195.14841 191.73891 189.78940 188.83490 188.90739 189.75089 191.06738
 192.80088 194.90437 197.17587 199.54336 201.99686 204.48535 206.58185 208.43234
 210.06684 211.22033 211.45783 211.69432 211.63982 211.35331 210.99481 210.63330
 210.25880 209.97729 209.79379 209.66628 209.60278 209.94227 210.33677 210.73426
 211.53576 212.72225 213.98075 215.77224 217.70874 219.76023 221.86373 223.95522
 226.02372 228.11621 230.22171 232.33620 234.47370 236.65419 238.91869 241.29718
 243.92668 246.18617 248.19667 249.97016 251.39565 252.52715 253.35764 253.68214
 253.72763 253.51013 252.87862 251.83512 250.44961 248.61911 246.53660 244.37810
 242.17759 239.99009 237.81858 235.66608 233.53457 231.41007 229.44456 227.61006
 225.90155 224.38205 223.02054 221.80104 220.69153 219.66003 218.77252 217.92202
 217.17251 216.36101 215.46750 214.84000 214.29849 214.23282 214.03558 213.51993
 212.99992 212.64839 213.31961 215.10222 217.93103 221.88948 226.81516 231.23685
 234.89850 238.96912 243.11250 247.08376 250.86378 254.68115 258.40973 261.70856
 264.61020 267.10193 269.34778 271.65164 273.81287 275.47079 276.74548 277.98837
 279.36465 280.98532 282.52225 283.92062 285.23724 286.40210 287.46484 288.42761
 289.29355 290.06464 290.73825 291.59671
 366.78100 356.34181 345.78062 334.65343 323.06324 311.26405 299.14086 286.95067
 274.66948 262.57329 250.58910 239.89691 230.02572 221.13653 213.32534 206.33416
 200.17497 195.11978 191.70859 189.75740 188.80121 188.87202 189.71383 191.02864
 192.76045 194.86226 197.13207 199.49788 201.94969 204.43650 206.53131 208.38012
 210.01293 211.16474 211.40055 211.63536 211.57917 211.29098 210.93079 210.56760
 210.19141 209.90822 209.72303 209.59385 209.52866 209.86647 210.25928 210.65509
 211.45490 212.63971 213.89652 215.68633 217.62114 219.67095 221.77276 223.86257
 225.92938 228.02019 230.12400 232.23681 234.37262 236.55143 238.81424 241.19105
 243.81886 246.07667 248.08548 249.85729 251.28110 252.41091 253.23972 253.56254
 253.60635 253.38716 252.75397 251.70878 250.32159 248.48940 246.40521 244.24502
 242.04283 239.85364 237.68045 235.52626 233.39307 231.26688 229.29969 227.46350
 225.75331 224.23212 222.86893 221.64774 220.53655 219.50336 218.61417 217.76198
 217.01079 216.19760 215.30241 214.67323 214.13004 214.14497 214.13747 213.51234
 212.92665 212.56189 213.19986 214.99742 217.86761 221.84146 226.84215 231.23950
 234.92197 238.96613 243.07809 247.02943 250.82014 254.62268 258.33441 261.69449
 264.70752 267.32584 269.46249 271.57471 273.60544 275.21472 276.56433 277.95139
 279.39221 280.89047 282.34570 283.58575 284.73145 285.80789 286.82224 287.74118
 288.56766 289.30365 289.94659 290.76593
 366.78100 356.34001 345.77701 334.64802 323.05603 311.25503 299.13004 286.93805
 274.65505 262.55706 250.57107 239.87707 230.00408 221.11309 213.30009 206.30710
 200.14611 195.08912 191.67612 189.72313 188.76514 188.83414 189.67415 190.98716
 192.71716 194.81717 197.08518 199.44918 201.89919 204.38420 206.47720 208.32421
 209.95522 211.10522 211.33923 211.57224 211.51424 211.22425 210.86226 210.49726
 210.11927 209.83428 209.64728 209.51629 209.44930 209.78530 210.17631 210.57032
 211.36832 212.55133 213.80634 215.59435 217.52735 219.57536 221.67537 223.76337
 225.82838 227.91739 230.01939 232.13040 234.26441 236.44141 238.70242 241.07743
 243.70343 245.95944 247.96645 249.73645 251.15846 252.28647 253.11347 253.43448
 253.47649 253.25549 252.62050 251.57351 250.18451 248.35052 246.26453 244.10253
 241.89854 239.70755 237.53255 235.37656 233.24157 231.11358 229.14458 227.30659
 225.59460 224.07160 222.70661 221.48362 220.37062 219.33563 218.44464 217.59064
 216.83765 216.02266 215.12566 214.49467 213.94968 214.05264 214.25214 213.56909
 212.86394 212.49178 213.09447 214.88257 217.78748 221.79308 226.84444 231.22859
 234.93602 238.98082 243.09454 247.03506 250.80382 254.57774 258.26437 261.62854
 264.65976 267.25586 269.55527 271.70450 273.62656 275.12497 276.44595 277.90729
 279.23340 280.64749 281.92487 283.04349 284.01782 285.04385 286.04593 286.96680
 287.79498 288.53250 289.17679 289.99786
 366.78100 356.33889 345.77478 334.64467 323.05155 311.24944 299.12333 286.93022
 274.64611 262.54700 250.55989 239.86477 229.99066 221.09855 213.28444 206.29033
 200.12822 195.07011 191.65599 189.70188 188.74277 188.81066 189.64955 190.96144
 192.69033 194.78922 197.05610 199.41899 201.86788 204.35177 206.44366 208.28955
 209.91944 211.06832 211.30121 211.53310 211.47399 211.18288 210.81977 210.45366
 210.07454 209.78843 209.60032 209.46821 209.40010 209.73499 210.12488 210.51776
 211.31465 212.49654 213.75043 215.53732 217.46921 219.51610 221.61498 223.70187
 225.76576 227.85365 229.95454 232.06443 234.19732 236.37320 238.63309 241.00698
 243.63187 245.88676 247.89265 249.66154 251.08242 252.20931 253.03520 253.35509
 253.39598 253.17387 252.53776 251.48965 250.09953 248.26442 246.17731 244.01420
 241.80909 239.61698 237.44087 235.28375 233.14764 231.01853 229.04842 227.20931
 225.49620 223.97209 222.60597 221.38186 220.26775 219.23164 218.33953 217.48442
 216.73031 215.91419 215.01608 214.38397 213.83786 213.99467 214.32442 213.68318
 212.78671 212.44661 213.05702 214.81940 217.74483 221.76505 226.83783 231.21732
 234.93571 238.99129 243.12009 247.06737 250.82787 254.58424 258.26038 261.63058
 264.69321 267.37634 269.67276 271.84155 273.63095 275.01059 276.32452 277.77881
 279.20895 280.59418 281.94421 283.02451 283.88409 284.84406 285.84219 286.78046
 287.62433 288.37579 289.03226 289.86887
 366.78100 356.34117 345.77934 334.65151 323.06068 311.26085 299.13702 286.94619
 274.66436 262.56753 250.58270 239.88987 230.01804 221.12821 213.31637 206.32454
 200.16471 195.10888 191.69705 189.74522 188.78839 188.85856 189.69973 191.01390
 192.74507 194.84624 197.11541 199.48058 201.93175 204.41792 206.51209 208.36026
 209.99243 211.14360 211.37877 211.61294 211.55611 211.26728 210.90645 210.54262
 210.16579 209.88196 209.69612 209.56629 209.50046 209.83763 210.22980 210.62497
 211.42414 212.60831 213.86448 215.65365 217.58782 219.63699 221.73816 223.82733
 225.89350 227.98367 230.08684 232.19901 234.33418 236.51235 238.77452 241.15069
 243.77786 246.03503 248.04320 249.81437 251.23754 252.36670 253.19487 253.51704
 253.56021 253.34038 252.70655 251.66072 250.27289 248.44006 246.35523 244.19440
 241.99157 239.80174 237.62791 235.47308 233.33925 231.21242 229.24459 227.40776
 225.69693 224.17510 222.81127 221.58944 220.47761 219.44378 218.55395 217.70112
 216.94929 216.13545 215.23962 214.60979 214.06596 214.10512 214.18805 213.92897
 212.90851 212.30264 212.94095 214.75557 217.70804 221.73825 226.83604 231.18025
 234.91827 238.97495 243.11823 247.06842 250.81697 254.54311 258.19037 261.53842
 264.60663 267.39374 269.76294 271.86252 273.69525 275.06085 276.39139 277.76181
 279.25104 280.64841 281.96967 283.11298 284.00519 284.94290 285.91547 286.90759
 287.81259 288.61850 289.32251 290.21973
 366.78100 356.34443 345.78585 334.66128 323.07371 311.27714 299.15656 286.96899
 274.69042 262.59684 250.61527 239.92570 230.05713 221.17055 213.36198 206.37341
 200.21683 195.16426 191.75569 189.80711 188.85354 188.92697 189.77140 191.08882
 192.82325 194.92768 197.20010 199.56853 202.02296 204.51239 206.60981 208.46124
 210.09667 211.25109 211.48952 211.72695 211.67338 211.38780 211.03023 210.66966
 210.29608 210.01551 209.83294 209.70636 209.64379 209.98422 210.37965 210.77807
 211.58050 212.76793 214.02735 215.81978 217.75721 219.80964 221.91406 224.00649
 226.07592 228.16934 230.27577 232.39120 234.52963 236.71105 238.97648 241.35591
 243.98633 246.24676 248.25819 250.03261 251.45904 252.59147 253.42290 253.74832
 253.79475 253.57818 252.94760 251.90503 250.52046 248.69089 246.60931 244.45174
 242.25217 240.06559 237.89502 235.74345 233.61288 231.48930 229.52473 227.69116
 225.98358 224.46501 223.10444 221.88586 220.77729 219.74672 218.86015 218.01057
 217.26200 216.45143 215.55885 214.93228 214.39171 214.27774 214.01933 214.04681
 213.20232 212.14204 212.67188 214.63414 217.66153 221.72542 226.83067 231.19530
 234.91104 238.98717 243.14574 247.10512 250.84555 254.54826 258.16080 261.46481
 264.48431 267.28152 269.73157 271.88297 273.62668 274.87805 276.23520 277.68863
 279.19830 280.59830 281.94525 283.21881 284.26010 285.27063 286.26166 287.25293
 288.14447 288.93842 289.63196 290.51584
 366.78100 356.34373 345.78447 334.65920 323.07094 311.27367 299.15241 286.96414
 274.68487 262.59061 250.60834 239.91808 230.04881 221.16154 213.35228 206.36301
 200.20575 195.15248 191.74322 189.79395 188.83968 188.91242 189.75615 191.07289
 192.80662 194.91035 197.18209 199.54982 202.00356 204.49229 206.58903 208.43976
 210.07449 211.22823 211.46596 211.70270 211.64843 211.36216 211.00390 210.64263
 210.26837 209.98710 209.80384 209.67657 209.61330 209.95304 210.34777 210.74551
 211.54724 212.73397 213.99271 215.78444 217.72118 219.77291 221.87665 223.96838
 226.03711 228.12985 230.23558 232.35032 234.48805 236.66879 238.93352 241.31225
 243.94199 246.20172 248.21246 249.98619 251.41192 252.54366 253.37439 253.69913
 253.74486 253.52760 252.89633 251.85306 250.46780 248.63753 246.55527 244.39700
 242.19673 240.00947 237.83820 235.68594 233.55467 231.43041 229.46514 227.63087
 225.92261 224.40334 223.04208 221.82281 220.71354 219.68228 218.79501 217.94475
 217.19548 216.38422 215.49095 214.86368 214.32242 214.25989 214.10954 213.92845
 213.46013 212.18382 212.46394 214.45093 217.53207 221.65189 226.79330 231.19986
 234.91405 239.01942 243.20682 247.19548 250.95003 254.64835 258.25143 261.53857
 264.50531 267.25500 269.73697 271.91840 273.52872 274.66989 276.04776 277.57184
 279.13504 280.56030 281.93576 283.28113 284.46979 285.51392 286.53659 287.50992
 288.38531 289.16489 289.84589 290.71375
 366.78100 356.34052 345.77805 334.64957 323.05810 311.25762 299.13315 286.94167
 274.65919 262.56172 250.57624 239.88277 230.01029 221.11982 213.30734 206.31487
 200.15439 195.09791 191.68544 189.73296 188.77549 188.84501 189.68554 190.99906
 192.72958 194.83011 197.09863 199.46316 201.91368 204.39921 206.49273 208.34025
 209.97178 211.12230 211.35683 211.59035 211.53288 211.24340 210.88193 210.51745
 210.13997 209.85550 209.66902 209.53855 209.47207 209.80860 210.20012 210.59464
 211.39317 212.57669 213.83222 215.62074 217.55427 219.60279 221.70331 223.79184
 225.85736 227.94689 230.04941 232.16094 234.29546 236.47298 238.73451 241.11003
 243.73656 245.99308 248.00061 249.77113 251.19366 252.32218 253.14970 253.47123
 253.51375 253.29328 252.65880 251.61233 250.22385 248.39037 246.30490 244.14342
 241.93995 239.74947 237.57500 235.41952 233.28504 231.15757 229.18909 227.35162
 225.64014 224.11767 222.75319 221.53072 220.41824 219.38376 218.49329 217.63981
 216.88734 216.07286 215.17639 214.54591 214.00143 214.11563 214.34274 213.79425
 213.49600 212.50439 212.53809 214.29298 217.34277 221.48790 226.63985 231.08931
 234.82338 238.96036 243.17453 247.19130 250.97804 254.71161 258.35117 261.67340
 264.63345 267.34167 269.81079 272.00955 273.53461 274.61429 275.91281 277.43210
 279.08743 280.56842 282.01410 283.39423 284.60437 285.67786 286.76498 287.75278
 288.64117 289.43231 290.12341 291.00418
 366.78100 356.34011 345.77722 334.64834 323.05645 311.25556 299.13067 286.93878
 274.65590 262.55801 250.57212 239.87823 230.00534 221.11445 213.30157 206.30868
 200.14779 195.09090 191.67801 189.72513 188.76724 188.83635 189.67646 190.98957
 192.71969 194.81980 197.08791 199.45202 201.90213 204.38725 206.48036 208.32747
 209.95858 211.10869 211.34280 211.57592 211.51803 211.22814 210.86625 210.50136
 210.12348 209.83859 209.65170 209.52081 209.45392 209.79004 210.18115 210.57526
 211.37337 212.55648 213.81159 215.59971 217.53282 219.58093 221.68104 223.76915
 225.83427 227.92338 230.02549 232.13660 234.27071 236.44783 238.70894 241.08405
 243.71016 245.96627 247.97339 249.74350 251.16561 252.29372 253.12083 253.44194
 253.48406 253.26317 252.62828 251.58139 250.19250 248.35862 246.27273 244.11084
 241.90695 239.71606 237.54118 235.38529 233.25040 231.12251 229.15362 227.31574
 225.60385 224.08096 222.71607 221.49318 220.38029 219.34541 218.45452 217.60063
 216.84774 216.03285 215.13597 214.50508 213.96019 214.10916 214.39972 213.85739
 213.34596 212.80447 212.83417 214.32950 217.26825 221.37292 226.47057 230.93916
 234.67340 238.83311 243.05312 247.07553 250.88513 254.67786 258.38638 261.78754
 264.79562 267.51236 269.99371 272.16241 273.69089 274.79938 276.02020 277.56567
 279.14557 280.68945 282.21454 283.62766 284.90930 286.18304 287.34796 288.40329
 289.35248 290.19769 290.93610 291.87708
 366.78100 356.34233 345.78166 334.65499 323.06532 311.26665 299.14397 286.95430
 274.67363 262.57796 250.59429 239.90262 230.03195 221.14328 213.33261 206.34194
 200.18327 195.12860 191.71792 189.76725 188.81158 188.88291 189.72524 191.04057
 192.77290 194.87523 197.14556 199.51189 201.96422 204.45155 206.54687 208.39620
 210.02953 211.18186 211.41819 211.65352 211.59785 211.31018 210.95051 210.58784
 210.21217 209.92950 209.74482 209.61615 209.55148 209.88981 210.28314 210.67947
 211.47980 212.66513 213.92246 215.71279 217.64812 219.69845 221.80077 223.89110
 225.95843 228.04976 230.15409 232.26742 234.40375 236.58308 238.84641 241.22374
 243.85207 246.11039 248.11972 249.89205 251.31638 252.44671 253.27604 253.59937
 253.64370 253.42503 252.79236 251.74769 250.36102 248.52934 246.44567 244.28600
 242.08433 239.89566 237.72299 235.56932 233.43665 231.31098 229.34431 227.50864
 225.79897 224.27829 222.91562 221.69495 220.58428 219.55161 218.66294 217.81127
 217.06060 216.24793 215.35326 214.72459 214.18192 214.22476 214.30341 214.01204
 213.21561 212.75754 212.96439 214.45795 217.35294 221.39882 226.44298 230.88135
 234.59264 238.74420 242.94615 246.94685 250.75261 254.56389 258.30484 261.75793
 264.81259 267.56476 270.09894 272.37036 273.97131 275.02533 276.19690 277.70966
 279.26340 280.88980 282.45975 283.89923 285.24841 286.57449 287.78433 288.88037
 289.86612 290.74396 291.51080 292.48807
 366.78100 356.34392 345.78485 334.65977 323.07170 311.27462 299.15355 286.96547
 274.68640 262.59232 250.61024 239.92017 230.05109 221.16402 213.35494 206.36587
 200.20879 195.15572 191.74664 189.79756 188.84349 188.91641 189.76034 191.07726
 192.81119 194.91511 197.18704 199.55496 202.00888 204.49781 206.59473 208.44566
 210.08058 211.23451 211.47243 211.70936 211.65528 211.36920 211.01113 210.65005
 210.27598 209.99490 209.81183 209.68475 209.62168 209.96160 210.35653 210.75445
 211.55637 212.74330 214.00222 215.79415 217.73107 219.78300 221.88692 223.97885
 226.04777 228.14069 230.24662 232.36154 234.49947 236.68039 238.94532 241.32424
 243.95417 246.21409 248.22501 249.99894 251.42486 252.55679 253.38771 253.71264
 253.75856 253.54149 252.91041 251.86733 250.48226 248.65218 246.57011 244.41203
 242.21196 240.02488 237.85381 235.70173 233.57065 231.44658 229.48150 227.64743
 225.93935 224.42028 223.05920 221.84013 220.73105 219.69997 218.81290 217.96282
 217.21375 216.40267 215.50960 214.88252 214.34145 214.30336 214.22598 214.20767
 213.23010 212.41084 212.78404 214.51578 217.49600 221.52196 226.55905 230.95033
 234.62596 238.75093 242.92673 246.89001 250.65898 254.43822 258.14575 261.57574
 264.62561 267.38770 269.94650 272.18579 273.73523 274.86606 276.17001 277.77051
 279.41199 281.12421 282.69330 284.11777 285.41153 286.67899 287.85855 288.92712
 289.88818 290.74402 291.49167 292.44446
 366.78100 356.34567 345.78833 334.66500 323.07867 311.28333 299.16400 286.97767
 274.70033 262.60800 250.62767 239.93934 230.07200 221.18667 213.37934 206.39200
 200.23667 195.18534 191.77800 189.83067 188.87834 188.95300 189.79867 191.11734
 192.85300 194.95867 197.23234 199.60201 202.05767 204.54834 206.64701 208.49967
 210.13634 211.29201 211.53167 211.77034 211.71801 211.43367 211.07734 210.71801
 210.34567 210.06634 209.88501 209.75967 209.69834 210.04001 210.43668 210.83634
 211.64001 212.82868 214.08934 215.88301 217.82168 219.87534 221.98101 224.07468
 226.14534 228.24001 230.34768 232.46434 234.60401 236.78668 239.05335 241.43401
 244.06568 246.32735 248.34001 250.11568 251.54335 252.67701 253.50968 253.83635
 253.88401 253.66868 253.03935 251.99801 250.61468 248.78635 246.70602 244.54968
 242.35135 240.16602 237.99668 235.84635 233.71702 231.59468 229.63135 227.79902
 226.09268 224.57535 223.21602 221.99868 220.89135 219.86202 218.97668 218.12835
 217.38102 216.57169 215.68035 215.05502 214.51569 214.39896 214.17160 214.34978
 213.43159 212.19986 212.50879 214.45558 217.55380 221.62033 226.69476 231.05521
 234.70036 238.82715 243.00906 246.96136 250.68246 254.39897 258.06772 261.47485
 264.50186 267.24310 269.80463 272.01813 273.46637 274.48340 275.86035 277.57562
 279.49869 281.30151 282.89206 284.34781 285.75806 287.06921 288.26541 289.34909
 290.32376 291.19171 291.94992 292.91617
 366.78100 356.34656 345.79012 334.66768 323.08224 311.28780 299.16936 286.98392
 274.70748 262.61604 250.63660 239.94916 230.08272 221.19828 213.39184 206.40540
 200.25096 195.20052 191.79408 189.84764 188.89621 188.97177 189.81833 191.13789
 192.87445 194.98101 197.25557 199.62613 202.08269 204.57425 206.67381 208.52737
 210.16493 211.32149 211.56205 211.80161 211.75017 211.46673 211.11129 210.75285
 210.38141 210.10297 209.92253 209.79809 209.73765 210.08021 210.47777 210.87833
 211.68289 212.87245 214.13401 215.92857 217.86813 219.92269 222.02925 224.12381
 226.19537 228.29093 230.39950 232.51706 234.65762 236.84118 239.10874 241.49030
 244.12286 246.38542 248.39898 250.17554 251.60410 252.73866 253.57222 253.89978
 253.94834 253.73390 253.10546 252.06502 250.68258 248.85514 246.77570 244.62026
 242.42282 240.23838 238.06994 235.92050 233.79206 231.67062 229.70818 227.87674
 226.17130 224.65486 223.29642 222.07998 220.97354 219.94510 219.06066 218.21322
 217.46679 216.65835 215.76791 215.14347 214.60503 214.47197 214.20619 214.28877
 213.65382 212.25534 212.36206 214.30681 217.46017 221.57753 226.74451 231.07806
 234.72993 238.88243 243.09343 247.07056 250.81271 254.50201 258.12723 261.51886
 264.56351 267.31787 269.90125 272.09497 273.56427 274.64355 276.01416 277.76675
 279.76544 281.60672 283.30942 285.12079 286.68835 288.07529 289.34064 290.48694
 291.51791 292.43604 293.23807 294.26016
 366.78100 356.34399 345.78498 334.65997 323.07196 311.27495 299.15393 286.96592
 274.68691 262.59290 250.61089 239.92088 230.05187 221.16486 213.35585 206.36684
 200.20983 195.15682 191.74780 189.79879 188.84478 188.91777 189.76176 191.07875
 192.81274 194.91673 197.18872 199.55671 202.01070 204.49969 206.59667 208.44766
 210.08265 211.23664 211.47463 211.71162 211.65761 211.37160 211.01359 210.65258
 210.27857 209.99756 209.81454 209.68753 209.62452 209.96451 210.35950 210.75749
 211.55948 212.74647 214.00546 215.79745 217.73444 219.78643 221.89041 223.98240
 226.05139 228.14438 230.25037 232.36536 234.50335 236.68434 238.94933 241.32832
 243.95831 246.21830 248.22928 250.00327 251.42926 252.56125 253.39224 253.71723
 253.76322 253.54621 252.91520 251.87219 250.48718 248.65717 246.57515 244.41714
 242.21713 240.03012 237.85911 235.70710 233.57609 231.45208 229.48707 227.65306
 225.94505 224.42603 223.06502 221.84601 220.73700 219.70599 218.81898 217.96897
 217.21996 216.40895 215.51594 214.88893 214.34792 214.37994 214.37912 214.09158
 213.88293 212.51772 212.32523 214.10117 217.23566 221.39867 226.60161 230.95459
 234.64194 238.83115 243.07481 247.09174 250.87488 254.57663 258.21091 261.63574
 264.72824 267.51953 270.12146 272.41003 274.02673 275.13449 276.33035 278.02090
 280.10999 281.98608 283.88309 285.71933 287.30844 288.71439 289.99710 291.15915
 292.20428 293.13498 293.94803 294.98416
 366.78100 356.34236 345.78171 334.65507 323.06543 311.26679 299.14414 286.95450
 274.67386 262.57822 250.59457 239.90293 230.03229 221.14365 213.33300 206.34236
 200.18372 195.12908 191.71843 189.76779 188.81215 188.88351 189.72586 191.04122
 192.77358 194.87593 197.14629 199.51265 201.96501 204.45236 206.54772 208.39708
 210.03044 211.18279 211.41915 211.65451 211.59887 211.31122 210.95158 210.58894
 210.21330 209.93065 209.74601 209.61737 209.55272 209.89108 210.28444 210.68080
 211.48115 212.66651 213.92387 215.71423 217.64958 219.69994 221.80230 223.89266
 225.96001 228.05137 230.15573 232.26909 234.40544 236.58480 238.84816 241.22552
 243.85387 246.11223 248.12159 249.89394 251.31830 252.44866 253.27802 253.60137
 253.64573 253.42709 252.79445 251.74980 250.36316 248.53152 246.44788 244.28823
 242.08659 239.89795 237.72531 235.57166 233.43902 231.31338 229.34673 227.51109
 225.80145 224.28081 222.91816 221.69752 220.58688 219.55424 218.66559 217.81395
 217.06331 216.25067 215.35602 214.72738 214.18474 214.31615 214.50063 214.00325
 213.93459 212.88647 212.51184 214.02982 217.06264 221.20781 226.31210 230.71777
 234.43906 238.66338 242.91757 246.94934 250.76450 254.49509 258.14856 261.60336
 264.74411 267.58359 270.21191 272.58447 274.31879 275.45084 276.58926 278.30212
 280.36853 282.20972 283.93091 285.61542 287.07321 288.36298 289.53970 290.60574
 291.56451 292.41830 293.16415 294.11469
 366.78100 356.34420 345.78540 334.66059 323.07279 311.27599 299.15519 286.96739
 274.68858 262.59478 250.61298 239.92318 230.05437 221.16757 213.35877 206.36997
 200.21317 195.16036 191.75156 189.80276 188.84896 188.92216 189.76635 191.08355
 192.81775 194.92195 197.19415 199.56234 202.01654 204.50574 206.60294 208.45413
 210.08933 211.24353 211.48173 211.71893 211.66512 211.37932 211.02152 210.66072
 210.28692 210.00611 209.82331 209.69651 209.63371 209.97391 210.36910 210.76730
 211.56950 212.75670 214.01589 215.80809 217.74529 219.79749 221.90169 223.99388
 226.06308 228.15628 230.26248 232.37768 234.51587 236.69707 238.96227 241.34147
 243.97167 246.23186 248.24306 250.01726 251.44346 252.57565 253.40685 253.73205
 253.77825 253.56145 252.93064 251.88784 250.50304 248.67324 246.59144 244.43363
 242.23383 240.04703 237.87623 235.72443 233.59362 231.46982 229.50502 227.67122
 225.96341 224.44461 223.08381 221.86501 220.75621 219.72540 218.83860 217.98880
 217.24000 216.42920 215.53639 214.90959 214.36879 214.41028 214.44620 214.07863
 213.81625 212.94417 212.70171 214.17468 217.10593 221.17535 226.20175 230.58600
 234.30763 238.54884 242.79944 246.82411 250.64282 254.37415 258.01801 261.46783
 264.61816 267.48242 270.14987 272.57068 274.31219 275.53061 276.81720 278.52750
 280.57263 282.38953 284.00797 285.56750 286.94159 288.15732 289.26648 290.27133
 291.17505 291.97983 292.68286 293.57880
 366.78100 356.34630 345.78959 334.66689 323.08119 311.28649 299.16778 286.98208
 274.70538 262.61368 250.63397 239.94627 230.07957 221.19487 213.38816 206.40146
 200.24676 195.19606 191.78935 189.84265 188.89095 188.96624 189.81254 191.13184
 192.86814 194.97443 197.24873 199.61903 202.07533 204.56662 206.66592 208.51922
 210.15652 211.31281 211.55311 211.79241 211.74070 211.45700 211.10130 210.74260
 210.37089 210.09219 209.91149 209.78679 209.72608 210.06838 210.46568 210.86598
 211.67027 212.85957 214.12087 215.91517 217.85446 219.90876 222.01506 224.10935
 226.18065 228.27595 230.38425 232.50154 234.64184 236.82514 239.09244 241.47373
 244.10603 246.36833 248.38163 250.15792 251.58622 252.72052 253.55381 253.88111
 253.92941 253.71471 253.08600 252.04530 250.66260 248.83490 246.75519 244.59949
 242.40179 240.21709 238.04838 235.89868 233.76998 231.64828 229.68557 227.85387
 226.14817 224.63146 223.27276 222.05606 220.94936 219.92065 219.03595 218.18825
 217.44155 216.63284 215.74214 215.11744 214.57874 214.51311 214.35782 214.20558
 213.69189 212.68771 212.62248 214.30141 217.27806 221.29349 226.28059 230.62340
 234.32030 238.53377 242.78558 246.82587 250.64671 254.35225 257.95166 261.35513
 264.46695 267.30695 269.94028 272.27246 274.04428 275.46240 276.96921 278.75278
 280.71857 282.51431 284.07245 285.44940 286.71301 287.83154 288.85205 289.77655
 290.60806 291.34851 291.99536 292.81967
 366.78100 356.34774 345.79247 334.67121 323.08694 311.29368 299.17641 286.99215
 274.71689 262.62662 250.64836 239.96209 230.09683 221.21357 213.40830 206.42304
 200.26977 195.22051 191.81524 189.86998 188.91972 188.99645 189.84419 191.16492
 192.90266 195.01039 197.28613 199.65787 202.11560 204.60834 206.70907 208.56381
 210.20255 211.36028 211.60202 211.84275 211.79249 211.51022 211.15596 210.79870
 210.42843 210.15117 209.97190 209.84864 209.78938 210.13311 210.53185 210.93358
 211.73932 212.93005 214.19279 215.98853 217.92926 219.98500 222.09273 224.18847
 226.26120 228.35794 230.46768 232.58641 234.72815 236.91288 239.18162 241.56436
 244.19809 246.46183 248.47656 250.25430 251.68403 252.81977 253.65451 253.98324
 254.03298 253.81971 253.19245 252.15318 250.77192 248.94566 246.86739 244.71313
 242.51686 240.33360 238.16634 236.01807 233.89081 231.77054 229.80928 227.97901
 226.27475 224.75949 223.40222 222.18696 221.08169 220.05443 219.17117 218.32490
 217.57964 216.77237 215.88311 215.25984 214.72258 214.58647 214.29584 214.35020
 213.73433 212.46837 212.37317 214.23740 217.33386 221.35713 226.33374 230.64951
 234.31807 238.52092 242.79045 246.86958 250.72783 254.43654 258.00565 261.37048
 264.43539 267.20615 269.73163 271.91330 273.62656 275.17517 276.90250 278.81555
 280.79712 282.57565 284.11713 285.48538 286.74448 287.91504 288.98300 289.95050
 290.82068 291.59555 292.27249 293.13513
 366.78100 356.34805 345.79311 334.67216 323.08821 311.29527 299.17832 286.99437
 274.71943 262.62948 250.65153 239.96559 230.10064 221.21770 213.41275 206.42780
 200.27486 195.22591 191.82096 189.87602 188.92607 189.00312 189.85118 191.17223
 192.91028 195.01834 197.29439 199.66644 202.12450 204.61755 206.71860 208.57366
 210.21271 211.37077 211.61282 211.85387 211.80393 211.52198 211.16803 210.81109
 210.44114 210.16419 209.98525 209.86230 209.80335 210.14741 210.54646 210.94851
 211.75457 212.94562 214.20867 216.00473 217.94578 220.00183 222.10989 224.20594
 226.27900 228.37605 230.48610 232.60516 234.74721 236.93226 239.20132 241.58437
 244.21842 246.48248 248.49753 250.27558 251.70564 252.84169 253.67674 254.00580
 254.05585 253.84290 253.21596 252.17701 250.79607 248.97012 246.89217 244.73823
 242.54228 240.35933 238.19239 236.04444 233.91749 231.79755 229.83660 228.00665
 226.30271 224.78776 223.43081 222.21587 221.11092 220.08397 219.20103 218.35508
 217.61013 216.80319 215.91424 215.29130 214.75435 214.62199 214.33186 214.32625
 213.96184 212.60327 212.26413 214.05417 217.22028 221.28616 226.27083 230.56380
 234.23808 238.45779 242.75233 246.88086 250.79866 254.55060 258.13834 261.50366
 264.57343 267.33075 269.79666 271.86951 273.41580 274.86792 276.64572 278.73114
 280.80051 282.58627 284.14642 285.55432 286.90256 288.10165 289.19565 290.18674
 291.07809 291.87189 292.56531 293.44897
 366.78100 356.34531 345.78761 334.66392 323.07722 311.28153 299.16184 286.97514
 274.69745 262.60476 250.62406 239.93537 230.06767 221.18198 213.37429 206.38659
 200.23090 195.17920 191.77151 189.82382 188.87112 188.94543 189.79074 191.10904
 192.84435 194.94965 197.22296 199.59227 202.04757 204.53788 206.63618 208.48849
 210.12480 211.28010 211.51941 211.75771 211.70502 211.42033 211.06363 210.70394
 210.33125 210.05155 209.86986 209.74416 209.68247 210.02378 210.42008 210.81939
 211.62269 212.81100 214.07131 215.86461 217.80292 219.85623 221.96153 224.05484
 226.12514 228.21945 230.32676 232.44306 234.58237 236.76467 239.03098 241.41129
 244.04259 246.30390 248.31621 250.09151 251.51882 252.65212 253.48443 253.81074
 253.85804 253.64235 253.01265 251.97096 250.58727 248.75857 246.67788 244.52119
 242.32249 240.13680 237.96710 235.81641 233.68672 231.56402 229.60033 227.76763
 226.06094 224.54325 223.18355 221.96586 220.85817 219.82847 218.94278 218.09408
 217.34639 216.53670 215.64500 215.01931 214.47961 214.51863 214.53819 214.13429
 214.05954 213.02612 212.41022 213.89264 217.00117 221.10841 226.09140 230.36818
 234.06184 238.32773 242.65634 246.83287 250.81300 254.62816 258.27026 261.68555
 264.81305 267.62033 270.10376 272.17477 273.70062 275.03860 276.72076 278.75278
 280.80252 282.60056 284.18625 285.65613 286.94727 288.08960 289.13181 290.07596
 290.92514 291.68134 292.34192 293.18378
 366.78100 356.34325 345.78351 334.65776 323.06902 311.27127 299.14953 286.96078
 274.68104 262.58629 250.60355 239.91280 230.04306 221.15531 213.34557 206.35582
 200.19808 195.14433 191.73459 189.78484 188.83010 188.90235 189.74561 191.06186
 192.79512 194.89837 197.16963 199.53688 201.99014 204.47839 206.57465 208.42490
 210.05916 211.21241 211.44967 211.68592 211.63118 211.34443 210.98569 210.62394
 210.24920 209.96745 209.78371 209.65596 209.59222 209.93147 210.32573 210.72298
 211.52424 212.71049 213.96875 215.76000 217.69625 219.74751 221.85076 223.94202
 226.01027 228.10253 230.20778 232.32204 234.45929 236.63955 238.90380 241.28206
 243.91131 246.17057 248.18082 249.95408 251.37933 252.51059 253.34084 253.66510
 253.71035 253.49261 252.86086 251.81712 250.43137 248.60063 246.51788 244.35914
 242.15839 239.97065 237.79890 235.64616 233.51441 231.38967 229.42392 227.58918
 225.88043 224.36069 222.99894 221.77920 220.66945 219.63771 218.74996 217.89922
 217.14947 216.33773 215.44398 214.81624 214.27449 214.42747 214.69199 214.04214
 213.87154 213.39336 212.72496 213.85034 216.86598 220.97707 225.88879 230.19009
 233.89920 238.13440 242.44002 246.60818 250.60474 254.45830 258.15515 261.65295
 264.89560 267.84158 270.44650 272.59698 274.13049 275.38663 276.99161 278.89011
 280.88931 282.69193 284.26779 285.68509 287.02786 288.22372 289.31476 290.30316
 291.19214 291.98376 292.67532 293.55661
 366.78100 356.34487 345.78673 334.66260 323.07546 311.27933 299.15919 286.97206
 274.69392 262.60079 250.61965 239.93052 230.06238 221.17625 213.36811 206.37998
 200.22384 195.17171 191.76357 189.81544 188.86230 188.93617 189.78103 191.09890
 192.83376 194.93863 197.21149 199.58036 202.03522 204.52509 206.62295 208.47482
 210.11068 211.26555 211.50441 211.74228 211.68914 211.40401 211.04687 210.68674
 210.31360 210.03347 209.85133 209.72520 209.66306 210.00393 210.39979 210.79866
 211.60152 212.78939 214.04925 215.84212 217.77998 219.83285 221.93771 224.03058
 226.10044 228.19431 230.30117 232.41704 234.55590 236.73777 239.00363 241.38350
 244.01436 246.27523 248.28709 250.06196 251.48882 252.62169 253.45355 253.77942
 253.82628 253.61015 252.98001 251.93788 250.55374 248.72461 246.64347 244.48634
 242.28720 240.10107 237.93093 235.77980 233.64966 231.52653 229.56239 227.72926
 226.02212 224.50399 223.14385 221.92572 220.81758 219.78745 218.90131 218.05218
 217.30404 216.49391 215.60177 214.97564 214.43550 214.49904 214.62451 214.22369
 213.65315 213.16331 212.85005 213.88893 216.87866 220.98451 225.93614 230.16586
 233.86150 238.02467 242.28761 246.40176 250.34985 254.16115 257.83051 261.31995
 264.58566 267.57901 270.22760 272.43463 274.10010 275.52249 277.17850 279.07434
 280.98926 282.76022 284.30597 285.67273 286.86407 287.91949 288.89615 289.78360
 290.58176 291.29254 291.91345 292.70471
 366.78100 356.34660 345.79020 334.66780 323.08239 311.28799 299.16959 286.98419
 274.70779 262.61639 250.63699 239.94958 230.08318 221.19878 213.39238 206.40598
 200.25158 195.20118 191.79477 189.84837 188.89697 188.97257 189.81917 191.13877
 192.87537 194.98196 197.25656 199.62716 202.08376 204.57536 206.67496 208.52856
 210.16615 211.32275 211.56335 211.80295 211.75155 211.46815 211.11275 210.75434
 210.38294 210.10454 209.92414 209.79974 209.73934 210.08194 210.47953 210.88013
 211.68473 212.87433 214.13593 215.93053 217.87013 219.92472 222.03132 224.12592
 226.19752 228.29312 230.40172 232.51932 234.65991 236.84351 239.11111 241.49271
 244.12531 246.38791 248.40151 250.17810 251.60670 252.74130 253.57490 253.90250
 253.95110 253.73670 253.10829 252.06789 250.68549 248.85809 246.77869 244.62329
 242.42588 240.24148 238.07308 235.92368 233.79528 231.67388 229.71148 227.88007
 226.17467 224.65827 223.29987 222.08347 220.97707 219.94867 219.06426 218.21686
 217.47046 216.66206 215.77166 215.14726 214.60886 214.59276 214.54939 214.35846
 213.79924 212.89287 212.64330 213.90318 216.93192 221.05359 226.06018 230.25748
 233.91296 238.07800 242.35309 246.46823 250.38997 254.14394 257.74121 261.17178
 264.40445 267.37805 270.01819 272.20963 273.80356 275.21054 277.00937 279.01672
 280.95828 282.68674 284.16296 285.48849 286.66306 287.68652 288.62131 289.49243
 290.27594 290.97366 291.58316 292.35989
 366.78100 356.34705 345.79110 334.66914 323.08419 311.29024 299.17229 286.98733
 274.71138 262.62043 250.64148 239.95453 230.08857 221.20462 213.39867 206.41272
 200.25876 195.20881 191.80286 189.85691 188.90596 188.98200 189.82905 191.14910
 192.88615 194.99319 197.26824 199.63929 202.09634 204.58839 206.68843 208.54248
 210.18053 211.33758 211.57862 211.81867 211.76772 211.48477 211.12982 210.77186
 210.40091 210.12296 209.94301 209.81905 209.75910 210.10215 210.50020 210.90125
 211.70629 212.89634 214.15839 215.95344 217.89348 219.94853 222.05558 224.15063
 226.22268 228.31872 230.42777 232.54582 234.68687 236.87091 239.13896 241.52101
 244.15406 246.41711 248.43115 250.20820 251.63725 252.77230 253.60634 253.93439
 253.98344 253.76949 253.14154 252.10158 250.71963 248.89268 246.81373 244.65877
 242.46182 240.27787 238.10992 235.96097 233.83301 231.71206 229.75011 227.91916
 226.21420 224.69825 223.34030 222.12435 221.01840 219.99044 219.10649 218.25954
 217.51359 216.70563 215.81568 215.19173 214.65378 214.63820 214.58905 214.36531
 213.91562 212.79935 212.46927 213.93715 217.00330 221.09825 226.08490 230.31758
 233.93610 238.11542 242.40877 246.56354 250.50922 254.24571 257.79822 261.18259
 264.38977 267.34409 269.97302 272.15262 273.79218 275.29391 277.04355 278.97076
 280.83414 282.49539 283.96231 285.30441 286.51111 287.60037 288.60236 289.51007
 290.32648 291.05350 291.68860 292.49796
 366.78100 356.34667 345.79034 334.66800 323.08267 311.28834 299.17001 286.98467
 274.70834 262.61701 250.63768 239.95035 230.08401 221.19968 213.39335 206.40702
 200.25269 195.20235 191.79602 189.84969 188.89836 188.97402 189.82069 191.14036
 192.87703 194.98370 197.25836 199.62903 202.08570 204.57737 206.67704 208.53070
 210.16837 211.32504 211.56571 211.80537 211.75404 211.47071 211.11538 210.75705
 210.38571 210.10738 209.92705 209.80272 209.74238 210.08505 210.48272 210.88339
 211.68806 212.87772 214.13939 215.93406 217.87373 219.92840 222.03506 224.12973
 226.20140 228.29707 230.40573 232.52340 234.66407 236.84774 239.11541 241.49707
 244.12974 246.39241 248.40608 250.18275 251.61141 252.74608 253.57975 253.90742
 253.95608 253.74175 253.11342 252.07309 250.69076 248.86342 246.78409 244.62876
 242.43143 240.24709 238.07876 235.92943 233.80110 231.67977 229.71743 227.88610
 226.18077 224.66444 223.30611 222.08977 220.98344 219.95511 219.07078 218.22344
 217.47711 216.66878 215.77845 215.15412 214.61578 214.64828 214.67482 214.29309
 213.97485 212.90976 212.51082 213.97711 217.04170 221.10350 226.08328 230.24435
 233.87822 238.07814 242.39304 246.57925 250.55893 254.29286 257.82452 261.18448
 264.36267 267.30084 269.94769 272.16504 273.86218 275.45941 277.24698 279.13297
 280.88278 282.44244 283.96347 285.32935 286.53638 287.60431 288.57861 289.46130
 290.25516 290.96210 291.57965 292.36667
 366.78100 356.34549 345.78798 334.66447 323.07797 311.28246 299.16295 286.97644
 274.69893 262.60642 250.62591 239.93741 230.06990 221.18439 213.37688 206.38937
 200.23386 195.18235 191.77484 189.82734 188.87483 188.94932 189.79481 191.11330
 192.84879 194.95428 197.22778 199.59727 202.05276 204.54325 206.64174 208.49423
 210.13072 211.28622 211.52571 211.76420 211.71169 211.42718 211.07067 210.71116
 210.33866 210.05915 209.87764 209.75213 209.69062 210.03211 210.42860 210.82810
 211.63159 212.82008 214.08057 215.87406 217.81255 219.86604 221.97153 224.06503
 226.13552 228.23001 230.33750 232.45399 234.59348 236.77597 239.04247 241.42296
 244.05445 246.31594 248.32843 250.10392 251.53141 252.66491 253.49740 253.82389
 253.87138 253.65587 253.02636 251.98485 250.60135 248.77284 246.69233 244.53582
 242.33731 240.15180 237.98229 235.83178 233.70228 231.57977 229.61626 227.78375
 226.07724 224.55973 223.20022 221.98272 220.87521 219.84570 218.96019 218.11168
 217.36417 216.55466 215.66316 215.03765 214.49814 214.60559 214.78232 214.23392
 213.92902 212.99071 212.55696 213.94884 217.03445 221.10306 226.04137 230.19884
 233.81882 238.01170 242.32982 246.53670 250.54742 254.30283 257.82385 261.16434
 264.32816 267.26291 269.92084 272.17365 273.91031 275.49170 277.23166 279.00256
 280.70206 282.35709 283.88046 285.25735 286.54471 287.68945 288.73386 289.68002
 290.53101 291.28879 291.95078 292.79443
 366.78100 356.34544 345.78789 334.66433 323.07778 311.28222 299.16267 286.97611
 274.69856 262.60600 250.62545 239.93689 230.06934 221.18378 213.37623 206.38867
 200.23312 195.18156 191.77401 189.82645 188.87390 188.94834 189.79379 191.11223
 192.84768 194.95312 197.22657 199.59601 202.05146 204.54190 206.64035 208.49279
 210.12924 211.28468 211.52412 211.76257 211.71001 211.42546 211.06890 210.70935
 210.33679 210.05724 209.87568 209.75013 209.68857 210.03002 210.42646 210.82591
 211.62935 212.81780 214.07824 215.87169 217.81013 219.86358 221.96902 224.06247
 226.13291 228.22736 230.33480 232.45125 234.59069 236.77314 239.03958 241.42003
 244.05147 246.31291 248.32536 250.10080 251.52825 252.66169 253.49414 253.82058
 253.86803 253.65247 253.02292 251.98136 250.59781 248.76925 246.68870 244.53214
 242.33359 240.14803 237.97848 235.82792 233.69837 231.57581 229.61226 227.77970
 226.07315 224.55559 223.19604 221.97848 220.87093 219.84137 218.95582 218.10726
 217.35971 216.55015 215.65859 215.03304 214.49348 214.60739 214.82137 214.32475
 213.91212 212.92476 212.53769 213.85867 216.96657 221.07336 225.98700 230.16031
 233.75954 237.93172 242.24210 246.46034 250.49162 254.26370 257.78177 261.10370
 264.26208 267.20276 269.87598 272.17538 273.98010 275.56393 277.26324 278.95135
 280.48096 281.87009 283.20755 284.52661 285.74359 286.88916 287.93433 288.88116
 289.73273 290.49106 291.15353 291.99777
 366.78100 356.34717 345.79133 334.66950 323.08467 311.29083 299.17300 286.98817
 274.71233 262.62150 250.64266 239.95583 230.09000 221.20616 213.40033 206.41450
 200.26066 195.21083 191.80500 189.85916 188.90833 188.98450 189.83166 191.15183
 192.88900 194.99616 197.27133 199.64250 202.09966 204.59183 206.69199 208.54616
 210.18433 211.34149 211.58266 211.82283 211.77199 211.48916 211.13433 210.77649
 210.40566 210.12783 209.94799 209.82416 209.76433 210.10749 210.50566 210.90683
 211.71199 212.90216 214.16432 215.95949 217.89966 219.95482 222.06199 224.15716
 226.22932 228.32549 230.43466 232.55282 234.69399 236.87816 239.14632 241.52849
 244.16166 246.42482 248.43899 250.21616 251.64532 252.78049 253.61465 253.94282
 253.99199 253.77815 253.15032 252.11049 250.72865 248.90182 246.82299 244.66815
 242.47132 240.28749 238.11965 235.97082 233.84299 231.72215 229.76032 227.92948
 226.22465 224.70882 223.35098 222.13515 221.02932 220.00148 219.11765 218.27082
 217.52498 216.71715 215.82732 215.20348 214.66565 214.70514 214.76347 214.41080
 213.96008 212.85214 212.53351 213.85638 216.93130 221.05888 225.98949 230.14531
 233.72984 237.89374 242.20239 246.43198 250.48004 254.25240 257.75003 261.04083
 264.17087 267.09332 269.76868 272.09891 273.95166 275.61072 277.36850 279.04370
 280.51923 281.75613 282.80206 284.10223 285.35748 286.52771 287.59534 288.56256
 289.43246 290.20712 290.88385 291.74628
 366.78100 356.34824 345.79348 334.67272 323.08896 311.29619 299.17943 286.99567
 274.72091 262.63115 250.65339 239.96763 230.10287 221.22011 213.41534 206.43058
 200.27782 195.22906 191.82430 189.87954 188.92978 189.00702 189.85526 191.17649
 192.91473 195.02297 197.29921 199.67145 202.12969 204.62293 206.72417 208.57941
 210.21864 211.37688 211.61912 211.86036 211.81060 211.52884 211.17508 210.81832
 210.44856 210.17179 209.99303 209.87027 209.81151 210.15575 210.55499 210.95723
 211.76347 212.95471 214.21794 216.01418 217.95542 220.01166 222.11990 224.21614
 226.28938 228.38662 230.49686 232.61609 234.75833 236.94357 239.21281 241.59605
 244.23029 246.49453 248.50977 250.28801 251.71824 252.85448 253.68972 254.01896
 254.06920 253.85644 253.22968 252.19092 250.81016 248.98439 246.90663 244.75287
 242.55711 240.37435 238.20759 236.05983 233.93307 231.81330 229.85254 228.02278
 226.31902 224.80426 223.44750 222.23274 221.12798 220.10122 219.21845 218.37269
 217.62793 216.82117 215.93241 215.30965 214.77289 214.77409 214.74727 214.40289
 213.98755 212.74829 212.48433 213.89043 216.92601 221.05991 226.02788 230.18559
 233.75177 237.90645 242.21681 246.45865 250.52303 254.29695 257.77283 261.02441
 264.11755 267.01001 269.67407 272.01917 273.90732 275.61023 277.33456 278.90820
 280.18323 281.20761 282.30701 283.63492 284.88184 286.02872 287.07504 288.02295
 288.87549 289.63467 290.29788 291.14310
 366.78100 356.34696 345.79093 334.66889 323.08385 311.28982 299.17178 286.98674
 274.71071 262.61967 250.64063 239.95360 230.08756 221.20352 213.39749 206.41145
 200.25741 195.20738 191.80134 189.85530 188.90427 188.98023 189.82719 191.14716
 192.88412 194.99108 197.26605 199.63701 202.09398 204.58594 206.68590 208.53987
 210.17783 211.33479 211.57576 211.81572 211.76468 211.48165 211.12661 210.76857
 210.39754 210.11950 209.93946 209.81543 209.75539 210.09835 210.49632 210.89728
 211.70224 212.89221 214.15417 215.94913 217.88910 219.94406 222.05102 224.14599
 226.21795 228.31391 230.42288 232.54084 234.68180 236.86577 239.13373 241.51569
 244.14866 246.41162 248.42558 250.20255 251.63151 252.76647 253.60044 253.92840
 253.97736 253.76333 253.13529 252.09525 250.71322 248.88618 246.80715 244.65211
 242.45507 240.27104 238.10300 235.95396 233.82593 231.70489 229.74285 227.91182
 226.20678 224.69074 223.33271 222.11667 221.01063 219.98260 219.09856 218.25152
 217.50549 216.69745 215.80741 215.18338 214.64534 214.72316 214.85887 214.34718
 213.99512 212.75418 212.37369 213.76199 216.83762 221.02591 226.02344 230.20299
 233.76080 237.90579 242.22032 246.47260 250.54695 254.32664 257.79355 261.02011
 264.09003 266.96933 269.63235 272.00598 273.93253 275.62711 277.26569 278.67957
 279.76831 280.61893 281.52029 282.76447 283.97455 285.11765 286.16400 287.11197
 287.96454 288.72375 289.38699 290.23221
 366.78100 356.34562 345.78824 334.66486 323.07848 311.28309 299.16371 286.97733
 274.69995 262.60757 250.62719 239.93881 230.07143 221.18605 213.37867 206.39128
 200.23590 195.18452 191.77714 189.82976 188.87738 188.95200 189.79762 191.11624
 192.85185 194.95747 197.23109 199.60071 202.05633 204.54695 206.64557 208.49819
 210.13481 211.29043 211.53004 211.76866 211.71628 211.43190 211.07552 210.71614
 210.34376 210.06438 209.88300 209.75761 209.69623 210.03785 210.43447 210.83409
 211.63771 212.82633 214.08695 215.88057 217.81919 219.87280 221.97842 224.07204
 226.14266 228.23728 230.34490 232.46152 234.60114 236.78376 239.05037 241.43099
 244.06261 246.32423 248.33685 250.11247 251.54009 252.67371 253.50633 253.83295
 253.88056 253.66518 253.03580 251.99442 250.61104 248.78266 246.70228 244.54590
 242.34752 240.16213 237.99275 235.84237 233.71299 231.59061 229.62723 227.79485
 226.08847 224.57109 223.21171 221.99432 220.88694 219.85756 218.97218 218.12380
 217.37642 216.56704 215.67566 215.05028 214.51089 214.66403 214.96951 214.34587
 213.92604 212.80374 212.32106 213.62733 216.73087 220.96805 225.98796 230.17960
 233.74371 237.88744 242.20882 246.47118 250.55229 254.33119 257.78827 260.99976
 264.06180 266.94363 269.62262 272.06226 274.04144 275.70602 277.23694 278.51340
 279.42523 280.16370 280.91260 282.02280 283.23425 284.37946 285.45718 286.43353
 287.31168 288.09363 288.77676 289.64731
 366.78100 356.34594 345.78888 334.66582 323.07976 311.28469 299.16563 286.97957
 274.70251 262.61045 250.63039 239.94233 230.07527 221.19021 213.38314 206.39608
 200.24102 195.18996 191.78290 189.83584 188.88378 188.95872 189.80466 191.12360
 192.85953 194.96547 197.23941 199.60935 202.06529 204.55623 206.65517 208.50811
 210.14505 211.30098 211.54092 211.77986 211.72780 211.44374 211.08768 210.72862
 210.35656 210.07750 209.89643 209.77137 209.71031 210.05225 210.44919 210.84913
 211.65307 212.84201 214.10295 215.89689 217.83582 219.88976 221.99570 224.08964
 226.16058 228.25552 230.36346 232.48040 234.62034 236.80327 239.07021 241.45115
 244.08309 246.34503 248.35797 250.13391 251.56185 252.69579 253.52872 253.85566
 253.90360 253.68854 253.05948 252.01842 250.63536 248.80730 246.72724 244.57118
 242.37311 240.18805 238.01899 235.86893 233.73987 231.61781 229.65475 227.82269
 226.11663 224.59956 223.24050 222.02344 220.91638 219.88732 219.00226 218.15420
 217.40714 216.59808 215.70701 215.08195 214.54289 214.68918 214.98068 214.42487
 213.81021 212.88380 212.36996 213.53340 216.64403 220.91339 225.94463 230.14815
 233.72337 237.87407 242.20374 246.47914 250.56776 254.33803 257.77985 260.97177
 264.02438 266.90710 269.60983 272.08981 274.13818 275.83810 277.29605 278.37418
 279.11569 279.71964 280.35342 281.56516 282.80624 284.00940 285.11905 286.12430
 287.02838 287.83350 288.53683 289.43314
 366.78100 356.34544 345.78787 334.66431 323.07774 311.28218 299.16262 286.97605
 274.69849 262.60593 250.62536 239.93680 230.06923 221.18367 213.37611 206.38854
 200.23298 195.18141 191.77385 189.82629 188.87372 188.94816 189.79360 191.11203
 192.84747 194.95290 197.22634 199.59578 202.05121 204.54165 206.64008 208.49252
 210.12896 211.28439 211.52383 211.76227 211.70970 211.42514 211.06857 210.70901
 210.33645 210.05688 209.87532 209.74975 209.68819 210.02963 210.42606 210.82550
 211.62894 212.81737 214.07781 215.87124 217.80968 219.86312 221.96855 224.06199
 226.13242 228.22686 230.33430 232.45073 234.59017 236.77260 239.03904 241.41948
 244.05091 246.31235 248.32479 250.10022 251.52766 252.66109 253.49353 253.81997
 253.86740 253.65184 253.02227 251.98071 250.59715 248.76858 246.68802 244.53146
 242.33289 240.14733 237.97776 235.82720 233.69764 231.57507 229.61151 227.77894
 226.07238 224.55482 223.19525 221.97769 220.87013 219.84056 218.95500 218.10643
 217.35887 216.54931 215.65774 215.03218 214.49261 214.66994 215.03564 214.46208
 213.64388 212.92183 212.38516 213.40086 216.56174 220.89474 225.94792 230.15703
 233.73436 237.88031 242.21144 246.49290 250.58208 254.34146 257.76715 260.94623
 263.99121 266.86963 269.59100 272.13708 274.26999 276.01395 277.38962 278.31393
 278.89886 279.21469 279.71860 281.04565 282.28284 283.50500 284.65704 285.70071
 286.63937 287.47525 288.20547 289.13605
 366.78100 356.34529 345.78758 334.66386 323.07715 311.28144 299.16173 286.97502
 274.69731 262.60459 250.62388 239.93517 230.06746 221.18175 213.37404 206.38632
 200.23061 195.17890 191.77119 189.82348 188.87077 188.94505 189.79034 191.10863
 192.84392 194.94921 197.22250 199.59178 202.04707 204.53736 206.63565 208.48794
 210.12423 211.27951 211.51880 211.75709 211.70438 211.41967 211.06296 210.70324
 210.33053 210.05082 209.86911 209.74340 209.68168 210.02297 210.41926 210.81855
 211.62184 212.81013 214.07041 215.86370 217.80199 219.85528 221.96057 224.05386
 226.12414 228.21843 230.32572 232.44201 234.58130 236.76359 239.02987 241.41016
 244.04145 246.30274 248.31503 250.09032 251.51760 252.65089 253.48318 253.80947
 253.85676 253.64105 253.01133 251.96962 250.58591 248.75720 246.67649 244.51977
 242.32106 240.13535 237.96564 235.81493 233.68522 231.56250 229.59879 227.76608
 226.05937 224.54166 223.18195 221.96423 220.85652 219.82681 218.94110 218.09239
 217.34468 216.53496 215.64325 215.01754 214.47783 214.65463 215.05031 214.58722
 213.55643 212.73195 212.25641 213.21858 216.47383 220.89513 226.01524 230.19781
 233.77182 237.88808 242.20439 246.46579 250.53404 254.29111 257.71729 260.90155
 263.93307 266.82336 269.57791 272.16925 274.38632 276.15826 277.46878 278.33072
 278.81613 279.05740 279.42780 280.37839 281.54028 282.60150 283.60120 284.58014
 285.46060 286.24466 286.92960 287.80246
 366.78100 356.34611 345.78923 334.66634 323.08046 311.28557 299.16669 286.98080
 274.70392 262.61203 250.63214 239.94426 230.07737 221.19249 213.38560 206.39872
 200.24383 195.19294 191.78606 189.83917 188.88729 188.96240 189.80852 191.12763
 192.86375 194.96986 197.24397 199.61409 202.07020 204.56132 206.66043 208.51355
 210.15066 211.30678 211.54689 211.78600 211.73412 211.45023 211.09435 210.73546
 210.36358 210.08469 209.90380 209.77892 209.71803 210.06015 210.45726 210.85738
 211.66149 212.85061 214.11172 215.90583 217.84495 219.89906 222.00518 224.09929
 226.17041 228.26552 230.37364 232.49075 234.63086 236.81398 239.08109 241.46221
 244.09432 246.35644 248.36955 250.14566 251.57378 252.70789 253.54101 253.86812
 253.91624 253.70135 253.07247 252.03158 250.64869 248.82081 246.74092 244.58504
 242.38715 240.20227 238.03338 235.88350 233.75461 231.63272 229.66984 227.83795
 226.13207 224.61518 223.25630 222.03941 220.93252 219.90364 219.01875 218.17087
 217.42398 216.61510 215.72421 215.09933 214.56044 214.69550 215.00810 214.66199
 213.75598 212.63901 212.09018 213.04311 216.39769 220.88664 226.06334 230.20728
 233.79242 237.89525 242.20404 246.45358 250.50792 254.24942 257.65820 260.82788
 263.84210 266.72961 269.50394 272.12692 274.39594 276.19162 277.50748 278.38446
 278.79929 279.00180 279.31424 280.02383 281.06927 282.11212 283.06924 283.96918
 284.84317 285.62146 286.30136 287.16785
 366.78100 356.34635 345.78971 334.66706 323.08141 311.28677 299.16812 286.98247
 274.70583 262.61418 250.63453 239.94689 230.08024 221.19559 213.38894 206.40230
 200.24765 195.19700 191.79036 189.84371 188.89206 188.96742 189.81377 191.13312
 192.86948 194.97583 197.25018 199.62054 202.07689 204.56824 206.66760 208.52095
 210.15830 211.31466 211.55501 211.79436 211.74272 211.45907 211.10342 210.74477
 210.37313 210.09448 209.91383 209.78919 209.72854 210.07089 210.46825 210.86860
 211.67295 212.86231 214.12366 215.91801 217.85737 219.91172 222.01807 224.11243
 226.18378 228.27913 230.38749 232.50484 234.64519 236.82855 239.09590 241.47725
 244.10960 246.37196 248.38531 250.16166 251.59002 252.72437 253.55772 253.88508
 253.93343 253.71878 253.09014 252.04949 250.66684 248.83920 246.75955 244.60390
 242.40626 240.22161 238.05296 235.90332 233.77467 231.65302 229.69038 227.85873
 226.15308 224.63643 223.27779 222.06114 220.95449 219.92585 219.04120 218.19355
 217.44691 216.63826 215.74761 215.12297 214.58432 214.71632 215.01990 214.62662
 213.85716 212.53906 211.92583 212.97444 216.37817 220.88394 226.07457 230.25952
 233.82506 237.92543 242.23058 246.48500 250.53543 254.26341 257.65582 260.80612
 263.79727 266.66348 269.44357 272.10208 274.41205 276.22961 277.52936 278.36664
 278.65710 278.78693 279.12030 279.80899 280.84705 281.89340 282.85806 283.77768
 284.65643 285.43896 286.12256 286.99374
 366.78100 356.34665 345.79030 334.66795 323.08261 311.28826 299.16991 286.98456
 274.70821 262.61686 250.63751 239.95016 230.08382 221.19947 213.39312 206.40677
 200.25242 195.20207 191.79572 189.84938 188.89803 188.97368 189.82033 191.13998
 192.87663 194.98328 197.25794 199.62859 202.08524 204.57689 206.67654 208.53019
 210.16784 211.32449 211.56515 211.80480 211.75345 211.47010 211.11475 210.75640
 210.38505 210.10671 209.92636 209.80201 209.74166 210.08431 210.48196 210.88261
 211.68727 212.87692 214.13857 215.93322 217.87287 219.92752 222.03417 224.12882
 226.20048 228.29613 230.40478 232.52243 234.66308 236.84673 239.11438 241.49604
 244.12869 246.39134 248.40499 250.18164 251.61029 252.74494 253.57860 253.90625
 253.95490 253.74055 253.11220 252.07185 250.68950 248.86215 246.78281 244.62746
 242.43011 240.24576 238.07741 235.92806 233.79971 231.67837 229.71602 227.88467
 226.17932 224.66297 223.30462 222.08827 220.98192 219.95358 219.06923 218.22188
 217.47553 216.66718 215.77683 215.15248 214.61414 214.74088 215.02705 214.63077
 213.90771 212.37424 211.74057 212.95767 216.38123 220.88451 226.07599 230.31387
 233.85547 237.95486 242.25978 246.52625 250.57988 254.29988 257.67786 260.80420
 263.76819 266.60916 269.39725 272.09253 274.44290 276.28690 277.56281 278.25714
 278.44720 278.55603 278.92145 279.69077 280.77737 281.83203 282.81555 283.79178
 284.68622 285.48273 286.17856 287.06528
 366.78100 356.34621 345.78943 334.66664 323.08086 311.28607 299.16729 286.98150
 274.70471 262.61293 250.63314 239.94536 230.07857 221.19379 213.38700 206.40022
 200.24543 195.19464 191.78786 189.84107 188.88929 188.96450 189.81072 191.12993
 192.86614 194.97236 197.24657 199.61679 202.07300 204.56422 206.66343 208.51664
 210.15386 211.31007 211.55029 211.78950 211.73772 211.45393 211.09815 210.73936
 210.36757 210.08879 209.90800 209.78322 209.72243 210.06465 210.46186 210.86207
 211.66629 212.85550 214.11672 215.91093 217.85015 219.90436 222.01057 224.10479
 226.17600 228.27122 230.37943 232.49665 234.63686 236.82008 239.08729 241.46850
 244.10072 246.36293 248.37615 250.15236 251.58058 252.71479 253.54800 253.87522
 253.92343 253.70865 253.07986 252.03908 250.65629 248.82850 246.74872 244.59293
 242.39515 240.21036 238.04158 235.89179 233.76301 231.64122 229.67843 227.84665
 226.14086 224.62408 223.26529 222.04851 220.94172 219.91293 219.02815 218.18036
 217.43358 216.62479 215.73401 215.10922 214.57043 214.73512 215.08774 214.56104
 213.96852 212.25206 211.65503 213.02583 216.38689 220.84058 226.01465 230.29910
 233.84624 237.94995 242.26508 246.55333 250.61916 254.33832 257.70944 260.81570
 263.75552 266.56534 269.35400 272.08798 274.46786 276.30106 277.51172 278.12372
 278.29129 278.40637 278.73312 279.72662 280.87558 281.98724 283.11832 284.14319
 285.06494 285.88577 286.60284 287.51663
 366.78100 356.34481 345.78661 334.66242 323.07523 311.27903 299.15884 286.97164
 274.69345 262.60026 250.61906 239.92987 230.06168 221.17548 213.36729 206.37909
 200.22290 195.17071 191.76251 189.81432 188.86113 188.93493 189.77974 191.09754
 192.83235 194.93716 197.20996 199.57877 202.03358 204.52338 206.62119 208.47299
 210.10880 211.26361 211.50241 211.74022 211.68703 211.40183 211.04464 210.68444
 210.31125 210.03106 209.84886 209.72267 209.66048 210.00128 210.39709 210.79589
 211.59870 212.78651 214.04631 215.83912 217.77693 219.82973 221.93454 224.02734
 226.09715 228.19096 230.29776 232.41357 234.55238 236.73418 238.99999 241.37979
 244.01060 246.27141 248.28321 250.05802 251.48483 252.61763 253.44944 253.77524
 253.82205 253.60586 252.97566 251.93347 250.54928 248.72008 246.63889 244.48169
 242.28250 240.09631 237.92611 235.77492 233.64473 231.52153 229.55734 227.72415
 226.01695 224.49876 223.13856 221.92037 220.81218 219.78198 218.89579 218.04660
 217.29840 216.48821 215.59601 214.96982 214.42963 214.67986 215.19485 214.47240
 213.93108 212.41962 211.81265 213.05717 216.32278 220.74625 225.90349 230.19960
 233.78481 237.90717 242.24942 246.57382 250.67003 254.40358 257.77814 260.87234
 263.79684 266.59503 269.38882 272.12579 274.52829 276.38138 277.57147 278.07568
 278.16891 278.19528 278.75577 279.74371 280.97519 282.19806 283.32639 284.34860
 285.26797 286.08667 286.80185 287.71329
 366.78100 356.34442 345.78583 334.66125 323.07366 311.27708 299.15649 286.96891
 274.69033 262.59674 250.61516 239.92557 230.05699 221.17040 213.36182 206.37323
 200.21665 195.16407 191.75548 189.80690 188.85331 188.92673 189.77114 191.08856
 192.82298 194.92739 197.19981 199.56822 202.02264 204.51205 206.60947 208.46088
 210.09630 211.25072 211.48913 211.72655 211.67296 211.38738 211.02979 210.66921
 210.29563 210.01504 209.83246 209.70587 209.64329 209.98370 210.37912 210.77754
 211.57995 212.76737 214.02678 215.81920 217.75661 219.80903 221.91344 224.00586
 226.07528 228.16869 230.27511 232.39052 234.52894 236.71035 238.97577 241.35519
 243.98560 246.24602 248.25743 250.03185 251.45826 252.59068 253.42209 253.74751
 253.79393 253.57734 252.94676 251.90417 250.51959 248.69000 246.60842 244.45084
 242.25125 240.06467 237.89408 235.74250 233.61191 231.48833 229.52375 227.69016
 225.98258 224.46399 223.10341 221.88482 220.77624 219.74565 218.85907 218.00949
 217.26090 216.45032 215.55773 214.93115 214.39056 214.65709 215.22685 214.53860
 213.68440 212.54295 211.92101 212.95924 216.18527 220.64026 225.79474 230.11165
 233.72620 237.85443 242.20708 246.55081 250.66455 254.41710 257.80756 260.91232
 263.83688 266.63278 269.41739 272.18866 274.62433 276.47971 277.62372 278.14752
 278.20224 278.28458 278.74551 279.75018 280.97092 282.14468 283.28180 284.31195
 285.23846 286.06351 286.78427 287.70279
 366.78100 356.34552 345.78804 334.66456 323.07807 311.28259 299.16311 286.97663
 274.69915 262.60667 250.62618 239.93770 230.07022 221.18474 213.37726 206.38978
 200.23429 195.18281 191.77533 189.82785 188.87537 188.94989 189.79540 191.11392
 192.84944 194.95496 197.22848 199.59800 202.05351 204.54403 206.64255 208.49507
 210.13159 211.28711 211.52663 211.76514 211.71266 211.42818 211.07170 210.71222
 210.33974 210.06025 209.87877 209.75329 209.69181 210.03333 210.42985 210.82936
 211.63288 212.82140 214.08192 215.87544 217.81396 219.86747 221.97299 224.06651
 226.13703 228.23155 230.33907 232.45559 234.59510 236.77762 239.04414 241.42466
 244.05618 246.31770 248.33021 250.10573 251.53325 252.66677 253.49929 253.82581
 253.87332 253.65784 253.02836 251.98688 250.60340 248.77492 246.69443 244.53795
 242.33947 240.15399 237.98451 235.83403 233.70454 231.58206 229.61858 227.78610
 226.07962 224.56214 223.20266 221.98517 220.87769 219.84821 218.96273 218.11425
 217.36677 216.55728 215.66580 215.04032 214.50084 214.70027 215.14838 214.73772
 213.51927 212.42039 211.89635 212.85500 216.08612 220.58276 225.76169 230.07100
 233.70312 237.81947 242.16241 246.50761 250.62347 254.38614 257.79028 260.90775
 263.83469 266.64603 269.44037 272.20782 274.67871 276.52634 277.60104 278.09048
 278.25281 278.44849 278.95309 279.82135 281.00470 282.08063 283.13831 284.14288
 285.04642 285.85101 286.55389 287.44965
 366.78100 356.34613 345.78925 334.66638 323.08051 311.28564 299.16676 286.98089
 274.70402 262.61214 250.63227 239.94440 230.07753 221.19265 213.38578 206.39891
 200.24404 195.19316 191.78629 189.83942 188.88754 188.96267 189.80880 191.12793
 192.86405 194.97018 197.24431 199.61443 202.07056 204.56169 206.66082 208.51394
 210.15107 211.30720 211.54733 211.78645 211.73458 211.45071 211.09483 210.73596
 210.36409 210.08522 209.90434 209.77947 209.71860 210.06072 210.45785 210.85798
 211.66211 212.85123 214.11236 215.90649 217.84562 219.89974 222.00587 224.10000
 226.17112 228.26625 230.37438 232.49151 234.63163 236.81476 239.08189 241.46301
 244.09514 246.35727 248.37040 250.14652 251.57465 252.70878 253.54191 253.86903
 253.91716 253.70229 253.07341 252.03254 250.64967 248.82180 246.74192 244.58605
 242.38818 240.20330 238.03443 235.88456 233.75569 231.63381 229.67094 227.83907
 226.13320 224.61632 223.25745 222.04058 220.93370 219.90483 219.01996 218.17209
 217.42521 216.61634 215.72547 215.10059 214.56172 214.72815 215.10635 214.79291
 213.61517 212.28648 211.78671 212.80324 216.07568 220.58443 225.76682 230.07668
 233.70920 237.80916 242.13911 246.48404 250.59966 254.36592 257.78107 260.91040
 263.84201 266.65256 269.45090 272.21878 274.68329 276.53995 277.55081 278.02890
 278.28262 278.58701 279.18719 280.00833 281.11780 282.18008 283.18921 284.17999
 285.07111 285.86465 286.55786 287.44131
 366.78100 356.34514 345.78728 334.66343 323.07657 311.28071 299.16085 286.97399
 274.69614 262.60328 250.62242 239.93356 230.06571 221.17985 213.37199 206.38413
 200.22827 195.17642 191.76856 189.82070 188.86784 188.94198 189.78713 191.10527
 192.84041 194.94555 197.21869 199.58784 202.04298 204.53312 206.63126 208.48341
 210.11955 211.27469 211.51383 211.75197 211.69912 211.41426 211.05740 210.69754
 210.32468 210.04483 209.86297 209.73711 209.67525 210.01639 210.41254 210.81168
 211.61482 212.80296 214.06311 215.85625 217.79439 219.84753 221.95267 224.04582
 226.11596 228.21010 230.31724 232.43338 234.57253 236.75467 239.02081 241.40095
 244.03210 246.29324 248.30538 250.08052 251.50766 252.64081 253.47295 253.79909
 253.84623 253.63037 253.00052 251.95866 250.57480 248.74594 246.66508 244.50823
 242.30937 240.12351 237.95365 235.80280 233.67294 231.55008 229.58622 227.75336
 226.04651 224.52865 223.16879 221.95093 220.84307 219.81322 218.92736 218.07850
 217.33064 216.52078 215.62893 215.00307 214.46321 214.68430 215.17842 214.69270
 213.72263 212.18944 211.64832 212.79179 216.07654 220.56279 225.74316 230.08813
 233.70755 237.79285 242.11279 246.45677 250.57196 254.34377 257.77875 260.92807
 263.86902 266.67557 269.47598 272.24939 274.71689 276.49335 277.49261 278.00739
 278.35001 278.78247 279.40714 280.27930 281.35294 282.40356 283.45679 284.45285
 285.34872 286.14651 286.84344 287.73160
 366.78100 356.34383 345.78465 334.65948 323.07131 311.27414 299.15296 286.96479
 274.68562 262.59144 250.60927 239.91910 230.04993 221.16275 213.35358 206.36441
 200.20723 195.15406 191.74489 189.79572 188.84154 188.91437 189.75820 191.07502
 192.80885 194.91268 197.18450 199.55233 202.00616 204.49499 206.59181 208.44264
 210.07747 211.23129 211.46912 211.70595 211.65178 211.36560 211.00743 210.64626
 210.27208 209.99091 209.80774 209.68057 209.61739 209.95722 210.35205 210.74987
 211.55170 212.73853 213.99736 215.78918 217.72601 219.77784 221.88166 223.97349
 226.04232 228.13515 230.24097 232.35580 234.49363 236.67445 238.93928 241.31811
 243.94793 246.20776 248.21859 249.99242 251.41824 252.55007 253.38090 253.70572
 253.75155 253.53438 252.90321 251.86003 250.47486 248.64469 246.56251 244.40434
 242.20417 240.01700 237.84582 235.69365 233.56248 231.43830 229.47313 227.63896
 225.93079 224.41161 223.05044 221.83127 220.72209 219.69092 218.80375 217.95358
 217.20440 216.39323 215.50006 214.87288 214.33171 214.62288 215.26329 214.60445
 213.77083 212.26753 211.61220 212.72090 216.03279 220.52145 225.69485 230.06570
 233.68912 237.76866 242.08682 246.43246 250.54976 254.33197 257.79050 260.96124
 263.90997 266.70621 269.49371 272.26837 274.69199 276.40970 277.37061 277.88928
 278.30002 278.84845 279.57285 280.51617 281.63428 282.71497 283.81760 284.82126
 285.72397 286.52780 287.23004 288.12494
 366.78100 356.34359 345.78419 334.65878 323.07037 311.27297 299.15156 286.96315
 274.68375 262.58934 250.60693 239.91653 230.04712 221.15971 213.35031 206.36090
 200.20349 195.15009 191.74068 189.79127 188.83687 188.90946 189.75305 191.06965
 192.80324 194.90683 197.17843 199.54602 201.99961 204.48821 206.58480 208.43539
 210.06999 211.22358 211.46117 211.69777 211.64336 211.35695 210.99855 210.63714
 210.26273 209.98133 209.79792 209.67051 209.60711 209.94670 210.34129 210.73889
 211.54048 212.72707 213.98567 215.77726 217.71385 219.76545 221.86904 223.96063
 226.02923 228.12182 230.22741 232.34201 234.47960 236.66019 238.92479 241.30338
 243.93297 246.19257 248.20316 249.97675 251.40235 252.53394 253.36453 253.68913
 253.73472 253.51731 252.88591 251.84250 250.45709 248.62669 246.54428 244.38587
 242.18547 239.99806 237.82665 235.67425 233.54284 231.41843 229.45303 227.61862
 225.91021 224.39081 223.02940 221.80999 220.70059 219.66918 218.78177 217.93137
 217.18196 216.37055 215.47715 214.84974 214.30833 214.60487 215.26694 214.66046
 213.68768 212.28424 211.58182 212.62065 215.93965 220.44687 225.63692 230.03342
 233.68083 237.75551 242.06866 246.41869 250.54106 254.33919 257.82764 261.02554
 263.97321 266.75479 269.51959 272.25946 274.64178 276.28259 277.14380 277.63263
 278.11246 278.83636 279.74884 280.75537 281.87921 282.93878 283.98474 284.95697
 285.83139 286.61008 287.29031 288.15720
 366.78100 356.34490 345.78680 334.66270 323.07561 311.27951 299.15941 286.97231
 274.69421 262.60111 250.62001 239.93091 230.06282 221.17672 213.36862 206.38052
 200.22442 195.17232 191.76422 189.81613 188.86303 188.93693 189.78183 191.09973
 192.83463 194.93953 197.21243 199.58134 202.03624 204.52614 206.62404 208.47594
 210.11184 211.26674 211.50565 211.74355 211.69045 211.40535 211.04825 210.68815
 210.31505 210.03495 209.85286 209.72676 209.66466 210.00556 210.40146 210.80036
 211.60326 212.79117 214.05107 215.84397 217.78187 219.83477 221.93967 224.03257
 226.10247 228.19638 230.30328 232.41918 234.55808 236.73998 239.00588 241.38578
 244.01668 246.27759 248.28949 250.06439 251.49129 252.62419 253.45609 253.78199
 253.82890 253.61280 252.98270 251.94060 250.55650 248.72740 246.64630 244.48920
 242.29011 240.10401 237.93391 235.78281 233.65271 231.52961 229.56551 227.73242
 226.02532 224.50722 223.14712 221.92902 220.82092 219.79082 218.90472 218.05563
 217.30753 216.49743 215.60533 214.97923 214.43913 214.66377 215.16873 214.80411
 213.71297 212.18950 211.51958 212.58119 215.88007 220.38905 225.58319 229.99748
 233.65614 237.73834 242.05159 246.39655 250.52124 254.33954 257.85956 261.07999
 264.02777 266.79144 269.52429 272.23138 274.57385 276.13516 276.91064 277.37827
 277.97028 278.90024 279.97815 280.98358 282.00403 283.05301 284.09924 285.06738
 285.93811 286.71350 287.39087 288.25409
 366.78100 356.34428 345.78556 334.66084 323.07312 311.27640 299.15568 286.96796
 274.68924 262.59553 250.61381 239.92409 230.05537 221.16865 213.35993 206.37121
 200.21449 195.16177 191.75305 189.80433 188.85061 188.92389 189.76817 191.08545
 192.81973 194.92401 197.19630 199.56458 202.01886 204.50814 206.60542 208.45670
 210.09198 211.24626 211.48454 211.72182 211.66810 211.38238 211.02466 210.66394
 210.29022 210.00950 209.82679 209.70007 209.63735 209.97763 210.37291 210.77119
 211.57347 212.76075 214.02003 215.81231 217.74959 219.80187 221.90615 223.99843
 226.06771 228.16099 230.26727 232.38256 234.52084 236.70212 238.96740 241.34668
 243.97696 246.23724 248.24852 250.02280 251.44908 252.58136 253.41264 253.73792
 253.78420 253.56748 252.93676 251.89404 250.50933 248.67961 246.59789 244.44017
 242.24045 240.05373 237.88301 235.73129 233.60057 231.47685 229.51213 227.67841
 225.97069 224.45197 223.09125 221.87253 220.76382 219.73310 218.84638 217.99666
 217.24794 216.43722 215.54450 214.91778 214.37706 214.64450 215.21364 214.72536
 213.81117 212.35315 211.62495 212.62376 215.88094 220.31088 225.50157 229.97496
 233.63930 237.71233 242.04123 246.38278 250.47389 254.27478 257.83191 261.12180
 264.10254 266.88675 269.61539 272.24527 274.46545 276.02310 276.78278 277.31900
 278.08469 279.15436 280.38934 281.69513 282.90555 284.04727 285.08890 286.03256
 286.88129 287.63708 288.29730 289.13870
 366.78100 356.34333 345.78366 334.65798 323.06931 311.27164 299.14997 286.96130
 274.68163 262.58695 250.60428 239.91361 230.04394 221.15627 213.34659 206.35692
 200.19925 195.14558 191.73591 189.78623 188.83156 188.90389 189.74722 191.06355
 192.79688 194.90020 197.17153 199.53886 201.99219 204.48052 206.57684 208.42717
 210.06150 211.21483 211.45216 211.68849 211.63381 211.34714 210.98847 210.62680
 210.25213 209.97045 209.78678 209.65911 209.59544 209.93477 210.32909 210.72642
 211.52775 212.71408 213.97241 215.76374 217.70006 219.75139 221.85472 223.94605
 226.01438 228.10670 230.21203 232.32636 234.46369 236.64402 238.90835 241.28667
 243.91600 246.17533 248.18566 249.95899 251.38431 252.51564 253.34597 253.67030
 253.71563 253.49795 252.86628 251.82261 250.43694 248.60627 246.52360 244.36492
 242.16425 239.97658 237.80491 235.65224 233.52056 231.39589 229.43022 227.59555
 225.88688 224.36720 223.00553 221.78586 220.67619 219.64452 218.75685 217.90617
 217.15650 216.34483 215.45116 214.82349 214.28181 214.57782 215.18842 214.64857
 213.83556 212.52946 211.63521 212.53423 215.84070 220.25865 225.44229 229.97705
 233.66396 237.70528 242.03760 246.41090 250.45583 254.23131 257.81274 261.17072
 264.19757 266.99475 269.70490 272.29199 274.53351 276.09354 276.90656 277.49387
 278.34113 279.49774 280.90656 282.31497 283.58218 284.70450 285.72845 286.65607
 287.49036 288.23331 288.88232 289.70944
 354.97500 345.04800 334.58700 324.11500 313.32600 302.53700 291.65000 280.76700
 269.93100 259.19300 248.62200 238.61700 229.08700 220.35500 212.54000 205.53500
 199.46400 194.49300 191.14300 189.19000 188.08900 188.01400 188.72400 189.90600
 191.46900 193.38200 195.40300 197.55600 199.80700 202.06000 204.28800 206.47900
 208.55200 210.37800 212.02500 213.65900 214.99800 216.11800 217.17200 218.25900
 219.49400 220.64500 221.67900 222.61400 223.54500 224.98200 226.57100 228.19000
 229.79700 231.81100 233.86500 235.97200 238.24200 240.55300 242.89900 245.25300
 247.48800 249.53500 251.36600 252.84800 254.09800 255.16700 256.02700 256.25300
 256.09500 255.54300 253.93500 252.56600 251.38400 250.24500 249.05200 247.70100
 246.01600 243.99600 241.78400 239.39300 236.81300 234.22300 231.65800 229.14400
 226.74000 224.47300 222.33500 220.32500 218.44000 216.67700 214.96200 213.47200
 212.20000 211.10800 210.26000 209.63900 209.24400 209.03100 209.05800 209.33300
 209.78400 210.62600 211.33100 212.39100 213.62500 214.84668 217.72949 219.47640
 220.32566 220.86828 220.88710 220.27371 219.43733 218.84250 219.04934 220.86203
 222.60583 225.72206 229.03064 232.61777 236.12270 239.51333 242.70767 245.68587
 248.41061 250.90679 253.19353 254.91714 256.48655 257.94920 259.39966 260.69384
 261.81714 262.77997 263.71679 264.54570 265.26305 265.89772 266.47676 267.00133
 267.47312 267.89325 268.26027 268.72800
