|-------------------------------------------------------------------------|
|   File Name : in_temp.dat
|   Subject   : temperature profiles used for initial guess atmosphere
|   File Type : input of gmtr
|   Data Type : atmospherical data
|   Author/s  : WRF-Chem
|   Date      : Fri Jul 26 15:39:24 2024
|-------------------------------------------------------------------------|

 WRF-Chem temperature
#
 values of T (K)    (8f10.5)
#
 354.97500 345.04800 334.58700 324.11500 313.32600 302.53700 291.65000 280.76700
 269.93100 259.19300 248.62200 238.61700 229.08700 220.35500 212.54000 205.53500
 199.46400 194.49300 191.14300 189.19000 188.08900 188.01400 188.72400 189.90600
 191.46900 193.38200 195.40300 197.55600 199.80700 202.06000 204.28800 206.47900
 208.55200 210.37800 212.02500 213.65900 214.99800 216.11800 217.17200 218.25900
 219.49400 220.64500 221.67900 222.61400 223.54500 224.98200 226.57100 228.19000
 229.79700 231.81100 233.86500 235.97200 238.24200 240.55300 242.89900 245.25300
 247.48800 249.53500 251.36600 252.84800 254.09800 255.16700 256.02700 256.25300
 256.09500 255.54300 253.93500 252.56600 251.38400 250.24500 249.05200 247.70100
 246.01600 243.99600 241.78400 239.39300 236.81300 234.22300 231.65800 229.14400
 226.74000 224.47300 222.33500 220.32500 218.44000 216.67700 214.96200 213.47200
 212.20000 211.10800 210.26000 209.63900 209.24400 209.03100 209.05800 209.33300
 209.78400 210.62600 211.33100 212.39100 213.62500 214.84668 217.72949 219.47640
 220.32566 220.86828 220.88710 220.27371 219.43733 218.84250 219.04934 220.86203
 222.60583 225.72206 229.03064 232.61777 236.12270 239.51333 242.70767 245.68587
 248.41061 250.90679 253.19353 254.91714 256.48655 257.94920 259.39966 260.69384
 261.81714 262.77997 263.71679 264.54570 265.26305 265.89772 266.47676 267.00133
 267.47312 267.89325 268.26027 268.72800
 366.78100 356.33500 345.76700 334.63300 323.03600 311.23000 299.10000 286.90300
 274.61500 262.51200 250.52100 239.82200 229.94400 221.04800 213.23000 206.23200
 200.06600 195.00400 191.58600 189.62800 188.66500 188.72900 189.56400 190.87200
 192.59700 194.69200 196.95500 199.31400 201.75900 204.23900 206.32700 208.16900
 209.79500 210.94000 211.16900 211.39700 211.33400 211.03900 210.67200 210.30200
 209.91900 209.62900 209.43700 209.30100 209.22900 209.56000 209.94600 210.33500
 211.12800 212.30600 213.55600 215.33900 217.26700 219.31000 221.40500 223.48800
 225.54800 227.63200 229.72900 231.83500 233.96400 236.13600 238.39200 240.76200
 243.38300 245.63400 247.63600 249.40100 250.81800 251.94100 252.76300 253.07900
 253.11600 252.89000 252.25000 251.19800 249.80400 247.96500 245.87400 243.70700
 241.49800 239.30200 237.12200 234.96100 232.82100 230.68800 228.71400 226.87100
 225.15400 223.62600 222.25600 221.02800 219.91000 218.87000 217.97400 217.11500
 216.35700 215.53700 214.63500 213.99900 213.44900 212.85855 212.01316 212.61654
 214.26826 216.08686 218.14273 220.53346 223.40855 226.78828 231.49734 235.90155
 239.42278 243.28576 247.23140 251.11907 254.80144 258.23331 261.38913 264.27520
 266.89312 269.26852 271.44504 273.08845 274.58484 275.98591 277.39845 278.65879
 279.75272 280.69038 281.56708 282.34086 283.01050 283.60295 284.14348 284.63317
 285.07358 285.46577 285.80838 286.24500
 381.81900 372.39900 361.20600 349.77600 337.62200 324.85300 311.81000 298.35300
 284.86000 271.32400 258.56100 246.30400 236.08700 226.79600 218.44800 211.29000
 205.52200 200.89400 197.38100 194.84800 193.01500 192.31500 192.25000 192.43100
 192.91200 193.53700 194.13600 194.71200 195.26200 195.83100 196.39300 196.97600
 197.60400 198.14900 198.58400 199.05700 199.69500 200.37800 201.05400 201.70800
 202.31300 202.85700 203.35500 203.86200 204.56900 205.29700 206.02600 206.98700
 208.19300 209.44100 210.96900 212.57600 214.46200 216.51300 218.63000 220.85300
 223.34100 225.96200 228.73900 231.69700 234.70600 237.70600 240.69200 243.65700
 246.73700 249.69900 252.52100 255.06300 257.29000 259.23300 260.63300 261.68000
 262.46100 262.79800 262.69100 262.22400 261.06900 259.52500 257.70700 255.50700
 253.00100 250.30200 247.39800 244.45200 241.65400 239.05400 236.73300 234.59000
 232.59500 230.72500 228.83400 226.82600 224.66600 222.38700 220.10400 217.71500
 215.45900 213.06600 210.54600 208.09300 205.35400 202.08130 196.05959 200.71215
 209.01611 216.90438 223.84126 229.78593 235.00632 240.20838 245.98943 250.68668
 254.32982 257.93487 261.55666 264.96801 268.15192 271.06452 273.76717 276.25691
 278.57680 280.74479 282.77456 284.60533 286.27232 287.81705 289.31715 290.65561
 291.81734 292.81312 293.70701 294.49387 295.17482 295.77730 296.32696 296.82492
 297.27278 297.67160 298.02000 298.46400
 399.33000 389.90700 379.81300 368.66800 357.52200 345.30100 333.07400 320.22700
 307.21600 293.84800 280.37600 267.29600 254.61000 242.98700 232.15100 221.97700
 212.67200 204.28600 197.66900 192.82100 189.48600 187.45200 186.81400 187.08900
 187.78100 189.05400 190.64800 192.54200 194.63000 196.75200 198.67100 200.15800
 201.53500 202.48700 202.97500 203.34000 203.53900 203.49700 203.38500 203.24700
 203.00500 202.78600 202.60300 202.43700 202.42600 202.88800 203.42000 203.95100
 204.89500 205.99200 207.30100 208.95800 210.73800 213.10000 215.56400 218.18000
 220.96600 223.91800 226.96100 230.09200 233.29300 236.55700 239.95500 243.53700
 246.84500 249.39000 251.54200 253.47400 255.19500 256.48400 257.43100 258.05900
 258.21200 258.04000 257.58200 256.64300 255.23900 253.50700 251.40800 249.05600
 246.57600 243.99400 241.38900 238.83000 236.34400 233.98600 231.96900 230.11800
 228.42300 226.89900 225.54800 224.29700 223.10500 221.96500 220.95800 220.11300
 219.49000 218.92000 218.32500 217.88100 217.42300 216.96366 216.35568 216.80261
 217.73415 218.28582 218.64258 219.10077 220.44626 222.53987 226.38451 230.35736
 233.59734 237.39164 241.29814 245.22796 248.98002 252.51130 255.78595 258.80109
 261.54781 264.05210 266.34239 268.04198 269.58951 271.01303 272.35754 273.55718
 274.59842 275.49092 276.28989 276.99307 277.60161 278.14001 278.63122 279.07623
 279.47646 279.83287 280.14422 280.54100
 399.73800 389.78500 379.66200 368.15100 356.64100 344.35000 331.79200 318.88800
 305.72600 292.49300 279.20900 266.73800 254.69600 244.21100 234.45700 225.43300
 217.56900 210.45100 204.30000 199.30600 195.45800 192.57600 191.02700 190.38600
 190.23900 190.53400 191.16600 191.92500 192.79500 193.76600 194.73200 195.31200
 195.80000 196.05200 196.11500 196.11500 196.03900 195.72300 195.34000 194.98900
 194.75100 194.79200 195.13300 195.59800 196.50600 198.13600 199.85800 201.56600
 204.17900 206.82300 209.89300 213.28400 216.82800 220.60500 224.38700 228.20900
 232.03200 235.82500 239.56000 243.25800 246.84500 250.20100 253.70900 257.46800
 261.53000 264.22100 266.60100 268.68100 270.32900 271.74100 272.83600 273.47400
 273.89800 274.00200 273.75700 273.28800 272.37100 271.10000 269.58900 267.77900
 265.81600 263.72100 261.39300 258.91600 256.29800 253.42300 250.33100 247.11400
 243.83700 240.52900 237.24900 233.99900 230.72800 227.51500 224.25400 220.95200
 217.62700 213.65600 210.12100 206.78900 204.01000 201.99491 199.07309 198.76551
 199.40006 200.48994 201.46112 202.31912 203.45100 204.96110 207.47502 210.85391
 213.70530 217.29629 220.99574 224.72316 228.28753 231.64854 234.68024 237.40893
 239.70644 241.60899 243.46854 245.67368 247.68154 249.52395 251.24767 252.78566
 254.12057 255.26479 256.23740 257.09036 257.82852 258.48160 259.07744 259.61723
 260.10271 260.53504 260.91270 261.39400
 399.73800 389.78500 379.66200 368.15100 356.64100 344.35000 331.79200 318.88800
 305.72600 292.49300 279.20900 266.73800 254.69600 244.21100 234.45700 225.43300
 217.56900 210.45100 204.30000 199.30600 195.45800 192.57600 191.02700 190.38600
 190.23900 190.53400 191.16600 191.92500 192.79500 193.76600 194.73200 195.31200
 195.80000 196.05200 196.11500 196.11500 196.03900 195.72300 195.34000 194.98900
 194.75100 194.79200 195.13300 195.59800 196.50600 198.13600 199.85800 201.56600
 204.17900 206.82300 209.89300 213.28400 216.82800 220.60500 224.38700 228.20900
 232.03200 235.82500 239.56000 243.25800 246.84500 250.20100 253.70900 257.46800
 261.53000 264.22100 266.60100 268.68100 270.32900 271.74100 272.83600 273.47400
 273.89800 274.00200 273.75700 273.28800 272.37100 271.10000 269.58900 267.77900
 265.81600 263.72100 261.39300 258.91600 256.29800 253.42300 250.33100 247.11400
 243.83700 240.52900 237.24900 233.99900 230.72800 227.51500 224.25400 220.95200
 217.62700 213.65600 210.12100 206.78900 204.01000 201.99491 199.07309 198.76551
 199.40006 200.48994 201.46112 202.31912 203.45100 204.96110 207.47502 210.85391
 213.70530 217.29629 220.99574 224.72316 228.28753 231.64854 234.68024 237.40893
 239.70644 241.60899 243.46854 245.67368 247.68154 249.52395 251.24767 252.78566
 254.12057 255.26479 256.23740 257.09036 257.82852 258.48160 259.07744 259.61723
 260.10271 260.53504 260.91270 261.39400
 399.33000 389.90700 379.81300 368.66800 357.52200 345.30100 333.07400 320.22700
 307.21600 293.84800 280.37600 267.29600 254.61000 242.98700 232.15100 221.97700
 212.67200 204.28600 197.66900 192.82100 189.48600 187.45200 186.81400 187.08900
 187.78100 189.05400 190.64800 192.54200 194.63000 196.75200 198.67100 200.15800
 201.53500 202.48700 202.97500 203.34000 203.53900 203.49700 203.38500 203.24700
 203.00500 202.78600 202.60300 202.43700 202.42600 202.88800 203.42000 203.95100
 204.89500 205.99200 207.30100 208.95800 210.73800 213.10000 215.56400 218.18000
 220.96600 223.91800 226.96100 230.09200 233.29300 236.55700 239.95500 243.53700
 246.84500 249.39000 251.54200 253.47400 255.19500 256.48400 257.43100 258.05900
 258.21200 258.04000 257.58200 256.64300 255.23900 253.50700 251.40800 249.05600
 246.57600 243.99400 241.38900 238.83000 236.34400 233.98600 231.96900 230.11800
 228.42300 226.89900 225.54800 224.29700 223.10500 221.96500 220.95800 220.11300
 219.49000 218.92000 218.32500 217.88100 217.42300 216.96366 216.35568 216.80261
 217.73415 218.28582 218.64258 219.10077 220.44626 222.53987 226.38451 230.35736
 233.59734 237.39164 241.29814 245.22796 248.98002 252.51130 255.78595 258.80109
 261.54781 264.05210 266.34239 268.04198 269.58951 271.01303 272.35754 273.55718
 274.59842 275.49092 276.28989 276.99307 277.60161 278.14001 278.63122 279.07623
 279.47646 279.83287 280.14422 280.54100
 381.81900 372.39900 361.20600 349.77600 337.62200 324.85300 311.81000 298.35300
 284.86000 271.32400 258.56100 246.30400 236.08700 226.79600 218.44800 211.29000
 205.52200 200.89400 197.38100 194.84800 193.01500 192.31500 192.25000 192.43100
 192.91200 193.53700 194.13600 194.71200 195.26200 195.83100 196.39300 196.97600
 197.60400 198.14900 198.58400 199.05700 199.69500 200.37800 201.05400 201.70800
 202.31300 202.85700 203.35500 203.86200 204.56900 205.29700 206.02600 206.98700
 208.19300 209.44100 210.96900 212.57600 214.46200 216.51300 218.63000 220.85300
 223.34100 225.96200 228.73900 231.69700 234.70600 237.70600 240.69200 243.65700
 246.73700 249.69900 252.52100 255.06300 257.29000 259.23300 260.63300 261.68000
 262.46100 262.79800 262.69100 262.22400 261.06900 259.52500 257.70700 255.50700
 253.00100 250.30200 247.39800 244.45200 241.65400 239.05400 236.73300 234.59000
 232.59500 230.72500 228.83400 226.82600 224.66600 222.38700 220.10400 217.71500
 215.45900 213.06600 210.54600 208.09300 205.35400 202.08130 196.05959 200.71215
 209.01611 216.90438 223.84126 229.78593 235.00632 240.20838 245.98943 250.68668
 254.32982 257.93487 261.55666 264.96801 268.15192 271.06452 273.76717 276.25691
 278.57680 280.74479 282.77456 284.60533 286.27232 287.81705 289.31715 290.65561
 291.81734 292.81312 293.70701 294.49387 295.17482 295.77730 296.32696 296.82492
 297.27278 297.67160 298.02000 298.46400
 366.78100 356.32619 345.74938 334.60656 323.00075 311.18594 299.04713 286.84132
 274.54450 262.43269 250.43288 239.72507 229.83826 220.93345 213.10663 206.09982
 199.92501 194.85420 191.42739 189.46057 188.48876 188.54395 189.37014 190.66933
 192.38551 194.47170 196.72589 199.07608 201.51227 203.98345 206.06264 207.89583
 209.51302 210.64921 210.86940 211.08858 211.01677 210.71296 210.33715 209.95834
 209.56652 209.26771 209.06690 208.92209 208.84128 209.16346 209.54065 209.92084
 210.70503 211.87422 213.11541 214.88959 216.80878 218.84297 220.92916 223.00335
 225.05453 227.12972 229.21791 231.31510 233.43529 235.59847 237.84566 240.20685
 242.81904 245.06123 247.05441 248.81060 250.21879 251.33298 252.14617 252.45336
 252.48154 252.24673 251.59792 250.53711 249.13430 247.28648 245.18667 243.01086
 240.79305 238.58824 236.39942 234.22961 232.08080 229.93899 227.95618 226.10436
 224.37855 222.84174 221.46293 220.22612 219.09931 218.05049 217.14568 216.27787
 215.51106 214.68225 213.77143 213.12662 212.56781 212.47874 212.28050 213.54906
 215.22400 217.16866 218.21584 218.29503 219.50963 222.99826 228.32640 233.00485
 236.77592 240.55396 244.23811 247.78174 251.13547 253.90082 256.29599 258.87500
 262.04144 264.77255 266.84271 268.67114 270.56464 272.54510 274.29803 275.86469
 277.32306 278.82294 280.34558 281.71060 282.89691 283.94949 284.91574 285.79703
 286.59592 287.31357 287.94556 288.78723
 366.78100 356.32603 345.74906 334.60609 323.00012 311.18515 299.04619 286.84022
 274.54325 262.43128 250.43131 239.72334 229.83637 220.93140 213.10443 206.09746
 199.92249 194.85153 191.42456 189.45759 188.48562 188.54065 189.36668 190.66571
 192.38174 194.46777 196.72180 199.07184 201.50787 203.97890 206.05793 207.89096
 209.50799 210.64402 210.86405 211.08308 211.01111 210.70714 210.33118 209.95221
 209.56024 209.26127 209.06030 208.91533 208.83436 209.15639 209.53342 209.91345
 210.69748 211.86652 213.10755 214.88158 216.80061 218.83464 220.92067 222.99470
 225.04573 227.12076 229.20879 231.30583 233.42586 235.58889 237.83592 240.19695
 242.80898 245.05101 247.04404 248.80007 250.20810 251.32213 252.13517 252.44220
 252.47023 252.23526 251.58629 250.52532 249.12235 247.27438 245.17441 242.99844
 240.78047 238.57551 236.38654 234.21657 232.06760 229.92563 227.94266 226.09069
 224.36472 222.82775 221.44878 220.21182 219.08485 218.03588 217.13091 216.26294
 215.49597 214.66700 213.75603 213.11106 212.55209 212.49881 212.38356 213.67366
 215.32397 217.21629 218.31963 218.46202 219.64143 223.02773 228.27039 232.88258
 236.62869 240.40858 244.10751 247.64914 250.95038 253.66689 256.08804 258.74896
 261.89078 264.58447 266.65723 268.51474 270.42642 272.40735 274.15204 275.72079
 277.20349 278.74304 280.27039 281.63745 282.82266 283.87674 284.84387 285.72461
 286.52402 287.24167 287.87354 288.71786
 366.78100 356.32602 345.74904 334.60605 323.00007 311.18509 299.04611 286.84012
 274.54314 262.43116 250.43118 239.72319 229.83621 220.93123 213.10425 206.09726
 199.92228 194.85130 191.42432 189.45733 188.48535 188.54037 189.36639 190.66540
 192.38142 194.46744 196.72146 199.07147 201.50749 203.97851 206.05753 207.89054
 209.50756 210.64358 210.86360 211.08261 211.01063 210.70665 210.33067 209.95168
 209.55970 209.26072 209.05974 208.91475 208.83377 209.15579 209.53281 209.91282
 210.69684 211.86586 213.10688 214.88089 216.79991 218.83393 220.91995 222.99396
 225.04498 227.12000 229.20802 231.30503 233.42505 235.58807 237.83509 240.19610
 242.80812 245.05014 247.04316 248.79917 250.20719 251.32121 252.13423 252.44124
 252.46926 252.23428 251.58530 250.52431 249.12133 247.27335 245.17337 242.99738
 240.77940 238.57442 236.38544 234.21545 232.06647 229.92449 227.94151 226.08952
 224.36354 222.82656 221.44758 220.21059 219.08361 218.03463 217.12965 216.26166
 215.49468 214.66570 213.75472 213.10973 212.55075 212.52740 212.48169 213.81264
 215.40695 217.25015 218.42966 218.63853 219.78923 223.07082 228.21857 232.76306
 236.47221 240.25238 243.96965 247.50491 250.75348 253.42813 255.88043 258.62064
 261.73685 264.39331 266.46964 268.35840 270.29221 272.27652 274.01315 275.58542
 277.09250 278.66519 280.19800 281.56561 282.75226 283.80585 284.77286 285.65457
 286.45398 287.17184 287.80576 288.64865
 366.78100 356.32600 345.74899 334.60599 322.99999 311.18498 299.04598 286.83998
 274.54298 262.43097 250.43097 239.72297 229.83596 220.93096 213.10396 206.09695
 199.92195 194.85095 191.42394 189.45694 188.48494 188.53994 189.36593 190.66493
 192.38093 194.46692 196.72092 199.07092 201.50691 203.97791 206.05691 207.88990
 209.50690 210.64290 210.86289 211.08189 211.00989 210.70589 210.32988 209.95088
 209.55888 209.25987 209.05887 208.91387 208.83286 209.15486 209.53186 209.91185
 210.69585 211.86485 213.10585 214.87984 216.79884 218.83284 220.91883 222.99283
 225.04383 227.11882 229.20682 231.30382 233.42381 235.58681 237.83381 240.19481
 242.80680 245.04880 247.04180 248.79779 250.20579 251.31979 252.13278 252.43978
 252.46778 252.23277 251.58377 250.52277 249.11977 247.27176 245.17176 242.99576
 240.77775 238.57275 236.38375 234.21374 232.06474 229.92274 227.93973 226.08773
 224.36173 222.82472 221.44572 220.20872 219.08172 218.03271 217.12771 216.25971
 215.49270 214.66370 213.75270 213.10769 212.54869 212.55727 212.58580 213.95367
 215.47194 217.28654 218.53526 218.82800 219.95901 223.12347 228.16721 232.64420
 236.31499 240.09503 243.82318 247.34280 250.54173 253.18561 255.67352 258.48962
 261.57962 264.19995 266.27753 268.19894 270.15854 272.15042 273.88239 275.45816
 276.99054 278.59125 280.12689 281.49594 282.68240 283.73660 284.70380 285.58517
 286.38535 287.10355 287.73782 288.58191
 366.78100 356.32598 345.74895 334.60593 322.99991 311.18488 299.04586 286.83984
 274.54281 262.43079 250.43077 239.72274 229.83572 220.93070 213.10367 206.09665
 199.92163 194.85061 191.42358 189.45656 188.48454 188.53951 189.36549 190.66447
 192.38044 194.46642 196.72040 199.07037 201.50635 203.97733 206.05630 207.88928
 209.50626 210.64223 210.86221 211.08119 211.00916 210.70514 210.32912 209.95009
 209.55807 209.25905 209.05802 208.91300 208.83198 209.15395 209.53093 209.91091
 210.69488 211.86386 213.10484 214.87882 216.79779 218.83177 220.91775 222.99172
 225.04270 227.11768 229.20565 231.30263 233.42261 235.58558 237.83256 240.19354
 242.80551 245.04749 247.04047 248.79644 250.20442 251.31840 252.13137 252.43835
 252.46633 252.23130 251.58228 250.52126 249.11823 247.27021 245.17019 242.99416
 240.77614 238.57112 236.38209 234.21207 232.06305 229.92103 227.93800 226.08598
 224.35996 222.82293 221.44391 220.20689 219.07986 218.03084 217.12582 216.25779
 215.49077 214.66175 213.75072 213.10570 212.54668 212.58885 212.69513 214.09052
 215.53256 217.32166 218.63983 219.02544 220.14716 223.18394 228.11974 232.52223
 236.16249 239.94086 243.66559 247.15994 250.31226 252.93716 255.46652 258.35376
 261.41708 264.00128 266.07956 268.03448 270.02646 272.02927 273.75937 275.33966
 276.86896 278.52756 280.06665 281.43250 282.61807 283.67102 284.63782 285.51828
 286.31717 287.03464 287.66797 288.51132
 366.78100 356.32601 345.74902 334.60602 323.00003 311.18504 299.04605 286.84006
 274.54306 262.43107 250.43108 239.72309 229.83610 220.93110 213.10411 206.09712
 199.92213 194.85114 191.42414 189.45715 188.48516 188.54017 189.36618 190.66519
 192.38119 194.46720 196.72121 199.07122 201.50723 203.97823 206.05724 207.89025
 209.50726 210.64327 210.86327 211.08228 211.01029 210.70630 210.33031 209.95131
 209.55932 209.26033 209.05934 208.91435 208.83335 209.15536 209.53237 209.91238
 210.69639 211.86539 213.10640 214.88041 216.79942 218.83343 220.91943 222.99344
 225.04445 227.11946 229.20747 231.30447 233.42448 235.58749 237.83450 240.19551
 242.80751 245.04952 247.04253 248.79854 250.20655 251.32056 252.13356 252.44057
 252.46858 252.23359 251.58460 250.52360 249.12061 247.27262 245.17263 242.99664
 240.77864 238.57365 236.38466 234.21467 232.06568 229.92368 227.94069 226.08870
 224.36271 222.82572 221.44672 220.20973 219.08274 218.03375 217.12876 216.26076
 215.49377 214.66478 213.75379 213.10880 212.54980 212.62460 212.80650 214.22237
 215.58688 217.35321 218.75021 219.22198 220.34520 223.25465 228.08043 232.40509
 236.01730 239.79170 243.50110 246.96056 250.06802 252.68178 255.25510 258.20850
 261.24719 263.79889 265.87827 267.86807 269.89523 271.91547 273.64984 275.23505
 276.75690 278.46002 280.00021 281.36569 282.54977 283.60263 284.56705 285.44867
 286.24741 286.96646 287.59821 288.44183
 366.78100 356.32613 345.74926 334.60639 323.00051 311.18564 299.04677 286.84090
 274.54403 262.43216 250.43228 239.72441 229.83754 220.93267 213.10580 206.09893
 199.92406 194.85318 191.42631 189.45944 188.48757 188.54270 189.36883 190.66795
 192.38408 194.47021 196.72434 199.07447 201.51060 203.98172 206.06085 207.89398
 209.51111 210.64724 210.86737 211.08650 211.01462 210.71075 210.33488 209.95601
 209.56414 209.26527 209.06439 208.91952 208.83865 209.16078 209.53791 209.91804
 210.70217 211.87129 213.11242 214.88655 216.80568 218.83981 220.92594 223.00006
 225.05119 227.12632 229.21445 231.31158 233.43171 235.59483 237.84196 240.20309
 242.81522 245.05735 247.05048 248.80661 250.21473 251.32886 252.14199 252.44912
 252.47725 252.24238 251.59350 250.53263 249.12976 247.28189 245.18202 243.00615
 240.78828 238.58340 236.39453 234.22466 232.07579 229.93392 227.95105 226.09917
 224.37330 222.83643 221.45756 220.22069 219.09382 218.04494 217.14007 216.27220
 215.50533 214.67646 213.76559 213.12072 212.56184 212.66615 212.91640 214.34784
 215.63887 217.38608 218.86517 219.41132 220.54819 223.33524 228.04915 232.30316
 235.88252 239.64793 243.33298 246.74785 249.80923 252.41708 255.03629 258.04944
 261.06735 263.59326 265.67947 267.70486 269.76938 271.80896 273.55228 275.14609
 276.67352 278.38226 279.92566 281.29150 282.47745 283.52933 284.49420 285.37573
 286.17450 286.89200 287.52545 288.36993
 366.78100 356.32634 345.74967 334.60701 323.00134 311.18668 299.04802 286.84235
 274.54569 262.43402 250.43436 239.72670 229.84003 220.93537 213.10871 206.10204
 199.92738 194.85671 191.43005 189.46339 188.49172 188.54706 189.37339 190.67273
 192.38907 194.47540 196.72974 199.08007 201.51641 203.98775 206.06708 207.90042
 209.51776 210.65409 210.87443 211.09376 211.02210 210.71844 210.34277 209.96411
 209.57244 209.27378 209.07312 208.92845 208.84779 209.17012 209.54746 209.92780
 210.71213 211.88147 213.12281 214.89714 216.81648 218.85081 220.93715 223.01149
 225.06282 227.13816 229.22649 231.32383 233.44417 235.60750 237.85484 240.21617
 242.82851 245.07085 247.06418 248.82052 250.22886 251.34319 252.15653 252.46386
 252.49220 252.25754 251.60887 250.54821 249.14554 247.29788 245.19822 243.02255
 240.80489 238.60022 236.41156 234.24190 232.09323 229.95157 227.96891 226.11724
 224.39158 222.85491 221.47625 220.23959 219.11292 218.06426 217.15959 216.29193
 215.52527 214.69660 213.78594 213.14127 212.58261 212.71320 213.02429 214.46417
 215.69241 217.42606 218.98213 219.59561 220.75211 223.42047 228.02264 232.21825
 235.75975 239.51118 243.16216 246.51984 249.53522 252.14610 254.81407 257.87860
 260.87808 263.38400 265.48590 267.54947 269.65027 271.70862 273.46310 275.06747
 276.59885 278.30750 279.85141 281.21622 282.40173 283.45453 284.41992 285.30115
 286.09937 286.81693 287.45157 288.29700
 366.78100 356.32665 345.75030 334.60795 323.00260 311.18825 299.04990 286.84455
 274.54819 262.43684 250.43749 239.73014 229.84379 220.93944 213.11309 206.10674
 199.93239 194.86204 191.43569 189.46934 188.49799 188.55364 189.38029 190.67994
 192.39658 194.48323 196.73788 199.08853 201.52518 203.99683 206.07648 207.91013
 209.52778 210.66443 210.88508 211.10473 211.03338 210.73003 210.35468 209.97633
 209.58497 209.28662 209.08627 208.94192 208.86157 209.18422 209.56187 209.94252
 210.72717 211.89682 213.13847 214.91312 216.83277 218.86742 220.95407 223.02872
 225.08036 227.15601 229.24466 231.34231 233.46296 235.62661 237.87426 240.23591
 242.84856 245.09121 247.08486 248.84151 250.25016 251.36481 252.17846 252.48611
 252.51475 252.28040 251.63205 250.57170 249.16935 247.32200 245.22265 243.04730
 240.82995 238.62560 236.43725 234.26790 232.11955 229.97820 227.99585 226.14450
 224.41914 222.88279 221.50444 220.26809 219.14174 218.09339 217.18904 216.32169
 215.55534 214.72699 213.81664 213.17229 212.61394 212.76642 213.12802 214.57082
 215.74910 217.47589 219.10272 219.77670 220.95206 223.50714 227.99706 232.14026
 235.64871 239.38199 242.99081 246.28011 249.24904 251.87030 254.58925 257.69904
 260.68314 263.17532 265.29654 267.39938 269.53735 271.61411 273.38376 274.99905
 276.52737 278.23514 279.77887 281.14328 282.32782 283.38184 284.34705 285.22781
 286.02670 286.74454 287.37891 288.22546
 366.78100 356.32700 345.75100 334.60900 323.00400 311.19000 299.05200 286.84700
 274.55100 262.44000 250.44100 239.73401 229.84801 220.94401 213.11801 206.11201
 199.93801 194.86801 191.44201 189.47601 188.50501 188.56101 189.38801 190.68801
 192.40501 194.49201 196.74701 199.09801 201.53501 204.00701 206.08701 207.92101
 209.53902 210.67602 210.89702 211.11702 211.04602 210.74302 210.36802 209.99002
 209.59902 209.30102 209.10102 208.95702 208.87702 209.20002 209.57802 209.95902
 210.74402 211.91402 213.15602 214.93102 216.85102 218.88603 220.97303 223.04803
 225.10003 227.17603 229.26503 231.36303 233.48403 235.64803 237.89603 240.25803
 242.87103 245.11403 247.10803 248.86503 250.27403 251.38903 252.20303 252.51103
 252.54003 252.30603 251.65804 250.59804 249.19604 247.34904 245.25004 243.07504
 240.85804 238.65404 236.46604 234.29704 232.14904 230.00804 228.02604 226.17504
 224.45004 222.91404 221.53604 220.30004 219.17404 218.12604 217.22204 216.35505
 215.58905 214.76105 213.85105 213.20705 212.64905 212.82178 213.23013 214.66823
 215.81026 217.53346 219.22765 219.95427 221.14729 223.59315 227.97191 232.06398
 235.54930 239.26308 242.81882 246.02861 248.95154 251.59216 254.36594 257.51596
 260.48383 262.96335 265.10846 267.25467 269.43286 271.52881 273.31567 274.94302
 276.46964 278.16174 279.70407 281.07056 282.25568 283.30978 284.27548 285.15594
 285.95499 286.67355 287.30807 288.15558
 366.78100 356.32743 345.75187 334.61030 323.00574 311.19217 299.05461 286.85004
 274.55448 262.44391 250.44535 239.73878 229.85322 220.94965 213.12409 206.11852
 199.94496 194.87539 191.44983 189.48426 188.51370 188.57013 189.39757 190.69800
 192.41544 194.50287 196.75831 199.10974 201.54718 204.01961 206.10005 207.93448
 209.55292 210.69035 210.91179 211.13222 211.06166 210.75909 210.38453 210.00696
 209.61640 209.31883 209.11927 208.97570 208.89614 209.21957 209.59801 209.97944
 210.76488 211.93531 213.17774 214.95318 216.87361 218.90905 220.99648 223.07192
 225.12435 227.20079 229.29022 231.38866 233.51009 235.67453 237.92296 240.28540
 242.89883 245.14227 247.13670 248.89414 250.30357 251.41901 252.23344 252.54188
 252.57131 252.33775 251.69018 250.63062 249.22905 247.38249 245.28392 243.10936
 240.89279 238.68923 236.50166 234.33310 232.18553 230.04497 228.06340 226.21284
 224.48827 222.95271 221.57514 220.33958 219.21401 218.16645 217.26288 216.39632
 215.63075 214.80318 213.89362 213.25005 212.69249 212.88069 213.32533 214.76915
 215.86406 217.59474 219.36319 220.13191 221.33057 223.67291 227.94083 231.98865
 235.45940 239.15697 242.65334 245.77817 248.65503 251.31621 254.14215 257.32529
 260.27371 262.74332 264.92255 267.11960 269.33777 271.45419 273.25891 274.89868
 276.42279 278.09454 279.63324 280.99789 282.18396 283.23776 284.20325 285.08447
 285.88339 286.60205 287.23795 288.08640
 366.78100 356.32771 345.75243 334.61114 323.00686 311.19357 299.05629 286.85200
 274.55672 262.44643 250.44815 239.74186 229.85658 220.95329 213.12801 206.12272
 199.94944 194.88015 191.45487 189.48958 188.51929 188.57601 189.40372 190.70444
 192.42215 194.50987 196.76558 199.11730 201.55501 204.02773 206.10844 207.94316
 209.56187 210.69959 210.92130 211.14202 211.07173 210.76945 210.39516 210.01787
 209.62759 209.33030 209.13102 208.98773 208.90845 209.23216 209.61088 209.99259
 210.77831 211.94902 213.19174 214.96745 216.88817 218.92388 221.01160 223.08731
 225.14003 227.21674 229.30646 231.40517 233.52688 235.69160 237.94031 240.30303
 242.91674 245.16046 247.15517 248.91289 250.32260 251.43832 252.25303 252.56175
 252.59146 252.35818 251.71089 250.65161 249.25032 247.40404 245.30575 243.13146
 240.91518 238.71189 236.52461 234.35632 232.20904 230.06875 228.08747 226.23718
 224.51290 222.97761 221.60033 220.36504 219.23976 218.19247 217.28919 216.42290
 215.65762 214.83033 213.92104 213.27776 212.72047 212.93083 213.42781 214.86716
 215.91795 217.64328 219.49187 220.29417 221.53099 223.75705 227.94171 231.94061
 235.38179 239.05824 242.48969 245.52228 248.34317 251.01895 253.89906 257.11734
 260.05411 262.52838 264.75354 267.00104 269.25714 271.39182 273.21460 274.86487
 276.40933 278.01691 279.55103 280.91910 282.10809 283.16379 284.13232 285.01459
 285.81549 286.53391 287.17212 288.02286
 366.78100 356.32810 345.75319 334.61229 323.00839 311.19548 299.05858 286.85468
 274.55977 262.44987 250.45197 239.74607 229.86116 220.95826 213.13336 206.12845
 199.95555 194.88665 191.46174 189.49684 188.52694 188.58403 189.41213 190.71323
 192.43132 194.51942 196.77552 199.12761 201.56571 204.03881 206.11990 207.95500
 209.57410 210.71220 210.93429 211.15539 211.08549 210.78358 210.40968 210.03278
 209.64287 209.34597 209.14707 209.00416 208.92526 209.24936 209.62845 210.01055
 210.79665 211.96774 213.21084 214.98694 216.90803 218.94413 221.03223 223.10833
 225.16142 227.23852 229.32862 231.42771 233.54981 235.71491 237.96400 240.32710
 242.94120 245.18529 247.18039 248.93849 250.34858 251.46468 252.27978 252.58887
 252.61897 252.38607 251.73916 250.68026 249.27936 247.43346 245.33555 243.16165
 240.94575 238.74284 236.55594 234.38804 232.24113 230.10123 228.12033 226.27042
 224.54652 223.01162 221.63471 220.39981 219.27491 218.22800 217.32510 216.45920
 215.69429 214.86739 213.95849 213.31559 212.75868 212.98521 213.52042 214.95711
 216.00964 217.65947 219.56960 220.57695 221.71490 223.90282 227.90829 231.84859
 235.29283 238.95663 242.31944 245.25191 248.01077 250.70699 253.65070 256.90915
 259.84433 262.32999 264.60080 266.89716 269.18695 271.33862 273.17792 274.83453
 276.33154 277.97098 279.49673 280.86108 282.04865 283.10336 284.06943 284.95111
 285.75143 286.46976 287.10999 287.95926
 366.78100 356.32856 345.75412 334.61368 323.01024 311.19780 299.06135 286.85791
 274.56347 262.45403 250.45659 239.75115 229.86671 220.96427 213.13983 206.13539
 199.96294 194.89450 191.47006 189.50562 188.53618 188.59374 189.42230 190.72386
 192.44242 194.53098 196.78753 199.14009 201.57865 204.05221 206.13377 207.96933
 209.58889 210.72745 210.95001 211.17157 211.10212 210.80068 210.42724 210.05080
 209.66136 209.36492 209.16648 209.02404 208.94560 209.27016 209.64971 210.03227
 210.81883 211.99039 213.23395 215.01051 216.93207 218.96863 221.05719 223.13375
 225.18730 227.26486 229.35542 231.45498 233.57754 235.74310 237.99266 240.35622
 242.97078 245.21534 247.21089 248.96945 250.38001 251.49657 252.31213 252.62169
 252.65225 252.41981 251.77337 250.71493 249.31448 247.46904 245.37160 243.19816
 240.98272 238.78028 236.59384 234.42640 232.27996 230.14052 228.16007 226.31063
 224.58719 223.05275 221.67631 220.44187 219.31743 218.27099 217.36855 216.50311
 215.73867 214.91222 214.00378 213.36134 212.80490 213.04221 213.60287 215.04646
 216.10196 217.71689 219.67096 220.81715 221.87376 224.00586 227.87488 231.78040
 235.22125 238.86189 242.14200 244.96046 247.66342 250.39572 253.41187 256.71146
 259.64645 262.14294 264.45975 266.80389 269.12640 271.29251 273.14822 274.81366
 276.34164 277.88895 279.41605 280.78510 281.97504 283.03381 284.00284 284.88608
 285.68756 286.41000 287.04755 287.90143
 366.78100 356.32899 345.75498 334.61498 323.01197 311.19996 299.06395 286.86095
 274.56694 262.45793 250.46092 239.75591 229.87191 220.96990 213.14589 206.14188
 199.96988 194.90187 191.47786 189.51385 188.54484 188.60284 189.43183 190.73382
 192.45281 194.54181 196.79880 199.15179 201.59078 204.06477 206.14677 207.98276
 209.60275 210.74174 210.96474 211.18673 211.11772 210.81671 210.44370 210.06770
 209.67869 209.38268 209.18467 209.04266 208.96466 209.28965 209.66964 210.05263
 210.83963 212.01162 213.25561 215.03260 216.95459 218.99159 221.08058 223.15757
 225.21156 227.28956 229.38055 231.48054 233.60353 235.76952 238.01952 240.38351
 242.99850 245.24349 247.23949 248.99848 250.40947 251.52646 252.34245 252.65245
 252.68344 252.45143 251.80542 250.74742 249.34741 247.50240 245.40539 243.23238
 241.01738 238.81537 236.62936 234.46235 232.31635 230.17734 228.19733 226.34832
 224.62531 223.09131 221.71530 220.48129 219.35728 218.31128 217.40927 216.54426
 215.78025 214.95424 214.04624 213.40423 212.84822 213.09634 213.68259 215.13208
 216.18587 217.81624 219.78159 221.02087 222.02756 224.08606 227.87155 231.74512
 235.15717 238.75099 241.93401 244.64500 247.31050 250.08946 253.18091 256.52063
 259.45786 261.96973 264.33191 266.72281 269.07556 271.25491 273.12363 274.79333
 276.30875 277.82980 279.35318 280.72256 281.91574 282.97443 283.94330 284.82840
 285.63000 286.35223 286.99176 287.85001
 366.78100 356.32933 345.75566 334.61599 323.01332 311.20165 299.06598 286.86332
 274.56965 262.46098 250.46431 239.75964 229.87597 220.97430 213.15063 206.14696
 199.97529 194.90762 191.48395 189.52029 188.55162 188.60995 189.43928 190.74161
 192.46094 194.55027 196.80760 199.16093 201.60026 204.07459 206.15692 207.99325
 209.61359 210.75292 210.97625 211.19858 211.12991 210.82924 210.45657 210.08090
 209.69223 209.39656 209.19889 209.05722 208.97956 209.30489 209.68522 210.06855
 210.85588 212.02821 213.27254 215.04987 216.97220 219.00953 221.09886 223.17619
 225.23052 227.30886 229.40019 231.50052 233.62385 235.79018 238.04051 240.40484
 243.02017 245.26550 247.26183 249.02116 250.43249 251.54983 252.36616 252.67649
 252.70782 252.47615 251.83048 250.77281 249.37314 247.52847 245.43180 243.25913
 241.04446 238.84279 236.65713 234.49046 232.34479 230.20612 228.22645 226.37778
 224.65511 223.12144 221.74577 220.51210 219.38843 218.34276 217.44110 216.57643
 215.81276 214.98709 214.07942 213.43775 212.88208 213.14421 213.76353 215.20882
 216.26884 217.94841 219.90352 221.19676 222.17720 224.16693 227.88727 231.70689
 235.07832 238.61067 241.69662 244.32153 246.96210 249.78854 252.95502 256.33374
 259.27750 261.81046 264.21954 266.65350 269.03168 271.22037 273.10114 274.77768
 276.27887 277.77716 279.29730 280.66714 281.85913 282.91907 283.88687 284.77148
 285.57443 286.29642 286.93954 287.79379
 366.78100 356.32966 345.75633 334.61699 323.01466 311.20332 299.06799 286.86565
 274.57232 262.46398 250.46765 239.76331 229.87998 220.97864 213.15531 206.15197
 199.98063 194.91330 191.48996 189.52663 188.55829 188.61696 189.44662 190.74929
 192.46895 194.55862 196.81628 199.16995 201.60961 204.08428 206.16694 208.00360
 209.62427 210.76393 210.98760 211.21026 211.14193 210.84159 210.46926 210.09392
 209.70559 209.41025 209.21292 209.07158 208.99425 209.31991 209.70057 210.08424
 210.87190 212.04457 213.28923 215.06690 216.98956 219.02723 221.11689 223.19456
 225.24922 227.32789 229.41955 231.52022 233.64388 235.81054 238.06121 240.42587
 243.04154 245.28720 247.28387 249.04353 250.45520 251.57286 252.38953 252.70019
 252.73186 252.50052 251.85519 250.79785 249.39851 247.55418 245.45784 243.28551
 241.07117 238.86984 236.68450 234.51817 232.37283 230.23450 228.25516 226.40683
 224.68449 223.15116 221.77582 220.54248 219.41915 218.37381 217.47248 216.60814
 215.84481 215.01947 214.11214 213.47080 212.91547 213.19029 213.83963 215.28146
 216.36880 218.09387 220.03635 221.34508 222.33189 224.25078 227.90323 231.65283
 234.98203 238.45050 241.44539 243.99774 246.61514 249.49222 252.73703 256.15494
 259.10950 261.66464 264.12000 266.59628 268.99725 271.19122 273.07843 274.75607
 276.24405 277.72934 279.24756 280.61703 281.81061 282.86914 283.83807 284.72369
 285.52557 286.24844 286.88919 287.74719
 366.78100 356.32994 345.75688 334.61782 323.01576 311.20470 299.06964 286.86758
 274.57452 262.46646 250.47040 239.76634 229.88328 220.98222 213.15915 206.15609
 199.98503 194.91797 191.49491 189.53185 188.56379 188.62273 189.45267 190.75561
 192.47555 194.56549 196.82343 199.17737 201.61731 204.09225 206.17519 208.01213
 209.63307 210.77301 210.99695 211.21989 211.15183 210.85177 210.47971 210.10465
 209.71659 209.42152 209.22446 209.08340 209.00634 209.33228 209.71322 210.09716
 210.88510 212.05804 213.30298 215.08092 217.00386 219.04180 221.13174 223.20968
 225.26462 227.34356 229.43550 231.53644 233.66038 235.82732 238.07826 240.44320
 243.05914 245.30508 247.30202 249.06195 250.47389 251.59183 252.40877 252.71971
 252.75165 252.52059 251.87553 250.81847 249.41941 247.57535 245.47929 243.30723
 241.09317 238.89211 236.70705 234.54099 232.39593 230.25787 228.27881 226.43075
 224.70869 223.17563 221.80057 220.56751 219.44445 218.39939 217.49832 216.63426
 215.87120 215.04614 214.13908 213.49802 212.94296 213.23126 213.91238 215.35110
 216.48723 218.24062 220.16592 221.48509 222.50452 224.33768 227.90854 231.59444
 234.87421 238.27277 241.18037 243.66539 246.26492 249.20168 252.52911 255.98820
 258.95761 261.53436 264.03262 266.54739 268.96878 271.16782 273.05826 274.73093
 276.20450 277.68610 279.20389 280.57333 281.76593 282.82507 283.79468 284.67880
 285.48145 286.20480 286.84540 287.70380
 366.78100 356.33000 345.75700 334.61800 323.01599 311.20499 299.06999 286.86799
 274.57499 262.46699 250.47098 239.76698 229.88398 220.98298 213.15998 206.15698
 199.98597 194.91897 191.49597 189.53297 188.56497 188.62397 189.45396 190.75696
 192.47696 194.56696 196.82496 199.17896 201.61895 204.09395 206.17695 208.01395
 209.63495 210.77495 210.99894 211.22194 211.15394 210.85394 210.48194 210.10694
 209.71893 209.42393 209.22693 209.08593 209.00893 209.33493 209.71593 210.09992
 210.88792 212.06092 213.30592 215.08392 217.00692 219.04491 221.13491 223.21291
 225.26791 227.34691 229.43891 231.53990 233.66390 235.83090 238.08190 240.44690
 243.06290 245.30889 247.30589 249.06589 250.47789 251.59589 252.41289 252.72388
 252.75588 252.52488 251.87988 250.82288 249.42388 247.57987 245.48387 243.31187
 241.09787 238.89687 236.71187 234.54586 232.40086 230.26286 228.28386 226.43586
 224.71386 223.18086 221.80585 220.57285 219.44985 218.40485 217.50385 216.63985
 215.87684 215.05184 214.14484 213.50384 212.94884 213.25920 213.99246 215.41733
 216.61069 218.39412 220.28812 221.62248 222.69368 224.43747 227.90277 231.53831
 234.76033 238.07133 240.88609 243.31619 245.91881 248.92242 252.33167 255.83220
 258.81961 261.41931 263.95779 266.50677 268.94534 271.14661 273.03574 274.70508
 276.17563 277.64706 279.16254 280.53210 281.72305 282.78397 283.75311 284.63586
 285.43839 286.16028 286.80380 287.66129
 366.78100 356.32990 345.75680 334.61769 323.01559 311.20449 299.06939 286.86728
 274.57418 262.46608 250.46998 239.76587 229.88277 220.98167 213.15857 206.15546
 199.98436 194.91726 191.49416 189.53106 188.56295 188.62185 189.45175 190.75465
 192.47454 194.56444 196.82234 199.17624 201.61613 204.09103 206.17393 208.01083
 209.63173 210.77162 210.99552 211.21842 211.15032 210.85021 210.47811 210.10301
 209.71491 209.41980 209.22270 209.08160 209.00450 209.33039 209.71129 210.09519
 210.88309 212.05599 213.30088 215.07878 217.00168 219.03958 221.12947 223.20737
 225.26227 227.34117 229.43306 231.53396 233.65786 235.82476 238.07566 240.44055
 243.05645 245.30235 247.29925 249.05914 250.47104 251.58894 252.40584 252.71673
 252.74863 252.51753 251.87243 250.81532 249.41622 247.57212 245.47602 243.30392
 241.08981 238.88871 236.70361 234.53751 232.39240 230.25430 228.27520 226.42710
 224.70499 223.17189 221.79679 220.56369 219.44059 218.39548 217.49438 216.63028
 215.86718 215.04207 214.13497 213.49387 212.93877 213.27693 214.07588 215.48668
 216.73315 218.54935 220.41052 221.74907 222.88364 224.56450 227.90166 231.48485
 234.63850 237.84033 240.55338 242.94893 245.58141 248.65875 252.14566 255.68936
 258.69302 261.31729 263.88882 266.46893 268.92258 271.12881 273.01993 274.69373
 276.16644 277.61023 279.12152 280.49017 281.68134 282.74066 283.70969 284.59308
 285.39603 286.11914 286.76254 287.62637
 366.78100 356.32972 345.75643 334.61715 323.01487 311.20358 299.06830 286.86602
 274.57273 262.46445 250.46817 239.76388 229.88060 220.97932 213.15603 206.15275
 199.98147 194.91418 191.49090 189.52762 188.55933 188.61805 189.44777 190.75048
 192.47020 194.55992 196.81763 199.17135 201.61107 204.08578 206.16850 208.00522
 209.62593 210.76565 210.98937 211.21208 211.14380 210.84352 210.47123 210.09595
 209.70767 209.41238 209.21510 209.07382 208.99653 209.32225 209.70297 210.08668
 210.87440 212.04712 213.29183 215.06955 216.99227 219.02998 221.11970 223.19742
 225.25213 227.33085 229.42257 231.52329 233.64700 235.81372 238.06444 240.42915
 243.04487 245.29059 247.28730 249.04702 250.45874 251.57645 252.39317 252.70389
 252.73560 252.50432 251.85904 250.80175 249.40247 247.55819 245.46190 243.28962
 241.07534 238.87405 236.68877 234.52249 232.37720 230.23892 228.25964 226.41135
 224.68907 223.15579 221.78050 220.54722 219.42394 218.37865 217.47737 216.61309
 215.84980 215.02452 214.11724 213.47595 212.92067 213.28848 214.15750 215.56488
 216.85591 218.69672 220.53534 221.86758 223.05949 224.71967 227.92409 231.43059
 234.50407 237.57942 240.18149 242.56245 245.24925 248.41095 251.97308 255.56004
 258.58411 261.23007 263.82736 266.42813 268.88971 271.09329 272.98254 274.66092
 276.13266 277.60083 279.11603 280.48730 281.68066 282.74127 283.71432 284.60403
 285.41769 286.15079 286.79767 287.66327
 366.78100 356.32944 345.75589 334.61633 323.01377 311.20221 299.06666 286.86410
 274.57054 262.46199 250.46543 239.76087 229.87731 220.97576 213.15220 206.14864
 199.97708 194.90953 191.48597 189.52241 188.55386 188.61230 189.44174 190.74418
 192.46363 194.55307 196.81051 199.16396 201.60340 204.07784 206.16028 207.99673
 209.61717 210.75661 210.98006 211.20250 211.13394 210.83338 210.46083 210.08527
 209.69671 209.40115 209.20360 209.06204 208.98448 209.30993 209.69037 210.07381
 210.86125 212.03370 213.27814 215.05558 216.97803 219.01547 221.10491 223.18235
 225.23680 227.31524 229.40668 231.50713 233.63057 235.79701 238.04745 240.41190
 243.02734 245.27278 247.26922 249.02867 250.44011 251.55755 252.37400 252.68444
 252.71588 252.48432 251.83877 250.78121 249.38165 247.53710 245.44054 243.26798
 241.05342 238.85187 236.66631 234.49975 232.35420 230.21564 228.23608 226.38752
 224.66497 223.13141 221.75585 220.52229 219.39874 218.35318 217.45162 216.58707
 215.82351 214.99795 214.09039 213.44884 212.89328 213.29260 214.23601 215.65417
 216.97737 218.83383 220.65732 221.98131 223.22510 224.89417 227.97552 231.38074
 234.35294 237.27832 239.77542 242.16573 244.92336 248.17491 251.81287 255.44243
 258.49167 261.15869 263.77560 266.39163 268.85864 271.05658 272.93884 274.60760
 276.05347 277.59491 279.12317 280.49368 281.68735 282.74902 283.72327 284.61298
 285.42758 286.16208 286.80930 287.67337
 366.78100 356.32906 345.75511 334.61517 323.01223 311.20028 299.06434 286.86140
 274.56746 262.45851 250.46157 239.75663 229.87268 220.97074 213.14680 206.14285
 199.97091 194.90297 191.47902 189.51508 188.54614 188.60420 189.43325 190.73531
 192.45437 194.54342 196.80048 199.15354 201.59259 204.06665 206.14871 207.98476
 209.60482 210.74388 210.96693 211.18899 211.12005 210.81911 210.44616 210.07022
 209.68128 209.38533 209.18739 209.04545 208.96750 209.29256 209.67262 210.05567
 210.84273 212.01479 213.25885 215.03590 216.95796 218.99502 221.08407 223.16113
 225.21519 227.29324 229.38430 231.48436 233.60741 235.77347 238.02353 240.38759
 243.00264 245.24770 247.24376 249.00281 250.41387 251.53093 252.34698 252.65704
 252.68810 252.45615 251.81021 250.75227 249.35232 247.50738 245.41044 243.23750
 241.02255 238.82061 236.63467 234.46772 232.32178 230.18284 228.20289 226.35395
 224.63101 223.09706 221.72112 220.48718 219.36324 218.31729 217.41535 216.55041
 215.78646 214.96052 214.05258 213.41063 212.85469 213.28839 214.31306 215.75430
 217.10068 218.96266 220.76888 222.09067 223.38446 225.08086 228.04918 231.33839
 234.18727 236.94627 239.34117 241.76108 244.60620 247.95526 251.66745 255.33545
 258.40897 261.09637 263.72879 266.35971 268.82996 271.02173 272.89148 274.54599
 275.99036 277.58768 279.12234 280.49084 281.68271 282.74411 283.71677 284.60706
 285.42133 286.15436 286.80338 287.66309
 366.78100 356.32859 345.75419 334.61378 323.01038 311.19797 299.06156 286.85816
 274.56375 262.45435 250.45694 239.75153 229.86713 220.96472 213.14032 206.13591
 199.96350 194.89510 191.47069 189.50629 188.53688 188.59447 189.42307 190.72466
 192.44325 194.53185 196.78844 199.14104 201.57963 204.05322 206.13482 207.97041
 209.59001 210.72860 210.95119 211.17279 211.10338 210.80198 210.42857 210.05216
 209.66276 209.36635 209.16795 209.02554 208.94713 209.27173 209.65132 210.03392
 210.82051 211.99210 213.23570 215.01229 216.93389 218.97048 221.05907 223.13567
 225.18926 227.26686 229.35745 231.45704 233.57964 235.74523 237.99483 240.35842
 242.97301 245.21761 247.21320 248.97179 250.38239 251.49898 252.31458 252.62417
 252.65476 252.42236 251.77595 250.71755 249.31714 247.47173 245.37433 243.20092
 240.98552 238.78311 236.59670 234.42930 232.28289 230.14349 228.16308 226.31367
 224.59027 223.05586 221.67946 220.44505 219.32064 218.27424 217.37183 216.50643
 215.74202 214.91561 214.00721 213.36480 212.80840 213.27794 214.38727 215.87161
 217.22424 219.07437 220.87288 222.19357 223.53928 225.27219 228.14461 231.30647
 234.01862 236.58780 238.87567 241.34683 244.30580 247.75894 251.53494 255.23476
 258.33566 261.04150 263.68607 266.33014 268.80322 270.98630 272.84042 274.48071
 275.91724 277.59412 279.12592 280.48898 281.67792 282.73508 283.70746 284.59561
 285.41165 286.14517 286.79175 287.65286
 366.78100 356.32786 345.75272 334.61158 323.00743 311.19429 299.05715 286.85301
 274.55787 262.44773 250.44959 239.74344 229.85830 220.95516 213.13002 206.12488
 199.95174 194.88260 191.45746 189.49231 188.52217 188.57903 189.40689 190.70775
 192.42561 194.51347 196.76932 199.12118 201.55904 204.03190 206.11276 207.94762
 209.56648 210.70433 210.92619 211.14705 211.07691 210.77477 210.40063 210.02349
 209.63335 209.33620 209.13706 208.99392 208.91478 209.23864 209.61750 209.99936
 210.78521 211.95607 213.19893 214.97479 216.89565 218.93151 221.01937 223.09522
 225.14808 227.22494 229.31480 231.41366 233.53552 235.70038 237.94924 240.31209
 242.92595 245.16981 247.16467 248.92253 250.33239 251.44825 252.26310 252.57196
 252.60182 252.36868 251.72154 250.66240 249.26126 247.41511 245.31697 243.14283
 240.92669 238.72355 236.53641 234.36827 232.22113 230.08098 228.09984 226.24970
 224.52556 222.99042 221.61328 220.37814 219.25299 218.20585 217.30271 216.43657
 215.67143 214.84429 213.93515 213.29200 212.73486 213.25214 214.47423 215.98538
 217.35724 219.19501 220.94727 222.27187 223.70027 225.47653 228.23367 231.28322
 233.85242 236.21759 238.39832 240.94046 244.01816 247.57257 251.41121 255.14062
 258.26767 260.99280 263.64838 266.30035 268.77148 270.94501 272.79047 274.43045
 275.89777 277.58459 279.11191 280.47406 281.66180 282.71924 283.69055 284.58087
 285.39548 286.13184 286.77774 287.63757
 366.78100 356.32710 345.75119 334.60929 323.00438 311.19048 299.05258 286.84767
 274.55177 262.44086 250.44196 239.73506 229.84915 220.94525 213.11934 206.11344
 199.93954 194.86963 191.44373 189.47782 188.50692 188.56302 189.39011 190.69021
 192.40730 194.49440 196.74950 199.10059 201.53769 204.00978 206.08988 207.92398
 209.54207 210.67917 210.90026 211.12036 211.04946 210.74655 210.37165 209.99374
 209.60284 209.30494 209.10503 208.96113 208.88122 209.20432 209.58242 209.96351
 210.74861 211.91870 213.16080 214.93590 216.85599 218.89109 220.97818 223.05328
 225.10538 227.18147 229.27057 231.36866 233.48976 235.65386 237.90195 240.26405
 242.87714 245.12024 247.11434 248.87143 250.28053 251.39562 252.20972 252.51782
 252.54691 252.31301 251.66510 250.60520 249.20330 247.35639 245.25749 243.08258
 240.86568 238.66178 236.47387 234.30497 232.15706 230.01616 228.03426 226.18335
 224.45845 222.92254 221.54464 220.30874 219.18283 218.13493 217.23102 216.36412
 215.59822 214.77031 213.86041 213.21650 212.65860 213.22398 214.55974 216.09596
 217.50705 219.31607 221.02788 222.34029 223.81779 225.65157 228.36333 231.29669
 233.68616 235.82471 237.90515 240.52437 243.73891 247.40628 251.30402 255.05803
 258.21011 260.95261 263.61298 266.26990 268.73901 270.90396 272.74323 274.40045
 275.90613 277.53162 279.06427 280.42944 281.61707 282.67365 283.64188 284.52948
 285.33975 286.07184 286.69870 287.54694
 366.78100 356.32615 345.74929 334.60644 323.00059 311.18573 299.04688 286.84102
 274.54417 262.43232 250.43246 239.72461 229.83776 220.93290 213.10605 206.09919
 199.92434 194.85349 191.42663 189.45978 188.48793 188.54307 189.36922 190.66836
 192.38451 194.47066 196.72480 199.07495 201.51110 203.98224 206.06139 207.89454
 209.51168 210.64783 210.86797 211.08712 211.01527 210.71141 210.33556 209.95671
 209.56485 209.26600 209.06514 208.92029 208.83944 209.16158 209.53873 209.91888
 210.70302 211.87217 213.11331 214.88746 216.80661 218.84075 220.92690 223.00105
 225.05219 227.12734 229.21548 231.31263 233.43278 235.59592 237.84307 240.20422
 242.81636 245.05851 247.05166 248.80780 250.21595 251.33009 252.14324 252.45039
 252.47853 252.24368 251.59483 250.53397 249.13112 247.28326 245.18341 243.00756
 240.78970 238.58485 236.39600 234.22614 232.07729 229.93543 227.95258 226.10073
 224.37487 222.83802 221.45917 220.22231 219.09546 218.04661 217.14175 216.27390
 215.50704 214.67819 213.76734 213.12248 212.56363 213.18660 214.65842 216.20413
 217.64246 219.44553 221.13309 222.40831 223.89445 225.85791 228.42117 231.19568
 233.47473 235.44151 237.41273 240.11270 243.49466 247.28911 251.24197 255.02727
 258.22958 260.97873 263.60788 266.24130 268.68048 270.80029 272.58789 274.14688
 275.84714 277.58075 279.11343 280.47769 281.66373 282.71982 283.69000 284.57950
 285.39246 286.12030 286.75992 287.60818
 366.78100 356.32526 345.74752 334.60378 322.99704 311.18129 299.04155 286.83481
 274.53707 262.42433 250.42359 239.71485 229.82711 220.92137 213.09363 206.08588
 199.91014 194.83840 191.41066 189.44292 188.47018 188.52444 189.34970 190.64796
 192.36322 194.44847 196.70173 199.05099 201.48625 203.95651 206.03477 207.86703
 209.48329 210.61855 210.83781 211.05606 210.98332 210.67858 210.30184 209.92210
 209.52936 209.22962 209.02788 208.88214 208.80040 209.12165 209.49791 209.87717
 210.66043 211.82869 213.06895 214.84221 216.76047 218.79373 220.87899 222.95224
 225.00250 227.07676 229.16402 231.26028 233.37954 235.54180 237.78806 240.14832
 242.75958 245.00083 246.99309 248.74835 250.15561 251.26887 252.08113 252.38739
 252.41465 252.17891 251.52917 250.46742 249.06368 247.21494 245.11420 242.93746
 240.71872 238.51298 236.32324 234.15250 232.00276 229.86001 227.87627 226.02353
 224.29679 222.75905 221.37931 220.14157 219.01383 217.96409 217.05835 216.18960
 215.42186 214.59212 213.68038 213.03464 212.47490 213.15231 214.75844 216.31627
 217.71930 219.50920 221.18817 222.45044 224.00880 226.03017 228.37993 231.14781
 233.30008 235.08249 236.89629 239.68651 243.19241 247.14378 251.21523 255.08392
 258.28424 261.01593 263.62430 266.22925 268.64471 270.73727 272.52744 274.19025
 275.85553 277.44937 278.92020 280.26459 281.44437 282.49374 283.45767 284.34451
 285.15509 285.91681 286.58844 287.44434
 366.78100 356.32547 345.74795 334.60442 322.99790 311.18237 299.04284 286.83632
 274.53879 262.42626 250.42574 239.71721 229.82969 220.92416 213.09663 206.08911
 199.91358 194.84206 191.41453 189.44700 188.47448 188.52895 189.35442 190.65290
 192.36837 194.45385 196.70732 199.05679 201.49227 203.96274 206.04122 207.87369
 209.49016 210.62564 210.84511 211.06358 210.99106 210.68653 210.31001 209.93048
 209.53795 209.23843 209.03690 208.89137 208.80985 209.13132 209.50780 209.88727
 210.67074 211.83922 213.07969 214.85317 216.77164 218.80511 220.89059 222.96406
 225.01453 227.08901 229.17648 231.27296 233.39243 235.55490 237.80138 240.16185
 242.77333 245.01480 247.00727 248.76275 250.17022 251.28369 252.09617 252.40264
 252.43012 252.19459 251.54506 250.48354 249.08001 247.23149 245.13096 242.95443
 240.73591 238.53038 236.34085 234.17033 232.02080 229.87828 227.89475 226.04222
 224.31570 222.77817 221.39865 220.16112 219.03359 217.98407 217.07854 216.21001
 215.44249 214.61296 213.70144 213.05591 212.49638 213.17693 214.80171 216.40434
 217.85620 219.59142 221.22624 222.51971 224.09189 226.10744 228.29597 231.17024
 233.12903 234.69087 236.35168 239.28090 242.96437 247.06105 251.22887 255.08044
 258.32898 261.08231 263.68277 266.24600 268.62833 270.67636 272.44769 274.14908
 275.76868 277.32449 278.76593 280.09949 281.28116 282.34009 283.32312 284.25333
 285.12653 285.90411 286.58340 287.44910
 366.78100 356.32569 345.74838 334.60508 322.99877 311.18346 299.04415 286.83784
 274.54054 262.42823 250.42792 239.71961 229.83230 220.92699 213.09969 206.09238
 199.91707 194.84576 191.41845 189.45115 188.47884 188.53353 189.35922 190.65791
 192.37361 194.45930 196.71299 199.06268 201.49837 203.96906 206.04776 207.88045
 209.49714 210.63283 210.85252 211.07122 210.99891 210.69460 210.31829 209.93898
 209.54668 209.24737 209.04606 208.90075 208.81944 209.14113 209.51783 209.89752
 210.68121 211.84990 213.09059 214.86429 216.78298 218.81667 220.90236 222.97605
 225.02675 227.10144 229.18913 231.28582 233.40551 235.56820 237.81490 240.17559
 242.78728 245.02897 247.02166 248.77736 250.18505 251.29874 252.11143 252.41812
 252.44582 252.21051 251.56120 250.49989 249.09658 247.24828 245.14797 242.97166
 240.75335 238.54804 236.35873 234.18843 232.03912 229.89681 227.91350 226.06119
 224.33489 222.79758 221.41827 220.18096 219.05365 218.00435 217.09904 216.23073
 215.46342 214.63411 213.72280 213.07750 212.51819 213.20061 214.83789 216.48917
 217.94316 219.68843 221.33725 222.68098 224.22859 226.19437 228.38914 231.21411
 232.95117 234.31293 235.90778 238.93321 242.74794 246.95227 251.15741 255.00333
 258.27917 261.07040 263.68756 266.24838 268.62878 270.69507 272.38470 274.13663
 275.76028 277.28140 278.69998 280.04630 281.23346 282.30606 283.31659 284.30682
 285.19745 285.99057 286.68341 287.56635
 366.78100 356.32479 345.74657 334.60236 322.99515 311.17893 299.03872 286.83151
 274.53329 262.42008 250.41887 239.70965 229.82144 220.91523 213.08701 206.07880
 199.90259 194.83037 191.40216 189.43395 188.46073 188.51452 189.33931 190.63709
 192.35188 194.43667 196.68946 199.03824 201.47303 203.94282 206.02060 207.85239
 209.46818 210.60296 210.82175 211.03954 210.96632 210.66111 210.28390 209.90368
 209.51047 209.21026 209.00804 208.86183 208.77962 209.10040 209.47619 209.85498
 210.63776 211.80555 213.04534 214.81812 216.73591 218.76870 220.85348 222.92627
 224.97606 227.04984 229.13663 231.23242 233.35120 235.51299 237.75878 240.11856
 242.72935 244.97014 246.96192 248.71671 250.12350 251.23628 252.04807 252.35386
 252.38064 252.14443 251.49422 250.43201 249.02779 247.17858 245.07737 242.90015
 240.68094 238.47473 236.28451 234.11330 231.96309 229.81987 227.83566 225.98245
 224.25523 222.71702 221.33681 220.09859 218.97038 217.92017 217.01395 216.14474
 215.37653 214.54631 213.63410 212.98789 212.42767 213.16782 214.93553 216.60304
 217.97476 219.76195 221.48152 222.84769 224.39020 226.31633 228.54689 231.28453
 232.84775 233.96269 235.45071 238.55725 242.56277 246.85352 251.06754 254.90295
 258.22708 261.06335 263.69827 266.26025 268.65302 270.73947 272.37665 274.14682
 275.81058 277.33313 278.74261 280.08786 281.27264 282.33917 283.33743 284.31546
 285.20633 285.99966 286.69272 287.57593
 366.78100 356.32303 345.74306 334.59710 322.98813 311.17016 299.02819 286.81922
 274.51926 262.40429 250.40132 239.69035 229.80039 220.89242 213.06245 206.05248
 199.87451 194.80055 191.37058 189.40061 188.42564 188.47767 189.30071 190.59674
 192.30977 194.39280 196.64384 198.99087 201.42390 203.89193 205.96796 207.79800
 209.41203 210.54506 210.76209 210.97812 210.90316 210.59619 210.21722 209.83525
 209.44029 209.13832 208.93435 208.78638 208.70241 209.02145 209.39548 209.77251
 210.55354 211.71957 212.95761 214.72864 216.64467 218.67570 220.75873 222.82977
 224.87780 226.94983 229.03486 231.12890 233.24593 235.40596 237.64999 240.00802
 242.61706 244.85609 246.84612 248.59915 250.00418 251.11522 251.92525 252.22928
 252.25431 252.01635 251.36438 250.30041 248.89444 247.04347 244.94051 242.76154
 240.54057 238.33260 236.14063 233.96767 231.81570 229.67073 227.68476 225.82979
 224.10083 222.56086 221.17889 219.93892 218.80896 217.75699 216.84902 215.97805
 215.20808 214.37612 213.46215 212.81418 212.25221 213.08665 215.06767 216.74118
 218.05455 219.85088 221.56604 222.93672 224.51363 226.39973 228.66901 231.30508
 232.67407 233.55777 235.00713 238.23721 242.38445 246.73729 250.95474 254.77025
 258.11771 260.99435 263.68005 266.26340 268.66223 270.73535 272.39877 274.13962
 275.82159 277.36273 278.76086 280.08066 281.26035 282.31665 283.29657 284.21945
 285.07983 285.84601 286.51532 287.36829
 366.78100 356.32183 345.74066 334.59350 322.98333 311.16416 299.02099 286.81082
 274.50966 262.39349 250.38932 239.67715 229.78598 220.87682 213.04565 206.03448
 199.85531 194.78014 191.34898 189.37781 188.40164 188.45247 189.27430 190.56914
 192.28097 194.36280 196.61263 198.95846 201.39030 203.85713 205.93196 207.76079
 209.37362 210.50546 210.72129 210.93612 210.85995 210.55178 210.17162 209.78845
 209.39228 209.08911 208.88394 208.73478 208.64961 208.96744 209.34027 209.71611
 210.49594 211.66077 212.89760 214.66743 216.58227 218.61210 220.69393 222.76376
 224.81059 226.88143 228.96526 231.05809 233.17392 235.33275 237.57559 239.93242
 242.54025 244.77808 246.76691 248.51875 249.92258 251.03241 251.84124 252.14407
 252.16791 251.92874 251.27557 250.21040 248.80323 246.95107 244.84690 242.66673
 240.44456 238.23539 236.04223 233.86806 231.71489 229.56872 227.58155 225.72539
 223.99522 222.45405 221.07088 219.82971 218.69855 217.64538 216.73621 215.86404
 215.09287 214.25971 213.34454 212.69537 212.13220 213.02594 215.14421 216.92638
 218.14023 219.91005 221.65572 223.07339 224.65883 226.45349 228.81885 231.26166
 232.45883 233.22142 234.64400 237.83727 242.23965 246.71964 250.79820 254.63332
 258.01685 260.95340 263.69092 266.29626 268.70325 270.80539 272.57281 274.26114
 275.88586 277.40787 278.79099 280.04385 281.20309 282.25275 283.22882 284.12350
 284.94159 285.67334 286.31256 287.12720
 366.78100 356.32085 345.73871 334.59056 322.97942 311.15927 299.01513 286.80398
 274.50184 262.38469 250.37955 239.66640 229.77426 220.86411 213.03197 206.01982
 199.83968 194.76353 191.33139 189.35924 188.38210 188.43195 189.25281 190.54666
 192.25752 194.33837 196.58723 198.93208 201.36294 203.82879 205.90265 207.73050
 209.34236 210.47321 210.68806 210.90192 210.82477 210.51563 210.13448 209.75034
 209.35319 209.04905 208.84290 208.69276 208.60661 208.92347 209.29532 209.67018
 210.44903 211.61289 212.84874 214.61760 216.53145 218.56031 220.64116 222.71002
 224.75587 226.82573 228.90858 231.00044 233.11529 235.27315 237.51500 239.87086
 242.47771 244.71457 246.70242 248.45327 249.85613 250.96498 251.77284 252.07469
 252.09755 251.85740 251.20326 250.13711 248.72897 246.87582 244.77068 242.58953
 240.36639 238.15624 235.96210 233.78695 231.63281 229.48566 227.49752 225.64037
 223.90923 222.36708 220.98294 219.74079 218.60865 217.55450 216.64436 215.77121
 214.99907 214.16492 213.24878 212.59863 212.03448 212.97450 215.19621 217.12654
 218.28462 220.01608 221.77670 223.25591 224.80960 226.54915 228.98877 231.14330
 232.21480 232.89522 234.40358 237.76096 242.10338 246.48105 250.60321 254.45943
 257.87314 260.88745 263.67334 266.31137 268.75833 270.92307 272.77438 274.40732
 275.99512 277.50342 278.88196 280.10602 281.21127 282.24188 283.19821 284.09027
 284.92065 285.67722 286.39114 287.30093
 366.78100 356.32035 345.73770 334.58904 322.97739 311.15674 299.01209 286.80044
 274.49778 262.38013 250.37448 239.66083 229.76818 220.85753 213.02487 206.01222
 199.83157 194.75492 191.32227 189.34961 188.37196 188.42131 189.24166 190.53501
 192.24535 194.32570 196.57405 198.91840 201.34875 203.81410 205.88744 207.71479
 209.32614 210.45649 210.67084 210.88418 210.80653 210.49688 210.11523 209.73058
 209.33292 209.02827 208.82162 208.67097 208.58432 208.90066 209.27201 209.64636
 210.42471 211.58806 212.82341 214.59175 216.50510 218.53345 220.61380 222.68215
 224.72749 226.79684 228.87919 230.97054 233.08489 235.24223 237.48358 239.83893
 242.44528 244.68163 246.66897 248.41932 249.82167 250.93002 251.73737 252.03872
 252.06106 251.82041 251.16576 250.09911 248.69046 246.83680 244.73115 242.54950
 240.32585 238.11520 235.92054 233.74489 231.59024 229.44259 227.45394 225.59629
 223.86463 222.32198 220.93733 219.69468 218.56203 217.50737 216.59672 215.72307
 214.95042 214.11577 213.19911 212.54846 211.98381 212.95384 215.24564 217.24336
 218.52286 220.22064 221.87325 223.33188 224.87097 226.56682 228.98174 230.94693
 231.88606 232.50864 234.17500 237.65724 242.00069 246.38040 250.53656 254.39574
 257.81387 260.84991 263.64487 266.27521 268.69553 270.82410 272.63226 274.26932
 275.91385 277.48148 278.92813 280.23477 281.39523 282.43643 283.39426 284.27872
 285.09766 285.82578 286.46371 287.32602
 366.78100 356.32016 345.73732 334.58848 322.97664 311.15580 299.01096 286.79912
 274.49628 262.37844 250.37260 239.65875 229.76591 220.85507 213.02223 206.00939
 199.82855 194.75171 191.31887 189.34603 188.36819 188.41735 189.23751 190.53067
 192.24083 194.32099 196.56915 198.91331 201.34347 203.80863 205.88179 207.70894
 209.32010 210.45026 210.66442 210.87758 210.79974 210.48990 210.10806 209.72322
 209.32538 209.02054 208.81370 208.66286 208.57602 208.89218 209.26334 209.63750
 210.41566 211.57882 212.81398 214.58213 216.49529 218.52345 220.60361 222.67177
 224.71693 226.78609 228.86825 230.95941 233.07357 235.23073 237.47189 239.82705
 242.43321 244.66937 246.65653 248.40669 249.80885 250.91701 251.72417 252.02532
 252.04748 251.80664 251.15180 250.08496 248.67612 246.82228 244.71644 242.53460
 240.31076 238.09992 235.90508 233.72924 231.57440 229.42656 227.43772 225.57988
 223.84804 222.30520 220.92036 219.67752 218.54467 217.48983 216.57899 215.70515
 214.93231 214.09747 213.18063 212.52979 211.96495 212.95195 215.28386 217.36017
 218.71353 220.37920 221.94574 223.37071 224.89427 226.52628 228.91879 230.75621
 231.57362 232.15103 233.94487 237.54617 241.94420 246.36032 250.52872 254.41460
 257.85168 260.87985 263.64056 266.24738 268.64185 270.74136 272.48428 274.09381
 275.81558 277.47153 278.99063 280.34827 281.53012 282.58044 283.54324 284.42871
 285.24615 285.96530 286.58990 287.45569
 366.78100 356.31957 345.73615 334.58672 322.97429 311.15286 299.00744 286.79501
 274.49158 262.37315 250.36672 239.65230 229.75887 220.84744 213.01402 206.00059
 199.81916 194.74173 191.30831 189.33488 188.35645 188.40502 189.22459 190.51717
 192.22674 194.30631 196.55389 198.89746 201.32703 203.79160 205.86417 207.69075
 209.30132 210.43089 210.64446 210.85704 210.77861 210.46818 210.08576 209.70033
 209.30190 208.99647 208.78905 208.63762 208.55019 208.86576 209.23633 209.60991
 210.38748 211.55005 212.78463 214.55220 216.46477 218.49234 220.57191 222.63949
 224.68406 226.75263 228.83420 230.92478 233.03835 235.19492 237.43549 239.79007
 242.39564 244.63121 246.61778 248.36736 249.76893 250.87650 251.68308 251.98365
 252.00522 251.76379 251.10836 250.04094 248.63151 246.77708 244.67065 242.48823
 240.26380 238.05237 235.85694 233.68052 231.52509 229.37666 227.38723 225.52881
 223.79638 222.25295 220.86753 219.62410 218.49067 217.43524 216.52381 215.64939
 214.87596 214.04053 213.12310 212.47168 211.90625 212.92677 215.33788 217.54649
 218.82591 220.42447 222.00133 223.42857 224.96375 226.53452 228.90645 230.61870
 231.30952 231.83859 233.71190 237.41304 241.87637 246.31915 250.49190 254.38968
 257.85480 260.90259 263.65988 266.25455 268.64572 270.75345 272.48090 274.07385
 275.78394 277.49817 279.02771 280.38644 281.56909 282.61844 283.58237 284.46863
 285.28256 286.00839 286.63483 287.50388
 366.78100 356.31830 345.73361 334.58291 322.96921 311.14651 298.99982 286.78612
 274.48142 262.36172 250.35403 239.63833 229.74363 220.83093 212.99624 205.98154
 199.79884 194.72015 191.28545 189.31075 188.33105 188.37836 189.19666 190.48796
 192.19626 194.27457 196.52087 198.86317 201.29147 203.75478 205.82608 207.65138
 209.26069 210.38899 210.60129 210.81259 210.73290 210.42120 210.03750 209.65080
 209.25111 208.94441 208.73571 208.58301 208.49432 208.80862 209.17792 209.55023
 210.32653 211.48783 212.72113 214.48744 216.39874 218.42504 220.50334 222.56965
 224.61295 226.68025 228.76055 230.84986 232.96216 235.11746 237.35677 239.71007
 242.31437 244.54867 246.53398 248.28228 249.68258 250.78888 251.59419 251.89349
 251.91379 251.67109 251.01440 249.94570 248.53500 246.67931 244.57161 242.38791
 240.16221 237.94952 235.75282 233.57512 231.41842 229.26873 227.27803 225.41833
 223.68463 222.13994 220.75324 219.50854 218.37385 217.31715 216.40445 215.52875
 214.75406 213.91736 212.99866 212.34596 211.77927 212.86621 215.43427 217.72404
 218.92255 220.43044 222.03659 223.51865 225.04245 226.58348 228.91798 230.48077
 231.04082 231.52910 233.48308 237.27574 241.79300 246.24432 250.42493 254.32809
 257.82062 260.90204 263.68219 266.27728 268.67209 270.79282 272.51883 274.10544
 275.79102 277.50528 279.03760 280.39682 281.57797 282.63010 283.59332 284.48007
 285.29605 286.02841 286.65579 287.52475
 366.78100 356.31716 345.73131 334.57947 322.96463 311.14079 298.99294 286.77810
 274.47226 262.35141 250.34257 239.62573 229.72988 220.81604 212.98020 205.96436
 199.78051 194.70067 191.26483 189.28898 188.30814 188.35430 189.17145 190.46161
 192.16877 194.24593 196.49108 198.83224 201.25940 203.72155 205.79171 207.61587
 209.22403 210.35118 210.56234 210.77250 210.69165 210.37881 209.99397 209.60612
 209.20528 208.89744 208.68760 208.53375 208.44391 208.75707 209.12522 209.49638
 210.27154 211.43169 212.66385 214.42901 216.33917 218.36432 220.44148 222.50664
 224.54879 226.61495 228.69411 230.78226 232.89342 235.04758 237.28574 239.63789
 242.24105 244.47421 246.45836 248.20552 249.60468 250.70984 251.51399 251.81215
 251.83131 251.58746 250.92962 249.85978 248.44793 246.59109 244.48225 242.29741
 240.07056 237.85672 235.65888 233.48003 231.32219 229.17135 227.17950 225.31866
 223.58382 222.03798 220.65013 219.40429 218.26845 217.21060 216.29676 215.41992
 214.64408 213.80623 212.88639 212.23255 211.66470 212.81512 215.53311 217.87784
 219.01062 220.48271 222.03485 223.52995 225.16467 226.71346 228.97551 230.36792
 230.75587 231.17284 233.20081 237.13747 241.72574 246.18390 250.36455 254.26678
 257.77463 260.89114 263.70547 266.30655 268.70584 270.84015 272.56033 274.12674
 275.79456 277.51465 279.05212 280.41266 281.59564 282.64655 283.61240 284.49887
 285.31302 286.04675 286.67929 287.55029
 366.78100 356.31650 345.73000 334.57749 322.96199 311.13749 298.98899 286.77348
 274.46698 262.34548 250.33598 239.61848 229.72197 220.80747 212.97097 205.95447
 199.76997 194.68946 191.25296 189.27646 188.29496 188.34045 189.15695 190.44645
 192.15295 194.22945 196.47394 198.81444 201.24094 203.70244 205.77194 207.59543
 209.20293 210.32943 210.53993 210.74942 210.66792 210.35442 209.96892 209.58042
 209.17891 208.87041 208.65991 208.50541 208.41491 208.72740 209.09490 209.46540
 210.23990 211.39939 212.63089 214.39539 216.30489 218.32939 220.40588 222.47038
 224.51188 226.57738 228.65588 230.74337 232.85387 235.00737 237.24487 239.59636
 242.19886 244.43136 246.41486 248.16136 249.55985 250.66435 251.46785 251.76535
 251.78385 251.53934 250.88084 249.81034 248.39784 246.54033 244.43083 242.24533
 240.01783 237.80333 235.60482 233.42532 231.26682 229.11532 227.12282 225.26131
 223.52581 221.97931 220.59081 219.34430 218.20780 217.14930 216.23480 215.35730
 214.58079 213.74229 212.82179 212.16729 211.59879 212.79224 215.61192 218.02299
 219.09090 220.54358 222.09904 223.64828 225.19566 226.71634 229.02821 230.40970
 230.48889 230.63338 232.95444 237.08086 241.68346 246.14677 250.31296 254.20056
 257.72153 260.87585 263.72873 266.33755 268.74255 270.89395 272.60742 274.15015
 275.80078 277.52643 279.06894 280.43192 281.61514 282.66733 283.63333 284.52063
 285.33450 286.07108 286.70377 287.58051
 366.78100 356.31614 345.72928 334.57643 322.96057 311.13571 298.98685 286.77099
 274.46414 262.34228 250.33242 239.61456 229.71770 220.80285 212.96599 205.94913
 199.76427 194.68341 191.24656 189.26970 188.28784 188.33298 189.14912 190.43827
 192.14441 194.22055 196.46469 198.80483 201.23098 203.69212 205.76126 207.58440
 209.19154 210.31769 210.52783 210.73697 210.65511 210.34125 209.95540 209.56654
 209.16468 208.85582 208.64496 208.49011 208.39925 208.71139 209.07853 209.44867
 210.22282 211.38196 212.61310 214.37724 216.28638 218.31053 220.38667 222.45081
 224.49195 226.55710 228.63524 230.72238 232.83252 234.98566 237.22281 239.57395
 242.17609 244.40823 246.39137 248.13752 249.53566 250.63980 251.44294 251.74008
 251.75823 251.51337 250.85451 249.78365 248.37079 246.51294 244.40308 242.21722
 239.98936 237.77450 235.57565 233.39579 231.23693 229.08507 227.09221 225.23036
 223.49450 221.94764 220.55878 219.31192 218.17507 217.11621 216.20135 215.32349
 214.54663 213.70778 212.78692 212.13206 211.56320 212.78766 215.68059 218.14589
 219.18489 220.59628 222.21516 223.82655 225.24437 226.68869 228.97000 230.29718
 230.20119 230.23882 232.78291 237.03322 241.64601 246.10857 250.25792 254.13240
 257.66910 260.86313 263.75214 266.36743 268.77686 270.94083 272.64474 274.16748
 275.80942 277.54144 279.08716 280.45215 281.63589 282.68887 283.65622 284.54425
 285.35895 286.09485 286.73584 287.61438
 366.78100 356.31594 345.72888 334.57582 322.95976 311.13470 298.98564 286.76958
 274.46252 262.34046 250.33040 239.61234 229.71528 220.80022 212.96316 205.94610
 199.76104 194.67998 191.24292 189.26586 188.28380 188.32874 189.14468 190.43362
 192.13956 194.21550 196.45944 198.79938 201.22532 203.68626 205.75520 207.57814
 209.18508 210.31102 210.52096 210.72990 210.64784 210.33378 209.94772 209.55866
 209.15660 208.84754 208.63648 208.48142 208.39036 208.70230 209.06924 209.43918
 210.21312 211.37206 212.60300 214.36694 216.27588 218.29982 220.37576 222.43970
 224.48064 226.54558 228.62352 230.71046 232.82040 234.97334 237.21028 239.56122
 242.16316 244.39510 246.37804 248.12398 249.52192 250.62586 251.42880 251.72574
 251.74368 251.49862 250.83956 249.76850 248.35544 246.49738 244.38732 242.20126
 239.97320 237.75814 235.55908 233.37902 231.21996 229.06790 227.07484 225.21278
 223.47672 221.92966 220.54060 219.29354 218.15648 217.09742 216.18236 215.30430
 214.52724 213.68818 212.76712 212.11206 211.54300 212.79350 215.74796 218.24207
 219.29320 220.66324 222.30769 223.99879 225.37296 226.72015 228.83655 230.02135
 229.88205 229.97354 232.64447 236.97997 241.60645 246.06668 250.20117 254.06857
 257.62521 260.85632 263.77728 266.39609 268.80637 270.97852 272.67279 274.17828
 275.81747 277.55408 279.10498 280.47208 281.65918 282.71518 283.68509 284.57507
 285.39493 286.13571 286.78894 287.69513
 366.78100 356.31603 345.72906 334.57609 322.96012 311.13515 298.98618 286.77021
 274.46324 262.34127 250.33130 239.61333 229.71635 220.80138 212.96441 205.94744
 199.76247 194.68150 191.24453 189.26756 188.28559 188.33062 189.14665 190.43568
 192.14171 194.21774 196.46177 198.80180 201.22783 203.68886 205.75789 207.58092
 209.18795 210.31398 210.52401 210.73303 210.65106 210.33709 209.95112 209.56215
 209.16018 208.85121 208.64024 208.48527 208.39430 208.70633 209.07336 209.44339
 210.21742 211.37645 212.60748 214.37151 216.28054 218.30457 220.38060 222.44463
 224.48566 226.55069 228.62871 230.71574 232.82577 234.97880 237.21583 239.56686
 242.16889 244.40092 246.38395 248.12998 249.52801 250.63204 251.43507 251.73210
 251.75013 251.50516 250.84619 249.77522 248.36225 246.50428 244.39431 242.20834
 239.98036 237.76539 235.56642 233.38645 231.22748 229.07551 227.08254 225.22057
 223.48460 221.93763 220.54866 219.30169 218.16472 217.10575 216.19078 215.31281
 214.53584 213.69687 212.77590 212.12093 211.55196 212.81645 215.80392 218.32642
 219.40245 220.76994 222.38025 224.10158 225.52219 226.79272 228.69330 229.72115
 229.57307 229.74648 232.50438 236.91684 241.57391 246.03055 250.14998 254.01056
 257.58551 260.85095 263.80164 266.42224 268.83237 271.00876 272.69580 274.19089
 275.82028 277.55923 279.11185 280.48059 281.66910 282.72574 283.69617 284.58884
 285.40707 286.14856 286.80322 287.71487
 366.78100 356.31626 345.72952 334.57678 322.96104 311.13630 298.98756 286.77182
 274.46508 262.34334 250.33360 239.61586 229.71912 220.80438 212.96764 205.95090
 199.76616 194.68542 191.24868 189.27194 188.29020 188.33546 189.15172 190.44098
 192.14724 194.22350 196.46776 198.80802 201.23427 203.69553 205.76479 207.58805
 209.19531 210.32157 210.53183 210.74109 210.65935 210.34561 209.95987 209.57113
 209.16939 208.86065 208.64991 208.49517 208.40443 208.71669 209.08395 209.45421
 210.22847 211.38773 212.61899 214.38325 216.29251 218.31677 220.39303 222.45729
 224.49855 226.56381 228.64207 230.72933 232.83959 234.99285 237.23011 239.58137
 242.18363 244.41589 246.39915 248.14541 249.54367 250.64793 251.45119 251.74845
 251.76671 251.52197 250.86323 249.79249 248.37975 246.52201 244.41227 242.22653
 239.99879 237.78405 235.58530 233.40556 231.24682 229.09508 227.10234 225.24060
 223.50486 221.95812 220.56938 219.32264 218.18590 217.12716 216.21242 215.33468
 214.55794 213.71920 212.79846 212.14372 211.57498 212.84801 215.85568 218.40419
 219.50107 220.89543 222.48027 224.16196 225.63014 226.86150 228.57066 229.45439
 229.26585 229.52322 232.37329 236.85355 241.55052 246.00095 250.10526 253.95645
 257.54419 260.84241 263.82324 266.44693 268.85577 271.03394 272.71494 274.20145
 275.82190 277.56015 279.11508 280.48474 281.67334 282.73169 283.70282 284.59402
 285.41263 286.15286 286.80695 287.72064
 366.78100 356.31647 345.72993 334.57740 322.96187 311.13733 298.98880 286.77327
 274.46673 262.34520 250.33567 239.61813 229.72160 220.80707 212.97053 205.95400
 199.76947 194.68893 191.25240 189.27587 188.29433 188.33980 189.15627 190.44573
 192.15220 194.22867 196.47313 198.81360 201.24007 203.70154 205.77100 207.59447
 209.20194 210.32840 210.53887 210.74834 210.66680 210.35327 209.96774 209.57920
 209.17767 208.86914 208.65860 208.50407 208.41354 208.72600 209.09347 209.46394
 210.23840 211.39787 212.62934 214.39380 216.30327 218.32774 220.40420 222.46867
 224.51014 226.57560 228.65407 230.74154 232.85200 235.00547 237.24294 239.59440
 242.19687 244.42934 246.41280 248.15927 249.55774 250.66220 251.46567 251.76314
 251.78160 251.53707 250.87854 249.80800 248.39547 246.53794 244.42840 242.24287
 240.01534 237.80080 235.60227 233.42274 231.26420 229.11267 227.12014 225.25861
 223.52307 221.97654 220.58801 219.34147 218.20494 217.14641 216.23187 215.35434
 214.57781 213.73927 212.81874 212.16421 211.59567 212.87949 215.91263 218.46968
 219.59795 221.02164 222.59807 224.22153 225.70512 226.90308 228.46729 229.20711
 228.95740 229.31268 232.26031 236.79849 241.52565 245.97095 250.06502 253.90703
 257.50388 260.83041 263.84070 266.46960 268.87823 271.05304 272.72858 274.20761
 275.82199 277.56091 279.11716 280.48785 281.67612 282.73575 283.70691 284.59717
 285.41418 286.15457 286.80905 287.73071
 366.78100 356.31668 345.73036 334.57803 322.96271 311.13839 298.99007 286.77474
 274.46842 262.34710 250.33778 239.62046 229.72413 220.80981 212.97349 205.95717
 199.77284 194.69252 191.25620 189.27988 188.29856 188.34423 189.16091 190.45059
 192.15727 194.23394 196.47862 198.81930 201.24598 203.70765 205.77733 207.60101
 209.20869 210.33537 210.54604 210.75572 210.67440 210.36108 209.97575 209.58743
 209.18611 208.87779 208.66747 208.51314 208.42282 208.73550 209.10318 209.47385
 210.24853 211.40821 212.63989 214.40457 216.31424 218.33892 220.41560 222.48028
 224.52195 226.58763 228.66631 230.75399 232.86467 235.01834 237.25602 239.60770
 242.21038 244.44305 246.42673 248.17341 249.57209 250.67677 251.48044 251.77812
 251.79680 251.55248 250.89415 249.82383 248.41151 246.55419 244.44486 242.25954
 240.03222 237.81790 235.61958 233.44025 231.28193 229.13061 227.13829 225.27696
 223.54164 221.99532 220.60700 219.36068 218.22435 217.16603 216.25171 215.37439
 214.59806 213.75974 212.83942 212.18510 211.61678 212.91188 215.97173 218.52376
 219.70152 221.14413 222.71127 224.29559 225.76523 226.91547 228.38332 228.96463
 228.65918 229.12509 232.15645 236.74265 241.49042 245.93701 250.02934 253.86568
 257.46768 260.81601 263.85150 266.48865 268.89691 271.06683 272.73627 274.20877
 275.81995 277.55963 279.11612 280.48740 281.67648 282.73572 283.70636 284.59564
 285.41324 286.15179 286.80460 287.72858
 366.78100 356.31695 345.73091 334.57886 322.96381 311.13977 298.99172 286.77667
 274.47062 262.34958 250.34053 239.62348 229.72744 220.81339 212.97734 205.96130
 199.77725 194.69720 191.26115 189.28511 188.30406 188.35001 189.16697 190.45692
 192.16387 194.24083 196.48578 198.82673 201.25368 203.71564 205.78559 207.60954
 209.21750 210.34445 210.55540 210.76536 210.68431 210.37126 209.98621 209.59817
 209.19712 208.88907 208.67903 208.52498 208.43493 208.74789 209.11584 209.48679
 210.26175 211.42170 212.65365 214.41860 216.32856 218.35351 220.43046 222.49542
 224.53737 226.60332 228.68228 230.77023 232.88118 235.03513 237.27309 239.62504
 242.22799 244.46095 246.44490 248.19185 249.59081 250.69576 251.49971 251.79766
 251.81662 251.57257 250.91452 249.84448 248.43243 246.57538 244.46634 242.28129
 240.05424 237.84019 235.64215 233.46310 231.30505 229.15401 227.16196 225.30091
 223.56587 222.01982 220.63177 219.38573 218.24968 217.19163 216.27758 215.40054
 214.62449 213.78644 212.86640 212.21235 211.64430 212.94786 216.02766 218.57487
 219.80450 221.26088 222.82146 224.38535 225.80948 226.90874 228.31471 228.72575
 228.37772 228.96326 232.05891 236.68152 241.44621 245.89874 249.99500 253.82988
 257.43542 260.79950 263.85587 266.50266 268.91052 271.07413 272.73941 274.20618
 275.81519 277.55585 279.11282 280.48441 281.67432 282.73239 283.70312 284.59399
 285.40897 286.14798 286.80237 287.72803
 366.78100 356.31727 345.73154 334.57982 322.96509 311.14136 298.99363 286.77891
 274.47318 262.35245 250.34372 239.62700 229.73127 220.81754 212.98181 205.96609
 199.78236 194.70263 191.26690 189.29118 188.31045 188.35672 189.17399 190.46426
 192.17154 194.24881 196.49408 198.83535 201.26263 203.72490 205.79517 207.61944
 209.22772 210.35499 210.56626 210.77653 210.69581 210.38308 209.99835 209.61062
 209.20990 208.90217 208.69244 208.53871 208.44899 208.76226 209.13053 209.50180
 210.27707 211.43735 212.66962 214.43489 216.34516 218.37044 220.44771 222.51298
 224.55525 226.62153 228.70080 230.78907 232.90034 235.05462 237.29289 239.64516
 242.24843 244.48171 246.46598 248.21325 249.61252 250.71779 251.52207 251.82034
 251.83961 251.59588 250.93816 249.86843 248.45670 246.59997 244.49125 242.30652
 240.07979 237.86606 235.66834 233.48961 231.33188 229.18115 227.18943 225.32870
 223.59397 222.04824 220.66052 219.41479 218.27906 217.22133 216.30760 215.43088
 214.65515 213.81742 212.89769 212.24397 211.67624 212.98590 216.08014 218.62529
 219.90019 221.37157 222.93697 224.48477 225.83684 226.89607 228.25186 228.49210
 228.11246 228.82672 231.97433 236.61842 241.39691 245.85777 249.96178 253.79691
 257.40405 260.77954 263.85333 266.51169 268.91962 271.07391 272.73639 274.20224
 275.81125 277.55261 279.11050 280.48199 281.67401 282.73196 283.70425 284.59613
 285.41061 286.15024 286.80508 287.73465
 366.78100 356.31759 345.73217 334.58076 322.96635 311.14294 298.99552 286.78111
 274.47570 262.35529 250.34687 239.63046 229.73505 220.82164 212.98622 205.97081
 199.78740 194.70798 191.27257 189.29716 188.31675 188.36333 189.18092 190.47151
 192.17910 194.25668 196.50227 198.84386 201.27145 203.73403 205.80462 207.62921
 209.23779 210.36538 210.57697 210.78756 210.70714 210.39473 210.01032 209.62291
 209.22249 208.91508 208.70567 208.55226 208.46284 208.77643 209.14502 209.51660
 210.29219 211.45278 212.68537 214.45095 216.36154 218.38713 220.46472 222.53030
 224.57289 226.63948 228.71907 230.80765 232.91924 235.07383 237.31241 239.66500
 242.26859 244.50218 246.48676 248.23435 249.63394 250.73953 251.54411 251.84270
 251.86229 251.61888 250.96146 249.89205 248.48064 246.62422 244.51581 242.33140
 240.10499 237.89157 235.69416 233.51575 231.35834 229.20792 227.21651 225.35610
 223.62169 222.07627 220.68886 219.44345 218.30803 217.25062 216.33721 215.46080
 214.68538 213.84797 212.92856 212.27515 211.70773 213.02341 216.13184 218.67274
 219.98647 221.48415 223.05440 224.58141 225.85852 226.88623 228.18538 228.26871
 227.86568 228.71092 231.90445 236.55695 241.34479 245.81435 249.92802 253.76515
 257.37195 260.75500 263.84335 266.51688 268.92374 271.06445 272.72537 274.19519
 275.80908 277.55179 279.11096 280.48337 281.67563 282.73477 283.70752 284.59937
 285.41357 286.15598 286.81049 287.74231
 366.78100 356.31792 345.73284 334.58176 322.96769 311.14461 298.99753 286.78345
 274.47837 262.35829 250.35021 239.63413 229.73906 220.82598 212.99090 205.97582
 199.79274 194.71366 191.27858 189.30351 188.32343 188.37035 189.18827 190.47919
 192.18711 194.26503 196.51096 198.85288 201.28080 203.74372 205.81464 207.63956
 209.24848 210.37640 210.58833 210.79925 210.71917 210.40709 210.02301 209.63593
 209.23585 208.92878 208.71970 208.56662 208.47754 208.79146 209.16038 209.53230
 210.30822 211.46915 212.70207 214.46799 216.37891 218.40483 220.48275 222.54867
 224.59160 226.65852 228.73844 230.82736 232.93928 235.09420 237.33312 239.68604
 242.28997 244.52389 246.50881 248.25673 249.65665 250.76257 251.56749 251.86642
 251.88634 251.64326 250.98618 249.91710 248.50602 246.64994 244.54187 242.35779
 240.13171 237.91863 235.72155 233.54347 231.38639 229.23631 227.24524 225.38516
 223.65108 222.10600 220.71892 219.47384 218.33876 217.28169 216.36861 215.49253
 214.71745 213.88037 212.96129 212.30821 211.74113 213.06148 216.18092 218.71863
 220.06529 221.59720 223.17358 224.66736 225.87584 226.88855 228.11743 228.05064
 227.63338 228.61272 231.84789 236.49673 241.28845 245.76918 249.89606 253.73705
 257.33990 260.72580 263.82562 266.51642 268.92142 271.04514 272.70654 274.18359
 275.80850 277.55411 279.11417 280.48657 281.68033 282.74008 283.71295 284.60443
 285.42059 286.16058 286.81647 287.75467
 366.78100 356.31823 345.73345 334.58268 322.96890 311.14613 298.99935 286.78558
 274.48081 262.36103 250.35326 239.63748 229.74271 220.82993 212.99516 205.98039
 199.79761 194.71884 191.28406 189.30929 188.32952 188.37674 189.19497 190.48619
 192.19442 194.27264 196.51887 198.86110 201.28932 203.75255 205.82377 207.64900
 209.25822 210.38645 210.59868 210.80990 210.73013 210.41835 210.03458 209.64780
 209.24803 208.94126 208.73248 208.57971 208.49093 208.80516 209.17438 209.54661
 210.32284 211.48406 212.71729 214.48351 216.39474 218.42097 220.49919 222.56542
 224.60864 226.67587 228.75609 230.84532 232.95755 235.11277 237.35200 239.70522
 242.30945 244.54367 246.52890 248.27713 249.67735 250.78358 251.58880 251.88803
 251.90825 251.66548 251.00871 249.93993 248.52916 246.67338 244.56561 242.38183
 240.15606 237.94329 235.74651 233.56874 231.41196 229.26219 227.27142 225.41164
 223.67787 222.13309 220.74632 219.50154 218.36677 217.31000 216.39722 215.52145
 214.74667 213.90990 212.99112 212.33835 211.77158 213.09767 216.23073 218.76035
 220.14149 221.70369 223.29036 224.75722 225.90590 226.88786 228.04214 227.84683
 227.41788 228.52524 231.79630 236.43541 241.23265 245.72586 249.86613 253.71065
 257.30704 260.69138 263.80072 266.51016 268.91238 271.01770 272.68149 274.17398
 275.80850 277.55612 279.11700 280.49142 281.68454 282.74515 283.71875 284.61038
 285.42804 286.16620 286.82388 287.75876
 366.78100 356.31865 345.73430 334.58395 322.97060 311.14825 299.00190 286.78855
 274.48420 262.36485 250.35749 239.64214 229.74779 220.83544 213.00109 205.98674
 199.80439 194.72604 191.29169 189.31734 188.33799 188.38564 189.20429 190.49594
 192.20459 194.28324 196.52989 198.87254 201.30119 203.76484 205.83648 207.66213
 209.27178 210.40043 210.61308 210.82473 210.74538 210.43403 210.05068 209.66433
 209.26498 208.95863 208.75028 208.59793 208.50958 208.82423 209.19388 209.56653
 210.34318 211.50483 212.73847 214.50512 216.41677 218.44342 220.52207 222.58872
 224.63237 226.70002 228.78067 230.87032 232.98297 235.13862 237.37827 239.73192
 242.33657 244.57122 246.55687 248.30552 249.70617 250.81282 251.61846 251.91811
 251.93876 251.69641 251.04006 249.97171 248.56136 246.70601 244.59866 242.41531
 240.18996 237.97761 235.78126 233.60391 231.44756 229.29821 227.30786 225.44851
 223.71516 222.17081 220.78445 219.54010 218.40575 217.34940 216.43705 215.56170
 214.78735 213.95100 213.03265 212.38030 211.81395 213.13977 216.27216 218.80757
 220.21320 221.80809 223.40236 224.83768 225.93735 226.91235 227.96777 227.64352
 227.21413 228.44478 231.75447 236.37770 241.17216 245.67670 249.83586 253.68813
 257.27783 260.65668 263.77234 266.50034 268.89966 270.98718 272.65411 274.14496
 275.81409 277.56558 279.12595 280.49911 281.69220 282.75491 283.72754 284.61826
 285.43515 286.17633 286.83154 287.77054
 366.78100 356.31933 345.73566 334.58599 322.97332 311.15166 299.00599 286.79332
 274.48965 262.37098 250.36431 239.64964 229.75597 220.84430 213.01064 205.99697
 199.81530 194.73763 191.30396 189.33029 188.35162 188.39995 189.21928 190.51162
 192.22095 194.30028 196.54761 198.89094 201.32027 203.78460 205.85693 207.68326
 209.29360 210.42293 210.63626 210.84859 210.76992 210.45925 210.07658 209.69091
 209.29224 208.98658 208.77891 208.62724 208.53957 208.85490 209.22523 209.59856
 210.37589 211.53822 212.77256 214.53989 216.45222 218.47955 220.55888 222.62621
 224.67054 226.73887 228.82020 230.91054 233.02387 235.18020 237.42053 239.77486
 242.38019 244.61552 246.60185 248.35118 249.75252 250.85985 251.66618 251.96651
 251.98784 251.74617 251.09050 250.02283 248.61316 246.75850 244.65183 242.46916
 240.24449 238.03282 235.83715 233.66048 231.50481 229.35614 227.36648 225.50781
 223.77514 222.23147 220.84580 219.60213 218.46846 217.41279 216.50112 215.62646
 214.85279 214.01712 213.09945 212.44778 211.88211 213.19519 216.29747 218.85518
 220.29289 221.92900 223.48930 224.87978 225.98792 226.95299 227.90631 227.45903
 227.01999 228.36848 231.70078 236.30908 241.10742 245.63350 249.81622 253.67352
 257.25104 260.61816 263.73529 266.47989 268.87476 270.94131 272.61502 274.18338
 275.79663 277.54703 279.11282 280.49277 281.68881 282.75333 283.72903 284.62192
 285.43732 286.17981 286.83282 287.77203
 366.78100 356.31994 345.73687 334.58781 322.97575 311.15468 299.00962 286.79756
 274.49450 262.37643 250.37037 239.65631 229.76324 220.85218 213.01912 206.00605
 199.82499 194.74793 191.31486 189.34180 188.36374 188.41267 189.23261 190.52555
 192.23549 194.31542 196.56336 198.90730 201.33723 203.80217 205.87511 207.70204
 209.31298 210.44292 210.65685 210.86979 210.79173 210.48166 210.09960 209.71454
 209.31648 209.01141 208.80435 208.65329 208.56622 208.88216 209.25310 209.62703
 210.40497 211.56791 212.80284 214.57078 216.48372 218.51165 220.59159 222.65953
 224.70447 226.77340 228.85534 230.94628 233.06021 235.21715 237.45809 239.81302
 242.41896 244.65490 246.64183 248.39177 249.79371 250.90164 251.70858 252.00952
 252.03146 251.79039 251.13533 250.06827 248.65920 246.80514 244.69908 242.51701
 240.29295 238.08189 235.88682 233.71076 231.55570 229.40763 227.41857 225.56051
 223.82845 222.28538 220.90032 219.65726 218.52419 217.46913 216.55807 215.68400
 214.91094 214.07588 213.15881 212.50775 211.94269 213.24605 216.32538 218.90097
 220.35358 222.03143 223.68484 224.99500 225.91902 226.88020 227.85388 227.38414
 226.87990 228.23091 231.63937 236.25510 241.05785 245.60725 249.80446 253.66112
 257.22461 260.57834 263.69583 266.45676 268.84735 270.89435 272.56955 274.00629
 275.86154 277.61108 279.15271 280.52002 281.70993 282.76910 283.74139 284.63187
 285.44696 286.18640 286.84021 287.77878
 366.78100 356.32040 345.73779 334.58919 322.97759 311.15699 299.01238 286.80078
 274.49818 262.38058 250.37497 239.66137 229.76877 220.85817 213.02556 206.01296
 199.83236 194.75576 191.32315 189.35055 188.37295 188.42235 189.24274 190.53614
 192.24654 194.32693 196.57533 198.91973 201.35013 203.81552 205.88892 207.71632
 209.32772 210.45811 210.67251 210.88591 210.80831 210.49870 210.11710 209.73250
 209.33490 209.03029 208.82369 208.67309 208.58649 208.90288 209.27428 209.64868
 210.42707 211.59047 212.82587 214.59427 216.50766 218.53606 220.61646 222.68486
 224.73025 226.79965 228.88205 230.97345 233.08784 235.24524 237.48664 239.84204
 242.44843 244.68483 246.67223 248.42263 249.82502 250.93342 251.74082 252.04221
 252.06461 251.82401 251.16941 250.10280 248.69420 246.84060 244.73500 242.55339
 240.32979 238.11919 235.92459 233.74898 231.59438 229.44678 227.45818 225.60057
 223.86897 222.32637 220.94177 219.69916 218.56656 217.51196 216.60135 215.72775
 214.95515 214.12055 213.20394 212.55334 211.98874 213.28914 216.36148 218.93620
 220.42921 222.10280 223.82500 225.13535 225.94971 226.83342 227.72188 227.30986
 226.80429 228.11359 231.59048 236.21385 241.01392 245.57819 249.78621 253.64606
 257.19836 260.53867 263.65326 266.42896 268.81265 270.83716 272.51520 273.93411
 275.87399 277.62454 279.16507 280.53009 281.71771 282.77487 283.74576 284.63608
 285.44827 286.18747 286.84027 287.77753
 366.78100 356.32090 345.73880 334.59071 322.97961 311.15951 299.01541 286.80432
 274.50222 262.38512 250.38002 239.66693 229.77483 220.86473 213.03263 206.02054
 199.84044 194.76434 191.33224 189.36015 188.38305 188.43295 189.25385 190.54776
 192.25866 194.33956 196.58846 198.93337 201.36427 203.83017 205.90407 207.73198
 209.34388 210.47478 210.68968 210.90359 210.82649 210.51739 210.13629 209.75220
 209.35510 209.05100 208.84490 208.69481 208.60871 208.92561 209.29751 209.67242
 210.45132 211.61522 212.85112 214.62003 216.53393 218.56283 220.64373 222.71264
 224.75854 226.82844 228.91134 231.00324 233.11815 235.27605 237.51795 239.87385
 242.48076 244.71766 246.70556 248.45646 249.85937 250.96827 251.77617 252.07807
 252.10098 251.86088 251.20678 250.14068 248.73259 246.87949 244.77439 242.59329
 240.37020 238.16010 235.96600 233.79090 231.63681 229.48971 227.50161 225.64451
 223.91342 222.37132 220.98722 219.74512 218.61303 217.55893 216.64883 215.77573
 215.00364 214.16954 213.25344 212.60334 212.03925 213.33414 216.39346 218.96667
 220.51984 222.18140 223.88403 225.24657 226.07819 226.85815 227.54044 227.20180
 226.75772 228.02161 231.54607 236.17686 240.96762 245.54332 249.76677 253.63362
 257.17487 260.50085 263.61163 266.40024 268.77795 270.78308 272.46106 273.88980
 275.84518 277.62265 279.17096 280.53790 281.72592 282.78339 283.75378 284.64343
 285.45398 286.19336 286.84784 287.78488
 366.78100 356.32158 345.74015 334.59273 322.98231 311.16289 299.01946 286.80904
 274.50762 262.39119 250.38677 239.67435 229.78292 220.87350 213.04208 206.03066
 199.85123 194.77581 191.34439 189.37296 188.39654 188.44712 189.26870 190.56327
 192.27485 194.35643 196.60600 198.95158 201.38316 203.84973 205.92431 207.75289
 209.36547 210.49704 210.71262 210.92720 210.85077 210.54235 210.16193 209.77850
 209.38208 209.07866 208.87324 208.72381 208.63839 208.95597 209.32854 209.70412
 210.48370 211.64828 212.88485 214.65443 216.56901 218.59858 220.68016 222.74974
 224.79631 226.86689 228.95047 231.04305 233.15862 235.31720 237.55978 239.91635
 242.52393 244.76151 246.75009 248.50166 249.90524 251.01482 251.82339 252.12597
 252.14955 251.91012 251.25670 250.19128 248.78386 246.93143 244.82701 242.64659
 240.42416 238.21474 236.02132 233.84689 231.69347 229.54705 227.55963 225.70320
 223.97278 222.43136 221.04793 219.80651 218.67509 217.62167 216.71224 215.83982
 215.06840 214.23497 213.31955 212.67013 212.10670 213.38757 216.41380 219.00256
 220.60620 222.27077 223.92407 225.32310 226.21292 226.91020 227.38275 227.08635
 226.69928 227.93535 231.50389 236.13922 240.92055 245.50974 249.75177 253.62474
 257.15384 260.46490 263.57028 266.36865 268.73843 270.72275 272.40176 273.85260
 275.81796 277.60794 279.16376 280.53296 281.72330 282.78226 283.75357 284.64252
 285.45380 286.19400 286.84705 287.78558
 366.78100 356.32233 345.74166 334.59498 322.98531 311.16664 299.02397 286.81429
 274.51362 262.39795 250.39428 239.68261 229.79193 220.88326 213.05259 206.04192
 199.86324 194.78857 191.35790 189.38723 188.41156 188.46288 189.28521 190.58054
 192.29287 194.37519 196.62552 198.97185 201.40418 203.87151 205.94683 207.77616
 209.38949 210.52182 210.73814 210.95347 210.87780 210.57013 210.19046 209.80778
 209.41211 209.10944 208.90477 208.75609 208.67142 208.98975 209.36308 209.73941
 210.51973 211.68506 212.92239 214.69272 216.60804 218.63837 220.72070 222.79103
 224.83836 226.90968 228.99401 231.08734 233.20367 235.36299 237.60632 239.96365
 242.57198 244.81031 246.79963 248.55196 249.95629 251.06662 251.87594 252.17927
 252.20360 251.96493 251.31226 250.24758 248.84091 246.98924 244.88557 242.70589
 240.48422 238.27555 236.08288 233.90921 231.75653 229.61086 227.62419 225.76852
 224.03884 222.49817 221.11550 219.87483 218.74416 217.69148 216.78281 215.91114
 215.14047 214.30779 213.39312 212.74445 212.18178 213.44458 216.42807 219.03934
 220.68611 222.35959 223.97729 225.38206 226.32724 226.96518 227.27185 226.96614
 226.60336 227.84395 231.46480 236.10268 240.87683 245.48021 249.73833 253.61658
 257.13373 260.42783 263.52768 266.33487 268.69608 270.66080 272.34259 273.84485
 275.79929 277.59000 279.14713 280.51840 281.70993 282.76962 283.74237 284.63297
 285.44431 286.18219 286.83636 287.77069
 366.78100 356.32303 345.74307 334.59710 322.98813 311.17017 299.02820 286.81923
 274.51927 262.40430 250.40133 239.69037 229.80040 220.89243 213.06246 206.05250
 199.87453 194.80056 191.37060 189.40063 188.42566 188.47770 189.30073 190.59676
 192.30980 194.39283 196.64386 198.99090 201.42393 203.89196 205.96800 207.79803
 209.41206 210.54510 210.76213 210.97816 210.90319 210.59623 210.21726 209.83529
 209.44033 209.13836 208.93439 208.78643 208.70246 209.02149 209.39553 209.77256
 210.55359 211.71963 212.95766 214.72869 216.64473 218.67576 220.75879 222.82983
 224.87786 226.94989 229.03493 231.12896 233.24599 235.40602 237.65006 240.00809
 242.61712 244.85616 246.84619 248.59922 250.00426 251.11529 251.92532 252.22936
 252.25439 252.01642 251.36446 250.30049 248.89452 247.04356 244.94059 242.76162
 240.54066 238.33269 236.14072 233.96776 231.81579 229.67082 227.68485 225.82989
 224.10092 222.56095 221.17899 219.93902 218.80905 217.75709 216.84912 215.97815
 215.20819 214.37622 213.46225 212.81429 212.25232 213.49898 216.44437 219.07243
 220.76219 222.44037 224.03612 225.43474 226.43024 227.02625 227.20193 226.83327
 226.47017 227.75363 231.43198 236.07018 240.83847 245.45355 249.72415 253.60518
 257.11096 260.38922 263.48038 266.29294 268.64453 270.59280 272.27686 273.86133
 275.77423 277.56320 279.12369 280.49817 281.69159 282.75296 283.72650 284.61581
 285.42706 286.16635 286.81659 287.75537
 366.78100 356.32369 345.74438 334.59907 322.99077 311.17346 299.03215 286.82384
 274.52453 262.41022 250.40791 239.69760 229.80830 220.90099 213.07168 206.06237
 199.88506 194.81175 191.38244 189.41313 188.43883 188.49152 189.31521 190.61190
 192.32559 194.40928 196.66097 199.00867 201.44236 203.91105 205.98774 207.81843
 209.43312 210.56681 210.78450 211.00120 210.92689 210.62058 210.24227 209.86096
 209.46665 209.16534 208.96203 208.81473 208.73142 209.05111 209.42580 209.80349
 210.58518 211.75187 212.99057 214.76226 216.67895 218.71064 220.79433 222.86602
 224.91471 226.98740 229.07310 231.16779 233.28548 235.44617 237.69086 240.04955
 242.65924 244.89893 246.88963 248.64332 250.04901 251.16070 251.97139 252.27608
 252.30177 252.06447 251.41316 250.34985 248.94454 247.09423 244.99192 242.81361
 240.59330 238.38600 236.19469 234.02238 231.87107 229.72676 227.74145 225.88714
 224.15883 222.61953 221.23822 219.99891 218.86960 217.81829 216.91098 216.04067
 215.27137 214.44006 213.52675 212.87944 212.31813 213.55074 216.46292 219.10583
 220.83472 222.51244 224.08987 225.48265 226.52580 227.09723 227.16318 226.68976
 226.31268 227.67038 231.40448 236.04169 240.80403 245.42622 249.70630 253.58884
 257.08459 260.34875 263.43216 266.24579 268.58585 270.51614 272.20193 273.86649
 275.74146 277.52527 279.08908 280.46545 281.66055 282.72260 283.69806 284.58676
 285.40082 286.13687 286.78821 287.72305
 366.78100 356.32436 345.74573 334.60109 322.99346 311.17682 299.03619 286.82855
 274.52992 262.41628 250.41465 239.70501 229.81638 220.90974 213.08111 206.07247
 199.89584 194.82320 191.39457 189.42593 188.45230 188.50566 189.33003 190.62739
 192.34176 194.42612 196.67849 199.02685 201.46122 203.93058 206.00795 207.83931
 209.45468 210.58904 210.80741 211.02477 210.95114 210.64550 210.26787 209.88723
 209.49360 209.19296 208.99033 208.84369 208.76106 209.08142 209.45679 209.83515
 210.61752 211.78488 213.02425 214.79661 216.71398 218.74634 220.83071 222.90307
 224.95244 227.02580 229.11217 231.20753 233.32590 235.48726 237.73263 240.09199
 242.70236 244.94272 246.93409 248.68845 250.09482 251.20718 252.01855 252.32391
 252.35028 252.11364 251.46301 250.40037 248.99574 247.14610 245.04447 242.86683
 240.64720 238.44056 236.24993 234.07829 231.92766 229.78402 227.79939 225.94575
 224.21812 222.67948 221.29885 220.06021 218.93158 217.88094 216.97431 216.10467
 215.33604 214.50540 213.59277 212.94613 212.38550 213.60318 216.48009 219.14020
 220.90570 222.57721 224.13622 225.52524 226.60803 227.17386 227.14383 226.53807
 226.14105 227.59734 231.38403 236.01932 240.77542 245.39978 249.68652 253.56999
 257.05554 260.30722 263.38229 266.19580 268.52664 270.44290 272.12643 273.85458
 275.70013 277.48096 279.04755 280.42444 281.62207 282.68497 283.65814 284.54791
 285.36246 286.09665 286.74799 287.68799
 366.78100 356.32504 345.74709 334.60313 322.99617 311.18022 299.04026 286.83330
 274.53535 262.42239 250.42144 239.71248 229.82452 220.91857 213.09061 206.08265
 199.90670 194.83474 191.40678 189.43883 188.46587 188.51991 189.34496 190.64300
 192.35804 194.44309 196.69613 199.04518 201.48022 203.95026 206.02831 207.86035
 209.47639 210.61144 210.83048 211.04852 210.97557 210.67061 210.29365 209.91370
 209.52074 209.22079 209.01883 208.87287 208.79092 209.11196 209.48800 209.86705
 210.65009 211.81813 213.05818 214.83122 216.74926 218.78231 220.86735 222.94039
 224.99044 227.06448 229.15153 231.24757 233.36661 235.52866 237.77470 240.13474
 242.74579 244.98683 246.97887 248.73392 250.14096 251.25400 252.06605 252.37209
 252.39913 252.16318 251.51322 250.45127 249.04731 247.19835 245.09740 242.92044
 240.70148 238.49553 236.30557 234.13461 231.98466 229.84170 227.85774 226.00479
 224.27783 222.73987 221.35992 220.12196 218.99401 217.94405 217.03809 216.16914
 215.40118 214.57122 213.65927 213.01331 212.45335 213.65492 216.49377 219.17010
 220.97997 222.64030 224.17787 225.56335 226.67815 227.25281 227.13365 226.38094
 225.96072 227.53154 231.37001 236.00391 240.75299 245.37706 249.66765 253.55272
 257.02985 260.26785 263.33243 266.14407 268.46426 270.36716 272.06628 273.84409
 275.64450 277.42032 278.98935 280.36914 281.56570 282.63095 283.60809 284.49643
 285.30994 286.04947 286.69965 287.63748
 366.78100 356.32581 345.74861 334.60542 322.99922 311.18403 299.04484 286.83864
 274.54145 262.42926 250.42906 239.72087 229.83367 220.92848 213.10129 206.09409
 199.91890 194.84770 191.42051 189.45332 188.48112 188.53593 189.36174 190.66054
 192.37635 194.46215 196.71596 199.06577 201.50157 203.97238 206.05119 207.88399
 209.50080 210.63660 210.85641 211.07522 211.00302 210.69883 210.32263 209.94344
 209.55125 209.25205 209.05086 208.90567 208.82447 209.14628 209.52308 209.90289
 210.68670 211.85550 213.09631 214.87011 216.78892 218.82273 220.90853 222.98234
 225.03315 227.10795 229.19576 231.29256 233.41237 235.57518 237.82198 240.18279
 242.79460 245.03640 247.02921 248.78501 250.19282 251.30663 252.11943 252.42624
 252.45404 252.21885 251.56966 250.50846 249.10527 247.25708 245.15688 242.98069
 240.76249 238.55730 236.36811 234.19791 232.04872 229.90652 227.92333 226.07114
 224.34494 222.80775 221.42856 220.19136 219.06417 218.01497 217.10978 216.24159
 215.47439 214.64520 213.73400 213.08881 212.52962 213.71147 216.50371 219.19760
 221.05307 222.70297 224.21919 225.59644 226.73918 227.34476 227.13879 226.22954
 225.78296 227.46771 231.35658 235.99292 240.73369 245.35106 249.64308 253.52892
 256.99826 260.22470 263.28210 266.09595 268.41373 270.30484 271.95486 273.74658
 275.59537 277.37323 278.93750 280.31522 281.51300 282.57715 283.55359 284.44382
 285.25916 285.99756 286.64990 287.58743
 366.78100 356.32656 345.75011 334.60767 323.00222 311.18778 299.04933 286.84389
 274.54744 262.43600 250.43655 239.72911 229.84266 220.93822 213.11177 206.10533
 199.93088 194.86044 191.43399 189.46755 188.49610 188.55166 189.37821 190.67777
 192.39432 194.48088 196.73543 199.08599 201.52254 203.99410 206.07365 207.90721
 209.52476 210.66132 210.88187 211.10143 211.02998 210.72654 210.35109 209.97265
 209.58120 209.28276 209.08231 208.93787 208.85742 209.17998 209.55753 209.93809
 210.72264 211.89220 213.13375 214.90831 216.82786 218.86242 220.94897 223.02353
 225.07508 227.15064 229.23919 231.33675 233.45730 235.62086 237.86841 240.22997
 242.84252 245.08508 247.07863 248.83519 250.24375 251.35830 252.17186 252.47941
 252.50797 252.27352 251.62508 250.56463 249.16219 247.31474 245.21530 243.03985
 240.82241 238.61796 236.42952 234.26007 232.11163 229.97018 227.98774 226.13629
 224.41085 222.87440 221.49596 220.25951 219.13307 218.08462 217.18018 216.31273
 215.54629 214.71784 213.80740 213.16295 212.60451 213.76611 216.51056 219.21762
 221.13281 222.75598 224.25215 225.62903 226.79179 227.43135 227.14832 226.08501
 225.60980 227.40782 231.34735 235.98709 240.71782 245.32486 249.61742 253.50586
 256.97049 260.18710 263.23590 266.05286 268.37207 270.25818 271.88098 273.59933
 275.55685 277.33499 278.88934 280.25974 281.45312 282.51404 283.48874 284.38046
 285.19360 285.93311 286.58719 287.52658
 366.78100 356.32732 345.75164 334.60997 323.00529 311.19161 299.05393 286.84926
 274.55358 262.44290 250.44422 239.73755 229.85187 220.94819 213.12251 206.11684
 199.94316 194.87348 191.44780 189.48213 188.51145 188.56777 189.39509 190.69542
 192.41274 194.50006 196.75538 199.10671 201.54403 204.01635 206.09667 207.93100
 209.54932 210.68664 210.90796 211.12829 211.05761 210.75493 210.38025 210.00258
 209.61190 209.31422 209.11454 208.97086 208.89119 209.21451 209.59283 209.97415
 210.75948 211.92980 213.17212 214.94744 216.86777 218.90309 220.99041 223.06573
 225.11806 227.19438 229.28370 231.38202 233.50335 235.66767 237.91599 240.27831
 242.89164 245.13496 247.12928 248.88660 250.29593 251.41125 252.22557 252.53389
 252.56322 252.32954 251.68186 250.62218 249.22051 247.37383 245.27515 243.10047
 240.88380 238.68012 236.49244 234.32376 232.17608 230.03541 228.05373 226.20305
 224.47837 222.94270 221.56502 220.32934 219.20366 218.15599 217.25231 216.38563
 215.61995 214.79228 213.88260 213.23892 212.68124 213.82156 216.51570 219.23952
 221.21086 222.81973 224.26851 225.64243 226.85420 227.53481 227.16248 225.95552
 225.45329 227.34521 231.33270 235.98169 240.70226 245.29550 249.58649 253.47307
 256.93161 260.13660 263.17676 265.99582 268.31296 270.19452 271.88364 273.62552
 275.49033 277.25809 278.81281 280.18277 281.37445 282.43628 283.41022 284.30151
 285.11624 285.85764 286.51141 287.45087
 366.78100 356.32822 345.75343 334.61265 323.00887 311.19608 299.05930 286.85552
 274.56073 262.45095 250.45317 239.74738 229.86260 220.95982 213.13503 206.13025
 199.95747 194.88868 191.46390 189.49912 188.52933 188.58655 189.41477 190.71598
 192.43420 194.52242 196.77863 199.13085 201.56906 204.04228 206.12350 207.95871
 209.57793 210.71615 210.93836 211.15958 211.08980 210.78801 210.41423 210.03745
 209.64766 209.35088 209.15210 209.00931 208.93053 209.25475 209.63396 210.01618
 210.80240 211.97361 213.21683 214.99305 216.91426 218.95048 221.03870 223.11491
 225.16813 227.24535 229.33556 231.43478 233.55700 235.72221 237.97143 240.33465
 242.94886 245.19308 247.18830 248.94651 250.35673 251.47295 252.28816 252.59738
 252.62760 252.39481 251.74803 250.68925 249.28846 247.44268 245.34490 243.17111
 240.95533 238.75254 236.56576 234.39798 232.25119 230.11141 228.13063 226.28084
 224.55706 223.02228 221.64549 220.41071 219.28593 218.23914 217.33636 216.47058
 215.70579 214.87901 213.97023 213.32744 212.77066 213.88300 216.51103 219.26616
 221.29126 222.85956 224.29666 225.65233 226.89110 227.64911 227.20358 225.82170
 225.28369 227.28293 231.32014 235.98123 240.69115 245.26582 249.55013 253.43559
 256.89139 260.08972 263.12442 265.95145 268.27692 270.15884 271.87891 273.53345
 275.42557 277.17917 278.72470 280.09100 281.28168 282.34256 283.31665 284.20953
 285.02570 285.76920 286.42587 287.36142
 366.78100 356.32891 345.75483 334.61474 323.01165 311.19957 299.06348 286.86039
 274.56631 262.45722 250.46013 239.75505 229.87096 220.96887 213.14479 206.14070
 199.96861 194.90053 191.47644 189.51235 188.54327 188.60118 189.43009 190.73201
 192.45092 194.53983 196.79675 199.14966 201.58857 204.06249 206.14440 207.98031
 209.60023 210.73914 210.96205 211.18397 211.11488 210.81379 210.44071 210.06462
 209.67553 209.37945 209.18136 209.03927 208.96119 209.28610 209.66601 210.04893
 210.83584 212.00775 213.25167 215.02858 216.95049 218.98741 221.07632 223.15323
 225.20715 227.28506 229.37597 231.47589 233.59880 235.76471 238.01463 240.37854
 242.99345 245.23837 247.23428 248.99319 250.40411 251.52102 252.33693 252.64685
 252.67776 252.44567 251.79959 250.74150 249.34141 247.49633 245.39924 243.22615
 241.01107 238.80898 236.62289 234.45581 232.30972 230.17063 228.19055 226.34146
 224.61837 223.08429 221.70820 220.47411 219.35003 218.30394 217.40185 216.53677
 215.77268 214.94659 214.03851 213.39642 212.84033 213.93416 216.51845 219.26933
 221.39630 222.91118 224.24831 225.66768 226.99431 227.76009 227.22655 225.70464
 225.13509 227.23230 231.31349 235.98459 240.68022 245.23268 249.50951 253.39619
 256.85275 260.04510 263.07349 265.90598 268.23825 270.11606 271.84216 273.48718
 275.32059 277.06714 278.61517 279.98428 281.17700 282.23828 283.21582 284.10889
 284.92548 285.67154 286.33026 287.26749
 366.78100 356.32958 345.75616 334.61673 323.01431 311.20289 299.06747 286.86505
 274.57163 262.46320 250.46678 239.76236 229.87894 220.97752 213.15409 206.15067
 199.97925 194.91183 191.48841 189.52498 188.55656 188.61514 189.44472 190.74730
 192.46688 194.55645 196.81403 199.16761 201.60719 204.08177 206.16434 208.00092
 209.62150 210.76108 210.98466 211.20724 211.13881 210.83839 210.46597 210.09055
 209.70213 209.40670 209.20928 209.06786 208.99044 209.31602 209.69659 210.08017
 210.86775 212.04033 213.28491 215.06249 216.98506 219.02264 221.11222 223.18980
 225.24438 227.32295 229.41453 231.51511 233.63869 235.80527 238.05585 240.42042
 243.03600 245.28158 247.27816 249.03774 250.44931 251.56689 252.38347 252.69405
 252.72563 252.49420 251.84878 250.79136 249.39194 247.54752 245.45110 243.27867
 241.06425 238.86283 236.67741 234.51099 232.36556 230.22714 228.24772 226.39930
 224.67688 223.14345 221.76803 220.53461 219.41119 218.36577 217.46435 216.59992
 215.83650 215.01108 214.10366 213.46224 212.90681 213.98323 216.52638 219.27605
 221.47264 222.99100 224.25407 225.68736 227.06000 227.80330 227.21797 225.64694
 225.05827 227.19031 231.29762 235.98148 240.66322 245.19405 249.46591 253.35667
 256.81522 260.00015 263.02042 265.85629 268.19180 270.06769 271.79651 273.47501
 275.22580 276.96439 278.51541 279.88574 281.07785 282.14062 283.11679 284.01120
 284.82895 285.57437 286.23483 287.17075
 366.78100 356.33036 345.75773 334.61909 323.01746 311.20682 299.07219 286.87055
 274.57792 262.47028 250.47465 239.77101 229.88838 220.98774 213.16511 206.16247
 199.99184 194.92520 191.50257 189.53993 188.57229 188.63166 189.46202 190.76539
 192.48575 194.57612 196.83448 199.18885 201.62921 204.10458 206.18794 208.02531
 209.64667 210.78704 211.01140 211.23477 211.16713 210.86750 210.49586 210.12122
 209.73359 209.43895 209.24232 209.10168 209.02505 209.35141 209.73278 210.11714
 210.90551 212.07887 213.32424 215.10260 217.02597 219.06433 221.15470 223.23306
 225.28843 227.36779 229.46015 231.56152 233.68588 235.85325 238.10461 240.46998
 243.08634 245.33271 247.33007 249.09044 250.50280 251.62117 252.43853 252.74990
 252.78226 252.55163 251.90699 250.85036 249.45172 247.60808 245.51245 243.34081
 241.12718 238.92654 236.74191 234.57627 232.43164 230.29400 228.31537 226.46773
 224.74610 223.21346 221.83883 220.60619 219.48356 218.43892 217.53829 216.67465
 215.91201 215.08738 214.18074 213.54011 212.98547 214.03740 216.52267 219.29630
 221.53543 223.05412 224.28836 225.70755 227.09268 227.82164 227.20776 225.64445
 225.04353 227.14693 231.26511 235.97095 240.64328 245.15532 249.42395 253.31944
 256.77826 259.95474 262.96713 265.80817 268.15070 270.02716 271.75607 273.43460
 275.14368 276.87033 278.41901 279.78882 280.98056 282.04245 283.01868 283.91318
 284.73077 285.47806 286.13904 287.06998
 366.78100 356.33114 345.75928 334.62142 323.02056 311.21070 299.07684 286.87597
 274.58411 262.47725 250.48239 239.77953 229.89767 220.99781 213.17595 206.17409
 200.00423 194.93837 191.51651 189.55465 188.58779 188.64792 189.47906 190.78320
 192.50434 194.59548 196.85462 199.20976 201.65090 204.12704 206.21118 208.04932
 209.67146 210.81260 211.03774 211.26187 211.19501 210.89615 210.52529 210.15143
 209.76457 209.47071 209.27485 209.13499 209.05913 209.38627 209.76841 210.15355
 210.94269 212.11682 213.36296 215.14210 217.06624 219.10538 221.19652 223.27566
 225.33180 227.41194 229.50508 231.60722 233.73236 235.90050 238.15263 240.51877
 243.13591 245.38305 247.38119 249.14233 250.55547 251.67461 252.49275 252.80489
 252.83803 252.60817 251.96431 250.90845 249.51058 247.66772 245.57286 243.40200
 241.18914 238.98928 236.80542 234.64056 232.49670 230.35984 228.38198 226.53512
 224.81426 223.28240 221.90853 220.67667 219.55481 218.51095 217.61109 216.74823
 215.98637 215.16251 214.25665 213.61679 213.06293 214.09029 216.51753 219.31625
 221.60426 223.10625 224.31764 225.71625 227.10767 227.84532 227.20946 225.66003
 225.04858 227.10390 231.22708 235.95961 240.62585 245.12106 249.38551 253.28271
 256.74084 259.91113 262.91565 265.76175 268.11270 269.99152 271.71762 273.38574
 275.06326 276.77524 278.32172 279.68961 280.88135 281.94354 282.91797 283.81287
 284.63071 285.37790 286.03653 286.96893
 366.78100 356.33183 345.76066 334.62349 323.02332 311.21415 299.08098 286.88081
 274.58964 262.48347 250.48930 239.78714 229.90597 221.00680 213.18563 206.18446
 200.01529 194.95012 191.52895 189.56778 188.60161 188.66244 189.49427 190.79910
 192.52093 194.61276 196.87259 199.22842 201.67025 204.14708 206.23191 208.07075
 209.69358 210.83541 211.06124 211.28607 211.21990 210.92173 210.55156 210.17839
 209.79222 209.49905 209.30388 209.16471 209.08954 209.41737 209.80020 210.18603
 210.97586 212.15069 213.39752 215.17736 217.10219 219.14202 221.23385 223.31368
 225.37051 227.45134 229.54517 231.64800 233.77383 235.94266 238.19549 240.56232
 243.18015 245.42798 247.42681 249.18864 250.60247 251.72230 252.54113 252.85397
 252.88780 252.65863 252.01546 250.96029 249.56312 247.72095 245.62678 243.45661
 241.24444 239.04527 236.86210 234.69793 232.55476 230.41859 228.44142 226.59525
 224.87508 223.34391 221.97074 220.73958 219.61841 218.57524 217.67607 216.81390
 216.05273 215.22956 214.32439 213.68522 213.13205 214.13800 216.51465 219.33150
 221.67340 223.16020 224.33977 225.71317 227.10883 227.86945 227.22047 225.67844
 225.05643 227.06866 231.19472 235.95262 240.61295 245.09071 249.34882 253.24626
 256.70428 259.86777 262.86569 265.71652 268.07501 269.95584 271.67804 273.33673
 274.98633 276.67981 278.22211 279.59000 280.77985 281.84113 282.81650 283.71030
 284.52753 285.27362 285.93436 286.86063
 366.78100 356.33246 345.76193 334.62539 323.02586 311.21732 299.08478 286.88525
 274.59471 262.48917 250.49564 239.79410 229.91357 221.01503 213.19449 206.19396
 200.02542 194.96089 191.54035 189.57981 188.61428 188.67574 189.50821 190.81367
 192.53613 194.62860 196.88906 199.24552 201.68799 204.16545 206.25092 208.09038
 209.71384 210.85631 211.08277 211.30824 211.24270 210.94516 210.57563 210.20309
 209.81756 209.52502 209.33048 209.19195 209.11741 209.44587 209.82934 210.21580
 211.00627 212.18173 213.42919 215.20966 217.13512 219.17559 221.26805 223.34851
 225.40598 227.48744 229.58191 231.68537 233.81183 235.98130 238.23476 240.60222
 243.22069 245.46915 247.46862 249.23108 250.64554 251.76601 252.58547 252.89894
 252.93340 252.70486 252.06233 251.00779 249.61126 247.76972 245.67618 243.50665
 241.29511 239.09657 236.91404 234.75050 232.60797 230.47243 228.49589 226.65036
 224.93082 223.40029 222.02775 220.79721 219.67668 218.63414 217.73561 216.87407
 216.11353 215.29100 214.38646 213.74792 213.19539 214.18237 216.51425 219.34435
 221.73775 223.21684 224.35941 225.70271 227.09618 227.88226 227.23386 225.69986
 225.06828 227.04449 231.17137 235.95062 240.60449 245.06384 249.31461 253.21198
 256.67010 259.82690 262.81647 265.67035 268.03534 269.91806 271.63577 273.28537
 274.91006 276.58752 278.12482 279.49286 280.68179 281.74155 282.71594 283.60919
 284.42599 285.17111 285.83069 286.75107
 366.78100 356.33304 345.76308 334.62712 323.02815 311.22019 299.08823 286.88927
 274.59931 262.49435 250.50139 239.80042 229.92046 221.02250 213.20254 206.20258
 200.03462 194.97066 191.55069 189.59073 188.62577 188.68781 189.52085 190.82689
 192.54992 194.64296 196.90400 199.26104 201.70408 204.18212 206.26816 208.10819
 209.73223 210.87527 211.10231 211.32835 211.26339 210.96643 210.59746 210.22550
 209.84054 209.54858 209.35462 209.21666 209.14270 209.47173 209.85577 210.24281
 211.03385 212.20989 213.45793 215.23897 217.16500 219.20604 221.29908 223.38012
 225.43816 227.52020 229.61523 231.71927 233.84631 236.01635 238.27039 240.63843
 243.25747 245.50650 247.50654 249.26958 250.68462 251.80566 252.62570 252.93974
 252.97477 252.74681 252.10485 251.05089 249.65493 247.81397 245.72101 243.55204
 241.34108 239.14312 236.96116 234.79820 232.65624 230.52128 228.54531 226.70035
 224.98139 223.45143 222.07947 220.84951 219.72955 218.68758 217.78962 216.92866
 216.16870 215.34674 214.44278 213.80481 213.25285 214.22409 216.51872 219.35387
 221.79625 223.27509 224.38110 225.69102 227.07228 227.87720 227.24236 225.72841
 225.09109 227.03122 231.15619 235.95282 240.59970 245.04147 249.28453 253.18120
 256.63861 259.78839 262.76956 265.62308 267.99417 269.88049 271.59399 273.23297
 274.83969 276.49747 278.02927 279.39563 280.58295 281.64279 282.61575 283.50653
 284.32126 285.06430 285.72165 286.63770
 366.78100 356.33358 345.76415 334.62873 323.03030 311.22288 299.09145 286.89303
 274.60360 262.49918 250.50675 239.80633 229.92690 221.02948 213.21005 206.21063
 200.04320 194.97978 191.56035 189.60093 188.63650 188.69908 189.53265 190.83923
 192.56280 194.65638 196.91795 199.27553 201.71911 204.19768 206.28426 208.12483
 209.74941 210.89298 211.12056 211.34713 211.28271 210.98628 210.61786 210.24643
 209.86201 209.57058 209.37716 209.23973 209.16631 209.49588 209.88046 210.26803
 211.05961 212.23618 213.48476 215.26633 217.19291 219.23448 221.32806 223.40964
 225.46821 227.55079 229.64636 231.75094 233.87851 236.04909 238.30366 240.67224
 243.29181 245.54139 247.54196 249.30554 250.72111 251.84269 252.66326 252.97784
 253.01341 252.78599 252.14456 251.09114 249.69571 247.85529 245.76286 243.59444
 241.38401 239.18659 237.00517 234.84274 232.70132 230.56689 228.59147 226.74704
 225.02862 223.49919 222.12777 220.89834 219.77892 218.73749 217.84007 216.97964
 216.22022 215.39879 214.49537 213.85794 213.30652 214.26439 216.52750 219.35977
 221.84970 223.33571 224.40671 225.67964 227.03929 227.85281 227.24016 225.76328
 225.12866 227.02968 231.14839 235.95889 240.59955 245.02663 249.26216 253.15596
 256.61020 259.75101 262.72226 265.57245 267.94547 269.83441 271.54382 273.17764
 274.77426 276.41327 277.94000 279.30536 280.49225 281.55115 282.52231 283.41443
 284.22818 284.97360 285.63571 286.54578
 366.78100 356.33405 345.76509 334.63014 323.03218 311.22523 299.09427 286.89632
 274.60736 262.50341 250.51145 239.81150 229.93254 221.03559 213.21663 206.21768
 200.05072 194.98777 191.56881 189.60986 188.64590 188.70895 189.54299 190.85004
 192.57408 194.66813 196.93017 199.28822 201.73226 204.21131 206.29835 208.13940
 209.76444 210.90849 211.13654 211.36358 211.29963 211.00367 210.63572 210.26476
 209.88081 209.58985 209.39690 209.25994 209.18699 209.51703 209.90208 210.29012
 211.08217 212.25921 213.50826 215.29030 217.21735 219.25939 221.35344 223.43548
 225.49453 227.57757 229.67362 231.77866 233.90671 236.07775 238.33280 240.70184
 243.32189 245.57194 247.57298 249.33703 250.75307 251.87512 252.69616 253.01121
 253.04725 252.82030 252.17934 251.12639 249.73143 247.89148 245.79952 243.63157
 241.42161 239.22466 237.04370 234.88175 232.74079 230.60684 228.63188 226.78793
 225.06997 223.54102 222.17006 220.94111 219.82215 218.78120 217.88424 217.02429
 216.26533 215.44438 214.54143 213.90447 213.35352 214.30122 216.54028 219.36194
 221.89473 223.39883 224.43788 225.66946 226.99817 227.80484 227.22310 225.80496
 225.17950 227.03806 231.14839 235.96916 240.60666 245.02116 249.24724 253.13611
 256.58490 259.71649 262.67657 265.52112 267.89441 269.78265 271.48666 273.11609
 274.70932 276.33154 277.85452 279.21790 280.40543 281.46265 282.43323 283.32370
 284.14041 284.89023 285.55563 286.44775
 366.78100 356.33448 345.76595 334.63143 323.03390 311.22738 299.09685 286.89933
 274.61080 262.50728 250.51575 239.81623 229.93771 221.04118 213.22266 206.22413
 200.05761 194.99508 191.57656 189.61803 188.65451 188.71798 189.55246 190.85994
 192.58441 194.67889 196.94136 199.29984 201.74431 204.22379 206.31126 208.15274
 209.77821 210.92269 211.15117 211.37864 211.31512 211.01959 210.65207 210.28154
 209.89802 209.60749 209.41497 209.27844 209.20592 209.53640 209.92187 210.31035
 211.10282 212.28030 213.52977 215.31225 217.23972 219.28220 221.37667 223.45915
 225.51863 227.60210 229.69858 231.80405 233.93253 236.10400 238.35948 240.72895
 243.34943 245.59990 247.60138 249.36586 250.78233 251.90481 252.72628 253.04176
 253.07823 252.85171 252.21118 251.15866 249.76413 247.92461 245.83309 243.66556
 241.45604 239.25951 237.07899 234.91746 232.77694 230.64341 228.66889 226.82536
 225.10784 223.57932 222.20879 220.98027 219.86174 218.82122 217.92469 217.06517
 216.30664 215.48612 214.58359 213.94707 213.39655 214.33583 216.55498 219.36485
 221.93034 223.46217 224.47598 225.66277 226.95117 227.73709 227.18889 225.84071
 225.23688 227.05797 231.15491 235.98552 240.62231 245.02710 249.24327 253.12442
 256.56512 259.68500 262.63287 265.46634 267.83701 269.72577 271.42505 273.05081
 274.64459 276.25134 277.76672 279.12863 280.31564 281.37106 282.33768 283.22766
 284.04752 284.80463 285.46075 286.34091
 366.78100 356.33487 345.76675 334.63262 323.03549 311.22937 299.09924 286.90211
 274.61399 262.51086 250.51973 239.82061 229.94248 221.04635 213.22823 206.23010
 200.06397 195.00185 191.58372 189.62559 188.66247 188.72634 189.56121 190.86909
 192.59396 194.68884 196.95171 199.31058 201.75546 204.23533 206.32320 208.16508
 209.79095 210.93582 211.16470 211.39257 211.32944 211.03432 210.66719 210.29706
 209.91394 209.62381 209.43168 209.29556 209.22343 209.55430 209.94018 210.32905
 211.12192 212.29980 213.54967 215.33254 217.26042 219.30329 221.39816 223.48104
 225.54091 227.62478 229.72166 231.82753 233.95640 236.12828 238.38415 240.75402
 243.37490 245.62577 247.62764 249.39252 250.80939 251.93226 252.75414 253.07001
 253.10689 252.88076 252.24063 251.18851 249.79438 247.95525 245.86413 243.69700
 241.48787 239.29175 237.11162 234.95049 232.81037 230.67724 228.70311 226.85999
 225.14286 223.61473 222.24461 221.01648 219.89835 218.85823 217.96210 217.10297
 216.34485 215.52472 214.62259 213.98647 213.43634 214.36882 216.57190 219.36617
 221.95808 223.52632 224.51898 225.65799 226.89827 227.65166 227.14214 225.87012
 225.28761 227.08118 231.17000 236.00664 240.65187 245.04770 249.24852 253.11899
 256.54944 259.65955 262.59430 265.41803 267.78668 269.66959 271.35220 272.96591
 274.56421 276.16693 277.68076 279.04083 280.22537 281.27814 282.23825 283.12476
 283.95300 284.72794 285.36627 286.23547
 366.78100 356.33511 345.76722 334.63333 323.03645 311.23056 299.10067 286.90378
 274.61589 262.51300 250.52212 239.82323 229.94534 221.04945 213.23156 206.23367
 200.06779 195.00590 191.58801 189.63012 188.66723 188.73134 189.56646 190.87457
 192.59968 194.69479 196.95790 199.31701 201.76212 204.24224 206.33035 208.17246
 209.79857 210.94368 211.17279 211.40091 211.33802 211.04313 210.67624 210.30635
 209.92346 209.63358 209.44169 209.30580 209.23391 209.56502 209.95113 210.34024
 211.13336 212.31147 213.56158 215.34469 217.27280 219.31591 221.41103 223.49414
 225.55425 227.63836 229.73547 231.84158 233.97070 236.14281 238.39892 240.76903
 243.39014 245.64125 247.64337 249.40848 250.82559 251.94870 252.77081 253.08692
 253.12403 252.89815 252.25826 251.20637 249.81248 247.97359 245.88270 243.71582
 241.50693 239.31104 237.13115 234.97026 232.83037 230.69749 228.72360 226.88071
 225.16382 223.63593 222.26604 221.03815 219.92027 218.88038 217.98449 217.12560
 216.36771 215.54782 214.64594 214.01005 213.46016 214.39301 216.59694 219.36726
 221.97179 223.58846 224.57645 225.67073 226.84807 227.55341 227.07425 225.86533
 225.31894 227.11426 231.18971 236.03290 240.68716 245.08102 249.26843 253.12659
 256.54575 259.64191 262.55927 265.36508 267.72452 269.61108 271.28864 272.90097
 274.48746 276.09116 277.61029 278.97397 280.16098 281.22223 282.21127 283.11926
 283.93726 284.65741 285.28546 286.14114
 366.78100 356.33514 345.76728 334.63341 323.03655 311.23069 299.10083 286.90396
 274.61610 262.51324 250.52238 239.82351 229.94565 221.04979 213.23193 206.23407
 200.06820 195.00634 191.58848 189.63062 188.66775 188.73189 189.56703 190.87517
 192.60030 194.69544 196.95858 199.31772 201.76286 204.24299 206.33113 208.17327
 209.79941 210.94454 211.17368 211.40182 211.33896 211.04409 210.67723 210.30737
 209.92451 209.63465 209.44278 209.30692 209.23506 209.56620 209.95233 210.34147
 211.13461 212.31275 213.56288 215.34602 217.27416 219.31730 221.41244 223.49557
 225.55571 227.63985 229.73699 231.84312 233.97226 236.14440 238.40054 240.77067
 243.39181 245.64295 247.64509 249.41022 250.82736 251.95050 252.77264 253.08878
 253.12591 252.90005 252.26019 251.20833 249.81446 247.97560 245.88474 243.71788
 241.50901 239.31315 237.13329 234.97243 232.83257 230.69970 228.72584 226.88298
 225.16612 223.63825 222.26839 221.04053 219.92267 218.88280 217.98694 217.12808
 216.37022 215.55036 214.64849 214.01263 213.46277 214.40747 216.63943 219.36784
 221.96561 223.64203 224.63185 225.69173 226.81270 227.46663 227.00354 225.83685
 225.31279 227.09651 231.21332 236.09314 240.75777 245.14174 249.31036 253.15170
 256.56613 259.64331 262.54266 265.32645 267.66867 269.51987 271.16714 272.76447
 274.37604 276.01254 277.51666 278.87234 280.05594 281.11691 282.11328 283.02722
 283.82895 284.51498 285.08542 285.79120
 366.78100 356.33599 345.76897 334.63596 323.03995 311.23494 299.10592 286.90991
 274.62290 262.52089 250.53087 239.83286 229.95585 221.06084 213.24382 206.24681
 200.08180 195.02079 191.60377 189.64676 188.68475 188.74974 189.58572 190.89471
 192.62070 194.71669 196.98067 199.34066 201.78665 204.26764 206.35662 208.19961
 209.82660 210.97259 211.20257 211.43156 211.36955 211.07554 210.70952 210.34051
 209.95850 209.66949 209.47847 209.34346 209.27245 209.60444 209.99142 210.38141
 211.17540 212.35438 213.60537 215.38936 217.31835 219.36233 221.45832 223.54231
 225.60330 227.68828 229.78627 231.89326 234.02325 236.19623 238.45322 240.82421
 243.44620 245.69818 247.70117 249.46716 250.88515 252.00913 252.83212 253.14911
 253.18710 252.96208 252.32307 251.27206 249.87905 248.04103 245.95102 243.78501
 241.57700 239.38198 237.20297 235.04296 232.90395 230.77193 228.79892 226.95691
 225.24090 223.71388 222.34487 221.11786 220.00085 218.96183 218.06682 217.20881
 216.45179 215.63278 214.73177 214.09676 213.54774 214.46315 216.62590 219.37909
 222.00154 223.67860 224.67773 225.70595 226.75922 227.37994 226.95921 225.82890
 225.32684 227.12910 231.22041 236.10478 240.79874 245.18808 249.34027 253.16258
 256.55719 259.62164 262.51157 265.26483 267.58716 269.45224 271.10156 272.67889
 274.31192 275.91690 277.39716 278.72415 279.85071 280.89471 281.87537 282.75430
 283.43958 284.11197 284.70605 285.48114
 366.78100 356.33708 345.77115 334.63923 323.04430 311.24038 299.11245 286.91753
 274.63160 262.53068 250.54175 239.84483 229.96890 221.07498 213.25905 206.26313
 200.09920 195.03928 191.62335 189.66743 188.70650 188.77258 189.60966 190.91973
 192.64681 194.74388 197.00896 199.37003 201.81711 204.29918 206.38926 208.23333
 209.86141 211.00848 211.23956 211.46963 211.40871 211.11578 210.75086 210.38293
 210.00201 209.71409 209.52416 209.39024 209.32031 209.65339 210.04146 210.43254
 211.22761 212.40769 213.65976 215.44484 217.37491 219.41999 221.51706 223.60214
 225.66421 227.75029 229.84936 231.95744 234.08851 236.26259 238.52067 240.89274
 243.51582 245.76889 247.77297 249.54004 250.95912 252.08419 252.90827 253.22634
 253.26542 253.04149 252.40357 251.35364 249.96172 248.12479 246.03587 243.87094
 241.66402 239.47009 237.29217 235.13325 232.99532 230.86440 228.89247 227.05155
 225.33662 223.81070 222.44277 221.21685 220.10092 219.06300 218.16907 217.31215
 216.55622 215.73830 214.83837 214.20445 213.65652 214.53540 216.61185 219.34193
 222.05986 223.74629 224.67290 225.67282 226.66797 227.27209 226.93324 225.88434
 225.36200 227.13562 231.24034 236.12897 240.81303 245.22096 249.39406 253.21300
 256.60925 259.66492 262.53296 265.27844 267.57843 269.38934 270.95712 272.51978
 274.17435 275.78543 277.23029 278.47147 279.53693 280.58691 281.55228 282.36099
 283.00464 283.65082 284.26959 285.06793
 366.78100 356.33668 345.77035 334.63803 323.04270 311.23838 299.11006 286.91473
 274.62841 262.52709 250.53776 239.84044 229.96411 221.06979 213.25347 206.25714
 200.09282 195.03250 191.61617 189.65985 188.69852 188.76420 189.60088 190.91055
 192.63723 194.73391 196.99858 199.35926 201.80593 204.28761 206.37729 208.22096
 209.84864 210.99532 211.22599 211.45567 211.39434 211.10102 210.73570 210.36737
 209.98605 209.69773 209.50740 209.37308 209.30275 209.63543 210.02311 210.41378
 211.20846 212.38814 213.63981 215.42449 217.35416 219.39884 221.49552 223.58019
 225.64187 227.72755 229.82622 231.93390 234.06457 236.23825 238.49593 240.86760
 243.49028 245.74295 247.74663 249.51331 250.93198 252.05666 252.88034 253.19801
 253.23669 253.01236 252.37404 251.32372 249.93139 248.09407 246.00475 243.83942
 241.63210 239.43777 237.25945 235.10013 232.96180 230.83048 228.85816 227.01683
 225.30151 223.77518 222.40686 221.18054 220.06421 219.02589 218.13157 217.27424
 216.51792 215.69959 214.79927 214.16495 213.61662 214.53427 216.71472 219.24078
 222.01123 223.69719 224.56477 225.64449 226.67639 227.27811 226.90637 226.06110
 225.29045 227.05363 231.16165 236.14932 240.86783 245.28358 249.41701 253.22133
 256.61459 259.68375 262.57050 265.28580 267.58530 269.40295 270.92154 272.51163
 274.07358 275.59909 276.97604 278.07599 279.05377 280.06970 281.03775 281.91574
 282.72275 283.44586 284.07758 284.88263
 366.78100 356.33628 345.76957 334.63685 323.04113 311.23642 299.10770 286.91198
 274.62527 262.52355 250.53383 239.83612 229.95940 221.06468 213.24797 206.25125
 200.08653 195.02582 191.60910 189.65238 188.69067 188.75595 189.59223 190.90152
 192.62780 194.72408 196.98837 199.34865 201.79493 204.27622 206.36550 208.20878
 209.83607 210.98235 211.21263 211.44192 211.38020 211.08648 210.72077 210.35205
 209.97033 209.68162 209.49090 209.35618 209.28547 209.61775 210.00503 210.39532
 211.18960 212.36888 213.62017 215.40445 217.33373 219.37802 221.47430 223.55858
 225.61987 227.70515 229.80343 231.91072 234.04100 236.21428 238.47157 240.84285
 243.46513 245.71742 247.72070 249.48698 250.90527 252.02955 252.85283 253.17012
 253.20840 252.98368 252.34497 251.29425 249.90153 248.06382 245.97410 243.80838
 241.60067 239.40595 237.22723 235.06752 232.92880 230.79708 228.82437 226.98265
 225.26693 223.74022 222.37150 221.14478 220.02807 218.98935 218.09463 217.23691
 216.48020 215.66148 214.76076 214.12605 213.57733 214.53049 216.82465 219.30473
 221.72025 223.48627 224.67456 225.77768 226.70493 227.30534 226.84421 226.26401
 225.12729 227.03668 231.15860 236.06445 240.86661 245.27945 249.39955 253.17314
 256.56787 259.65991 262.58066 265.32794 267.66248 269.51706 271.03101 272.49689
 274.04541 275.54532 276.77151 277.90225 279.09518 280.19504 281.30826 282.32874
 283.24655 284.06387 284.77786 285.68777
 366.78100 356.33685 345.77071 334.63856 323.04341 311.23927 299.11112 286.91597
 274.62982 262.52868 250.53953 239.84238 229.96624 221.07209 213.25594 206.25980
 200.09565 195.03550 191.61936 189.66321 188.70206 188.76791 189.60477 190.91462
 192.64147 194.73833 197.00318 199.36403 201.81089 204.29274 206.38259 208.22645
 209.85430 211.00115 211.23200 211.46186 211.40071 211.10756 210.74242 210.37427
 209.99312 209.70498 209.51483 209.38068 209.31054 209.64339 210.03124 210.42209
 211.21695 212.39680 213.64865 215.43351 217.36336 219.40821 221.50507 223.58992
 225.65177 227.73763 229.83648 231.94433 234.07518 236.24904 238.50689 240.87874
 243.50160 245.75445 247.75830 249.52516 250.94401 252.06886 252.89272 253.21057
 253.24942 253.02527 252.38713 251.33698 249.94483 248.10769 246.01854 243.85339
 241.64625 239.45210 237.27395 235.11481 232.97666 230.84551 228.87336 227.03222
 225.31707 223.79092 222.42278 221.19663 220.08048 219.04234 218.14819 217.29104
 216.53490 215.71675 214.81660 214.18245 213.63431 214.56931 216.83409 219.38884
 221.59439 223.51648 224.96086 225.81267 226.55646 227.07573 226.86058 226.19363
 225.29805 227.12352 231.20677 236.07803 240.85829 245.30101 249.39680 253.12323
 256.48862 259.56357 262.51157 265.31198 267.70837 269.62256 271.14566 272.56699
 274.09903 275.57263 276.82507 278.08435 279.30859 280.46243 281.59006 282.61160
 283.53036 284.34854 285.06326 285.97412
 366.78100 356.33699 345.77098 334.63897 323.04397 311.23996 299.11195 286.91694
 274.63093 262.52992 250.54091 239.84391 229.96790 221.07389 213.25788 206.26187
 200.09786 195.03786 191.62185 189.66584 188.70483 188.77082 189.60781 190.91780
 192.64480 194.74179 197.00678 199.36777 201.81476 204.29675 206.38674 208.23074
 209.85873 211.00572 211.23671 211.46670 211.40569 211.11268 210.74768 210.37967
 209.99866 209.71065 209.52064 209.38663 209.31662 209.64962 210.03761 210.42860
 211.22359 212.40358 213.65557 215.44057 217.37056 219.41555 221.51254 223.59753
 225.65952 227.74551 229.84451 231.95250 234.08349 236.25748 238.51547 240.88746
 243.51045 245.76345 247.76744 249.53443 250.95342 252.07841 252.90240 253.22039
 253.25939 253.03538 252.39737 251.34736 249.95535 248.11834 246.02934 243.86433
 241.65732 239.46331 237.28530 235.12629 232.98828 230.85728 228.88527 227.04426
 225.32925 223.80324 222.43523 221.20922 220.09322 219.05521 218.16120 217.30419
 216.54818 215.73017 214.83016 214.19616 213.64815 214.58670 216.83981 219.35744
 221.72194 223.44392 224.91318 225.78372 226.49013 226.90887 226.87085 225.94231
 225.26428 227.09969 231.26100 236.14336 240.91730 245.34508 249.45851 253.16331
 256.46606 259.49222 262.39868 265.14563 267.55362 269.56546 271.23410 272.70801
 274.18951 275.62549 276.91797 278.18304 279.38602 280.46793 281.47583 282.43912
 283.30548 284.07697 284.75095 285.60983
 366.78100 356.33668 345.77035 334.63803 323.04271 311.23838 299.11006 286.91473
 274.62841 262.52709 250.53776 239.84044 229.96412 221.06979 213.25347 206.25715
 200.09282 195.03250 191.61617 189.65985 188.69853 188.76420 189.60088 190.91056
 192.63723 194.73391 196.99859 199.35926 201.80594 204.28762 206.37729 208.22097
 209.84864 210.99532 211.22600 211.45567 211.39435 211.10103 210.73570 210.36738
 209.98606 209.69773 209.50741 209.37308 209.30276 209.63544 210.02311 210.41379
 211.20847 212.38814 213.63982 215.42450 217.35417 219.39885 221.49552 223.58020
 225.64188 227.72755 229.82623 231.93391 234.06458 236.23826 238.49594 240.86761
 243.49029 245.74296 247.74664 249.51332 250.93199 252.05667 252.88035 253.19802
 253.23670 253.01238 252.37405 251.32373 249.93141 248.09408 246.00476 243.83943
 241.63211 239.43779 237.25946 235.10014 232.96182 230.83049 228.85817 227.01685
 225.30152 223.77520 222.40687 221.18055 220.06423 219.02590 218.13158 217.27426
 216.51793 215.69961 214.79929 214.16496 213.61664 214.58357 216.89066 219.29143
 221.85875 223.51329 224.71298 225.78885 226.55710 226.90494 226.81830 225.80185
 225.22450 227.17018 231.29276 236.18965 240.97675 245.40518 249.50760 253.20863
 256.52255 259.54016 262.40762 265.09171 267.43616 269.39282 271.07870 272.63065
 274.16956 275.63104 276.91971 278.20047 279.40857 280.47495 281.45200 282.43127
 283.31952 284.11050 284.80148 285.68207
 366.78100 356.33717 345.77134 334.63952 323.04469 311.24086 299.11303 286.91820
 274.63238 262.53155 250.54272 239.84589 229.97006 221.07624 213.26041 206.26458
 200.10075 195.04092 191.62510 189.66927 188.70844 188.77461 189.61178 190.92196
 192.64913 194.74630 197.01147 199.37264 201.81982 204.30199 206.39216 208.23633
 209.86450 211.01168 211.24285 211.47302 211.41219 211.11936 210.75454 210.38671
 210.00588 209.71805 209.52822 209.39440 209.32457 209.65774 210.04591 210.43708
 211.23226 212.41243 213.66460 215.44977 217.37994 219.42512 221.52229 223.60746
 225.66963 227.75580 229.85498 231.96315 234.09432 236.26849 238.52666 240.89884
 243.52201 245.77518 247.77935 249.54652 250.96570 252.09087 252.91504 253.23321
 253.27238 253.04856 252.41073 251.36090 249.96907 248.13224 246.04342 243.87859
 241.67176 239.47793 237.30010 235.14127 233.00345 230.87262 228.90079 227.05996
 225.34513 223.81931 222.45148 221.22565 220.10982 219.07199 218.17817 217.32134
 216.56551 215.74768 214.84785 214.21403 213.66620 214.62239 216.92311 219.33087
 221.77888 223.42970 224.67145 225.87268 226.68764 226.95496 226.67497 225.86919
 225.19133 227.28680 231.36740 236.20056 240.98358 245.41745 249.50485 253.21059
 256.53232 259.57239 262.44150 265.12180 267.44852 269.37207 271.02039 272.51077
 274.02914 275.46744 276.93237 278.30731 279.54285 280.69196 281.84134 282.88260
 283.81909 284.65305 285.38156 286.30997
 366.78100 356.33808 345.77317 334.64225 323.04834 311.24542 299.11851 286.92459
 274.63968 262.53976 250.55185 239.85593 229.98102 221.08810 213.27319 206.27827
 200.11536 195.05644 191.64153 189.68661 188.72670 188.79378 189.63186 190.94295
 192.67103 194.76912 197.03520 199.39729 201.84537 204.32846 206.41954 208.26463
 209.89371 211.04180 211.27388 211.50497 211.44505 211.15314 210.78922 210.42231
 210.04239 209.75548 209.56656 209.43365 209.36473 209.69881 210.08790 210.47998
 211.27607 212.45715 213.71024 215.49632 217.42741 219.47349 221.57158 223.65766
 225.72075 227.80783 229.90792 232.01700 234.14909 236.32417 238.58326 240.95634
 243.58043 245.83451 247.83959 249.60768 251.02776 252.15385 252.97893 253.29802
 253.33810 253.11519 252.47827 251.42936 250.03844 248.20253 246.11461 243.95070
 241.74478 239.55187 237.37495 235.21704 233.08012 230.95021 228.97929 227.13937
 225.42546 223.90054 222.53363 221.30871 220.19380 219.15688 218.26397 217.40805
 216.65314 215.83622 214.93731 214.30439 213.75748 214.68411 216.93900 219.36223
 221.78496 223.46927 224.84441 225.95190 226.65070 226.83260 226.52843 225.89050
 225.42253 227.42104 231.42201 236.21785 240.98547 245.42273 249.50227 253.19267
 256.46738 259.54062 262.45090 265.14481 267.51074 269.51685 271.20755 272.68216
 274.08972 275.55511 277.11920 278.55130 279.95087 281.28793 282.50784 283.61298
 284.60690 285.49203 286.26526 287.25064
 366.78100 356.33836 345.77372 334.64308 323.04944 311.24679 299.12015 286.92651
 274.64187 262.54223 250.55459 239.85895 229.98431 221.09167 213.27703 206.28238
 200.11974 195.06110 191.64646 189.69182 188.73218 188.79954 189.63790 190.94926
 192.67762 194.77597 197.04233 199.40469 201.85305 204.33641 206.42777 208.27313
 209.90249 211.05085 211.28320 211.51456 211.45492 211.16328 210.79964 210.43300
 210.05336 209.76672 209.57808 209.44544 209.37679 209.71115 210.10051 210.49287
 211.28923 212.47059 213.72395 215.51031 217.44167 219.48803 221.58638 223.67274
 225.73610 227.82346 229.92382 232.03318 234.16554 236.34090 238.60026 240.97362
 243.59797 245.85233 247.85769 249.62605 251.04641 252.17277 252.99813 253.31749
 253.35785 253.13520 252.49856 251.44992 250.05928 248.22364 246.13600 243.97236
 241.76672 239.57408 237.39744 235.23979 233.10315 230.97351 229.00287 227.16323
 225.44959 223.92495 222.55831 221.33367 220.21903 219.18238 218.28974 217.43410
 216.67946 215.86282 214.96418 214.33154 213.78490 214.70557 216.93663 219.36565
 221.79001 223.36034 224.79976 225.96182 226.62369 226.75467 226.52406 225.76808
 225.40604 227.38887 231.43550 236.22639 240.99789 245.43811 249.50488 253.17307
 256.44937 259.49850 262.37540 265.05453 267.43988 269.50824 271.32074 272.89233
 274.31955 275.74667 277.29138 278.69846 279.98587 281.22330 282.36694 283.40302
 284.33484 285.16461 285.88950 286.81329
 366.78100 356.33893 345.77486 334.64478 323.05171 311.24964 299.12357 286.93050
 274.64643 262.54735 250.56028 239.86521 229.99114 221.09907 213.28500 206.29092
 200.12885 195.07078 191.65671 189.70264 188.74357 188.81149 189.65042 190.96235
 192.69128 194.79021 197.05714 199.42006 201.86899 204.35292 206.44485 208.29078
 209.92070 211.06963 211.30256 211.53449 211.47542 211.18435 210.82127 210.45520
 210.07613 209.79006 209.60199 209.46992 209.40184 209.73677 210.12670 210.51963
 211.31656 212.49849 213.75241 215.53934 217.47127 219.51820 221.61713 223.70406
 225.76798 227.85591 229.95684 232.06677 234.19970 236.37562 238.63555 241.00948
 243.63441 245.88934 247.89527 249.66419 251.08512 252.21205 253.03798 253.35791
 253.39884 253.17676 252.54069 251.49262 250.10255 248.26748 246.18041 244.01733
 241.81226 239.62019 237.44412 235.28705 233.15098 231.02190 229.05183 227.21276
 225.49969 223.97562 222.60954 221.38547 220.27140 219.23533 218.34326 217.48819
 216.73411 215.91804 215.01997 214.38790 213.84183 214.74094 216.92343 219.40143
 221.77599 223.26643 224.73962 226.05685 226.67575 226.65715 226.42801 225.68089
 225.40504 227.40976 231.45055 236.23590 241.01555 245.46468 249.53040 253.19806
 256.47281 259.43735 262.35358 265.02008 267.33374 269.31262 271.06708 272.69864
 274.28094 275.86914 277.43686 278.83771 280.08191 281.30289 282.47754 283.54169
 284.49878 285.35107 286.09561 287.04446
 366.78100 356.33846 345.77392 334.64337 323.04983 311.24729 299.12075 286.92720
 274.64266 262.54312 250.55558 239.86003 229.98549 221.09295 213.27841 206.28386
 200.12132 195.06278 191.64824 189.69369 188.73415 188.80161 189.64007 190.95152
 192.67998 194.77844 197.04490 199.40735 201.85581 204.33927 206.43073 208.27618
 209.90564 211.05410 211.28656 211.51801 211.45847 211.16693 210.80339 210.43684
 210.05730 209.77076 209.58222 209.44967 209.38113 209.71559 210.10505 210.49750
 211.29396 212.47542 213.72888 215.51533 217.44679 219.49325 221.59171 223.67816
 225.74162 227.82908 229.92954 232.03899 234.17145 236.34691 238.60637 240.97983
 243.60428 245.85874 247.86420 249.63266 251.05311 252.17957 253.00503 253.32449
 253.36494 253.14240 252.50586 251.45732 250.06677 248.23123 246.14369 243.98015
 241.77460 239.58206 237.40552 235.24798 233.11143 230.98189 229.01135 227.17181
 225.45826 223.93372 222.56718 221.34264 220.22809 219.19155 218.29901 217.44347
 216.68892 215.87238 214.97384 214.34130 213.79475 214.72743 216.99940 219.40686
 221.68425 223.39940 224.94279 226.08716 226.57982 226.52620 226.27890 225.72571
 225.54231 227.54585 231.50157 236.25067 241.01816 245.47006 249.54546 253.23753
 256.50464 259.50418 262.35861 265.00153 267.29446 269.22729 270.91602 272.53595
 274.23590 276.01007 277.58658 279.03275 280.41965 281.68857 282.84625 283.89505
 284.83832 285.67831 286.41211 287.34726
 366.78100 356.33768 345.77236 334.64103 323.04671 311.24339 299.11607 286.92174
 274.63642 262.53610 250.54778 239.85146 229.97613 221.08281 213.26749 206.27217
 200.10885 195.04952 191.63420 189.67888 188.71856 188.78523 189.62291 190.93359
 192.66127 194.75895 197.02462 199.38630 201.83398 204.31666 206.40733 208.25201
 209.88069 211.02837 211.26005 211.49072 211.43040 211.13808 210.77376 210.40643
 210.02611 209.73879 209.54947 209.41615 209.34682 209.68050 210.06918 210.46086
 211.25654 212.43721 213.68989 215.47557 217.40625 219.45192 221.54960 223.63528
 225.69796 227.78464 229.88431 231.99299 234.12467 236.29935 238.55802 240.93070
 243.55438 245.80806 247.81274 249.58041 251.00009 252.12577 252.95045 253.26912
 253.30880 253.08548 252.44816 251.39884 250.00751 248.17119 246.08287 243.91855
 241.71223 239.51890 237.34158 235.18326 233.04594 230.91561 228.94429 227.10397
 225.38965 223.86433 222.49700 221.27168 220.15636 219.11904 218.22571 217.36939
 216.61407 215.79675 214.89743 214.26410 213.71678 214.69250 217.05566 219.42667
 221.54872 223.46028 225.00244 225.97403 226.41801 226.44887 226.30496 225.65712
 225.56776 227.58684 231.52774 236.25719 241.01729 245.46605 249.54077 253.23376
 256.52332 259.54483 262.36505 265.02792 267.36063 269.27960 270.90604 272.50198
 274.25894 276.06049 277.63358 279.05835 280.37137 281.58124 282.68509 283.68509
 284.58447 285.38538 286.08505 286.97668
 366.78100 356.33909 345.77517 334.64526 323.05235 311.25043 299.12452 286.93161
 274.64770 262.54878 250.56187 239.86696 229.99304 221.10113 213.28722 206.29330
 200.13139 195.07348 191.65957 189.70565 188.74674 188.81483 189.65391 190.96600
 192.69509 194.79417 197.06126 199.42435 201.87344 204.35752 206.44961 208.29570
 209.92578 211.07487 211.30796 211.54004 211.48113 211.19022 210.82730 210.46139
 210.08248 209.79657 209.60865 209.47674 209.40883 209.74391 210.13400 210.52709
 211.32417 212.50626 213.76035 215.54744 217.47952 219.52661 221.62570 223.71278
 225.77687 227.86496 229.96604 232.07613 234.20922 236.38530 238.64539 241.01948
 243.64457 245.89965 247.90574 249.67483 251.09591 252.22300 253.04909 253.36917
 253.41026 253.18835 252.55244 251.50452 250.11461 248.27970 246.19278 244.02987
 241.82496 239.63304 237.45713 235.30022 233.16431 231.03539 229.06548 227.22657
 225.51365 223.98974 222.62383 221.39991 220.28600 219.25009 218.35817 217.50326
 216.74935 215.93344 215.03552 214.40361 213.85770 214.77161 217.00699 219.49013
 221.53098 223.40385 224.96365 225.86510 226.32906 226.41602 226.27487 225.60782
 225.61371 227.63193 231.55037 236.26358 241.01903 245.46771 249.54794 253.24889
 256.55310 259.56021 262.36288 265.01154 267.38251 269.34753 270.98102 272.55948
 274.26764 276.06326 277.63535 279.04712 280.34952 281.56717 282.67810 283.68454
 284.58969 285.39575 286.09991 286.99725
 366.78100 356.34029 345.77758 334.64887 323.05716 311.25645 299.13173 286.94002
 274.65731 262.55960 250.57389 239.88018 230.00747 221.11676 213.30405 206.31134
 200.15062 195.09391 191.68120 189.72849 188.77078 188.84007 189.68036 190.99365
 192.72394 194.82423 197.09252 199.45680 201.90709 204.39238 206.48567 208.33296
 209.96425 211.11454 211.34883 211.58212 211.52441 211.23469 210.87298 210.50827
 210.13056 209.84585 209.65914 209.52843 209.46172 209.79801 210.18930 210.58359
 211.38187 212.56516 213.82045 215.60874 217.54203 219.59032 221.69061 223.77890
 225.84419 227.93348 230.03577 232.14705 234.28134 236.45863 238.71992 241.09521
 243.72150 245.97779 247.98508 249.75537 251.17766 252.30594 253.13323 253.45452
 253.49681 253.27610 252.64139 251.59468 250.20597 248.37226 246.28655 244.12484
 241.92112 239.73041 237.55570 235.39999 233.26528 231.13757 229.16886 227.33115
 225.61944 224.09673 222.73201 221.50930 220.39659 219.36188 218.47117 217.61746
 216.86475 216.05004 215.15333 214.52262 213.97791 214.84773 217.00035 219.46729
 221.65263 223.36736 224.93948 225.86388 226.30101 226.34882 226.16806 225.59309
 225.71460 227.73831 231.56863 236.26083 241.00827 245.47078 249.57512 253.31102
 256.63272 259.61609 262.36206 264.94891 267.31253 269.34335 271.09564 272.77246
 274.50739 276.23914 277.82950 279.32126 280.71494 281.94797 283.07294 284.09207
 285.00867 285.82492 286.53796 287.44666
 366.78100 356.34012 345.77723 334.64835 323.05647 311.25558 299.13070 286.93882
 274.65593 262.55805 250.57217 239.87828 230.00540 221.11452 213.30163 206.30875
 200.14787 195.09099 191.67810 189.72522 188.76734 188.83645 189.67657 190.98969
 192.71980 194.81992 197.08804 199.45215 201.90227 204.38739 206.48050 208.32762
 209.95874 211.10885 211.34297 211.57609 211.51820 211.22832 210.86644 210.50155
 210.12367 209.83879 209.65190 209.52102 209.45414 209.79026 210.18137 210.57549
 211.37361 212.55672 213.81184 215.59996 217.53307 219.58119 221.68131 223.76942
 225.83454 227.92366 230.02577 232.13689 234.27101 236.44812 238.70924 241.08436
 243.71047 245.96659 247.97371 249.74382 251.16594 252.29406 253.12117 253.44229
 253.48441 253.26353 252.62864 251.58176 250.19288 248.35899 246.27311 244.11123
 241.90734 239.71646 237.54158 235.38569 233.25081 231.12293 229.15404 227.31616
 225.60428 224.08139 222.71651 221.49363 220.38074 219.34586 218.45498 217.60109
 216.84821 216.03333 215.13644 214.50556 213.96068 214.85426 217.05168 219.41289
 221.70618 223.36906 224.95779 225.88564 226.19810 226.22324 226.08389 225.55565
 225.80368 227.79703 231.56804 236.25713 241.00299 245.47987 249.58675 253.34169
 256.69543 259.68448 262.39444 264.91275 267.23578 269.31448 271.18069 272.92834
 274.69406 276.49887 278.12155 279.77066 281.25806 282.57401 283.77463 284.86230
 285.84055 286.71167 287.47266 288.44247
 366.78100 356.34021 345.77741 334.64862 323.05682 311.25603 299.13123 286.93944
 274.65665 262.55885 250.57306 239.87926 230.00647 221.11567 213.30288 206.31009
 200.14929 195.09250 191.67970 189.72691 188.76911 188.83832 189.67853 190.99173
 192.72194 194.82214 197.09035 199.45455 201.90476 204.38997 206.48317 208.33038
 209.96158 211.11179 211.34600 211.57920 211.52141 211.23161 210.86982 210.50502
 210.12723 209.84244 209.65564 209.52485 209.45805 209.79426 210.18546 210.57967
 211.37788 212.56108 213.81629 215.60449 217.53770 219.58590 221.68611 223.77432
 225.83952 227.92873 230.03093 232.14214 234.27634 236.45355 238.71476 241.08996
 243.71617 245.97237 247.97958 249.74978 251.17199 252.30020 253.12740 253.44861
 253.49081 253.27002 252.63522 251.58843 250.19964 248.36584 246.28005 244.11825
 241.91446 239.72366 237.54887 235.39308 233.25828 231.13049 229.16169 227.32390
 225.61211 224.08931 222.72452 221.50172 220.38893 219.35413 218.46334 217.60955
 216.85675 216.04196 215.14516 214.51437 213.96957 214.86897 217.07892 219.40997
 221.64183 223.42369 224.98409 225.79617 226.01056 226.08900 226.00345 225.53290
 225.90482 227.86880 231.60014 236.26987 241.01996 245.49487 249.59435 253.35085
 256.71518 259.71381 262.42514 264.93521 267.23590 269.31360 271.24188 273.06485
 274.87747 276.69434 278.33215 279.97559 281.43692 282.72980 283.90939 284.97800
 285.93909 286.79495 287.54260 288.49542
 366.78100 356.34126 345.77952 334.65179 323.06105 311.26131 299.13757 286.94684
 274.66510 262.56836 250.58362 239.89089 230.01915 221.12941 213.31767 206.32594
 200.16620 195.11046 191.69872 189.74699 188.79025 188.86051 189.70177 191.01604
 192.74730 194.84856 197.11782 199.48309 201.93435 204.42061 206.51487 208.36313
 209.99540 211.14666 211.38192 211.61618 211.55945 211.27071 210.90997 210.54623
 210.16950 209.88576 209.70002 209.57028 209.50455 209.84181 210.23407 210.62933
 211.42860 212.61286 213.86912 215.65838 217.59265 219.64191 221.74317 223.83243
 225.89870 227.98896 230.09222 232.20448 234.33974 236.51801 238.78027 241.15653
 243.78379 246.04106 248.04932 249.82058 251.24384 252.37311 253.20137 253.52363
 253.56689 253.34716 252.71342 251.66768 250.27994 248.44721 246.36247 244.20173
 241.99899 239.80926 237.63552 235.48078 233.34704 231.22030 229.25257 227.41583
 225.70509 224.18335 222.81962 221.59788 220.48614 219.45240 218.56267 217.70993
 216.95819 216.14445 215.24872 214.61898 214.07524 214.92506 217.02602 219.46140
 221.57301 223.33412 224.90385 225.69458 225.89616 225.96230 225.93547 225.42607
 226.00949 227.96736 231.66249 236.29369 241.04175 245.52281 249.64789 253.42413
 256.76764 259.70944 262.39499 264.90643 267.20050 269.28571 271.27765 273.16010
 274.94632 276.74289 278.32498 279.75977 281.09677 282.28091 283.36130 284.34003
 285.22028 286.00415 286.68893 287.56161
 366.78100 356.34222 345.78144 334.65466 323.06488 311.26610 299.14332 286.95354
 274.67276 262.57698 250.59320 239.90142 230.03064 221.14186 213.33108 206.34030
 200.18152 195.12674 191.71596 189.76518 188.80939 188.88061 189.72283 191.03805
 192.77027 194.87249 197.14271 199.50893 201.96115 204.44837 206.54359 208.39281
 210.02603 211.17825 211.41447 211.64969 211.59391 211.30613 210.94635 210.58357
 210.20779 209.92501 209.74023 209.61145 209.54667 209.88489 210.27811 210.67433
 211.47455 212.65977 213.91699 215.70721 217.64243 219.69265 221.79487 223.88509
 225.95231 228.04353 230.14775 232.26097 234.39718 236.57640 238.83962 241.21684
 243.84506 246.10328 248.11250 249.88472 251.30894 252.43916 253.26838 253.59160
 253.63582 253.41704 252.78426 251.73948 250.35270 248.52092 246.43714 244.27736
 242.07558 239.88680 237.71402 235.56024 233.42746 231.30168 229.33490 227.49912
 225.78934 224.26856 222.90578 221.68500 220.57422 219.54144 218.65266 217.80088
 217.05010 216.23732 215.34254 214.71375 214.17097 214.98044 216.99396 219.48233
 221.58539 223.24977 224.82690 225.64339 225.82697 225.83720 225.78970 225.38113
 226.07243 228.04817 231.71286 236.32458 241.07275 245.56073 249.71062 253.52351
 256.89743 259.80478 262.39026 264.84570 267.11505 269.18289 271.20456 273.13895
 274.95218 276.71207 278.27484 279.69049 281.02380 282.21603 283.30380 284.28922
 285.17548 285.96472 286.65417 287.53281
 366.78100 356.34250 345.78199 334.65549 323.06599 311.26748 299.14498 286.95547
 274.67497 262.57947 250.59596 239.90446 230.03396 221.14545 213.33495 206.34445
 200.18594 195.13144 191.72094 189.77043 188.81493 188.88642 189.72892 191.04442
 192.77691 194.87941 197.14991 199.51640 201.96890 204.45640 206.55189 208.40139
 210.03488 211.18738 211.42388 211.65937 211.60387 211.31637 210.95686 210.59436
 210.21886 209.93635 209.75185 209.62334 209.55884 209.89734 210.29083 210.68733
 211.48783 212.67332 213.93082 215.72132 217.65681 219.70731 221.80981 223.90030
 225.96780 228.05929 230.16379 232.27729 234.41378 236.59328 238.85678 241.23427
 243.86277 246.12127 248.13076 249.90326 251.32775 252.45825 253.28775 253.61124
 253.65574 253.43724 252.80473 251.76023 250.37373 248.54222 246.45872 244.29921
 242.09771 239.90921 237.73670 235.58320 233.45070 231.32519 229.35869 227.52319
 225.81368 224.29318 222.93068 221.71017 220.59967 219.56716 218.67866 217.82716
 217.07665 216.26415 215.36965 214.74114 214.19864 215.00789 217.02953 219.45178
 221.61473 223.27090 224.83832 225.58749 225.70595 225.66907 225.59689 225.44910
 226.14467 228.15726 231.77719 236.37680 241.11842 245.60336 249.76234 253.59474
 256.99377 259.90536 262.45267 264.85400 267.09076 269.16019 271.17734 273.13531
 275.00174 276.78192 278.37729 279.88412 281.22964 282.42010 283.50620 284.49011
 285.37506 286.16312 286.85153 287.72882
 366.78100 356.34202 345.78104 334.65406 323.06408 311.26510 299.14212 286.95214
 274.67116 262.57518 250.59120 239.89922 230.02824 221.13926 213.32828 206.33730
 200.17832 195.12334 191.71236 189.76138 188.80540 188.87642 189.71844 191.03346
 192.76548 194.86750 197.13752 199.50354 201.95556 204.44258 206.53760 208.38662
 210.01964 211.17166 211.40768 211.64270 211.58672 211.29874 210.93876 210.57578
 210.19980 209.91682 209.73184 209.60286 209.53788 209.87590 210.26892 210.66494
 211.46496 212.64998 213.90700 215.69702 217.63204 219.68206 221.78408 223.87410
 225.94112 228.03214 230.13616 232.24918 234.38520 236.56422 238.82724 241.20426
 243.83228 246.09030 248.09932 249.87134 251.29536 252.42538 253.25440 253.57742
 253.62144 253.40246 252.76948 251.72450 250.33752 248.50554 246.42156 244.26158
 242.05960 239.87062 237.69764 235.54366 233.41068 231.28470 229.31772 227.48174
 225.77176 224.25078 222.88780 221.66682 220.55584 219.52286 218.63388 217.78190
 217.03092 216.21794 215.32296 214.69398 214.15100 214.99646 217.08229 219.39911
 221.62375 223.25955 224.82030 225.51659 225.55424 225.47928 225.45204 225.40103
 226.20752 228.25835 231.86150 236.44847 241.18793 245.66595 249.81456 253.64986
 257.07071 260.00806 262.54803 264.91232 267.12598 269.17767 271.19669 273.17429
 275.02408 276.79825 278.39893 279.90952 281.24033 282.41776 283.49197 284.46515
 285.34039 286.11981 286.80072 287.66843
 366.78100 356.34161 345.78023 334.65284 323.06245 311.26306 299.13968 286.94929
 274.66790 262.57151 250.58713 239.89474 230.02335 221.13397 213.32258 206.33119
 200.17180 195.11642 191.70503 189.75364 188.79726 188.86787 189.70948 191.02409
 192.75571 194.85732 197.12693 199.49254 201.94416 204.43077 206.52538 208.37400
 210.00661 211.15822 211.39383 211.62845 211.57206 211.28367 210.92328 210.55990
 210.18351 209.90012 209.71474 209.58535 209.51996 209.85757 210.25019 210.64580
 211.44541 212.63002 213.88664 215.67625 217.61086 219.66048 221.76209 223.85170
 225.91831 228.00893 230.11254 232.22515 234.36077 236.53938 238.80199 241.17860
 243.80622 246.06383 248.07244 249.84405 251.26767 252.39728 253.22589 253.54851
 253.59212 253.37273 252.73934 251.69396 250.30657 248.47418 246.38979 244.22941
 242.02702 239.83763 237.66425 235.50986 233.37647 231.25008 229.28270 227.44631
 225.73592 224.21453 222.85115 221.62976 220.51837 219.48499 218.59560 217.74321
 216.99182 216.17844 215.28305 214.65366 214.11028 214.98685 217.12964 219.36070
 221.59042 223.30118 224.78198 225.39915 225.39146 225.32152 225.29607 225.29955
 226.22768 228.35097 231.96321 236.53650 241.27769 245.75748 249.89780 253.70682
 257.11563 260.08203 262.64148 264.99374 267.17889 269.20523 271.22394 273.22165
 275.02426 276.77063 278.36722 279.88397 281.22119 282.40430 283.48370 284.46158
 285.34106 286.12427 286.80844 287.68033
 366.78100 356.34173 345.78046 334.65320 323.06293 311.26366 299.14039 286.95013
 274.66886 262.57259 250.58832 239.89606 230.02479 221.13552 213.32425 206.33299
 200.17372 195.11845 191.70718 189.75592 188.79965 188.87038 189.71211 191.02684
 192.75858 194.86031 197.13004 199.49577 201.94751 204.43424 206.52897 208.37770
 210.01044 211.16217 211.39790 211.63263 211.57637 211.28810 210.92783 210.56456
 210.18830 209.90503 209.71976 209.59049 209.52522 209.86296 210.25569 210.65142
 211.45115 212.63589 213.89262 215.68235 217.61708 219.66682 221.76855 223.85828
 225.92501 228.01575 230.11948 232.23221 234.36794 236.54668 238.80941 241.18614
 243.81387 246.07160 248.08034 249.85207 251.27580 252.40553 253.23427 253.55700
 253.60073 253.38146 252.74820 251.70293 250.31566 248.48339 246.39913 244.23886
 242.03659 239.84732 237.67406 235.51979 233.38652 231.26025 229.29298 227.45672
 225.74645 224.22518 222.86191 221.64065 220.52938 219.49611 218.60684 217.75458
 217.00331 216.19004 215.29477 214.66551 214.12224 215.00050 217.14630 219.36076
 221.52615 223.32457 224.74692 225.25159 225.21632 225.16362 225.15549 225.20435
 226.22762 228.43668 232.07854 236.63702 241.37245 245.85606 250.00571 253.80504
 257.16922 260.11008 262.69595 265.06622 267.25372 269.27249 271.28876 273.29764
 275.07489 276.77536 278.36395 279.87897 281.23010 282.42551 283.51614 284.50415
 285.39279 286.18411 286.87540 287.75638
 366.78100 356.34198 345.78095 334.65393 323.06391 311.26489 299.14186 286.95184
 274.67082 262.57480 250.59077 239.89875 230.02773 221.13870 213.32768 206.33666
 200.17764 195.12261 191.71159 189.76057 188.80455 188.87552 189.71750 191.03248
 192.76445 194.86643 197.13641 199.50239 201.95436 204.44134 206.53632 208.38530
 210.01827 211.17025 211.40623 211.64120 211.58518 211.29716 210.93714 210.57411
 210.19809 209.91507 209.73005 209.60102 209.53600 209.87398 210.26696 210.66293
 211.46291 212.64789 213.90486 215.69484 217.62982 219.67980 221.78177 223.87175
 225.93873 228.02971 230.13368 232.24666 234.38264 236.56161 238.82459 241.20157
 243.82955 246.08752 248.09650 249.86848 251.29246 252.42243 253.25141 253.57439
 253.61836 253.39934 252.76632 251.72130 250.33427 248.50225 246.41823 244.25821
 242.05618 239.86716 237.69414 235.54011 233.40709 231.28107 229.31405 227.47802
 225.76800 224.24698 222.88396 221.66293 220.55191 219.51889 218.62986 217.77784
 217.02682 216.21380 215.31877 214.68975 214.14673 215.01949 217.15199 219.36887
 221.47740 223.28133 224.70679 225.14658 225.06767 224.96837 224.98792 225.10564
 226.22939 228.52638 232.20432 236.75967 241.48244 245.96034 250.10770 253.91403
 257.25754 260.13895 262.72025 265.11768 267.31836 269.34644 271.37256 273.36649
 275.13324 276.73563 278.31006 279.79309 281.13873 282.32928 283.41550 284.39954
 285.28458 286.07269 286.76117 287.63855
 366.78100 356.34172 345.78045 334.65317 323.06289 311.26362 299.14034 286.95006
 274.66879 262.57251 250.58824 239.89596 230.02468 221.13541 213.32413 206.33285
 200.17358 195.11830 191.70702 189.75575 188.79947 188.87019 189.71192 191.02664
 192.75836 194.86009 197.12981 199.49554 201.94726 204.43398 206.52871 208.37743
 210.01015 211.16188 211.39760 211.63232 211.57605 211.28777 210.92749 210.56422
 210.18794 209.90466 209.71939 209.59011 209.52484 209.86256 210.25528 210.65101
 211.45073 212.63545 213.89218 215.68190 217.61662 219.66635 221.76807 223.85779
 225.92452 228.01524 230.11896 232.23169 234.36741 236.54614 238.80886 241.18558
 243.81331 246.07103 248.07975 249.85148 251.27520 252.40492 253.23365 253.55637
 253.60009 253.38082 252.74754 251.70226 250.31499 248.48271 246.39844 244.23816
 242.03588 239.84661 237.67333 235.51905 233.38578 231.25950 229.29222 227.45595
 225.74567 224.22439 222.86112 221.63984 220.52856 219.49529 218.60601 217.75374
 217.00246 216.18918 215.29391 214.66463 214.12135 215.01457 217.18286 219.35147
 221.44461 223.23134 224.63461 225.06604 224.95427 224.75784 224.78836 225.00409
 226.20341 228.63362 232.35156 236.90503 241.61075 246.07616 250.20532 254.00415
 257.35330 260.21143 262.74814 265.16486 267.39923 269.45047 271.48633 273.45682
 275.19641 276.62570 278.18738 279.63821 280.98987 282.18573 283.27679 284.26520
 285.15417 285.94583 286.63736 287.51868
 366.78100 356.34157 345.78014 334.65271 323.06228 311.26284 299.13941 286.94898
 274.66755 262.57112 250.58669 239.89426 230.02283 221.13339 213.32196 206.33053
 200.17110 195.11567 191.70424 189.75281 188.79638 188.86694 189.70851 191.02308
 192.75465 194.85622 197.12579 199.49136 201.94293 204.42950 206.52406 208.37263
 210.00520 211.15677 211.39234 211.62691 211.57048 211.28205 210.92161 210.55818
 210.18175 209.89832 209.71289 209.58346 209.51803 209.85560 210.24817 210.64373
 211.44330 212.62787 213.88444 215.67401 217.60858 219.65815 221.75972 223.84928
 225.91585 228.00642 230.10999 232.22256 234.35813 236.53670 238.79927 241.17583
 243.80340 246.06097 248.06954 249.84111 251.26468 252.39425 253.22282 253.54539
 253.58895 253.36952 252.73609 251.69066 250.30323 248.47080 246.38637 244.22594
 242.02350 239.83407 237.66064 235.50621 233.37278 231.24635 229.27892 227.44249
 225.73206 224.21062 222.84719 221.62576 220.51433 219.48090 218.59147 217.73904
 216.98761 216.17417 215.27874 214.64931 214.10588 215.01306 217.20500 219.34384
 221.38280 223.19902 224.54202 224.95885 224.80507 224.59329 224.54558 224.90776
 226.16327 228.75372 232.52591 237.06023 241.74475 246.19450 250.30757 254.07268
 257.41541 260.30847 262.81229 265.20737 267.47522 269.58374 271.65485 273.62192
 275.31339 276.66113 278.08359 279.49707 280.82358 282.01288 283.09793 284.08093
 284.96503 285.75232 286.44009 287.31656
 366.78100 356.34219 345.78138 334.65456 323.06475 311.26594 299.14313 286.95332
 274.67251 262.57669 250.59288 239.90107 230.03026 221.14145 213.33064 206.33982
 200.18101 195.12620 191.71539 189.76458 188.80877 188.87995 189.72214 191.03733
 192.76952 194.87171 197.14190 199.50808 201.96027 204.44746 206.54265 208.39184
 210.02503 211.17721 211.41340 211.64859 211.59278 211.30497 210.94516 210.58234
 210.20653 209.92372 209.73891 209.61010 209.54529 209.88347 210.27666 210.67285
 211.47304 212.65823 213.91542 215.70560 217.64079 219.69098 221.79317 223.88336
 225.95055 228.04173 230.14592 232.25911 234.39530 236.57449 238.83768 241.21486
 243.84305 246.10124 248.11043 249.88262 251.30681 252.43699 253.26618 253.58937
 253.63356 253.41475 252.78194 251.73712 250.35031 248.51850 246.43469 244.27488
 242.07307 239.88425 237.71144 235.55763 233.42482 231.29901 229.33220 227.49638
 225.78657 224.26576 222.90295 221.68214 220.57132 219.53851 218.64970 217.79789
 217.04708 216.23427 215.33945 214.71064 214.16783 215.04892 217.18690 219.38084
 221.29469 223.17703 224.48492 224.80811 224.59894 224.43417 224.33591 224.84544
 226.11037 228.85370 232.70184 237.22247 241.88554 246.31796 250.40941 254.14244
 257.45609 260.35663 262.90143 265.27151 267.53094 269.68491 271.81876 273.82547
 275.52148 276.87207 278.08334 279.46793 280.77908 281.98355 283.08243 284.07791
 284.97327 285.77057 286.46710 287.35471
 366.78100 356.34305 345.78311 334.65716 323.06821 311.27026 299.14832 286.95937
 274.67942 262.58447 250.60153 239.91058 230.04063 221.15268 213.34274 206.35279
 200.19484 195.14089 191.73095 189.78100 188.82605 188.89810 189.74116 191.05721
 192.79026 194.89331 197.16437 199.53142 201.98447 204.47252 206.56858 208.41863
 210.05268 211.20573 211.44279 211.67884 211.62389 211.33695 210.97800 210.61605
 210.24110 209.95916 209.77521 209.64726 209.58331 209.92237 210.31642 210.71347
 211.51452 212.70058 213.95863 215.74968 217.68573 219.73679 221.83984 223.93089
 225.99894 228.09100 230.19605 232.31010 234.44715 236.62721 238.89126 241.26931
 243.89836 246.15742 248.16747 249.94052 251.36557 252.49663 253.32668 253.65073
 253.69579 253.47784 252.84589 251.80194 250.41600 248.58505 246.50210 244.34315
 242.14221 239.95426 237.78231 235.62936 233.49742 231.37247 229.40652 227.57157
 225.86263 224.34268 222.98073 221.76078 220.65084 219.61889 218.73094 217.87999
 217.13005 216.31810 215.42415 214.79620 214.25426 215.09395 217.13870 219.44695
 221.20320 223.07976 224.38333 224.64497 224.47383 224.22502 224.07712 224.81509
 226.06554 228.92177 232.86644 237.39301 242.03796 246.45125 250.51904 254.22284
 257.50784 260.38693 262.95862 265.34030 267.58496 269.74225 271.92337 273.99005
 275.69125 276.98926 278.12500 279.48947 280.73669 281.94330 283.04840 284.04953
 284.94995 285.75177 286.45221 287.34485
 366.78100 356.34342 345.78384 334.65826 323.06969 311.27211 299.15053 286.96195
 274.68237 262.58779 250.60521 239.91464 230.04506 221.15748 213.34790 206.35832
 200.20074 195.14716 191.73758 189.78801 188.83343 188.90585 189.74927 191.06569
 192.79911 194.90253 197.17396 199.54138 201.99480 204.48322 206.57964 208.43006
 210.06448 211.21791 211.45533 211.69175 211.63717 211.35059 210.99201 210.63043
 210.25586 209.97428 209.79070 209.66312 209.59954 209.93896 210.33338 210.73080
 211.53223 212.71865 213.97707 215.76849 217.70491 219.75633 221.85975 223.95118
 226.01960 228.11202 230.21744 232.33186 234.46928 236.64970 238.91413 241.29255
 243.92197 246.18139 248.19181 249.96523 251.39065 252.52208 253.35250 253.67692
 253.72234 253.50476 252.87318 251.82960 250.44402 248.61345 246.53087 244.37229
 242.17171 239.98413 237.81255 235.65997 233.52840 231.40382 229.43824 227.60366
 225.89508 224.37550 223.01392 221.79435 220.68477 219.65319 218.76561 217.91503
 217.16545 216.35387 215.46029 214.83272 214.29114 215.11275 217.09868 219.49693
 221.17844 222.84656 224.21761 224.54622 224.39806 223.97769 223.79697 224.71899
 225.93240 228.94960 233.03084 237.57817 242.20349 246.59499 250.63100 254.30592
 257.57495 260.44131 263.00940 265.40118 267.65100 269.80997 271.98978 274.02939
 275.67075 276.93402 278.07843 279.39459 280.60489 281.72412 282.79578 283.77069
 284.64749 285.42831 286.11041 286.97968
 366.78100 356.34348 345.78396 334.65845 323.06993 311.27241 299.15089 286.96237
 274.68285 262.58834 250.60582 239.91530 230.04578 221.15826 213.34875 206.35923
 200.20171 195.14819 191.73867 189.78915 188.83464 188.90712 189.75060 191.06708
 192.80056 194.90405 197.17553 199.54301 201.99649 204.48497 206.58145 208.43194
 210.06642 211.21990 211.45738 211.69386 211.63934 211.35283 210.99431 210.63279
 210.25827 209.97675 209.79324 209.66572 209.60220 209.94168 210.33616 210.73364
 211.53513 212.72161 213.98009 215.77157 217.70805 219.75954 221.86302 223.95450
 226.02298 228.11546 230.22094 232.33543 234.47291 236.65339 238.91787 241.29635
 243.92584 246.18532 248.19580 249.96928 251.39476 252.52624 253.35673 253.68121
 253.72669 253.50917 252.87765 251.83414 250.44862 248.61810 246.53558 244.37706
 242.17654 239.98903 237.81751 235.66499 233.53347 231.40895 229.44343 227.60892
 225.90040 224.38088 223.01936 221.79984 220.69033 219.65881 218.77129 217.92077
 217.17125 216.35973 215.46622 214.83870 214.29718 215.12038 217.09485 219.49666
 221.24358 222.75604 224.10506 224.45201 224.22841 223.77049 223.58113 224.59959
 225.83632 228.99240 233.19211 237.76671 242.37433 246.74455 250.74637 254.38945
 257.64294 260.52161 263.09851 265.48489 267.74017 269.91486 272.10406 274.12747
 275.69916 276.89624 277.95746 279.16147 280.34970 281.42963 282.46051 283.45013
 284.34021 285.13284 285.82526 286.70764
 366.78100 356.34372 345.78444 334.65916 323.07088 311.27360 299.15232 286.96404
 274.68476 262.59048 250.60820 239.91792 230.04865 221.16137 213.35209 206.36281
 200.20553 195.15225 191.74297 189.79369 188.83941 188.91213 189.75585 191.07257
 192.80629 194.91001 197.18173 199.54945 202.00317 204.49189 206.58861 208.43933
 210.07405 211.22777 211.46550 211.70222 211.64794 211.36166 211.00338 210.64210
 210.26782 209.98654 209.80326 209.67598 209.61270 209.95242 210.34714 210.74486
 211.54658 212.73330 213.99202 215.78374 217.72046 219.77218 221.87590 223.96762
 226.03635 228.12907 230.23479 232.34951 234.48723 236.66795 238.93267 241.31139
 243.94111 246.20083 248.21155 249.98527 251.41099 252.54271 253.37343 253.69815
 253.74387 253.52659 252.89531 251.85203 250.46675 248.63647 246.55420 244.39592
 242.19564 240.00836 237.83708 235.68480 233.55352 231.42924 229.46396 227.62968
 225.92140 224.40212 223.04084 221.82156 220.71228 219.68100 218.79372 217.94344
 217.19416 216.38288 215.48960 214.86232 214.32104 215.14020 217.09421 219.49301
 221.28918 222.75305 224.02652 224.29121 224.01244 223.56552 223.40627 224.46573
 225.87975 229.08527 233.35963 237.95222 242.54381 246.89342 250.86713 254.48128
 257.71454 260.59985 263.20215 265.59012 267.83749 270.03342 272.24725 274.27106
 275.80646 276.91864 277.87454 279.00308 280.18973 281.26233 282.27594 283.24448
 284.12564 284.91028 285.59576 286.46930
 366.78100 356.34370 345.78440 334.65910 323.07080 311.27350 299.15220 286.96390
 274.68460 262.59031 250.60801 239.91771 230.04841 221.16111 213.35181 206.36251
 200.20521 195.15191 191.74261 189.79331 188.83901 188.91171 189.75541 191.07211
 192.80581 194.90952 197.18122 199.54892 202.00262 204.49132 206.58802 208.43872
 210.07342 211.22712 211.46482 211.70152 211.64722 211.36092 211.00262 210.64132
 210.26702 209.98573 209.80243 209.67513 209.61183 209.95153 210.34623 210.74393
 211.54563 212.73233 213.99103 215.78273 217.71943 219.77113 221.87483 223.96653
 226.03523 228.12793 230.23364 232.34834 234.48604 236.66674 238.93144 241.31014
 243.93984 246.19954 248.21024 249.98394 251.40964 252.54134 253.37204 253.69674
 253.74244 253.52514 252.89385 251.85055 250.46525 248.63495 246.55265 244.39435
 242.19405 240.00675 237.83545 235.68315 233.55185 231.42755 229.46225 227.62795
 225.91965 224.40035 223.03906 221.81976 220.71046 219.67916 218.79186 217.94156
 217.19226 216.38096 215.48766 214.86036 214.31906 215.14676 217.10443 219.47037
 221.35605 222.78738 223.94391 224.09367 223.78458 223.33168 223.28618 224.32208
 225.93652 229.24646 233.55763 238.13910 242.71419 247.04544 250.99248 254.58736
 257.80695 260.69180 263.30838 265.70532 267.94421 270.13348 272.34824 274.35791
 275.85126 276.92947 277.87415 278.91882 280.09064 281.15262 282.15201 283.08661
 283.94647 284.71671 285.38959 286.24710
 366.78100 356.34346 345.78391 334.65837 323.06982 311.27228 299.15073 286.96219
 274.68264 262.58810 250.60556 239.91501 230.04547 221.15792 213.34838 206.35883
 200.20129 195.14774 191.73820 189.78866 188.83411 188.90657 189.75002 191.06648
 192.79993 194.90339 197.17484 199.54230 201.99576 204.48421 206.58067 208.43112
 210.06558 211.21903 211.45649 211.69294 211.63840 211.35186 210.99331 210.63177
 210.25722 209.97568 209.79213 209.66459 209.60104 209.94050 210.33496 210.73241
 211.53387 212.72032 213.97878 215.77023 217.70669 219.75814 221.86160 223.95306
 226.02151 228.11397 230.21942 232.33388 234.47133 236.65179 238.91624 241.29470
 243.92416 246.18361 248.19407 249.96752 251.39298 252.52443 253.35489 253.67934
 253.72480 253.50726 252.87571 251.83217 250.44662 248.61608 246.53353 244.37499
 242.17444 239.98690 237.81536 235.66281 233.53127 231.40672 229.44118 227.60663
 225.89809 224.37854 223.01700 221.79746 220.68791 219.65637 218.76882 217.91828
 217.16873 216.35719 215.46364 214.83610 214.29456 215.13934 217.13525 219.43558
 221.43274 222.83589 223.85255 223.92667 223.56224 223.07930 223.14828 224.17729
 225.98337 229.39778 233.75879 238.32484 242.86485 247.17395 251.10814 254.69299
 257.90906 260.80148 263.42578 265.82281 268.05786 270.23965 272.42575 274.38382
 275.81790 276.87344 277.85019 278.93774 280.08560 281.14832 282.14008 283.05133
 283.87576 284.61435 285.27298 286.11230
 366.78100 356.34332 345.78363 334.65795 323.06926 311.27158 299.14990 286.96121
 274.68153 262.58684 250.60416 239.91348 230.04379 221.15611 213.34642 206.35674
 200.19906 195.14537 191.73569 189.78600 188.83132 188.90363 189.74695 191.06327
 192.79658 194.89990 197.17121 199.53853 201.99185 204.48016 206.57648 208.42679
 210.06111 211.21443 211.45174 211.68806 211.63337 211.34669 210.98801 210.62632
 210.25164 209.96995 209.78627 209.65859 209.59490 209.93422 210.32853 210.72585
 211.52717 212.71348 213.97180 215.76311 217.69943 219.75074 221.85406 223.94538
 226.01369 228.10601 230.21132 232.32564 234.46296 236.64327 238.90759 241.28590
 243.91522 246.17454 248.18485 249.95817 251.38348 252.51480 253.34512 253.66943
 253.71475 253.49706 252.86538 251.82170 250.43601 248.60533 246.52264 244.36396
 242.16328 239.97559 237.80391 235.65122 233.51954 231.39485 229.42917 227.59449
 225.88580 224.36612 223.00443 221.78475 220.67507 219.64338 218.75570 217.90501
 217.15533 216.34365 215.44996 214.82228 214.28059 215.13641 217.15836 219.40956
 221.46907 222.87207 223.75908 223.78000 223.35175 222.82416 222.95123 224.03871
 225.98906 229.53337 233.94864 238.50574 243.01582 247.30080 251.22174 254.78842
 258.00253 260.91302 263.55798 265.95343 268.18411 270.36542 272.56714 274.51373
 275.86411 276.79047 277.70618 278.84622 280.02887 281.08429 282.05505 282.93881
 283.75406 284.48376 285.12418 285.94833
 366.78100 356.34334 345.78368 334.65802 323.06936 311.27170 299.15003 286.96137
 274.68171 262.58705 250.60439 239.91373 230.04407 221.15641 213.34675 206.35709
 200.19943 195.14577 191.73610 189.78644 188.83178 188.90412 189.74746 191.06380
 192.79714 194.90048 197.17182 199.53916 201.99250 204.48083 206.57717 208.42751
 210.06185 211.21519 211.45253 211.68887 211.63421 211.34755 210.98889 210.62723
 210.25257 209.97090 209.78724 209.65958 209.59592 209.93526 210.32960 210.72694
 211.52828 212.71462 213.97296 215.76430 217.70063 219.75197 221.85531 223.94665
 226.01499 228.10733 230.21267 232.32701 234.46435 236.64469 238.90903 241.28737
 243.91670 246.17604 248.18638 249.95972 251.38506 252.51640 253.34674 253.67108
 253.71642 253.49876 252.86710 251.82343 250.43777 248.60711 246.52445 244.36579
 242.16513 239.97747 237.80581 235.65315 233.52149 231.39683 229.43117 227.59650
 225.88784 224.36818 223.00652 221.78686 220.67720 219.64554 218.75788 217.90722
 217.15756 216.34590 215.45223 214.82457 214.28291 215.14270 217.17406 219.38924
 221.46873 222.88734 223.66550 223.62605 223.13947 222.56808 222.72562 223.90405
 225.97952 229.65952 234.13200 238.68468 243.17322 247.43976 251.34622 254.89908
 258.11499 261.04144 263.70337 266.09781 268.32126 270.49368 272.69086 274.61874
 275.92697 276.83701 277.68805 278.78824 279.94684 281.00119 281.96942 282.85016
 283.65549 284.38452 285.01492 285.82718
 366.78100 356.34361 345.78422 334.65882 323.07043 311.27304 299.15165 286.96326
 274.68387 262.58947 250.60708 239.91669 230.04730 221.15991 213.35052 206.36112
 200.20373 195.15034 191.74095 189.79156 188.83717 188.90977 189.75338 191.06999
 192.80360 194.90721 197.17882 199.54642 202.00003 204.48864 206.58525 208.43586
 210.07047 211.22407 211.46168 211.69829 211.64390 211.35751 210.99912 210.63772
 210.26333 209.98194 209.79855 209.67116 209.60777 209.94737 210.34198 210.73959
 211.54120 212.72781 213.98641 215.77802 217.71463 219.76624 221.86985 223.96146
 226.03006 228.12267 230.22828 232.34289 234.48050 236.66111 238.92571 241.30432
 243.93393 246.19354 248.20415 249.97776 251.40336 252.53497 253.36558 253.69019
 253.73580 253.51841 252.88701 251.84362 250.45823 248.62784 246.54545 244.38706
 242.18666 239.99927 237.82788 235.67549 233.54410 231.41971 229.45431 227.61992
 225.91153 224.39214 223.03075 221.81136 220.70196 219.67057 218.78318 217.93279
 217.18340 216.37200 215.47861 214.85122 214.30983 215.16338 217.17999 219.38069
 221.44826 222.87558 223.58049 223.46700 222.91850 222.31143 222.49046 223.76581
 225.97322 229.77759 234.31653 238.86232 243.33304 247.58385 251.47710 255.01945
 258.23877 261.18030 263.85617 266.25018 268.45947 270.61215 272.79437 274.71030
 275.99411 276.91873 277.77484 278.77332 279.89972 280.95047 281.91467 282.79541
 283.60184 284.33667 284.97443 285.78372
 366.78100 356.34408 345.78517 334.66025 323.07233 311.27542 299.15450 286.96658
 274.68767 262.59375 250.61183 239.92191 230.05300 221.16608 213.35716 206.36825
 200.21133 195.15841 191.74950 189.80058 188.84666 188.91975 189.76383 191.08091
 192.81500 194.91908 197.19116 199.55925 202.01333 204.50241 206.59949 208.45058
 210.08566 211.23974 211.47783 211.71491 211.66099 211.37508 211.01716 210.65624
 210.28233 210.00141 209.81849 209.69158 209.62866 209.96874 210.36382 210.76191
 211.56399 212.75107 214.01016 215.80224 217.73932 219.79141 221.89549 223.98757
 226.05666 228.14974 230.25582 232.37091 234.50899 236.69007 238.95516 241.33424
 243.96432 246.22440 248.23549 250.00957 251.43565 252.56774 253.39882 253.72390
 253.76999 253.55307 252.92215 251.87924 250.49432 248.66440 246.58249 244.42457
 242.22465 240.03774 237.86682 235.71490 233.58398 231.46007 229.49515 227.66123
 225.95332 224.43440 223.07348 221.85457 220.74565 219.71473 218.82782 217.97790
 217.22898 216.41807 215.52515 214.89823 214.35732 215.19533 217.17522 219.38034
 221.42265 222.85233 223.50882 223.30850 222.68825 222.05389 222.24950 223.62436
 225.96873 229.88983 234.48949 239.05283 243.49753 247.72742 251.60931 255.14516
 258.37186 261.32791 264.01550 266.40616 268.60019 270.72879 272.88675 274.78360
 276.03879 276.96408 277.83157 278.81555 279.94125 280.99371 281.95920 282.84045
 283.64981 284.38712 285.02881 285.83725
 366.78100 356.34456 345.78612 334.66168 323.07424 311.27780 299.15736 286.96992
 274.69148 262.59804 250.61660 239.92715 230.05871 221.17227 213.36383 206.37539
 200.21895 195.16651 191.75807 189.80963 188.85619 188.92975 189.77431 191.09187
 192.82643 194.93099 197.20355 199.57211 202.02667 204.51623 206.61379 208.46535
 210.10090 211.25546 211.49402 211.73158 211.67814 211.39270 211.03526 210.67482
 210.30138 210.02094 209.83850 209.71206 209.64962 209.99018 210.38574 210.78430
 211.58686 212.77442 214.03398 215.82654 217.76410 219.81666 221.92121 224.01377
 226.08333 228.17689 230.28345 232.39901 234.53757 236.71913 238.98469 241.36425
 243.99481 246.25537 248.26693 250.04149 251.46805 252.60061 253.43217 253.75773
 253.80429 253.58785 252.95741 251.91496 250.53052 248.70108 246.61964 244.46220
 242.26276 240.07632 237.90588 235.75444 233.62400 231.50056 229.53612 227.70268
 225.99524 224.47680 223.11636 221.89792 220.78948 219.75904 218.87260 218.02316
 217.27471 216.46427 215.57183 214.94539 214.40495 215.22656 217.16768 219.37447
 221.39920 222.82796 223.45061 223.15137 222.44879 221.79285 221.99921 223.47589
 225.96573 229.99942 234.65688 239.25185 243.67001 247.86896 251.74150 255.27580
 258.51172 261.48215 264.17920 266.56659 268.74420 270.84586 272.97119 274.84631
 276.08047 276.99911 277.86136 278.88608 280.02527 281.08057 282.04910 282.93372
 283.74420 284.48251 285.12518 285.93457
 366.78100 356.34487 345.78675 334.66262 323.07550 311.27937 299.15925 286.97212
 274.69400 262.60087 250.61974 239.93062 230.06249 221.17637 213.36824 206.38012
 200.22399 195.17187 191.76374 189.81561 188.86249 188.93636 189.78124 191.09911
 192.83399 194.93886 197.21174 199.58061 202.03549 204.52536 206.62323 208.47511
 210.11098 211.26586 211.50473 211.74261 211.68948 211.40436 211.04723 210.68710
 210.31398 210.03385 209.85173 209.72560 209.66348 210.00435 210.40023 210.79910
 211.60197 212.78985 214.04972 215.84260 217.78047 219.83335 221.93822 224.03110
 226.10097 228.19484 230.30172 232.41759 234.55647 236.73834 239.00422 241.38409
 244.01497 246.27584 248.28772 250.06259 251.48946 252.62234 253.45421 253.78009
 253.82696 253.61084 252.98071 251.93859 250.55446 248.72533 246.64421 244.48708
 242.28796 240.10183 237.93171 235.78058 233.65046 231.52733 229.56320 227.73008
 226.02295 224.50483 223.14470 221.92658 220.81845 219.78833 218.90220 218.05307
 217.30495 216.49482 215.60270 214.97657 214.43645 215.24933 217.16982 219.35989
 221.37120 222.81288 223.39932 222.99449 222.19684 221.51968 221.74683 223.34363
 225.96663 230.09486 234.81435 239.45418 243.85834 248.01724 251.87009 255.40836
 258.65698 261.63834 264.34100 266.72638 268.89062 270.96393 273.04758 274.89490
 276.11911 277.04236 277.91162 278.98270 280.13199 281.18863 282.16043 283.04651
 283.85770 284.59534 285.24112 286.05188
 366.78100 356.34521 345.78742 334.66363 323.07684 311.28106 299.16127 286.97448
 274.69669 262.60390 250.62311 239.93432 230.06653 221.18074 213.37296 206.38517
 200.22938 195.17759 191.76980 189.82201 188.86922 188.94343 189.78864 191.10685
 192.84207 194.94728 197.22049 199.58970 202.04491 204.53512 206.63333 208.48554
 210.12175 211.27697 211.51618 211.75439 211.70160 211.41681 211.06002 210.70023
 210.32744 210.04765 209.86587 209.74008 209.67829 210.01950 210.41571 210.81492
 211.61813 212.80634 214.06655 215.85977 217.79798 219.85119 221.95640 224.04961
 226.11982 228.21403 230.32124 232.43745 234.57666 236.75888 239.02509 241.40530
 244.03651 246.29772 248.30993 250.08514 251.51235 252.64556 253.47778 253.80399
 253.85120 253.63541 253.00562 251.96383 250.58004 248.75125 246.67046 244.51368
 242.31489 240.12910 237.95931 235.80852 233.67873 231.55594 229.59215 227.75936
 226.05258 224.53479 223.17500 221.95721 220.84942 219.81963 218.93384 218.08505
 217.33726 216.52747 215.63569 215.00990 214.47011 215.27269 217.16885 219.35365
 221.32732 222.79007 223.37860 222.84471 221.92104 221.21976 221.49283 223.23262
 225.99019 230.18994 234.95187 239.65598 244.06996 248.15973 251.99313 255.53464
 258.80795 261.80359 264.50394 266.88220 269.03812 271.08261 273.11469 274.92230
 276.14545 277.09369 277.98685 279.10141 280.25986 281.31790 282.29031 283.17694
 283.98965 284.72952 285.37619 286.18814
 366.78100 356.34562 345.78823 334.66485 323.07847 311.28309 299.16370 286.97732
 274.69994 262.60755 250.62717 239.93879 230.07141 221.18602 213.37864 206.39126
 200.23587 195.18449 191.77711 189.82973 188.87734 188.95196 189.79758 191.11619
 192.85181 194.95743 197.23105 199.60066 202.05628 204.54690 206.64551 208.49813
 210.13475 211.29036 211.52998 211.76860 211.71622 211.43183 211.07545 210.71607
 210.34368 210.06430 209.88292 209.75754 209.69615 210.03777 210.43439 210.83400
 211.63762 212.82624 214.08686 215.88047 217.81909 219.87271 221.97832 224.07194
 226.14256 228.23718 230.34479 232.46141 234.60103 236.78364 239.05026 241.43088
 244.06250 246.32411 248.33673 250.11235 251.53996 252.67358 253.50620 253.83282
 253.88043 253.66505 253.03567 251.99428 250.61090 248.78252 246.70214 244.54575
 242.34737 240.16199 237.99260 235.84222 233.71284 231.59045 229.62707 227.79469
 226.08831 224.57092 223.21154 221.99416 220.88677 219.85739 218.97201 218.12363
 217.37624 216.56686 215.67548 215.05009 214.51071 215.29826 217.15892 219.35603
 221.29320 222.73087 223.36113 222.76645 221.66566 220.85667 221.18959 223.16113
 226.05966 230.30215 235.09172 239.82295 244.27675 248.33812 252.12437 255.66435
 258.94952 261.96735 264.66885 267.03049 269.18149 271.20221 273.17523 274.92560
 276.14319 277.11197 278.02274 279.23495 280.41235 281.46967 282.44370 283.33029
 284.14236 284.88074 285.52704 286.34964
 366.78100 356.34587 345.78874 334.66560 323.07947 311.28434 299.16521 286.97908
 274.70195 262.60981 250.62968 239.94155 230.07442 221.18929 213.38216 206.39502
 200.23989 195.18876 191.78163 189.83450 188.88237 188.95723 189.80310 191.12197
 192.85784 194.96371 197.23758 199.60744 202.06331 204.55418 206.65305 208.50592
 210.14278 211.29865 211.53852 211.77739 211.72526 211.44113 211.08499 210.72586
 210.35373 210.07460 209.89347 209.76834 209.70720 210.04907 210.44594 210.84581
 211.64968 212.83855 214.09941 215.89328 217.83215 219.88602 221.99189 224.08576
 226.15662 228.25149 230.35936 232.47623 234.61610 236.79896 239.06583 241.44670
 244.07857 246.34044 248.35331 250.12917 251.55704 252.69091 253.52378 253.85065
 253.89852 253.68338 253.05425 252.01312 250.62999 248.80186 246.72173 244.56559
 242.36746 240.18233 238.01320 235.86307 233.73394 231.61180 229.64867 227.81654
 226.11041 224.59328 223.23414 222.01701 220.90988 219.88075 218.99562 218.14749
 217.40035 216.59122 215.70009 215.07496 214.53583 215.31474 217.15500 219.34482
 221.28519 222.67311 223.27234 222.71057 221.52397 220.43405 220.85597 223.14590
 226.13988 230.40552 235.23952 239.99655 244.45595 248.55170 252.26122 255.77885
 259.09735 262.13403 264.82675 267.15997 269.30389 271.30167 273.21939 274.91354
 276.10684 277.09229 278.07590 279.35178 280.53503 281.59344 282.56641 283.45636
 284.26822 285.00720 285.65875 286.48813
 366.78100 356.34604 345.78907 334.66611 323.08015 311.28519 299.16622 286.98026
 274.70330 262.61133 250.63137 239.94341 230.07644 221.19148 213.38452 206.39756
 200.24259 195.19163 191.78467 189.83770 188.88574 188.96078 189.80681 191.12585
 192.86189 194.96793 197.24196 199.61200 202.06804 204.55907 206.65811 208.51115
 210.14819 211.30422 211.54426 211.78330 211.73133 211.44737 211.09141 210.73244
 210.36048 210.08152 209.90056 209.77559 209.71463 210.05667 210.45370 210.85374
 211.65778 212.84681 214.10785 215.90189 217.84093 219.89496 222.00100 224.09504
 226.16607 228.26111 230.36915 232.48619 234.62622 236.80926 239.07630 241.45733
 244.08937 246.35141 248.36444 250.14048 251.56852 252.70256 253.53559 253.86263
 253.91067 253.69570 253.06674 252.02578 250.64281 248.81485 246.73489 244.57893
 242.38096 240.19600 238.02704 235.87707 233.74811 231.62615 229.66319 227.83122
 226.12526 224.60830 223.24933 222.03237 220.92541 219.89644 219.01148 218.16352
 217.41656 216.60759 215.71663 215.09167 214.55270 215.32785 217.15921 219.32042
 221.27441 222.64467 223.15811 222.58032 221.37096 220.11392 220.55724 223.04350
 226.18161 230.52693 235.39610 240.17636 244.62079 248.72507 252.45453 255.91551
 259.24060 262.28253 264.95563 267.27612 269.41092 271.38138 273.25049 274.89856
 276.06604 277.03323 278.13962 279.43939 280.62463 281.68091 282.65222 283.54102
 284.35434 285.09286 285.74274 286.58865
 366.78100 356.34620 345.78940 334.66660 323.08080 311.28600 299.16719 286.98139
 274.70459 262.61279 250.63299 239.94519 230.07839 221.19359 213.38679 206.39999
 200.24519 195.19438 191.78758 189.84078 188.88898 188.96418 189.81038 191.12958
 192.86578 194.97198 197.24618 199.61638 202.07257 204.56377 206.66297 208.51617
 210.15337 211.30957 211.54977 211.78897 211.73717 211.45337 211.09757 210.73876
 210.36696 210.08816 209.90736 209.78256 209.72176 210.06396 210.46116 210.86136
 211.66556 212.85476 214.11595 215.91015 217.84935 219.90355 222.00975 224.10395
 226.17515 228.27035 230.37855 232.49575 234.63595 236.81914 239.08634 241.46754
 244.09974 246.36194 248.37514 250.15134 251.57954 252.71374 253.54694 253.87414
 253.92233 253.70753 253.07873 252.03793 250.65513 248.82733 246.74753 244.59173
 242.39393 240.20913 238.04033 235.89052 233.76172 231.63992 229.67712 227.84532
 226.13952 224.62272 223.26392 222.04712 220.94032 219.91152 219.02671 218.17891
 217.43211 216.62331 215.73251 215.10771 214.56891 215.33990 217.16145 219.30249
 221.24742 222.62555 223.06604 222.41270 221.18501 219.83948 220.26869 222.89478
 226.21396 230.66681 235.55678 240.35271 244.78784 248.89604 252.66139 256.08896
 259.36124 262.41650 265.07788 267.37283 269.47928 271.43295 273.26920 274.88596
 276.07458 277.03098 278.18405 279.48776 280.66797 281.72272 282.69226 283.58124
 284.39050 285.13141 285.78207 286.64044
 366.78100 356.34635 345.78970 334.66706 323.08141 311.28676 299.16811 286.98247
 274.70582 262.61417 250.63452 239.94688 230.08023 221.19558 213.38893 206.40229
 200.24764 195.19699 191.79034 189.84370 188.89205 188.96740 189.81375 191.13311
 192.86946 194.97581 197.25016 199.62052 202.07687 204.56822 206.66757 208.52093
 210.15828 211.31463 211.55498 211.79434 211.74269 211.45904 211.10339 210.74475
 210.37310 210.09445 209.91380 209.78915 209.72851 210.07086 210.46821 210.86856
 211.67292 212.86227 214.12362 215.91797 217.85733 219.91168 222.01803 224.11238
 226.18374 228.27909 230.38744 232.50479 234.64515 236.82850 239.09585 241.47720
 244.10956 246.37191 248.38526 250.16161 251.58997 252.72432 253.55767 253.88502
 253.93338 253.71873 253.09008 252.04943 250.66679 248.83914 246.75949 244.60384
 242.40620 240.22155 238.05290 235.90325 233.77460 231.65296 229.69031 227.85866
 226.15301 224.63637 223.27772 222.06107 220.95442 219.92578 219.04113 218.19348
 217.44683 216.63819 215.74754 215.12289 214.58424 215.34821 217.15314 219.29503
 221.21234 222.60464 223.00655 222.22575 220.97517 219.58267 219.98804 222.73274
 226.23605 230.80824 235.72542 240.53032 244.96025 249.05290 252.85521 256.30139
 259.50211 262.50925 265.17575 267.46640 269.53931 271.46417 273.25330 274.84341
 276.10263 277.17984 278.23141 279.50742 280.67657 281.72424 282.68927 283.57483
 284.38553 285.12473 285.77997 286.65009
 366.78100 356.34640 345.78980 334.66720 323.08160 311.28700 299.16840 286.98279
 274.70619 262.61459 250.63499 239.94739 230.08079 221.19619 213.38959 206.40299
 200.24839 195.19779 191.79119 189.84459 188.89299 188.96838 189.81478 191.13418
 192.87058 194.97698 197.25138 199.62178 202.07818 204.56958 206.66898 208.52238
 210.15978 211.31618 211.55658 211.79597 211.74437 211.46077 211.10517 210.74657
 210.37497 210.09637 209.91577 209.79117 209.73057 210.07297 210.47037 210.87077
 211.67517 212.86456 214.12596 215.92036 217.85976 219.91416 222.02056 224.11496
 226.18636 228.28176 230.39016 232.50756 234.64796 236.83136 239.09876 241.48015
 244.11255 246.37495 248.38835 250.16475 251.59315 252.72755 253.56095 253.88835
 253.93675 253.72215 253.09355 252.05295 250.67035 248.84274 246.76314 244.60754
 242.40994 240.22534 238.05674 235.90714 233.77854 231.65694 229.69434 227.86274
 226.15714 224.64054 223.28194 222.06533 220.95873 219.93013 219.04553 218.19793
 217.45133 216.64273 215.75213 215.12753 214.58893 215.35052 217.14990 219.28226
 221.17952 222.56030 222.95335 222.06042 220.75266 219.34235 219.73567 222.58812
 226.26103 230.93774 235.88757 240.70126 245.12326 249.20578 253.02560 256.50620
 259.68246 262.58734 265.21426 267.52863 269.60175 271.50336 273.22189 274.79364
 276.15320 277.34164 278.36154 279.53796 280.66962 281.70804 282.67078 283.55524
 284.36633 285.10825 285.76624 286.65039
 366.78100 356.34636 345.78973 334.66709 323.08146 311.28682 299.16819 286.98255
 274.70591 262.61428 250.63464 239.94701 230.08037 221.19573 213.38910 206.40246
 200.24783 195.19719 191.79056 189.84392 188.89228 188.96765 189.81401 191.13338
 192.86974 194.97610 197.25047 199.62083 202.07720 204.56856 206.66793 208.52129
 210.15865 211.31502 211.55538 211.79475 211.74311 211.45947 211.10384 210.74520
 210.37357 210.09493 209.91430 209.78966 209.72902 210.07139 210.46875 210.86912
 211.67348 212.86285 214.12421 215.91857 217.85794 219.91230 222.01867 224.11303
 226.18439 228.27976 230.38812 232.50549 234.64585 236.82922 239.09658 241.47794
 244.11031 246.37267 248.38604 250.16240 251.59076 252.72513 253.55849 253.88586
 253.93422 253.71959 253.09095 252.05031 250.66768 248.84004 246.76041 244.60477
 242.40713 240.22250 238.05386 235.90423 233.77559 231.65396 229.69132 227.85968
 226.15405 224.63741 223.27878 222.06214 220.95551 219.92687 219.04223 218.19460
 217.44796 216.63933 215.74869 215.12405 214.58542 215.34865 217.15187 219.26875
 221.14697 222.51555 222.87723 221.91525 220.49184 219.13097 219.51408 222.45259
 226.29028 231.05635 236.02913 240.84625 245.27466 249.35954 253.19125 256.71677
 259.89471 262.73157 265.27066 267.54758 269.60428 271.49893 273.25574 274.79382
 276.14096 277.36261 278.50211 279.53610 280.66479 281.70520 282.66162 283.54300
 284.35150 285.09357 285.75507 286.63632
 354.97500 345.04800 334.58700 324.11500 313.32600 302.53700 291.65000 280.76700
 269.93100 259.19300 248.62200 238.61700 229.08700 220.35500 212.54000 205.53500
 199.46400 194.49300 191.14300 189.19000 188.08900 188.01400 188.72400 189.90600
 191.46900 193.38200 195.40300 197.55600 199.80700 202.06000 204.28800 206.47900
 208.55200 210.37800 212.02500 213.65900 214.99800 216.11800 217.17200 218.25900
 219.49400 220.64500 221.67900 222.61400 223.54500 224.98200 226.57100 228.19000
 229.79700 231.81100 233.86500 235.97200 238.24200 240.55300 242.89900 245.25300
 247.48800 249.53500 251.36600 252.84800 254.09800 255.16700 256.02700 256.25300
 256.09500 255.54300 253.93500 252.56600 251.38400 250.24500 249.05200 247.70100
 246.01600 243.99600 241.78400 239.39300 236.81300 234.22300 231.65800 229.14400
 226.74000 224.47300 222.33500 220.32500 218.44000 216.67700 214.96200 213.47200
 212.20000 211.10800 210.26000 209.63900 209.24400 209.03100 209.05800 209.33300
 209.78400 210.62600 211.33100 212.39100 213.62500 214.84668 217.72949 219.47640
 220.32566 220.86828 220.88710 220.27371 219.43733 218.84250 219.04934 220.86203
 222.60583 225.72206 229.03064 232.61777 236.12270 239.51333 242.70767 245.68587
 248.41061 250.90679 253.19353 254.91714 256.48655 257.94920 259.39966 260.69384
 261.81714 262.77997 263.71679 264.54570 265.26305 265.89772 266.47676 267.00133
 267.47312 267.89325 268.26027 268.72800
