|-------------------------------------------------------------------------|
|   File Name : in_temp.dat
|   Subject   : temperature profiles used for initial guess atmosphere
|   File Type : input of gmtr
|   Data Type : atmospherical data
|   Author/s  : WRF-Chem
|   Date      : Fri Jul 26 15:39:24 2024
|-------------------------------------------------------------------------|

 WRF-Chem temperature
#
 values of T (K)    (8f10.5)
#
 354.97500 345.04800 334.58700 324.11500 313.32600 302.53700 291.65000 280.76700
 269.93100 259.19300 248.62200 238.61700 229.08700 220.35500 212.54000 205.53500
 199.46400 194.49300 191.14300 189.19000 188.08900 188.01400 188.72400 189.90600
 191.46900 193.38200 195.40300 197.55600 199.80700 202.06000 204.28800 206.47900
 208.55200 210.37800 212.02500 213.65900 214.99800 216.11800 217.17200 218.25900
 219.49400 220.64500 221.67900 222.61400 223.54500 224.98200 226.57100 228.19000
 229.79700 231.81100 233.86500 235.97200 238.24200 240.55300 242.89900 245.25300
 247.48800 249.53500 251.36600 252.84800 254.09800 255.16700 256.02700 256.25300
 256.09500 255.54300 253.93500 252.56600 251.38400 250.24500 249.05200 247.70100
 246.01600 243.99600 241.78400 239.39300 236.81300 234.22300 231.65800 229.14400
 226.74000 224.47300 222.33500 220.32500 218.44000 216.67700 214.96200 213.47200
 212.20000 211.10800 210.26000 209.63900 209.24400 209.03100 209.05800 209.33300
 209.78400 210.62600 211.33100 212.39100 213.62500 214.84668 217.72949 219.47640
 220.32566 220.86828 220.88710 220.27371 219.43733 218.84250 219.04934 220.86203
 222.60583 225.72206 229.03064 232.61777 236.12270 239.51333 242.70767 245.68587
 248.41061 250.90679 253.19353 254.91714 256.48655 257.94920 259.39966 260.69384
 261.81714 262.77997 263.71679 264.54570 265.26305 265.89772 266.47676 267.00133
 267.47312 267.89325 268.26027 268.72800
 366.78100 356.33500 345.76700 334.63300 323.03600 311.23000 299.10000 286.90300
 274.61500 262.51200 250.52100 239.82200 229.94400 221.04800 213.23000 206.23200
 200.06600 195.00400 191.58600 189.62800 188.66500 188.72900 189.56400 190.87200
 192.59700 194.69200 196.95500 199.31400 201.75900 204.23900 206.32700 208.16900
 209.79500 210.94000 211.16900 211.39700 211.33400 211.03900 210.67200 210.30200
 209.91900 209.62900 209.43700 209.30100 209.22900 209.56000 209.94600 210.33500
 211.12800 212.30600 213.55600 215.33900 217.26700 219.31000 221.40500 223.48800
 225.54800 227.63200 229.72900 231.83500 233.96400 236.13600 238.39200 240.76200
 243.38300 245.63400 247.63600 249.40100 250.81800 251.94100 252.76300 253.07900
 253.11600 252.89000 252.25000 251.19800 249.80400 247.96500 245.87400 243.70700
 241.49800 239.30200 237.12200 234.96100 232.82100 230.68800 228.71400 226.87100
 225.15400 223.62600 222.25600 221.02800 219.91000 218.87000 217.97400 217.11500
 216.35700 215.53700 214.63500 213.99900 213.44900 212.85855 212.01316 212.61654
 214.26826 216.08686 218.14273 220.53346 223.40855 226.78828 231.49734 235.90155
 239.42278 243.28576 247.23140 251.11907 254.80144 258.23331 261.38913 264.27520
 266.89312 269.26852 271.44504 273.08845 274.58484 275.98591 277.39845 278.65879
 279.75272 280.69038 281.56708 282.34086 283.01050 283.60295 284.14348 284.63317
 285.07358 285.46577 285.80838 286.24500
 381.81900 372.39900 361.20600 349.77600 337.62200 324.85300 311.81000 298.35300
 284.86000 271.32400 258.56100 246.30400 236.08700 226.79600 218.44800 211.29000
 205.52200 200.89400 197.38100 194.84800 193.01500 192.31500 192.25000 192.43100
 192.91200 193.53700 194.13600 194.71200 195.26200 195.83100 196.39300 196.97600
 197.60400 198.14900 198.58400 199.05700 199.69500 200.37800 201.05400 201.70800
 202.31300 202.85700 203.35500 203.86200 204.56900 205.29700 206.02600 206.98700
 208.19300 209.44100 210.96900 212.57600 214.46200 216.51300 218.63000 220.85300
 223.34100 225.96200 228.73900 231.69700 234.70600 237.70600 240.69200 243.65700
 246.73700 249.69900 252.52100 255.06300 257.29000 259.23300 260.63300 261.68000
 262.46100 262.79800 262.69100 262.22400 261.06900 259.52500 257.70700 255.50700
 253.00100 250.30200 247.39800 244.45200 241.65400 239.05400 236.73300 234.59000
 232.59500 230.72500 228.83400 226.82600 224.66600 222.38700 220.10400 217.71500
 215.45900 213.06600 210.54600 208.09300 205.35400 202.08130 196.05959 200.71215
 209.01611 216.90438 223.84126 229.78593 235.00632 240.20838 245.98943 250.68668
 254.32982 257.93487 261.55666 264.96801 268.15192 271.06452 273.76717 276.25691
 278.57680 280.74479 282.77456 284.60533 286.27232 287.81705 289.31715 290.65561
 291.81734 292.81312 293.70701 294.49387 295.17482 295.77730 296.32696 296.82492
 297.27278 297.67160 298.02000 298.46400
 399.33000 389.90700 379.81300 368.66800 357.52200 345.30100 333.07400 320.22700
 307.21600 293.84800 280.37600 267.29600 254.61000 242.98700 232.15100 221.97700
 212.67200 204.28600 197.66900 192.82100 189.48600 187.45200 186.81400 187.08900
 187.78100 189.05400 190.64800 192.54200 194.63000 196.75200 198.67100 200.15800
 201.53500 202.48700 202.97500 203.34000 203.53900 203.49700 203.38500 203.24700
 203.00500 202.78600 202.60300 202.43700 202.42600 202.88800 203.42000 203.95100
 204.89500 205.99200 207.30100 208.95800 210.73800 213.10000 215.56400 218.18000
 220.96600 223.91800 226.96100 230.09200 233.29300 236.55700 239.95500 243.53700
 246.84500 249.39000 251.54200 253.47400 255.19500 256.48400 257.43100 258.05900
 258.21200 258.04000 257.58200 256.64300 255.23900 253.50700 251.40800 249.05600
 246.57600 243.99400 241.38900 238.83000 236.34400 233.98600 231.96900 230.11800
 228.42300 226.89900 225.54800 224.29700 223.10500 221.96500 220.95800 220.11300
 219.49000 218.92000 218.32500 217.88100 217.42300 216.96366 216.35568 216.80261
 217.73415 218.28582 218.64258 219.10077 220.44626 222.53987 226.38451 230.35736
 233.59734 237.39164 241.29814 245.22796 248.98002 252.51130 255.78595 258.80109
 261.54781 264.05210 266.34239 268.04198 269.58951 271.01303 272.35754 273.55718
 274.59842 275.49092 276.28989 276.99307 277.60161 278.14001 278.63122 279.07623
 279.47646 279.83287 280.14422 280.54100
 399.73800 389.78500 379.66200 368.15100 356.64100 344.35000 331.79200 318.88800
 305.72600 292.49300 279.20900 266.73800 254.69600 244.21100 234.45700 225.43300
 217.56900 210.45100 204.30000 199.30600 195.45800 192.57600 191.02700 190.38600
 190.23900 190.53400 191.16600 191.92500 192.79500 193.76600 194.73200 195.31200
 195.80000 196.05200 196.11500 196.11500 196.03900 195.72300 195.34000 194.98900
 194.75100 194.79200 195.13300 195.59800 196.50600 198.13600 199.85800 201.56600
 204.17900 206.82300 209.89300 213.28400 216.82800 220.60500 224.38700 228.20900
 232.03200 235.82500 239.56000 243.25800 246.84500 250.20100 253.70900 257.46800
 261.53000 264.22100 266.60100 268.68100 270.32900 271.74100 272.83600 273.47400
 273.89800 274.00200 273.75700 273.28800 272.37100 271.10000 269.58900 267.77900
 265.81600 263.72100 261.39300 258.91600 256.29800 253.42300 250.33100 247.11400
 243.83700 240.52900 237.24900 233.99900 230.72800 227.51500 224.25400 220.95200
 217.62700 213.65600 210.12100 206.78900 204.01000 201.99491 199.07309 198.76551
 199.40006 200.48994 201.46112 202.31912 203.45100 204.96110 207.47502 210.85391
 213.70530 217.29629 220.99574 224.72316 228.28753 231.64854 234.68024 237.40893
 239.70644 241.60899 243.46854 245.67368 247.68154 249.52395 251.24767 252.78566
 254.12057 255.26479 256.23740 257.09036 257.82852 258.48160 259.07744 259.61723
 260.10271 260.53504 260.91270 261.39400
 399.73800 389.78500 379.66200 368.15100 356.64100 344.35000 331.79200 318.88800
 305.72600 292.49300 279.20900 266.73800 254.69600 244.21100 234.45700 225.43300
 217.56900 210.45100 204.30000 199.30600 195.45800 192.57600 191.02700 190.38600
 190.23900 190.53400 191.16600 191.92500 192.79500 193.76600 194.73200 195.31200
 195.80000 196.05200 196.11500 196.11500 196.03900 195.72300 195.34000 194.98900
 194.75100 194.79200 195.13300 195.59800 196.50600 198.13600 199.85800 201.56600
 204.17900 206.82300 209.89300 213.28400 216.82800 220.60500 224.38700 228.20900
 232.03200 235.82500 239.56000 243.25800 246.84500 250.20100 253.70900 257.46800
 261.53000 264.22100 266.60100 268.68100 270.32900 271.74100 272.83600 273.47400
 273.89800 274.00200 273.75700 273.28800 272.37100 271.10000 269.58900 267.77900
 265.81600 263.72100 261.39300 258.91600 256.29800 253.42300 250.33100 247.11400
 243.83700 240.52900 237.24900 233.99900 230.72800 227.51500 224.25400 220.95200
 217.62700 213.65600 210.12100 206.78900 204.01000 201.99491 199.07309 198.76551
 199.40006 200.48994 201.46112 202.31912 203.45100 204.96110 207.47502 210.85391
 213.70530 217.29629 220.99574 224.72316 228.28753 231.64854 234.68024 237.40893
 239.70644 241.60899 243.46854 245.67368 247.68154 249.52395 251.24767 252.78566
 254.12057 255.26479 256.23740 257.09036 257.82852 258.48160 259.07744 259.61723
 260.10271 260.53504 260.91270 261.39400
 399.33000 389.90700 379.81300 368.66800 357.52200 345.30100 333.07400 320.22700
 307.21600 293.84800 280.37600 267.29600 254.61000 242.98700 232.15100 221.97700
 212.67200 204.28600 197.66900 192.82100 189.48600 187.45200 186.81400 187.08900
 187.78100 189.05400 190.64800 192.54200 194.63000 196.75200 198.67100 200.15800
 201.53500 202.48700 202.97500 203.34000 203.53900 203.49700 203.38500 203.24700
 203.00500 202.78600 202.60300 202.43700 202.42600 202.88800 203.42000 203.95100
 204.89500 205.99200 207.30100 208.95800 210.73800 213.10000 215.56400 218.18000
 220.96600 223.91800 226.96100 230.09200 233.29300 236.55700 239.95500 243.53700
 246.84500 249.39000 251.54200 253.47400 255.19500 256.48400 257.43100 258.05900
 258.21200 258.04000 257.58200 256.64300 255.23900 253.50700 251.40800 249.05600
 246.57600 243.99400 241.38900 238.83000 236.34400 233.98600 231.96900 230.11800
 228.42300 226.89900 225.54800 224.29700 223.10500 221.96500 220.95800 220.11300
 219.49000 218.92000 218.32500 217.88100 217.42300 216.96366 216.35568 216.80261
 217.73415 218.28582 218.64258 219.10077 220.44626 222.53987 226.38451 230.35736
 233.59734 237.39164 241.29814 245.22796 248.98002 252.51130 255.78595 258.80109
 261.54781 264.05210 266.34239 268.04198 269.58951 271.01303 272.35754 273.55718
 274.59842 275.49092 276.28989 276.99307 277.60161 278.14001 278.63122 279.07623
 279.47646 279.83287 280.14422 280.54100
 381.81900 372.39900 361.20600 349.77600 337.62200 324.85300 311.81000 298.35300
 284.86000 271.32400 258.56100 246.30400 236.08700 226.79600 218.44800 211.29000
 205.52200 200.89400 197.38100 194.84800 193.01500 192.31500 192.25000 192.43100
 192.91200 193.53700 194.13600 194.71200 195.26200 195.83100 196.39300 196.97600
 197.60400 198.14900 198.58400 199.05700 199.69500 200.37800 201.05400 201.70800
 202.31300 202.85700 203.35500 203.86200 204.56900 205.29700 206.02600 206.98700
 208.19300 209.44100 210.96900 212.57600 214.46200 216.51300 218.63000 220.85300
 223.34100 225.96200 228.73900 231.69700 234.70600 237.70600 240.69200 243.65700
 246.73700 249.69900 252.52100 255.06300 257.29000 259.23300 260.63300 261.68000
 262.46100 262.79800 262.69100 262.22400 261.06900 259.52500 257.70700 255.50700
 253.00100 250.30200 247.39800 244.45200 241.65400 239.05400 236.73300 234.59000
 232.59500 230.72500 228.83400 226.82600 224.66600 222.38700 220.10400 217.71500
 215.45900 213.06600 210.54600 208.09300 205.35400 202.08130 196.05959 200.71215
 209.01611 216.90438 223.84126 229.78593 235.00632 240.20838 245.98943 250.68668
 254.32982 257.93487 261.55666 264.96801 268.15192 271.06452 273.76717 276.25691
 278.57680 280.74479 282.77456 284.60533 286.27232 287.81705 289.31715 290.65561
 291.81734 292.81312 293.70701 294.49387 295.17482 295.77730 296.32696 296.82492
 297.27278 297.67160 298.02000 298.46400
 366.78100 356.33584 345.76869 334.63553 323.03938 311.23422 299.10506 286.90891
 274.62175 262.51959 250.52944 239.83128 229.95413 221.05897 213.24181 206.24466
 200.07950 195.01835 191.60119 189.64403 188.68188 188.74672 189.58256 190.89141
 192.61725 194.71310 196.97694 199.33678 201.78263 204.26347 206.35232 208.19516
 209.82200 210.96785 211.19769 211.42654 211.36438 211.07022 210.70407 210.33491
 209.95275 209.66360 209.47244 209.33729 209.26613 209.59797 209.98482 210.37466
 211.16851 212.34735 213.59819 215.38204 217.31088 219.35472 221.45057 223.53441
 225.59526 227.68010 229.77794 231.88479 234.01463 236.18748 238.44432 240.81516
 243.43701 245.68885 247.69169 249.45754 250.87538 251.99923 252.82207 253.13891
 253.17676 252.95160 252.31245 251.26129 249.86813 248.02998 245.93982 243.77367
 241.56551 239.37035 237.19120 235.03104 232.89188 230.75973 228.78657 226.94442
 225.22826 223.70110 222.33195 221.10479 219.98764 218.94848 218.05332 217.19517
 216.43801 215.61885 214.71770 214.08254 213.53339 212.74876 210.90080 210.40999
 210.62630 211.77907 213.45700 215.70857 219.15506 223.79073 229.60402 234.76961
 238.68513 242.57649 246.56253 250.59521 254.46339 258.22562 261.05225 262.77905
 265.46793 268.30750 270.70288 272.51727 274.48364 276.49216 278.01837 279.51523
 281.17166 282.72739 284.19492 285.55176 286.73199 287.77921 288.73434 289.60443
 290.38965 291.09543 291.71732 292.54071
 366.78100 356.33601 345.76903 334.63604 323.04006 311.23507 299.10609 286.91010
 274.62312 262.52113 250.53115 239.83316 229.95618 221.06119 213.24421 206.24722
 200.08224 195.02125 191.60427 189.64728 188.68530 188.75031 189.58632 190.89534
 192.62135 194.71737 196.98138 199.34140 201.78741 204.26843 206.35744 208.20046
 209.82747 210.97349 211.20350 211.43252 211.37053 211.07655 210.71056 210.34158
 209.95959 209.67061 209.47962 209.34463 209.27365 209.60566 209.99268 210.38269
 211.17671 212.35572 213.60674 215.39075 217.31977 219.36378 221.45980 223.54381
 225.60483 227.68984 229.78786 231.89487 234.02489 236.19790 238.45492 240.82593
 243.44794 245.69996 247.70297 249.46899 250.88700 252.01102 252.83403 253.15105
 253.18906 252.96408 252.32509 251.27411 249.88112 248.04314 245.95315 243.78717
 241.57918 239.38420 237.20521 235.04523 232.90624 230.77425 228.80127 226.95928
 225.24330 223.71631 222.34733 221.12034 220.00336 218.96437 218.06939 217.21140
 216.45442 215.63543 214.73445 214.09946 213.55048 212.79132 211.00261 210.49774
 210.62608 211.88716 213.53331 215.70166 219.06750 223.72081 229.55659 234.71495
 238.61893 242.49422 246.46762 250.50443 254.39880 258.16245 260.98706 262.72598
 265.42041 268.26654 270.65793 272.43668 274.38159 276.39621 277.92188 279.41348
 281.07837 282.64203 284.10556 285.46091 286.64267 287.68848 288.64499 289.51492
 290.30099 291.00662 291.62915 292.45316
 366.78100 356.33601 345.76902 334.63604 323.04005 311.23506 299.10607 286.91008
 274.62309 262.52111 250.53112 239.83313 229.95614 221.06115 213.24416 206.24718
 200.08219 195.02120 191.60421 189.64722 188.68523 188.75025 189.58626 190.89527
 192.62128 194.71729 196.98130 199.34132 201.78733 204.26834 206.35735 208.20036
 209.82737 210.97339 211.20340 211.43241 211.37042 211.07643 210.71044 210.34146
 209.95947 209.67048 209.47949 209.34450 209.27352 209.60553 209.99254 210.38255
 211.17656 212.35557 213.60659 215.39060 217.31961 219.36362 221.45963 223.54364
 225.60466 227.68967 229.78768 231.89469 234.02470 236.19771 238.45473 240.82574
 243.44775 245.69976 247.70277 249.46878 250.88680 252.01081 252.83382 253.15083
 253.18884 252.96385 252.32487 251.27388 249.88089 248.04290 245.95291 243.78693
 241.57894 239.38395 237.20496 235.04497 232.90598 230.77400 228.80101 226.95902
 225.24303 223.71604 222.34705 221.12007 220.00308 218.96409 218.06910 217.21111
 216.45412 215.63514 214.73415 214.09916 213.55017 212.82504 211.11565 210.56461
 210.66481 211.96416 213.60397 215.71431 218.99593 223.64850 229.50677 234.65323
 238.54453 242.40630 246.37016 250.41371 254.33708 258.10223 260.92477 262.67532
 265.36945 268.21924 270.60925 272.35666 274.28061 276.30014 277.82773 279.31335
 280.98737 282.55902 284.01752 285.37387 286.55484 287.60181 288.55804 289.42657
 290.21481 290.92050 291.54102 292.36890
 366.78100 356.33596 345.76893 334.63589 323.03986 311.23482 299.10578 286.90975
 274.62271 262.52067 250.53064 239.83260 229.95557 221.06053 213.24349 206.24646
 200.08142 195.02038 191.60335 189.64631 188.68428 188.74924 189.58520 190.89417
 192.62013 194.71609 196.98006 199.34002 201.78599 204.26695 206.35591 208.19888
 209.82584 210.97181 211.20177 211.43073 211.36870 211.07466 210.70862 210.33959
 209.95755 209.66852 209.47748 209.34244 209.27141 209.60337 209.99033 210.38030
 211.17426 212.35323 213.60419 215.38815 217.31712 219.36108 221.45705 223.54101
 225.60197 227.68694 229.78490 231.89186 234.02183 236.19479 238.45176 240.82272
 243.44468 245.69665 247.69961 249.46557 250.88354 252.00750 252.83047 253.14743
 253.18539 252.96036 252.32132 251.27028 249.87725 248.03921 245.94918 243.78314
 241.57510 239.38007 237.20103 235.04100 232.90196 230.76992 228.79689 226.95485
 225.23881 223.71178 222.34274 221.11571 219.99867 218.95963 218.06460 217.20656
 216.44952 215.63049 214.72945 214.09442 213.54538 212.85541 211.22815 210.63361
 210.71484 212.02539 213.66956 215.73560 218.94186 223.57285 229.45474 234.58853
 238.46777 242.31792 246.27402 250.32407 254.27782 258.04199 260.85922 262.62128
 265.31268 268.16479 270.55493 272.27658 274.18237 276.20703 277.73843 279.22043
 280.90070 282.47540 283.93369 285.28925 286.46991 287.51636 288.47388 289.34482
 290.12973 290.83740 291.46176 292.28696
 366.78100 356.33592 345.76883 334.63575 323.03966 311.23458 299.10549 286.90941
 274.62232 262.52024 250.53015 239.83207 229.95498 221.05990 213.24281 206.24573
 200.08064 195.01956 191.60247 189.64539 188.68331 188.74822 189.58414 190.89305
 192.61897 194.71488 196.97880 199.33871 201.78463 204.26554 206.35446 208.19737
 209.82429 210.97020 211.20012 211.42903 211.36695 211.07287 210.70678 210.33770
 209.95561 209.66653 209.47544 209.34036 209.26927 209.60119 209.98810 210.37802
 211.17193 212.35085 213.60176 215.38568 217.31459 219.35851 221.45442 223.53834
 225.59926 227.68417 229.78209 231.88900 234.01892 236.19183 238.44875 240.81966
 243.44158 245.69349 247.69641 249.46232 250.88024 252.00415 252.82707 253.14398
 253.18190 252.95681 252.31773 251.26665 249.87356 248.03548 245.94539 243.77931
 241.57122 239.37614 237.19705 235.03697 232.89788 230.76580 228.79271 226.95063
 225.23454 223.70746 222.33837 221.11129 219.99421 218.95512 218.06004 217.20195
 216.44487 215.62578 214.72470 214.08961 213.54053 212.88486 211.33786 210.71069
 210.77129 212.07367 213.72786 215.76482 218.90356 223.49757 229.39900 234.51991
 238.38890 242.22931 246.17883 250.23582 254.22121 257.98132 260.78955 262.56415
 265.24957 268.10153 270.49451 272.19550 274.08694 276.11813 277.65656 279.13394
 280.81921 282.39581 283.85266 285.20844 286.38956 287.43781 288.39355 289.26321
 290.04971 290.75897 291.38110 292.21002
 366.78100 356.33586 345.76872 334.63558 323.03944 311.23431 299.10517 286.90903
 274.62189 262.51975 250.52961 239.83147 229.95433 221.05919 213.24206 206.24492
 200.07978 195.01864 191.60150 189.64436 188.68222 188.74708 189.58294 190.89181
 192.61767 194.71353 196.97739 199.33725 201.78311 204.26397 206.35283 208.19569
 209.82256 210.96842 211.19828 211.42714 211.36500 211.07086 210.70472 210.33558
 209.95344 209.66431 209.47317 209.33803 209.26689 209.59875 209.98561 210.37547
 211.16933 212.34819 213.59906 215.38292 217.31178 219.35564 221.45150 223.53536
 225.59622 227.68108 229.77894 231.88581 234.01567 236.18853 238.44539 240.81625
 243.43811 245.68997 247.69283 249.45869 250.87656 252.00042 252.82328 253.14014
 253.17800 252.95286 252.31372 251.26258 249.86944 248.03131 245.94117 243.77503
 241.56689 239.37175 237.19261 235.03247 232.89333 230.76119 228.78806 226.94592
 225.22978 223.70264 222.33350 221.10636 219.98922 218.95008 218.05494 217.19680
 216.43967 215.62053 214.71939 214.08425 213.53511 212.91283 211.44414 210.79919
 210.83282 212.10866 213.77905 215.79913 218.87366 223.42851 229.33983 234.44830
 238.30713 242.13924 246.08321 250.14937 254.16814 257.92252 260.71927 262.50882
 265.18063 268.02933 270.42612 272.11166 273.99393 276.03091 277.58011 279.05673
 280.74008 282.32062 283.77606 285.13010 286.31119 287.36038 288.31519 289.18597
 289.97571 290.68115 291.30508 292.13550
 366.78100 356.33573 345.76846 334.63519 323.03893 311.23366 299.10439 286.90812
 274.62085 262.51858 250.52831 239.83005 229.95278 221.05751 213.24024 206.24297
 200.07770 195.01643 191.59917 189.64190 188.67963 188.74436 189.58009 190.88882
 192.61455 194.71029 196.97402 199.33375 201.77948 204.26021 206.34894 208.19167
 209.81840 210.96414 211.19387 211.42260 211.36033 211.06606 210.69979 210.33052
 209.94826 209.65899 209.46772 209.33245 209.26118 209.59291 209.97964 210.36938
 211.16311 212.34184 213.59257 215.37630 217.30503 219.34876 221.44450 223.52823
 225.58896 227.67369 229.77142 231.87815 234.00788 236.18062 238.43735 240.80808
 243.42981 245.68154 247.68427 249.45000 250.86774 251.99147 252.81420 253.13093
 253.16866 252.94339 252.30412 251.25286 249.85959 248.02132 245.93105 243.76478
 241.55651 239.36124 237.18198 235.02171 232.88244 230.75017 228.77690 226.93463
 225.21836 223.69110 222.32183 221.09456 219.97729 218.93802 218.04275 217.18448
 216.42721 215.60795 214.70668 214.07141 213.52214 212.93550 211.55058 210.89813
 210.89757 212.13356 213.82274 215.83438 218.84566 223.36758 229.27983 234.37331
 238.22202 242.04578 245.98761 250.06587 254.12103 257.86850 260.65173 262.45648
 265.10675 267.94708 270.34647 272.02280 273.90146 275.94580 277.50781 278.98645
 280.66788 282.24951 283.70148 285.05618 286.23886 287.28592 288.24194 289.11111
 289.90231 290.60846 291.23325 292.06372
 366.78100 356.33550 345.76800 334.63450 323.03799 311.23249 299.10299 286.90649
 274.61899 262.51649 250.52599 239.82748 229.94998 221.05448 213.23698 206.23948
 200.07398 195.01248 191.59497 189.63747 188.67497 188.73947 189.57497 190.88347
 192.60897 194.70446 196.96796 199.32746 201.77296 204.25346 206.34196 208.18446
 209.81095 210.95645 211.18595 211.41445 211.35195 211.05745 210.69095 210.32144
 209.93894 209.64944 209.45794 209.32244 209.25094 209.58244 209.96893 210.35843
 211.15193 212.33043 213.58093 215.36443 217.29292 219.33642 221.43192 223.51542
 225.57592 227.66042 229.75792 231.86441 233.99391 236.16641 238.42291 240.79341
 243.41491 245.66641 247.66890 249.43440 250.85190 251.97540 252.79790 253.11440
 253.15190 252.92639 252.28689 251.23539 249.84189 248.00339 245.91289 243.74639
 241.53788 239.34238 237.16288 235.00238 232.86288 230.73038 228.75688 226.91437
 225.19787 223.67037 222.30087 221.07337 219.95587 218.91637 218.02086 217.16236
 216.40486 215.58536 214.68386 214.04836 213.49886 212.95143 211.65883 211.00908
 210.96324 212.15047 213.86266 215.87056 218.81726 223.31224 229.21985 234.29558
 238.13081 241.94762 245.88954 249.98445 254.07942 257.81778 260.58545 262.40964
 265.03012 267.85529 270.25720 271.92725 273.80728 275.86050 277.44052 278.92245
 280.59958 282.18121 283.62885 284.98474 286.16562 287.21448 288.17041 289.04077
 289.83002 290.53976 291.16080 291.99619
 366.78100 356.33515 345.76731 334.63346 323.03661 311.23076 299.10092 286.90407
 274.61622 262.51337 250.52253 239.82368 229.94583 221.04998 213.23214 206.23429
 200.06844 195.00659 191.58875 189.63090 188.66805 188.73221 189.56736 190.87551
 192.60066 194.69582 196.95897 199.31812 201.76327 204.24343 206.33158 208.17373
 209.79988 210.94504 211.17419 211.40234 211.33950 211.04465 210.67780 210.30795
 209.92511 209.63526 209.44341 209.30756 209.23572 209.56687 209.95302 210.34217
 211.13533 212.31348 213.56363 215.34678 217.27494 219.31809 221.41324 223.49640
 225.55655 227.64070 229.73785 231.84401 233.97316 236.14531 238.40146 240.77162
 243.39277 245.64392 247.64607 249.41123 250.82838 251.95153 252.77368 253.08984
 253.12699 252.90114 252.26130 251.20945 249.81560 247.97675 245.88591 243.71906
 241.51021 239.31436 237.13452 234.97367 232.83382 230.70097 228.72713 226.88428
 225.16743 223.63958 222.26974 221.04189 219.92404 218.88420 217.98835 217.12950
 216.37165 215.55181 214.64996 214.01411 213.46426 212.96031 211.77013 211.12766
 211.03734 212.16490 213.89819 215.90750 218.78993 223.25349 229.15579 234.21037
 238.03099 241.84091 245.78786 249.90469 254.04326 257.77118 260.52106 262.37042
 264.95276 267.75717 270.16141 271.83197 273.71582 275.77917 277.37927 278.86871
 280.53680 282.11722 283.56003 284.91486 286.09653 287.14389 288.10150 288.97177
 289.76111 290.46808 291.09619 291.92908
 366.78100 356.33462 345.76623 334.63185 323.03446 311.22808 299.09769 286.90031
 274.61192 262.50854 250.51716 239.81777 229.93939 221.04300 213.22462 206.22623
 200.05985 194.99746 191.57908 189.62070 188.65731 188.72093 189.55554 190.86316
 192.58777 194.68239 196.94500 199.30362 201.74823 204.22785 206.31547 208.15708
 209.78270 210.92731 211.15593 211.38354 211.32016 211.02477 210.65739 210.28701
 209.90362 209.61324 209.42085 209.28447 209.21208 209.54270 209.92831 210.31693
 211.10955 212.28716 213.53678 215.31939 217.24701 219.28962 221.38424 223.46685
 225.52647 227.61009 229.70670 231.81232 233.94093 236.11255 238.36816 240.73778
 243.35839 245.60901 247.61062 249.37524 250.79186 251.91447 252.73609 253.05170
 253.08832 252.86193 252.22155 251.16916 249.77478 247.93540 245.84401 243.67663
 241.46724 239.27086 237.09047 234.92909 232.78870 230.65532 228.68094 226.83755
 225.12017 223.59178 222.22140 220.99301 219.87463 218.83424 217.93786 217.07848
 216.32009 215.49971 214.59732 213.96094 213.41055 212.95744 211.88713 211.25934
 211.10344 212.18504 213.94196 215.92845 218.74692 223.19641 229.09569 234.12207
 237.92670 241.73079 245.68536 249.82800 254.01343 257.72589 260.45984 262.33670
 264.87622 267.65271 270.05957 271.73416 273.62537 275.70004 277.32343 278.82086
 280.47894 282.05515 283.49261 284.84790 286.03000 287.07584 288.03366 288.90540
 289.69394 290.40494 291.02969 291.86545
 366.78100 356.33446 345.76592 334.63138 323.03385 311.22731 299.09677 286.89923
 274.61069 262.50715 250.51562 239.81608 229.93754 221.04100 213.22246 206.22392
 200.05739 194.99485 191.57631 189.61777 188.65423 188.71769 189.55215 190.85962
 192.58408 194.67854 196.94100 199.29946 201.74392 204.22339 206.31085 208.15231
 209.77777 210.92223 211.15069 211.37815 211.31462 211.01908 210.65154 210.28100
 209.89746 209.60692 209.41439 209.27785 209.20531 209.53577 209.92123 210.30969
 211.10216 212.27962 213.52908 215.31154 217.23900 219.28146 221.37592 223.45839
 225.51785 227.60131 229.69777 231.80323 233.93169 236.10316 238.35862 240.72808
 243.34854 245.59900 247.60046 249.36493 250.78139 251.90385 252.72531 253.04077
 253.07723 252.85069 252.21016 251.15762 249.76308 247.92354 245.83200 243.66446
 241.45493 239.25839 237.07785 234.91631 232.77577 230.64223 228.66769 226.82416
 225.10662 223.57808 222.20754 220.97900 219.86046 218.81993 217.92339 217.06385
 216.30531 215.48477 214.58223 213.94570 213.39516 212.97412 211.97951 211.39148
 211.21657 212.16278 213.94344 215.99619 218.76524 223.14328 229.02116 234.02168
 237.81352 241.61546 245.58185 249.75345 253.98764 257.68112 260.39828 262.30588
 264.79907 267.54297 269.95175 271.63486 273.53528 275.62241 277.26825 278.77554
 280.42551 281.99438 283.42834 284.78363 285.96429 287.01315 287.97003 288.84225
 289.63138 290.34018 290.96863 291.79962
 366.78100 356.33445 345.76590 334.63135 323.03381 311.22726 299.09671 286.89916
 274.61061 262.50706 250.51551 239.81597 229.93742 221.04087 213.22232 206.22377
 200.05722 194.99468 191.57613 189.61758 188.65403 188.71748 189.55193 190.85938
 192.58384 194.67829 196.94074 199.29919 201.74364 204.22309 206.31054 208.15200
 209.77745 210.92190 211.15035 211.37780 211.31425 211.01871 210.65116 210.28061
 209.89706 209.60651 209.41396 209.27741 209.20487 209.53532 209.92077 210.30922
 211.10167 212.27912 213.52857 215.31103 217.23848 219.28093 221.37538 223.45783
 225.51728 227.60074 229.69719 231.80264 233.93109 236.10254 238.35799 240.72744
 243.34790 245.59835 247.59980 249.36425 250.78070 251.90315 252.72460 253.04006
 253.07651 252.84996 252.20941 251.15686 249.76231 247.92277 245.83122 243.66367
 241.45412 239.25757 237.07702 234.91547 232.77493 230.64138 228.66683 226.82328
 225.10573 223.57718 222.20663 220.97809 219.85954 218.81899 217.92244 217.06289
 216.30434 215.48380 214.58125 213.94470 213.39415 212.99854 212.06390 211.51244
 211.32121 212.18698 214.06741 216.01317 218.65244 223.07793 228.94516 233.91226
 237.69328 241.49507 245.47791 249.68332 253.96877 257.64288 260.34567 262.28848
 264.72882 267.43234 269.84198 271.53690 273.44547 275.54416 277.21280 278.73029
 280.37186 281.93491 283.36511 284.72064 285.90234 286.95013 287.90796 288.77954
 289.57147 290.27960 290.90637 291.74347
 366.78100 356.33409 345.76518 334.63028 323.03237 311.22546 299.09455 286.89665
 274.60774 262.50383 250.51192 239.81202 229.93311 221.03620 213.21729 206.21839
 200.05148 194.98857 191.56966 189.61076 188.64685 188.70994 189.54403 190.85113
 192.57522 194.66931 196.93140 199.28950 201.73359 204.21268 206.29977 208.14087
 209.76596 210.91005 211.13814 211.36524 211.30133 211.00542 210.63751 210.26661
 209.88270 209.59179 209.39888 209.26198 209.18907 209.51916 209.90425 210.29235
 211.08444 212.26153 213.51062 215.29272 217.21981 219.26190 221.35599 223.43809
 225.49718 227.58027 229.67636 231.78146 233.90955 236.08064 238.33573 240.70482
 243.32492 245.57501 247.57610 249.34019 250.75629 251.87838 252.69947 253.01456
 253.05066 252.82375 252.18284 251.12993 249.73503 247.89512 245.80321 243.63530
 241.42540 239.22849 237.04758 234.88567 232.74477 230.61086 228.63595 226.79204
 225.07414 223.54523 222.17432 220.94541 219.82651 218.78560 217.88869 217.02878
 216.26988 215.44897 214.54606 213.90915 213.35825 213.00552 212.17215 211.59816
 211.45055 212.29047 214.03842 215.97778 218.62706 222.99387 228.88571 233.81808
 237.58170 241.38446 245.38512 249.62381 253.95815 257.61417 260.30280 262.28055
 264.66272 267.31912 269.72623 271.43332 273.35370 275.46439 277.15280 278.68304
 280.31836 281.87329 283.30557 284.66061 285.84146 286.89191 287.84772 288.72037
 289.51129 290.22049 290.84860 291.68750
 366.78100 356.33313 345.76326 334.62738 323.02851 311.22064 299.08877 286.88990
 274.60003 262.49515 250.50228 239.80141 229.92154 221.02367 213.20380 206.20392
 200.03605 194.97218 191.55231 189.59244 188.62757 188.68969 189.52282 190.82895
 192.55208 194.64521 196.90633 199.26346 201.70659 204.18472 206.27085 208.11098
 209.73510 210.87823 211.10536 211.33149 211.26662 210.96975 210.60087 210.22900
 209.84413 209.55226 209.35839 209.22051 209.14664 209.47577 209.85990 210.24703
 211.03816 212.21428 213.46241 215.24354 217.16967 219.21080 221.30393 223.38505
 225.44318 227.52531 229.62044 231.72457 233.85170 236.02182 238.27595 240.64408
 243.26321 245.51234 247.51246 249.27559 250.69072 251.81185 252.63198 252.94611
 252.98123 252.75336 252.11149 251.05762 249.66175 247.82088 245.72800 243.55913
 241.34826 239.15039 236.96852 234.80565 232.66377 230.52890 228.55303 226.70816
 224.98929 223.45941 222.08754 220.85767 219.73780 218.69593 217.79806 216.93718
 216.17731 215.35544 214.45157 213.81370 213.26183 212.98218 212.32147 211.67694
 211.51717 212.34267 214.02754 216.03526 218.68483 222.91434 228.81195 233.71584
 237.46750 241.27583 245.29732 249.57008 253.95016 257.58484 260.25446 262.26471
 264.59106 267.19925 269.60330 271.32593 273.26144 275.38614 277.09430 278.63730
 280.26678 281.81427 283.24707 284.60315 285.78476 286.83289 287.79120 288.66360
 289.45486 290.16479 290.79239 291.63324
 366.78100 356.33251 345.76202 334.62553 323.02604 311.21755 299.08506 286.88557
 274.59508 262.48960 250.49611 239.79462 229.91413 221.01564 213.19515 206.19466
 200.02617 194.96168 191.54119 189.58070 188.61521 188.67672 189.50923 190.81474
 192.53725 194.62976 196.89028 199.24679 201.68930 204.16681 206.25232 208.09183
 209.71534 210.85785 211.08436 211.30987 211.24438 210.94689 210.57740 210.20491
 209.81942 209.52693 209.33244 209.19395 209.11947 209.44798 209.83149 210.21800
 211.00851 212.18402 213.43153 215.21204 217.13755 219.17806 221.27057 223.35108
 225.40859 227.49010 229.58461 231.68812 233.81463 235.98415 238.23766 240.60517
 243.22368 245.47219 247.47170 249.23421 250.64872 251.76923 252.58874 252.90225
 252.93676 252.70827 252.06578 251.01129 249.61480 247.77331 245.67983 243.51034
 241.29885 239.10036 236.91787 234.75438 232.61189 230.47640 228.49991 226.65442
 224.93493 223.40444 222.03195 220.80146 219.68097 218.63848 217.73999 216.87851
 216.11802 215.29553 214.39104 213.75255 213.20006 212.97499 212.44325 211.79730
 211.55313 212.36897 214.07359 216.11063 218.71233 222.83661 228.73280 233.61046
 237.35118 241.16687 245.21130 249.51878 253.94106 257.55078 260.19702 262.23969
 264.51700 267.07852 269.48248 271.22577 273.17615 275.31290 277.04114 278.59396
 280.21915 281.75531 283.19217 284.54846 285.73044 286.77826 287.73700 288.60876
 289.40085 290.11139 290.73874 291.58228
 366.78100 356.33230 345.76160 334.62490 323.02520 311.21650 299.08380 286.88410
 274.59340 262.48770 250.49400 239.79230 229.91159 221.01289 213.19219 206.19149
 200.02279 194.95809 191.53739 189.57669 188.61099 188.67229 189.50459 190.80989
 192.53219 194.62449 196.88479 199.24109 201.68339 204.16069 206.24599 208.08529
 209.70859 210.85089 211.07718 211.30248 211.23678 210.93908 210.56938 210.19668
 209.81098 209.51828 209.32358 209.18488 209.11018 209.43848 209.82178 210.20808
 210.99838 212.17368 213.42098 215.20128 217.12658 219.16688 221.25918 223.33948
 225.39677 227.47807 229.57237 231.67567 233.80197 235.97127 238.22457 240.59187
 243.21017 245.45847 247.45777 249.22007 250.63437 251.75467 252.57397 252.88727
 252.92157 252.69287 252.05017 250.99547 249.59877 247.75707 245.66336 243.49366
 241.28196 239.08326 236.90056 234.73686 232.59416 230.45846 228.48176 226.63606
 224.91636 223.38566 222.01296 220.78226 219.66156 218.61886 217.72016 216.85846
 216.09776 215.27506 214.37036 213.73166 213.17896 212.98734 212.53461 211.94360
 211.59016 212.39850 214.13806 216.16000 218.69969 222.76508 228.66422 233.51166
 237.23636 241.05768 245.12675 249.46997 253.92984 257.51202 260.13348 262.21011
 264.44452 266.96121 269.36572 271.13275 273.09796 275.24423 276.98911 278.55176
 280.17294 281.70001 283.13913 284.49677 285.67798 286.72791 287.68463 288.55762
 289.34958 290.06006 290.69077 291.53217
 366.78100 356.33207 345.76113 334.62420 323.02426 311.21533 299.08239 286.88246
 274.59152 262.48559 250.49165 239.78972 229.90879 221.00985 213.18892 206.18798
 200.01905 194.95411 191.53318 189.57224 188.60631 188.66738 189.49944 190.80451
 192.52657 194.61864 196.87870 199.23477 201.67683 204.15390 206.23896 208.07803
 209.70110 210.84316 211.06923 211.29429 211.22836 210.93042 210.56049 210.18755
 209.80162 209.50868 209.31375 209.17482 209.09988 209.42795 209.81101 210.19708
 210.98714 212.16221 213.40927 215.18934 217.11441 219.15447 221.24654 223.32660
 225.38367 227.46473 229.55880 231.66186 233.78793 235.95699 238.21006 240.57713
 243.19519 245.44326 247.44232 249.20439 250.61845 251.73852 252.55758 252.87065
 252.90471 252.67578 252.03285 250.97791 249.58098 247.73904 245.64511 243.47517
 241.26324 239.06430 236.88137 234.71743 232.57450 230.43857 228.46163 226.61570
 224.89576 223.36483 221.99189 220.76096 219.64002 218.59709 217.69816 216.83622
 216.07529 215.25235 214.34742 213.70848 213.15555 212.99829 212.62674 212.08542
 211.64116 212.43802 214.19427 216.19267 218.68245 222.69968 228.59978 233.41429
 237.12042 240.94916 245.04515 249.42352 253.91591 257.46899 260.06635 262.17630
 264.37238 266.84692 269.25162 271.04477 273.02423 275.17789 276.93683 278.50757
 280.12631 281.64075 283.09109 284.44824 285.63007 286.67722 287.63882 288.51123
 289.30283 290.01346 290.64301 291.48660
 366.78100 356.33173 345.76046 334.62318 323.02291 311.21364 299.08037 286.88010
 274.58882 262.48255 250.48828 239.78601 229.90474 221.00546 213.18419 206.18292
 200.01365 194.94838 191.52710 189.56583 188.59956 188.66029 189.49202 190.79674
 192.51847 194.61020 196.86993 199.22565 201.66738 204.14411 206.22884 208.06757
 209.69029 210.83202 211.05775 211.28248 211.21621 210.91793 210.54766 210.17439
 209.78812 209.49485 209.29957 209.16030 209.08503 209.41276 209.79549 210.18121
 210.97094 212.14567 213.39240 215.17213 217.09685 219.13658 221.22831 223.30804
 225.36477 227.44549 229.53922 231.64195 233.76768 235.93641 238.18913 240.55586
 243.17359 245.42132 247.42005 249.18177 250.59550 251.71523 252.53396 252.84668
 252.88041 252.65114 252.00787 250.95260 249.55532 247.71305 245.61878 243.44851
 241.23624 239.03696 236.85369 234.68942 232.54615 230.40988 228.43260 226.58633
 224.86606 223.33479 221.96152 220.73024 219.60897 218.56570 217.66643 216.80416
 216.04288 215.21961 214.31434 213.67507 213.12180 213.00383 212.72511 212.21638
 211.70747 212.48149 214.23833 216.21802 218.67165 222.63994 228.53333 233.31393
 237.00320 240.84358 244.96889 249.38028 253.89861 257.42075 259.99524 262.13550
 264.29938 266.73514 269.14041 270.96115 272.95505 275.11502 276.88489 278.45999
 280.07867 281.57407 283.04742 284.40610 285.58691 286.63724 287.59586 288.46951
 289.26013 289.97247 290.60101 291.44574
 366.78100 356.33136 345.75972 334.62208 323.02144 311.21180 299.07816 286.87753
 274.58589 262.47925 250.48461 239.78197 229.90033 221.00069 213.17905 206.17741
 200.00777 194.94213 191.52049 189.55886 188.59222 188.65258 189.48394 190.78830
 192.50966 194.60102 196.86038 199.21574 201.65710 204.13346 206.21782 208.05619
 209.67855 210.81991 211.04527 211.26963 211.20299 210.90435 210.53371 210.16007
 209.77343 209.47979 209.28415 209.14452 209.06888 209.39624 209.77860 210.16396
 210.95332 212.12768 213.37404 215.15340 217.07776 219.11712 221.20848 223.28785
 225.34421 227.42457 229.51793 231.62029 233.74565 235.91401 238.16637 240.53273
 243.15009 245.39745 247.39581 249.15718 250.57054 251.68990 252.50826 252.82062
 252.85398 252.62434 251.98070 250.92506 249.52742 247.68478 245.59014 243.41951
 241.20687 239.00723 236.82359 234.65895 232.51531 230.37867 228.40103 226.55439
 224.83375 223.30211 221.92847 220.69684 219.57520 218.53156 217.63192 216.76928
 216.00764 215.18400 214.27836 213.63872 213.08508 213.00781 212.82527 212.34288
 211.78366 212.52437 214.27391 216.24271 218.66878 222.58711 228.46490 233.20988
 236.88786 240.74329 244.90030 249.34097 253.87631 257.36700 259.91690 262.08328
 264.22256 266.62592 269.03308 270.88370 272.89224 275.05698 276.83298 278.41125
 280.02844 281.50815 283.00797 284.36810 285.54971 286.59879 287.55704 288.43170
 289.22385 289.93484 290.56357 291.41113
 366.78100 356.33114 345.75928 334.62143 323.02057 311.21071 299.07685 286.87599
 274.58414 262.47728 250.48242 239.77956 229.89770 220.99785 213.17599 206.17413
 200.00427 194.93841 191.51656 189.55470 188.58784 188.64798 189.47912 190.78327
 192.50441 194.59555 196.85469 199.20983 201.65098 204.12712 206.21126 208.04940
 209.67154 210.81269 211.03783 211.26197 211.19511 210.89625 210.52540 210.15154
 209.76468 209.47082 209.27496 209.13511 209.05925 209.38639 209.76853 210.15367
 210.94282 212.11696 213.36310 215.14224 217.06638 219.10553 221.19667 223.27581
 225.33195 227.41210 229.50524 231.60738 233.73252 235.90066 238.15281 240.51895
 243.13609 245.38323 247.38137 249.14252 250.55566 251.67480 252.49294 252.80508
 252.83823 252.60837 251.96451 250.90865 249.51079 247.66794 245.57308 243.40222
 241.18936 238.98950 236.80565 234.64079 232.49693 230.36007 228.38221 226.53536
 224.81450 223.28264 221.90878 220.67692 219.55507 218.51121 217.61135 216.74849
 215.98663 215.16278 214.25692 213.61706 213.06320 213.01952 212.91634 212.47124
 211.87186 212.56340 214.30125 216.26804 218.67137 222.53932 228.39546 233.10706
 236.77831 240.65056 244.83844 249.30426 253.84711 257.30383 259.82718 262.01575
 264.14062 266.52066 268.93222 270.81427 272.83737 275.00378 276.78180 278.36142
 279.97931 281.45465 282.96896 284.33099 285.51160 286.56207 287.52121 288.39465
 289.18747 289.90021 290.52576 291.37726
 366.78100 356.33102 345.75904 334.62105 323.02007 311.21009 299.07611 286.87512
 274.58314 262.47616 250.48118 239.77820 229.89621 220.99623 213.17425 206.17227
 200.00229 194.93630 191.51432 189.55234 188.58536 188.64537 189.47639 190.78041
 192.50143 194.59245 196.85146 199.20648 201.64750 204.12352 206.20753 208.04555
 209.66757 210.80859 211.03361 211.25762 211.19064 210.89166 210.52068 210.14669
 209.75971 209.46573 209.26975 209.12977 209.05378 209.38080 209.76282 210.14784
 210.93685 212.11087 213.35689 215.13591 217.05993 219.09894 221.18996 223.26898
 225.32500 227.40502 229.49803 231.60005 233.72507 235.89309 238.14510 240.51112
 243.12814 245.37516 247.37318 249.13419 250.54721 251.66623 252.48425 252.79626
 252.82928 252.59930 251.95532 250.89934 249.50135 247.65837 245.56339 243.39241
 241.17942 238.97944 236.79546 234.63048 232.48650 230.34951 228.37153 226.52455
 224.80357 223.27159 221.89760 220.66562 219.54364 218.49966 217.59967 216.73669
 215.97471 215.15073 214.24475 213.60476 213.05078 213.03603 213.00117 212.60197
 211.96025 212.59979 214.32837 216.29323 218.66917 222.49689 228.33009 233.00966
 236.67577 240.56693 244.78523 249.27106 253.81062 257.23163 259.72702 261.93097
 264.05157 266.41739 268.83554 270.75052 272.78986 274.95596 276.73221 278.31168
 279.93326 281.41159 282.93521 284.29645 285.47858 286.52740 287.48849 288.36154
 289.15460 289.86508 290.49710 291.34390
 366.78100 356.33093 345.75885 334.62078 323.01971 311.20964 299.07556 286.87449
 274.58242 262.47534 250.48027 239.77720 229.89512 220.99505 213.17298 206.17091
 200.00083 194.93476 191.51269 189.55061 188.58354 188.64347 189.47439 190.77832
 192.49925 194.59018 196.84910 199.20403 201.64496 204.12088 206.20481 208.04274
 209.66466 210.80559 211.03052 211.25445 211.18737 210.88830 210.51723 210.14315
 209.75608 209.46201 209.26593 209.12586 209.04979 209.37672 209.75864 210.14357
 210.93250 212.10642 213.35235 215.13128 217.05521 219.09413 221.18506 223.26399
 225.31991 227.39984 229.49277 231.59469 233.71962 235.88755 238.13948 240.50540
 243.12233 245.36926 247.36718 249.12811 250.54104 251.65996 252.47789 252.78982
 252.82275 252.59267 251.94860 250.89253 249.49445 247.65138 245.55631 243.38523
 241.17216 238.97209 236.78802 234.62294 232.47887 230.34180 228.36372 226.51665
 224.79558 223.26351 221.88943 220.65736 219.53529 218.49121 217.59114 216.72807
 215.96599 215.14192 214.23585 213.59578 213.04170 213.05466 213.08530 212.73036
 212.05141 212.63283 214.34917 216.31831 218.67603 222.45840 228.26425 232.91995
 236.58369 240.49448 244.74167 249.24269 253.76813 257.15079 259.61478 261.82608
 263.95163 266.31320 268.73965 270.68912 272.74680 274.91296 276.68469 278.26297
 279.89108 281.37769 282.90646 284.26883 285.45105 286.49915 287.46066 288.33649
 289.12686 289.84000 290.46884 291.31650
 366.78100 356.33101 345.75902 334.62104 323.02005 311.21006 299.07607 286.87508
 274.58310 262.47611 250.48112 239.77813 229.89614 220.99616 213.17417 206.17218
 200.00219 194.93620 191.51422 189.55223 188.58524 188.64525 189.47626 190.78028
 192.50129 194.59230 196.85131 199.20632 201.64734 204.12335 206.20736 208.04537
 209.66738 210.80840 211.03341 211.25742 211.19043 210.89144 210.52046 210.14647
 209.75948 209.46549 209.26950 209.12952 209.05353 209.38054 209.76255 210.14756
 210.93658 212.11059 213.35660 215.13561 217.05962 219.09864 221.18965 223.26866
 225.32467 227.40468 229.49770 231.59971 233.72472 235.89273 238.14474 240.51076
 243.12777 245.37478 247.37279 249.13380 250.54682 251.66583 252.48384 252.79585
 252.82887 252.59888 251.95489 250.89890 249.50091 247.65793 245.56294 243.39195
 241.17896 238.97897 236.79499 234.63000 232.48601 230.34902 228.37103 226.52405
 224.80306 223.27107 221.89708 220.66509 219.54311 218.49912 217.59913 216.73614
 215.97415 215.15017 214.24418 213.60419 213.05020 213.08246 213.15866 212.86064
 212.14548 212.66107 214.37105 216.34935 218.68153 222.42345 228.20360 232.83380
 236.49661 240.42896 244.70509 249.21808 253.71779 257.06000 259.49216 261.70261
 263.84106 266.20779 268.64355 270.63123 272.71094 274.87494 276.63937 278.21542
 279.85162 281.35263 282.88358 284.24817 285.43002 286.47955 287.44040 288.31607
 289.10818 289.81891 290.44885 291.30234
 366.78100 356.33121 345.75942 334.62162 323.02083 311.21104 299.07725 286.87646
 274.58466 262.47787 250.48308 239.78029 229.89850 220.99870 213.17691 206.17512
 200.00533 194.93953 191.51774 189.55595 188.58916 188.64937 189.48057 190.78478
 192.50599 194.59720 196.85641 199.21161 201.65282 204.12903 206.21324 208.05145
 209.67365 210.81486 211.04007 211.26428 211.19749 210.89869 210.52790 210.15411
 209.76732 209.47353 209.27773 209.13794 209.06215 209.38936 209.77157 210.15677
 210.94598 212.12019 213.36640 215.14560 217.06981 219.10902 221.20023 223.27944
 225.33564 227.41585 229.50906 231.61127 233.73648 235.90468 238.15689 240.52310
 243.14031 245.38752 247.38572 249.14693 250.56014 251.67935 252.49756 252.80976
 252.84297 252.61318 251.96939 250.91360 249.51580 247.67301 245.57822 243.40743
 241.19463 238.99484 236.81105 234.64626 232.50247 230.36567 228.38788 226.54109
 224.82030 223.28851 221.91471 220.68292 219.56113 218.51734 217.61755 216.75475
 215.99296 215.16917 214.26338 213.62359 213.06979 213.11662 213.22726 212.97519
 212.25897 212.69627 214.37616 216.37898 218.70537 222.39243 228.13620 232.74448
 236.41411 240.37148 244.67827 249.19839 253.66290 256.96423 259.36374 261.56296
 263.71994 266.09921 268.54617 270.57367 272.67816 274.84027 276.59494 278.16721
 279.81589 281.33380 282.86884 284.23236 285.41507 286.46552 287.42517 288.30124
 289.09451 289.80643 290.43506 291.28586
 366.78100 356.33146 345.75991 334.62237 323.02182 311.21228 299.07874 286.87819
 274.58665 262.48010 250.48556 239.78302 229.90147 221.00193 213.18038 206.17884
 200.00930 194.94375 191.52221 189.56066 188.59412 188.65458 189.48603 190.79049
 192.51195 194.60340 196.86286 199.21831 201.65977 204.13623 206.22068 208.05914
 209.68159 210.82305 211.04851 211.27296 211.20642 210.90787 210.53733 210.16379
 209.77724 209.48370 209.28815 209.14861 209.07307 209.40052 209.78298 210.16843
 210.95789 212.13235 213.37880 215.15826 217.08271 219.12217 221.21363 223.29308
 225.34954 227.42999 229.52345 231.62591 233.75136 235.91982 238.17227 240.53873
 243.15619 245.40364 247.40210 249.16356 250.57701 251.69647 252.51492 252.82738
 252.86084 252.63129 251.98775 250.93220 249.53466 247.69212 245.59757 243.42703
 241.21448 239.01494 236.83140 234.66685 232.52331 230.38676 228.40922 226.56268
 224.84213 223.31059 221.93704 220.70550 219.58396 218.54041 217.64087 216.77832
 216.01678 215.19324 214.28769 213.64815 213.09460 213.15341 213.29234 213.09238
 212.35561 212.74040 214.40776 216.40352 218.71109 222.35864 228.07979 232.66689
 236.34114 240.32173 244.65726 249.18124 253.59807 256.85388 259.21851 261.40115
 263.58551 265.98816 268.44928 270.52231 272.65402 274.81393 276.55746 278.12488
 279.78503 281.32324 282.85892 284.22186 285.40598 286.45532 287.41776 288.29260
 289.08640 289.79892 290.42551 291.27780
 366.78100 356.33258 345.76216 334.62575 323.02633 311.21791 299.08549 286.88608
 274.59566 262.49024 250.49682 239.79541 229.91499 221.01657 213.19615 206.19573
 200.02732 194.96290 191.54248 189.58206 188.61665 188.67823 189.51081 190.81639
 192.53898 194.63156 196.89214 199.24872 201.69130 204.16889 206.25447 208.09405
 209.71763 210.86022 211.08680 211.31238 211.24696 210.94954 210.58013 210.20771
 209.82229 209.52987 209.33546 209.19704 209.12262 209.45120 209.83479 210.22137
 211.01195 212.18753 213.43511 215.21570 217.14128 219.18186 221.27444 223.35503
 225.41261 227.49419 229.58877 231.69236 233.81894 235.98852 238.24210 240.60968
 243.22827 245.47685 247.47643 249.23901 250.65360 251.77418 252.59376 252.90734
 252.94193 252.71351 252.07109 251.01667 249.62025 247.77884 245.68542 243.51600
 241.30458 239.10617 236.92375 234.76033 232.61791 230.48250 228.50608 226.66066
 224.94124 223.41082 222.03841 220.80799 219.68757 218.64515 217.74674 216.88532
 216.12490 215.30248 214.39807 213.75965 213.20723 213.23648 213.30560 213.19562
 212.55284 212.76575 214.36819 216.44493 218.75037 222.33672 228.01199 232.57391
 236.26001 240.26884 244.63637 249.16173 253.51968 256.72772 259.05984 261.22577
 263.44788 265.88248 268.36182 270.48331 272.64255 274.79874 276.53085 278.08929
 279.76004 281.31564 282.85361 284.21786 285.39999 286.45081 287.41241 288.28848
 289.08276 289.79449 290.42255 291.27216
 366.78100 356.33296 345.76292 334.62687 323.02783 311.21979 299.08775 286.88870
 274.59866 262.49362 250.50058 239.79954 229.91949 221.02145 213.20141 206.20137
 200.03333 194.96928 191.54924 189.58920 188.62416 188.68611 189.51907 190.82503
 192.54799 194.64095 196.90190 199.25886 201.70182 204.17978 206.26573 208.10569
 209.72965 210.87261 211.09957 211.32552 211.26048 210.96344 210.59440 210.22235
 209.83731 209.54527 209.35123 209.21319 209.13914 209.46810 209.85206 210.23902
 211.02998 212.20593 213.45389 215.23485 217.16081 219.20176 221.29472 223.37568
 225.43364 227.51560 229.61055 231.71451 233.84147 236.01143 238.26538 240.63334
 243.25230 245.50126 247.50122 249.26417 250.67913 251.80009 252.62005 252.93400
 252.96896 252.74092 252.09888 251.04484 249.64879 247.80775 245.71471 243.54567
 241.33463 239.13658 236.95454 234.79150 232.64946 230.51441 228.53837 226.69333
 224.97429 223.44425 222.07220 220.84216 219.72212 218.68008 217.78203 216.92099
 216.16095 215.33891 214.43487 213.79682 213.24478 213.28438 213.37793 213.25755
 212.60480 212.92740 214.43167 216.44794 218.78108 222.29059 227.93912 232.48158
 236.17924 240.22037 244.62062 249.14421 253.43620 256.59760 258.90063 261.04645
 263.31082 265.78113 268.27887 270.45038 272.63696 274.78763 276.50604 278.05463
 279.73740 281.31079 282.85202 284.21597 285.40009 286.44882 287.41000 288.28668
 289.08032 289.79263 290.41943 291.27240
 366.78100 356.33346 345.76392 334.62838 323.02985 311.22231 299.09077 286.89223
 274.60269 262.49815 250.50562 239.80508 229.92554 221.02800 213.20846 206.20892
 200.04139 194.97785 191.55831 189.59877 188.63423 188.69669 189.53016 190.83662
 192.56008 194.65354 196.91500 199.27246 201.71593 204.19439 206.28085 208.12131
 209.74577 210.88923 211.11670 211.34316 211.27862 210.98208 210.61354 210.24200
 209.85747 209.56593 209.37239 209.23485 209.16131 209.49077 209.87524 210.26270
 211.05416 212.23062 213.47908 215.26054 217.18701 219.22847 221.32193 223.40339
 225.46185 227.54431 229.63978 231.74424 233.87170 236.04216 238.29662 240.66508
 243.28455 245.53401 247.53447 249.29793 250.71339 251.83485 252.65532 252.96978
 253.00524 252.77770 252.13616 251.08262 249.68709 247.84655 245.75401 243.58547
 241.37493 239.17739 236.99586 234.83332 232.69178 230.55724 228.58170 226.73716
 225.01863 223.48909 222.11755 220.88801 219.76847 218.72693 217.82940 216.96886
 216.20932 215.38778 214.48424 213.84670 213.29517 213.33929 213.44356 213.33672
 212.61697 213.05922 214.52576 216.48210 218.83974 222.24544 227.85667 232.38756
 236.10400 240.18044 244.61183 249.12862 253.34909 256.46347 258.73813 260.86057
 263.16980 265.67996 268.19498 270.41705 272.63049 274.77399 276.47668 278.01672
 279.71426 281.30841 282.85117 284.21561 285.40012 286.44983 287.41159 288.28741
 289.08185 289.79221 290.42422 291.27121
 366.78100 356.33410 345.76519 334.63029 323.03239 311.22549 299.09458 286.89668
 274.60778 262.50387 250.51197 239.81207 229.93317 221.03626 213.21736 206.21846
 200.05156 194.98865 191.56975 189.61085 188.64694 188.71004 189.54414 190.85124
 192.57533 194.66943 196.93153 199.28962 201.73372 204.21282 206.29992 208.14101
 209.76611 210.91021 211.13830 211.36540 211.30150 211.00560 210.63769 210.26679
 209.88289 209.59198 209.39908 209.26218 209.18928 209.51937 209.90447 210.29257
 211.08467 212.26176 213.51086 215.29296 217.22005 219.26215 221.35625 223.43835
 225.49744 227.58054 229.67664 231.78173 233.90983 236.08093 238.33603 240.70512
 243.32522 245.57532 247.57641 249.34051 250.75661 251.87871 252.69980 253.01490
 253.05100 252.82409 252.18319 251.13029 249.73539 247.89548 245.80358 243.63568
 241.42578 239.22887 237.04797 234.88607 232.74516 230.61126 228.63636 226.79246
 225.07455 223.54565 222.17475 220.94584 219.82694 218.78604 217.88914 217.02923
 216.27033 215.44943 214.54652 213.90962 213.35872 213.40256 213.50610 213.38457
 212.68283 213.16608 214.60065 216.53865 218.88922 222.19777 227.77826 232.30273
 236.03926 240.14983 244.60773 249.11275 253.25500 256.32166 258.56848 260.66840
 263.02664 265.57974 268.11179 270.38245 272.62253 274.75937 276.44409 277.97656
 279.69052 281.30710 282.85165 284.21732 285.39957 286.45068 287.41177 288.28891
 289.08267 289.79498 290.42346 291.27390
 366.78100 356.33483 345.76667 334.63250 323.03534 311.22917 299.09900 286.90184
 274.61367 262.51051 250.51934 239.82017 229.94201 221.04584 213.22768 206.22951
 200.06334 195.00118 191.58301 189.62485 188.66168 188.72551 189.56035 190.86818
 192.59302 194.68785 196.95068 199.30952 201.75435 204.23419 206.32202 208.16386
 209.78969 210.93452 211.16336 211.39119 211.32803 211.03286 210.66569 210.29553
 209.91236 209.62220 209.43003 209.29386 209.22170 209.55253 209.93837 210.32720
 211.12003 212.29787 213.54770 215.33054 217.25837 219.30120 221.39604 223.47887
 225.53871 227.62254 229.71937 231.82521 233.95404 236.12588 238.38171 240.75154
 243.37238 245.62321 247.62505 249.38988 250.80671 251.92955 252.75138 253.06722
 253.10405 252.87788 252.23772 251.18555 249.79139 247.95222 245.86105 243.69389
 241.48472 239.28856 237.10839 234.94722 232.80706 230.67389 228.69973 226.85656
 225.13940 223.61123 222.24106 221.01290 219.89473 218.85457 217.95840 217.09923
 216.34107 215.52090 214.61874 213.98257 213.43240 213.47211 213.56590 213.40314
 212.78819 213.26566 214.66890 216.60327 218.91125 222.14937 227.71205 232.22871
 235.98279 240.12602 244.60616 249.09254 253.15073 256.16864 258.39255 260.47333
 262.88391 265.48053 268.03067 270.34937 272.61319 274.74231 276.40906 277.93521
 279.66586 281.30560 282.85272 284.21741 285.40051 286.45148 287.41306 288.28922
 289.08307 289.79541 290.42169 291.27567
 366.78100 356.33586 345.76872 334.63559 323.03945 311.23431 299.10517 286.90903
 274.62190 262.51976 250.52962 239.83148 229.95434 221.05921 213.24207 206.24493
 200.07979 195.01865 191.60152 189.64438 188.68224 188.74710 189.58296 190.89183
 192.61769 194.71355 196.97741 199.33727 201.78314 204.26400 206.35286 208.19572
 209.82258 210.96845 211.19831 211.42717 211.36503 211.07089 210.70476 210.33562
 209.95348 209.66434 209.47320 209.33807 209.26693 209.59879 209.98565 210.37551
 211.16938 212.34824 213.59910 215.38296 217.31183 219.35569 221.45155 223.53541
 225.59627 227.68114 229.77900 231.88586 234.01572 236.18858 238.44545 240.81631
 243.43817 245.69003 247.69289 249.45876 250.87662 252.00048 252.82334 253.14020
 253.17807 252.95293 252.31379 251.26265 249.86951 248.03138 245.94124 243.77510
 241.56696 239.37182 237.19269 235.03255 232.89341 230.76127 228.78813 226.94600
 225.22986 223.70272 222.33358 221.10644 219.98931 218.95017 218.05503 217.19689
 216.43975 215.62062 214.71948 214.08434 213.53520 213.55617 213.60573 213.42723
 212.89526 213.36159 214.74658 216.66924 218.92044 222.10751 227.65240 232.15935
 235.93251 240.10667 244.60422 249.06528 253.03555 256.00510 258.21066 260.27777
 262.74380 265.38455 267.95261 270.31744 272.60266 274.72357 276.37180 277.89136
 279.63852 281.30246 282.85034 284.21689 285.40045 286.44937 287.41269 288.28845
 289.08182 289.79468 290.42191 291.26959
 366.78100 356.33707 345.77114 334.63922 323.04429 311.24036 299.11243 286.91750
 274.63158 262.53065 250.54172 239.84479 229.96886 221.07493 213.25901 206.26308
 200.09915 195.03922 191.62329 189.66737 188.70644 188.77251 189.60958 190.91965
 192.64673 194.74380 197.00887 199.36994 201.81701 204.29908 206.38916 208.23323
 209.86130 211.00837 211.23944 211.46952 211.40859 211.11566 210.75073 210.38280
 210.00188 209.71395 209.52402 209.39009 209.32016 209.65324 210.04131 210.43238
 211.22745 212.40752 213.65959 215.44467 217.37474 219.41981 221.51688 223.60195
 225.66403 227.75010 229.84917 231.95724 234.08831 236.26239 238.52046 240.89253
 243.51560 245.76867 247.77274 249.53982 250.95889 252.08396 252.90803 253.22610
 253.26518 253.04125 252.40332 251.35339 249.96146 248.12454 246.03561 243.87068
 241.66375 239.46982 237.29189 235.13297 232.99504 230.86411 228.89218 227.05125
 225.33633 223.81040 222.44247 221.21654 220.10061 219.06269 218.16876 217.31183
 216.55590 215.73797 214.83805 214.20412 213.65619 213.64857 213.63060 213.46371
 212.99452 213.45404 214.83360 216.73190 218.92638 222.07652 227.59492 232.09204
 235.88696 240.09167 244.59999 249.02927 252.90979 255.83255 258.02530 260.08484
 262.60690 265.29141 267.87720 270.28528 272.58994 274.70551 276.33945 277.85394
 279.61142 281.29556 282.84399 284.20853 285.39230 286.44193 287.40341 288.28033
 289.07272 289.78378 290.41226 291.25912
 366.78100 356.33829 345.77358 334.64287 323.04916 311.24646 299.11975 286.92604
 274.64133 262.54162 250.55391 239.85820 229.98349 221.09079 213.27608 206.28137
 200.11866 195.05995 191.64524 189.69053 188.73082 188.79812 189.63641 190.94770
 192.67599 194.77428 197.04057 199.40286 201.85115 204.33445 206.42574 208.27103
 209.90032 211.04861 211.28090 211.51219 211.45248 211.16078 210.79707 210.43036
 210.05065 209.76394 209.57523 209.44252 209.37381 209.70810 210.09740 210.48969
 211.28598 212.46727 213.72056 215.50685 217.43814 219.48443 221.58273 223.66902
 225.73231 227.81960 229.91989 232.02918 234.16147 236.33676 238.59606 240.96935
 243.59364 245.84793 247.85322 249.62151 251.04180 252.16809 252.99339 253.31268
 253.35297 253.13026 252.49355 251.44484 250.05413 248.21842 246.13072 243.96701
 241.76130 239.56859 237.39188 235.23417 233.09746 230.96775 228.99704 227.15734
 225.44363 223.91892 222.55221 221.32750 220.21279 219.17608 218.28337 217.42767
 216.67296 215.85625 214.95754 214.32483 213.77812 213.74091 213.65295 213.50127
 213.09254 213.54495 214.92625 216.79114 218.93129 222.05312 227.53752 232.02638
 235.84584 240.07945 244.59265 248.98282 252.77321 255.65160 257.83704 259.89752
 262.47614 265.20132 267.80463 270.25125 272.57312 274.68411 276.30606 277.81741
 279.58344 281.28329 282.83304 284.19751 285.38144 286.43170 287.39331 288.26971
 289.06415 289.77722 290.40564 291.25070
 366.78100 356.33950 345.77601 334.64651 323.05401 311.25251 299.12702 286.93452
 274.65102 262.55252 250.56603 239.87153 229.99803 221.10653 213.29304 206.29954
 200.13804 195.08054 191.66705 189.71355 188.75505 188.82355 189.66306 190.97556
 192.70506 194.80457 197.07207 199.43557 201.88507 204.36958 206.46208 208.30858
 209.93908 211.08859 211.32209 211.55459 211.49609 211.20560 210.84310 210.47760
 210.09910 209.81361 209.62611 209.49461 209.42712 209.76262 210.15312 210.54662
 211.34413 212.52663 213.78113 215.56863 217.50114 219.54864 221.64814 223.73564
 225.80015 227.88865 229.99015 232.10065 234.23416 236.41066 238.67116 241.04566
 243.67117 245.92667 247.93317 249.70268 251.12418 252.25168 253.07818 253.39869
 253.44019 253.21869 252.58319 251.53570 250.14620 248.31170 246.22520 244.06271
 241.85821 239.66671 237.49121 235.33472 233.19922 231.07072 229.10122 227.26273
 225.55023 224.02673 222.66124 221.43774 220.32424 219.28874 218.39725 217.54275
 216.78925 215.97375 215.07626 214.44476 213.89926 213.83260 213.67513 213.53429
 213.19455 213.63864 215.02338 216.84453 218.93620 222.03279 227.47876 231.96642
 235.81143 240.07066 244.57965 248.92270 252.62445 255.46077 257.64560 259.71939
 262.35266 265.11627 267.73737 270.21555 272.55170 274.65814 276.26709 277.77634
 279.54416 281.27100 282.82098 284.18600 285.36761 286.41797 287.38129 288.25729
 289.05106 289.76526 290.39053 291.23383
 366.78100 356.34068 345.77835 334.65003 323.05870 311.25838 299.13406 286.94273
 274.66041 262.56308 250.57776 239.88444 230.01211 221.12179 213.30946 206.31714
 200.15682 195.10049 191.68817 189.73584 188.77852 188.84820 189.68887 191.00255
 192.73322 194.83390 197.10258 199.46725 201.91793 204.40360 206.49728 208.34496
 209.97663 211.12731 211.36198 211.59566 211.53834 211.24901 210.88769 210.52336
 210.14604 209.86172 209.67539 209.54507 209.47874 209.81542 210.20710 210.60177
 211.40045 212.58412 213.83980 215.62848 217.56215 219.61083 221.71150 223.80018
 225.86586 227.95553 230.05821 232.16988 234.30456 236.48224 238.74391 241.11959
 243.74626 246.00294 248.01062 249.78129 251.20397 252.33265 253.16032 253.48200
 253.52467 253.30435 252.67003 251.62370 250.23538 248.40205 246.31673 244.15541
 241.95208 239.76176 237.58743 235.43211 233.29779 231.17046 229.20214 227.36481
 225.65349 224.13117 222.76684 221.54452 220.43219 219.39787 218.50755 217.65422
 216.90190 216.08757 215.19125 214.56093 214.01660 213.92189 213.69814 213.55930
 213.30243 213.73312 215.12326 216.89816 218.94008 222.01147 227.41849 231.91100
 235.78304 240.06476 244.56044 248.84743 252.46330 255.26111 257.45325 259.55371
 262.24042 265.03949 267.67703 270.18256 272.52982 274.63211 276.23047 277.73593
 279.50220 281.24496 282.79352 284.15720 285.33984 286.38922 287.35031 288.22583
 289.01874 289.72992 290.35617 291.19873
 366.78100 356.34194 345.78089 334.65383 323.06377 311.26472 299.14166 286.95160
 274.67055 262.57449 250.59044 239.89838 230.02732 221.13827 213.32721 206.33615
 200.17710 195.12204 191.71098 189.75993 188.80387 188.87481 189.71676 191.03170
 192.76365 194.86559 197.13553 199.50148 201.95342 204.44036 206.53531 208.38425
 210.01719 211.16914 211.40508 211.64002 211.58397 211.29591 210.93586 210.57280
 210.19674 209.91369 209.72863 209.59957 209.53452 209.87246 210.26540 210.66135
 211.46129 212.64623 213.90318 215.69312 217.62807 219.67801 221.77995 223.86990
 225.93684 228.02778 230.13173 232.24467 234.38061 236.55956 238.82250 241.19944
 243.82739 246.08533 248.09428 249.86622 251.29016 252.42011 253.24905 253.57199
 253.61594 253.39688 252.76382 251.71877 250.33171 248.49965 246.41560 244.25554
 242.05349 239.86443 237.69137 235.53732 233.40426 231.27820 229.31115 227.47509
 225.76503 224.24398 222.88092 221.65986 220.54881 219.51575 218.62669 217.77464
 217.02358 216.21053 215.31547 214.68641 214.14336 214.01515 213.71225 213.59059
 213.40921 213.82564 215.22337 216.95357 218.94601 221.98753 227.35605 231.86261
 235.76248 240.06317 244.53574 248.75804 252.28972 255.05125 257.25711 259.39859
 262.13730 264.97110 267.62552 270.15329 272.51059 274.61139 276.20245 277.70154
 279.46378 281.20023 282.74976 284.11273 285.29422 286.34305 287.30463 288.17953
 288.97113 289.68265 290.30991 291.14948
 366.78100 356.34310 345.78320 334.65730 323.06840 311.27050 299.14860 286.95970
 274.67980 262.58490 250.60200 239.91110 230.04120 221.15330 213.34340 206.35350
 200.19560 195.14170 191.73179 189.78189 188.82699 188.89909 189.74219 191.05829
 192.79139 194.89449 197.16559 199.53269 201.98579 204.47389 206.56999 208.42009
 210.05419 211.20729 211.44439 211.68049 211.62559 211.33869 210.97979 210.61789
 210.24299 209.96109 209.77719 209.64929 209.58539 209.92449 210.31859 210.71569
 211.51679 212.70289 213.96099 215.75209 217.68819 219.73929 221.84238 223.93348
 226.00158 228.09368 230.19878 232.31288 234.44998 236.63008 238.89418 241.27228
 243.90138 246.16048 248.17058 249.94368 251.36878 252.49988 253.32998 253.65408
 253.69918 253.48128 252.84938 251.80548 250.41958 248.58868 246.50578 244.34688
 242.14598 239.95808 237.78618 235.63328 233.50138 231.37648 229.41058 227.57568
 225.86678 224.34688 222.98497 221.76507 220.65517 219.62327 218.73537 217.88447
 217.13457 216.32267 215.42877 214.80087 214.25897 214.10231 213.73216 213.60962
 213.53035 213.91866 215.32004 217.00510 218.94395 221.96544 227.29684 231.82014
 235.74751 240.06393 244.50401 248.65231 252.10231 254.83025 257.05804 259.25458
 262.04544 264.91208 267.58435 270.12955 272.49460 274.59494 276.18179 277.67157
 279.42422 281.14487 282.69257 284.05609 285.23810 286.28711 287.24738 288.12308
 288.91312 289.62573 290.25140 291.09042
 366.78100 356.34474 345.78649 334.66223 323.07498 311.27872 299.15846 286.97121
 274.69295 262.59969 250.61844 239.92918 230.06093 221.17467 213.36641 206.37816
 200.22190 195.16965 191.76139 189.81313 188.85988 188.93362 189.77836 191.09611
 192.83085 194.93560 197.20834 199.57708 202.03183 204.52157 206.61932 208.47106
 210.10680 211.26155 211.50029 211.73803 211.68478 211.39952 211.04227 210.68201
 210.30875 210.02850 209.84624 209.71999 209.65773 209.99847 210.39422 210.79296
 211.59571 212.78345 214.04319 215.83594 217.77368 219.82642 221.93117 224.02391
 226.09366 228.18740 230.29414 232.40989 234.54863 236.73038 238.99612 241.37586
 244.00661 246.26735 248.27909 250.05384 251.48058 252.61333 253.44507 253.77081
 253.81756 253.60130 252.97105 251.92879 250.54453 248.71528 246.63402 244.47676
 242.27751 240.09125 237.92100 235.76974 233.63948 231.51623 229.55197 227.71872
 226.01146 224.49320 223.13295 221.91469 220.80643 219.77618 218.88992 218.04067
 217.29241 216.48215 215.58990 214.96364 214.42339 214.21266 213.71480 213.66225
 213.64705 214.00168 215.40494 217.06561 218.95398 221.93430 227.23322 231.77930
 235.73608 240.06551 244.46523 248.53383 251.90688 254.60602 256.86234 259.12408
 261.96445 264.86020 267.54935 270.10748 272.47754 274.57809 276.16095 277.64230
 279.37943 281.08020 282.62613 283.98999 285.17236 286.22021 287.18021 288.05725
 288.84616 289.55872 290.18262 291.02203
 366.78100 356.34621 345.78941 334.66662 323.08083 311.28603 299.16724 286.98144
 274.70465 262.61286 250.63306 239.94527 230.07848 221.19368 213.38689 206.40009
 200.24530 195.19451 191.78771 189.84092 188.88913 188.96433 189.81054 191.12974
 192.86595 194.97216 197.24636 199.61657 202.07278 204.56398 206.66319 208.51639
 210.15360 211.30981 211.55001 211.78922 211.73743 211.45363 211.09784 210.73904
 210.36725 210.08846 209.90766 209.78287 209.72208 210.06428 210.46149 210.86169
 211.66590 212.85511 214.11631 215.91052 217.84973 219.90393 222.01014 224.10434
 226.17555 228.27076 230.37896 232.49617 234.63638 236.81958 239.08679 241.46799
 244.10020 246.36241 248.37561 250.15182 251.58003 252.71423 253.54744 253.87464
 253.92285 253.70806 253.07926 252.03847 250.65568 248.82788 246.74809 244.59229
 242.39450 240.20971 238.04091 235.89112 233.76233 231.64053 229.67774 227.84594
 226.14015 224.62336 223.26456 222.04777 220.94098 219.91218 219.02739 218.17959
 217.43280 216.62401 215.73321 215.10842 214.56963 214.31406 213.71022 213.68344
 213.80429 214.08376 215.48749 217.10591 218.93297 221.91605 227.17911 231.74716
 235.73209 240.07056 244.42128 248.40303 251.70250 254.37312 256.66171 258.99936
 261.88901 264.81302 267.52090 270.08826 272.46387 274.56699 276.15039 277.62131
 279.33240 281.00781 282.55276 283.91656 285.09814 286.14624 287.10623 287.97925
 288.77158 289.48065 290.10733 290.94852
 366.78100 356.34677 345.79054 334.66831 323.08309 311.28886 299.17063 286.98540
 274.70917 262.61794 250.63871 239.95149 230.08526 221.20103 213.39480 206.40857
 200.25434 195.20411 191.79789 189.85166 188.90043 188.97620 189.82297 191.14274
 192.87951 194.98629 197.26106 199.63183 202.08860 204.58037 206.68014 208.53391
 210.17169 211.32846 211.56923 211.80900 211.75777 211.47454 211.11931 210.76109
 210.38986 210.11163 209.93140 209.80717 209.74694 210.08971 210.48749 210.88826
 211.69303 212.88280 214.14457 215.93934 217.87912 219.93389 222.04066 224.13543
 226.20720 228.30297 230.41174 232.52952 234.67029 236.85406 239.12183 241.50360
 244.13637 246.39914 248.41292 250.18969 251.61846 252.75323 253.58700 253.91477
 253.96354 253.74932 253.12109 252.08086 250.69863 248.87140 246.79217 244.63694
 242.43972 240.25549 238.08726 235.93803 233.80980 231.68857 229.72634 227.89512
 226.18989 224.67366 223.31543 222.09920 220.99297 219.96474 219.08052 218.23329
 217.48706 216.67883 215.78860 215.16437 214.62614 214.36855 213.75992 213.66904
 213.94759 214.21138 215.53938 217.14838 218.95526 221.87688 227.11531 231.71275
 235.72789 240.07138 244.36545 248.25443 251.48363 254.13110 256.46008 258.88486
 261.82404 264.77686 267.50275 270.07721 272.45877 274.56900 276.15765 277.61258
 279.28787 280.93222 282.47244 283.83630 285.01816 286.06653 287.02536 287.90024
 288.68979 289.40070 290.02655 290.86624
 366.78100 356.34730 345.79160 334.66990 323.08520 311.29150 299.17380 286.98910
 274.71340 262.62270 250.64400 239.95730 230.09159 221.20789 213.40219 206.41649
 200.26279 195.21309 191.80739 189.86169 188.91099 188.98729 189.83459 191.15489
 192.89219 194.99949 197.27479 199.64609 202.10339 204.59569 206.69599 208.55029
 210.18859 211.34589 211.58718 211.82748 211.77678 211.49408 211.13938 210.78168
 210.41098 210.13328 209.95358 209.82988 209.77018 210.11348 210.51178 210.91308
 211.71838 212.90868 214.17098 215.96628 217.90658 219.96188 222.06918 224.16448
 226.23677 228.33307 230.44237 232.56067 234.70197 236.88627 239.15457 241.53687
 244.17017 246.43347 248.44777 250.22507 251.65437 252.78967 253.62397 253.95227
 254.00157 253.78787 253.16017 252.12047 250.73877 248.91207 246.83336 244.67866
 242.48196 240.29826 238.13056 235.98186 233.85416 231.73346 229.77176 227.94106
 226.23636 224.72066 223.36296 222.14726 221.04156 220.01386 219.13016 218.28346
 217.53776 216.73006 215.84036 215.21666 214.67896 214.42142 213.81293 213.65901
 214.01221 214.37851 215.59364 217.19650 218.98193 221.81483 227.06537 231.69484
 235.73225 240.07576 244.30753 248.10225 251.26917 253.89934 256.27289 258.78870
 261.77222 264.74948 267.49182 270.07040 272.45581 274.57166 276.16663 277.60620
 279.24515 280.85330 282.39023 283.75415 284.93475 285.98273 286.94189 287.81622
 288.60593 289.31726 289.94116 290.77878
 366.78100 356.34807 345.79313 334.67220 323.08826 311.29533 299.17840 286.99446
 274.71953 262.62960 250.65166 239.96573 230.10079 221.21786 213.41293 206.42799
 200.27506 195.22612 191.82119 189.87626 188.92632 189.00339 189.85146 191.17252
 192.91059 195.01865 197.29472 199.66679 202.12485 204.61792 206.71898 208.57405
 210.21312 211.37118 211.61325 211.85432 211.80438 211.52245 211.16851 210.81158
 210.44165 210.16471 209.98578 209.86284 209.80391 210.14798 210.54704 210.94911
 211.75518 212.94624 214.20931 216.00537 217.94644 220.00251 222.11057 224.20664
 226.27970 228.37677 230.48684 232.60590 234.74797 236.93304 239.20210 241.58517
 244.21923 246.48330 248.49837 250.27643 251.70650 252.84256 253.67763 254.00670
 254.05676 253.84383 253.21690 252.17796 250.79703 248.97109 246.89316 244.73923
 242.54329 240.36036 238.19342 236.04549 233.91856 231.79862 229.83769 228.00776
 226.30382 224.78889 223.43195 222.21702 221.11209 220.08515 219.20222 218.35628
 217.61135 216.80442 215.91548 215.29255 214.75562 214.48492 213.84537 213.68440
 214.07582 214.49121 215.64114 217.24770 218.99681 221.77942 227.02458 231.68460
 235.74222 240.08194 244.24805 247.94771 251.05865 253.67490 256.09366 258.70193
 261.72534 264.72324 267.47922 270.05853 272.44727 274.56876 276.17035 277.59857
 279.20038 280.77594 282.30673 283.67026 284.85281 285.89993 286.85931 287.73291
 288.52380 289.23383 289.85962 290.69437
 366.78100 356.34884 345.79467 334.67451 323.09134 311.29918 299.18301 286.99985
 274.72569 262.63652 250.65936 239.97419 230.11003 221.22787 213.42370 206.43954
 200.28737 195.23921 191.83504 189.89088 188.94172 189.01955 189.86839 191.19022
 192.92906 195.03790 197.31473 199.68757 202.14640 204.64024 206.74207 208.59791
 210.23775 211.39658 211.63942 211.88125 211.83209 211.55092 211.19776 210.84160
 210.47243 210.19627 210.01810 209.89594 209.83778 210.18261 210.58245 210.98528
 211.79212 212.98395 214.24779 216.04463 217.98646 220.04330 222.15213 224.24897
 226.32281 228.42064 230.53148 232.65131 234.79415 236.97998 239.24982 241.63366
 244.26849 246.53333 248.54916 250.32800 251.75883 252.89567 253.73151 254.06134
 254.11218 253.90001 253.27385 252.23569 250.85552 249.03036 246.95319 244.80003
 242.60486 240.42270 238.25654 236.10937 233.98321 231.86404 229.90388 228.07472
 226.37155 224.85739 223.50122 222.28706 221.18289 220.15673 219.27457 218.42940
 217.68524 216.87907 215.99091 215.36874 214.83258 214.54712 213.87267 213.71919
 214.15320 214.57594 215.67944 217.29927 219.00244 221.76335 226.98637 231.67674
 235.75563 240.08784 244.18457 247.78856 250.84818 253.45168 255.91519 258.61737
 261.67859 264.69418 267.46320 270.04230 272.43555 274.56558 276.17551 277.59506
 279.16031 280.70279 282.22656 283.59000 284.77179 285.81979 286.77997 287.65250
 288.44330 289.15451 289.77869 290.61270
 366.78100 356.34946 345.79592 334.67638 323.09384 311.30230 299.18676 287.00422
 274.73069 262.64215 250.66561 239.98107 230.11753 221.23599 213.43245 206.44891
 200.29737 195.24983 191.84629 189.90275 188.95421 189.03267 189.88213 191.20460
 192.94406 195.05352 197.33098 199.70444 202.16390 204.65836 206.76082 208.61728
 210.25774 211.41720 211.66066 211.90312 211.85458 211.57404 211.22150 210.86597
 210.49743 210.22189 210.04435 209.92281 209.86527 210.21073 210.61119 211.01465
 211.82211 213.01457 214.27903 216.07649 218.01895 220.07641 222.18588 224.28334
 226.35780 228.45626 230.56772 232.68818 234.83164 237.01810 239.28856 241.67302
 244.30848 246.57394 248.59040 250.36986 251.80132 252.93879 253.77525 254.10571
 254.15717 253.94563 253.32009 252.28255 250.90301 249.07847 247.00193 244.84939
 242.65485 240.47331 238.30777 236.16123 234.03569 231.91716 229.95762 228.12908
 226.42654 224.91300 223.55746 222.34392 221.24038 220.21484 219.33330 218.48876
 217.74522 216.93968 216.05214 215.43060 214.89507 214.59996 213.90273 213.75949
 214.23427 214.65231 215.70944 217.34070 219.00926 221.75650 226.95067 231.67233
 235.77153 240.09251 244.11644 247.62389 250.63454 253.22647 255.73752 258.53470
 261.63281 264.66394 267.44507 270.02521 272.42468 274.56589 276.18799 277.60019
 279.12708 280.63559 282.15182 283.51547 284.69638 285.74371 286.70276 287.57840
 288.36670 289.07715 289.70300 290.53687
 366.78100 356.34990 345.79680 334.67770 323.09560 311.30450 299.18940 287.00730
 274.73419 262.64609 250.66999 239.98589 230.12279 221.24169 213.43859 206.45549
 200.30439 195.25729 191.85419 189.91109 188.96299 189.04189 189.89179 191.21468
 192.95458 195.06448 197.34238 199.71628 202.17618 204.67108 206.77398 208.63088
 210.27178 211.43168 211.67558 211.91848 211.87038 211.59028 211.23818 210.88307
 210.51497 210.23987 210.06277 209.94167 209.88457 210.23047 210.63137 211.03527
 211.84317 213.03607 214.30097 216.09887 218.04177 220.09967 222.20956 224.30746
 226.38236 228.48126 230.59316 232.71406 234.85796 237.04486 239.31576 241.70066
 244.33656 246.60246 248.61936 250.39926 251.83116 252.96905 253.80595 254.13685
 254.18875 253.97765 253.35255 252.31545 250.93635 249.11225 247.03615 244.88405
 242.68995 240.50885 238.34375 236.19765 234.07254 231.95444 229.99534 228.16724
 226.46514 224.95204 223.59694 222.38384 221.28074 220.25564 219.37454 218.53044
 217.78734 216.98224 216.09514 215.47403 214.93893 214.64082 213.93651 213.80751
 214.31425 214.72435 215.73532 217.36742 219.02193 221.75319 226.91878 231.67192
 235.78845 240.09354 244.04070 247.45197 250.41766 253.00192 255.56358 258.45557
 261.58893 264.63394 267.42609 270.00656 272.41306 274.56625 276.20166 277.61035
 279.10156 280.57748 282.08517 283.44742 284.62827 285.67758 286.63647 287.51001
 288.30109 289.00992 289.63623 290.46738
 366.78100 356.35016 345.79732 334.67847 323.09663 311.30579 299.19095 287.00910
 274.73626 262.64842 250.67258 239.98873 230.12589 221.24505 213.44221 206.45937
 200.30852 195.26168 191.85884 189.91600 188.96815 189.04731 189.89747 191.22063
 192.96078 195.07094 197.34910 199.72326 202.18341 204.67857 206.78173 208.63889
 210.28005 211.44020 211.68436 211.92752 211.87968 211.59983 211.24799 210.89315
 210.52531 210.25046 210.07362 209.95278 209.89594 210.24210 210.64325 211.04741
 211.85557 213.04873 214.31388 216.11204 218.05520 220.11336 222.22351 224.32167
 226.39683 228.49599 230.60815 232.72930 234.87346 237.06062 239.33178 241.71693
 244.35309 246.61925 248.63641 250.41656 251.84872 252.98688 253.82404 254.15519
 254.20735 253.99651 253.37167 252.33483 250.95598 249.13214 247.05630 244.90446
 242.71061 240.52977 238.36493 236.21909 234.09424 231.97640 230.01756 228.18972
 226.48788 224.97503 223.62019 222.40735 221.30451 220.27966 219.39882 218.55498
 217.81214 217.00729 216.12045 215.49961 214.96477 214.67030 213.97458 213.86479
 214.39165 214.79218 215.76399 217.38498 219.03520 221.74789 226.89110 231.67409
 235.80316 240.08609 243.95570 247.27438 250.20288 252.78642 255.40013 258.38235
 261.54715 264.60257 267.40323 269.98370 272.39716 274.56342 276.21277 277.62256
 279.08401 280.53128 282.02927 283.39160 284.57422 285.62207 286.58112 287.45468
 288.24496 288.95544 289.58075 290.41089
 366.78100 356.35023 345.79745 334.67868 323.09690 311.30613 299.19135 287.00958
 274.73680 262.64903 250.67326 239.98948 230.12671 221.24593 213.44316 206.46038
 200.30961 195.26283 191.86006 189.91729 188.96951 189.04874 189.89896 191.22219
 192.96241 195.07264 197.35086 199.72509 202.18532 204.68054 206.78377 208.64099
 210.28222 211.44244 211.68667 211.92990 211.88212 211.60235 211.25057 210.89580
 210.52802 210.25325 210.07647 209.95570 209.89893 210.24515 210.64638 211.05060
 211.85883 213.05205 214.31728 216.11550 218.05873 220.11696 222.22718 224.32541
 226.40063 228.49986 230.61208 232.73331 234.87753 237.06476 239.33599 241.72121
 244.35744 246.62366 248.64089 250.42111 251.85334 252.99156 253.82879 254.16002
 254.21224 254.00147 253.37669 252.33992 250.96114 249.13737 247.06159 244.90982
 242.71605 240.53527 238.37050 236.22472 234.09995 231.98217 230.02340 228.19563
 226.49385 224.98108 223.62630 222.41353 221.31075 220.28598 219.40520 218.56143
 217.81866 217.01388 216.12711 215.50633 214.97156 214.68799 214.01804 213.92654
 214.46883 214.85674 215.79840 217.40094 219.03983 221.74138 226.86523 231.67690
 235.81363 240.06982 243.86243 247.09529 249.99417 252.58093 255.24559 258.31128
 261.50397 264.56592 267.37146 269.95361 272.37628 274.55679 276.22226 277.63605
 279.07675 280.49933 281.98703 283.34784 284.53107 285.58026 286.53934 287.41251
 288.20374 288.91168 289.53995 290.36801
 366.78100 356.35014 345.79727 334.67841 323.09654 311.30568 299.19081 287.00895
 274.73608 262.64822 250.67235 239.98849 230.12562 221.24476 213.44189 206.45903
 200.30816 195.26130 191.85843 189.91557 188.96770 189.04684 189.89698 191.22011
 192.96025 195.07038 197.34852 199.72265 202.18279 204.67792 206.78106 208.63819
 210.27933 211.43946 211.68360 211.92673 211.87887 211.59900 211.24714 210.89227
 210.52441 210.24955 210.07268 209.95182 209.89495 210.24109 210.64222 211.04636
 211.85449 213.04763 214.31276 216.11090 218.05403 220.11217 222.22230 224.32044
 226.39557 228.49471 230.60684 232.72798 234.87211 237.05925 239.33039 241.71552
 244.35166 246.61779 248.63493 250.41506 251.84720 252.98533 253.82247 254.15360
 254.20574 253.99487 253.37001 252.33314 250.95428 249.13041 247.05455 244.90268
 242.70882 240.52795 238.36309 236.21723 234.09236 231.97450 230.01563 228.18777
 226.48590 224.97304 223.61817 222.40531 221.30244 220.27758 219.39671 218.55285
 217.80998 217.00512 216.11825 215.49739 214.96252 214.69583 214.06575 213.99026
 214.54665 214.92479 215.83525 217.41852 219.03856 221.73816 226.84535 231.68201
 235.82027 240.04453 243.76088 246.91328 249.78662 252.38065 255.09607 258.23846
 261.45526 264.52060 267.32999 269.91769 272.35349 274.54993 276.23444 277.65659
 279.08173 280.48450 281.96140 283.32248 284.50601 285.55377 286.51434 287.38821
 288.18021 288.88806 289.51477 290.34283
 366.78100 356.35004 345.79708 334.67813 323.09617 311.30521 299.19025 287.00830
 274.73534 262.64738 250.67142 239.98746 230.12451 221.24355 213.44059 206.45763
 200.30667 195.25972 191.85676 189.91380 188.96584 189.04489 189.89493 191.21797
 192.95801 195.06805 197.34610 199.72014 202.18018 204.67522 206.77826 208.63531
 210.27635 211.43639 211.68043 211.92348 211.87552 211.59556 211.24360 210.88864
 210.52069 210.24573 210.06877 209.94781 209.89086 210.23690 210.63794 211.04198
 211.85002 213.04307 214.30811 216.10615 218.04919 220.10723 222.21728 224.31532
 226.39036 228.48940 230.60145 232.72249 234.86653 237.05357 239.32461 241.70966
 244.34570 246.61174 248.62878 250.40883 251.84087 252.97891 253.81595 254.14699
 254.19904 253.98808 253.36312 252.32616 250.94720 249.12325 247.04729 244.89533
 242.70137 240.52042 238.35546 236.20950 234.08454 231.96658 230.00763 228.17967
 226.47771 224.96475 223.60979 222.39684 221.29388 220.26892 219.38796 218.54401
 217.80105 216.99609 216.10913 215.48817 214.95322 214.70145 214.10663 214.06323
 214.62056 214.99464 215.87794 217.43716 219.03955 221.73691 226.83530 231.69159
 235.82339 240.00943 243.64716 246.72264 249.57344 252.17921 254.94884 258.16263
 261.40118 264.46762 267.28009 269.87845 272.33087 274.54648 276.25113 277.68585
 279.10068 280.48746 281.95312 283.31445 284.49829 285.54758 286.50696 287.38226
 288.17361 288.88040 289.50797 290.33862
 366.78100 356.34985 345.79671 334.67756 323.09542 311.30427 299.18913 287.00698
 274.73383 262.64569 250.66954 239.98540 230.12225 221.24110 213.43796 206.45481
 200.30367 195.25652 191.85338 189.91023 188.96208 189.04094 189.89079 191.21365
 192.95350 195.06335 197.34121 199.71506 202.17492 204.66977 206.77263 208.62948
 210.27033 211.43019 211.67404 211.91690 211.86875 211.58860 211.23646 210.88131
 210.51317 210.23802 210.06088 209.93973 209.88258 210.22844 210.62929 211.03315
 211.84100 213.03385 214.29871 216.09656 218.03942 220.09727 222.20713 224.30498
 226.37983 228.47869 230.59054 232.71140 234.85525 237.04210 239.31296 241.69781
 244.33367 246.59952 248.61638 250.39623 251.82808 252.96594 253.80279 254.13365
 254.18550 253.97435 253.34921 252.31206 250.93292 249.10877 247.03263 244.88048
 242.68633 240.50519 238.34004 236.19390 234.06875 231.95061 229.99146 228.16331
 226.46117 224.94802 223.59288 222.37973 221.27658 220.25144 219.37029 218.52615
 217.78300 216.97786 216.09071 215.46956 214.93442 214.70055 214.14799 214.13496
 214.69780 215.07384 215.91852 217.45438 219.04773 221.74379 226.83598 231.70250
 235.82011 239.95950 243.51569 246.51830 249.35178 251.97829 254.80826 258.08807
 261.34564 264.41125 267.22614 269.83728 272.30826 274.54309 276.26880 277.71915
 279.13016 280.50784 281.96091 283.32138 284.50610 285.55646 286.51685 287.39163
 288.18198 288.89154 289.51736 290.34854
 366.78100 356.34981 345.79661 334.67742 323.09522 311.30403 299.18884 287.00664
 274.73345 262.64526 250.66906 239.98487 230.12167 221.24048 213.43729 206.45409
 200.30290 195.25570 191.85251 189.90932 188.96112 189.03993 189.88973 191.21254
 192.95235 195.06215 197.33996 199.71377 202.17357 204.66838 206.77118 208.62799
 210.26880 211.42860 211.67241 211.91521 211.86702 211.58683 211.23463 210.87944
 210.51124 210.23605 210.05886 209.93766 209.88047 210.22628 210.62708 211.03089
 211.83869 213.03150 214.29631 216.09411 218.03692 220.09472 222.20453 224.30234
 226.37714 228.47595 230.58775 232.70856 234.85237 237.03917 239.30998 241.69479
 244.33059 246.59640 248.61320 250.39301 251.82482 252.96262 253.79943 254.13023
 254.18204 253.97085 253.34565 252.30846 250.92926 249.10507 247.02888 244.87668
 242.68249 240.50130 238.33610 236.18991 234.06471 231.94652 229.98733 228.15913
 226.45694 224.94374 223.58855 222.37536 221.27216 220.24697 219.36577 218.52158
 217.77839 216.97319 216.08600 215.46481 214.92961 214.70467 214.17320 214.22343
 214.76729 215.15184 215.98239 217.48048 219.05736 221.74158 226.83665 231.71130
 235.80899 239.89587 243.37079 246.30727 249.13048 251.78667 254.67909 258.01770
 261.29022 264.35129 267.16605 269.79153 272.28156 274.53467 276.27966 277.74731
 279.16293 280.53833 281.98392 283.34341 284.52936 285.57959 286.54184 287.41586
 288.20593 288.91776 289.54242 290.37030
 366.78100 356.34965 345.79630 334.67695 323.09459 311.30324 299.18789 287.00554
 274.73219 262.64384 250.66748 239.98313 230.11978 221.23843 213.43508 206.45173
 200.30038 195.25302 191.84967 189.90632 188.95797 189.03662 189.88627 191.20892
 192.94856 195.05821 197.33586 199.70951 202.16916 204.66381 206.76645 208.62310
 210.26375 211.42340 211.66705 211.90970 211.86135 211.58099 211.22864 210.87329
 210.50494 210.22959 210.05224 209.93089 209.87353 210.21918 210.61983 211.02348
 211.83113 213.02378 214.28842 216.08607 218.02872 220.08637 222.19602 224.29367
 226.36832 228.46696 230.57861 232.69926 234.84291 237.02956 239.30021 241.68485
 244.32050 246.58615 248.60280 250.38245 251.81410 252.95175 253.78839 254.11904
 254.17069 253.95934 253.33399 252.29664 250.91729 249.09293 247.01658 244.86423
 242.66988 240.48853 238.32318 236.17682 234.05147 231.93312 229.97377 228.14542
 226.44307 224.92972 223.57436 222.36101 221.25766 220.23231 219.35096 218.50661
 217.76325 216.95790 216.07055 215.44920 214.91385 214.70183 214.20090 214.29808
 214.85867 215.24271 216.03154 217.49768 219.08228 221.76512 226.84288 231.71959
 235.79268 239.81976 243.21011 246.08458 248.90222 251.59592 254.55505 257.94614
 261.22995 264.28381 267.09869 269.74069 272.25330 274.52695 276.29196 277.77823
 279.20160 280.57858 282.01981 283.38019 284.56610 285.61829 286.57990 287.45480
 288.24503 288.95514 289.58020 290.40872
 366.78100 356.34897 345.79493 334.67490 323.09186 311.29983 299.18379 287.00076
 274.72673 262.63769 250.66066 239.97562 230.11159 221.22955 213.42552 206.44148
 200.28945 195.24142 191.83738 189.89335 188.94431 189.02228 189.87124 191.19321
 192.93218 195.04114 197.31811 199.69107 202.15004 204.64400 206.74597 208.60194
 210.24190 211.40087 211.64383 211.88580 211.83676 211.55573 211.20270 210.84666
 210.47763 210.20159 210.02356 209.90152 209.84349 210.18845 210.58842 210.99139
 211.79835 212.99032 214.25428 216.05125 217.99321 220.05018 222.15915 224.25611
 226.33008 228.42804 230.53901 232.65897 234.80194 236.98791 239.25787 241.64184
 244.27680 246.54177 248.55773 250.33670 251.76766 252.90463 253.74060 254.07056
 254.12153 253.90949 253.28346 252.24542 250.86539 249.04036 246.96332 244.81029
 242.61525 240.43322 238.26718 236.12015 233.99412 231.87508 229.91505 228.08601
 226.38298 224.86894 223.51291 222.29887 221.19484 220.16881 219.28677 218.44174
 217.69770 216.89167 216.00363 215.38160 214.84557 214.67122 214.25932 214.34331
 214.93108 215.36595 216.14023 217.55678 219.10783 221.75824 226.83571 231.71820
 235.76302 239.71992 243.02345 245.84526 248.66664 251.40845 254.43907 257.87790
 261.17020 264.21616 267.03229 269.69400 272.23007 274.52454 276.31299 277.81808
 279.25052 280.62802 282.06488 283.42651 284.61273 285.66519 286.62772 287.50348
 288.29337 289.00403 289.62708 290.45615
 366.78100 356.34827 345.79354 334.67281 323.08908 311.29634 299.17961 286.99588
 274.72115 262.63142 250.65369 239.96796 230.10323 221.22049 213.41576 206.43103
 200.27830 195.22957 191.82484 189.88011 188.93038 189.00764 189.85591 191.17718
 192.91545 195.02372 197.29999 199.67226 202.13053 204.62379 206.72506 208.58033
 210.21960 211.37787 211.62014 211.86141 211.81168 211.52995 211.17621 210.81948
 210.44975 210.17302 209.99429 209.87156 209.81283 210.15710 210.55636 210.95863
 211.76490 212.95617 214.21944 216.01571 217.95698 220.01325 222.12151 224.21778
 226.29105 228.38832 230.49859 232.61786 234.76013 236.94540 239.21466 241.59793
 244.23220 246.49647 248.51174 250.29001 251.72028 252.85655 253.69182 254.02108
 254.07135 253.85862 253.23189 252.19316 250.81243 248.98670 246.90897 244.75523
 242.55950 240.37677 238.21004 236.06231 233.93558 231.81585 229.85512 228.02538
 226.32165 224.80692 223.45019 222.23546 221.13073 220.10400 219.22127 218.37553
 217.63080 216.82407 215.93534 215.31261 214.77588 214.63811 214.31259 214.39967
 214.97321 215.49117 216.28436 217.60442 219.10507 221.77454 226.82597 231.70801
 235.72615 239.60944 242.83209 245.61197 248.44630 251.24266 254.34212 257.81943
 261.11594 264.15213 266.96854 269.64941 272.20822 274.52176 276.33121 277.85629
 279.29837 280.67816 282.11780 283.47968 284.66684 285.72101 286.68417 287.55789
 288.35019 289.05743 289.68161 290.51334
 366.78100 356.34797 345.79295 334.67192 323.08790 311.29487 299.17785 286.99382
 274.71880 262.62877 250.65075 239.96472 230.09970 221.21667 213.41165 206.42662
 200.27360 195.22457 191.81955 189.87452 188.92450 189.00147 189.84944 191.17042
 192.90839 195.01637 197.29234 199.66432 202.12229 204.61527 206.71624 208.57122
 210.21019 211.36817 211.61014 211.85112 211.80109 211.51907 211.16504 210.80802
 210.43799 210.16096 209.98194 209.85891 209.79989 210.14386 210.54284 210.94481
 211.75079 212.94176 214.20474 216.00071 217.94169 219.99766 222.10564 224.20161
 226.27459 228.37156 230.48154 232.60051 234.74249 236.92746 239.19643 241.57941
 244.21338 246.47736 248.49233 250.27031 251.70028 252.83626 253.67123 254.00021
 254.05018 253.83716 253.21013 252.17111 250.79008 248.96406 246.88603 244.73201
 242.53598 240.35295 238.18593 236.03790 233.91088 231.79085 229.82983 227.99980
 226.29578 224.78075 223.42373 222.20870 221.10368 220.07665 219.19363 218.34760
 217.60258 216.79555 215.90653 215.28350 214.74648 214.62425 214.33549 214.48708
 215.01988 215.59125 216.39645 217.63686 219.11716 221.81099 226.82295 231.69821
 235.68805 239.49866 242.64835 245.39453 248.24570 251.09782 254.26007 257.76654
 261.06174 264.08453 266.89902 269.59940 272.18124 274.51025 276.33838 277.88342
 279.33951 280.72531 282.17599 283.53763 284.72537 285.78018 286.74402 287.61795
 288.40805 289.11774 289.74167 290.56985
 366.78100 356.34797 345.79295 334.67192 323.08789 311.29487 299.17784 286.99382
 274.71879 262.62876 250.65074 239.96471 230.09968 221.21666 213.41163 206.42661
 200.27358 195.22455 191.81953 189.87450 188.92447 189.00145 189.84942 191.17039
 192.90837 195.01634 197.29232 199.66429 202.12226 204.61524 206.71621 208.57118
 210.21016 211.36813 211.61011 211.85108 211.80105 211.51903 211.16500 210.80797
 210.43795 210.16092 209.98189 209.85887 209.79984 210.14382 210.54279 210.94476
 211.75074 212.94171 214.20468 216.00066 217.94163 219.99761 222.10558 224.20155
 226.27453 228.37150 230.48147 232.60045 234.74242 236.92739 239.19637 241.57934
 244.21332 246.47729 248.49226 250.27024 251.70021 252.83618 253.67116 254.00013
 254.05011 253.83708 253.21005 252.17103 250.79000 248.96397 246.88595 244.73192
 242.53589 240.35287 238.18584 236.03782 233.91079 231.79076 229.82974 227.99971
 226.29568 224.78066 223.42363 222.20861 221.10358 220.07655 219.19353 218.34750
 217.60247 216.79545 215.90642 215.28339 214.74637 214.62483 214.33769 214.58836
 215.08208 215.68210 216.49748 217.66946 219.13229 221.85083 226.82307 231.68855
 235.64716 239.38499 242.46712 245.18544 248.05531 250.96318 254.18423 257.71201
 261.00150 264.00885 266.82187 269.54428 272.14877 274.49185 276.33896 277.90659
 279.37930 280.77332 282.23370 283.59665 284.78497 285.83990 286.80234 287.67645
 288.46725 289.17648 289.79959 290.62598
 366.78100 356.34803 345.79307 334.67210 323.08813 311.29516 299.17820 286.99423
 274.71926 262.62929 250.65133 239.96536 230.10039 221.21743 213.41246 206.42749
 200.27452 195.22556 191.82059 189.87562 188.92565 189.00269 189.85072 191.17175
 192.90979 195.01782 197.29385 199.66588 202.12392 204.61695 206.71798 208.57301
 210.21205 211.37008 211.61211 211.85315 211.80318 211.52121 211.16724 210.81028
 210.44031 210.16334 209.98437 209.86141 209.80244 210.14647 210.54551 210.94754
 211.75357 212.94460 214.20764 216.00367 217.94470 220.00073 222.10877 224.20480
 226.27783 228.37487 230.48490 232.60393 234.74596 236.93100 239.20003 241.58306
 244.21710 246.48113 248.49616 250.27419 251.70423 252.84026 253.67529 254.00432
 254.05436 253.84139 253.21442 252.17546 250.79449 248.96852 246.89055 244.73659
 242.54062 240.35765 238.19068 236.04272 233.91575 231.79578 229.83482 228.00485
 226.30088 224.78591 223.42895 222.21398 221.10901 220.08204 219.19908 218.35311
 217.60814 216.80118 215.91221 215.28924 214.75227 214.62852 214.33617 214.68138
 215.15871 215.77728 216.60733 217.71201 219.13228 221.88040 226.82391 231.67754
 235.60260 239.26630 242.28493 244.98058 247.87088 250.83553 254.11235 257.65533
 260.93561 263.92838 266.74344 269.48856 272.11414 274.47116 276.33603 277.92719
 279.41788 280.82294 282.28979 283.65375 284.84344 285.89700 286.86020 287.73297
 288.52509 289.23355 289.85684 290.68130
 366.78100 356.34801 345.79302 334.67203 323.08805 311.29506 299.17807 286.99408
 274.71909 262.62910 250.65112 239.96513 230.10014 221.21715 213.41216 206.42717
 200.27418 195.22520 191.82021 189.87522 188.92523 189.00224 189.85025 191.17127
 192.90928 195.01729 197.29330 199.66531 202.12332 204.61633 206.71735 208.57236
 210.21137 211.36938 211.61139 211.85240 211.80241 211.52043 211.16644 210.80945
 210.43946 210.16247 209.98348 209.86050 209.80151 210.14552 210.54453 210.94654
 211.75255 212.94356 214.20658 216.00259 217.94360 219.99961 222.10762 224.20363
 226.27665 228.37366 230.48367 232.60268 234.74469 236.92970 239.19871 241.58173
 244.21574 246.47975 248.49476 250.27277 251.70278 252.83880 253.67381 254.00282
 254.05283 253.83984 253.21285 252.17386 250.79288 248.96689 246.88890 244.73491
 242.53892 240.35593 238.18895 236.04096 233.91397 231.79398 229.83299 228.00300
 226.29901 224.78403 223.42704 222.21205 221.10706 220.08007 219.19708 218.35109
 217.60611 216.79912 215.91013 215.28714 214.75015 214.62788 214.33899 214.75700
 215.24974 215.88548 216.72314 217.76279 219.12010 221.89844 226.82835 231.66739
 235.55415 239.14240 242.10074 244.77991 247.69397 250.71611 254.04535 257.59869
 260.86722 263.84708 266.66690 269.43509 272.07965 274.44730 276.32974 277.94260
 279.45157 280.87000 282.34317 283.70468 284.89490 285.95032 286.91241 287.78549
 288.57452 289.28494 289.90408 290.73114
 366.78100 356.34797 345.79294 334.67191 323.08788 311.29484 299.17781 286.99378
 274.71875 262.62872 250.65069 239.96466 230.09963 221.21660 213.41157 206.42653
 200.27350 195.22447 191.81944 189.87441 188.92438 189.00135 189.84932 191.17029
 192.90825 195.01622 197.29219 199.66416 202.12213 204.61510 206.71607 208.57104
 210.21001 211.36798 211.60994 211.85091 211.80088 211.51885 211.16482 210.80779
 210.43776 210.16073 209.98170 209.85867 209.79963 210.14360 210.54257 210.94454
 211.75051 212.94148 214.20445 216.00042 217.94139 219.99735 222.10532 224.20129
 226.27426 228.37123 230.48120 232.60017 234.74214 236.92711 239.19608 241.57904
 244.21301 246.47698 248.49195 250.26992 251.69989 252.83586 253.67083 253.99980
 254.04976 253.83673 253.20970 252.17067 250.78964 248.96361 246.88558 244.73155
 242.53552 240.35249 238.18545 236.03742 233.91039 231.79036 229.82933 227.99930
 226.29527 224.78024 223.42321 222.20817 221.10314 220.07611 219.19308 218.34705
 217.60202 216.79499 215.90596 215.28293 214.74590 214.62555 214.34122 214.82045
 215.35248 216.00461 216.83580 217.81561 219.10976 221.91118 226.83890 231.65768
 235.50108 239.01321 241.91536 244.58495 247.52649 250.60632 253.98300 257.54117
 260.79669 263.76505 266.59094 269.38217 272.04330 274.41946 276.31686 277.95126
 279.47668 280.90994 282.38641 283.74915 284.93936 285.99353 286.95578 287.82858
 288.61761 289.32513 289.94547 290.77283
 366.78100 356.34797 345.79295 334.67192 323.08789 311.29487 299.17784 286.99381
 274.71879 262.62876 250.65074 239.96471 230.09968 221.21666 213.41163 206.42660
 200.27358 195.22455 191.81952 189.87450 188.92447 189.00144 189.84942 191.17039
 192.90836 195.01634 197.29231 199.66429 202.12226 204.61523 206.71621 208.57118
 210.21015 211.36813 211.61010 211.85107 211.80105 211.51902 211.16499 210.80797
 210.43794 210.16091 209.98189 209.85886 209.79984 210.14381 210.54278 210.94476
 211.75073 212.94170 214.20468 216.00065 217.94162 219.99760 222.10557 224.20154
 226.27452 228.37149 230.48146 232.60044 234.74241 236.92739 239.19636 241.57933
 244.21331 246.47728 248.49225 250.27023 251.70020 252.83617 253.67115 254.00012
 254.05009 253.83707 253.21004 252.17101 250.78999 248.96396 246.88594 244.73191
 242.53588 240.35286 238.18583 236.03780 233.91078 231.79075 229.82972 227.99970
 226.29567 224.78064 223.42362 222.20859 221.10356 220.07654 219.19351 218.34749
 217.60246 216.79543 215.90641 215.28338 214.74635 214.62521 214.33902 214.87878
 215.46307 216.12852 216.94241 217.86726 219.11038 221.92247 226.85318 231.64571
 235.44124 238.87727 241.72986 244.39743 247.37013 250.50652 253.92474 257.48273
 260.72308 263.68204 266.51654 269.32803 272.00458 274.38394 276.29510 277.95004
 279.49173 280.93979 282.42038 283.78345 284.97250 286.02884 286.98923 287.86102
 288.64792 289.35754 289.97726 290.79965
 366.78100 356.34801 345.79303 334.67204 323.08806 311.29507 299.17808 286.99410
 274.71911 262.62913 250.65114 239.96515 230.10017 221.21718 213.41220 206.42721
 200.27422 195.22524 191.82025 189.87527 188.92528 189.00229 189.85031 191.17132
 192.90934 195.01735 197.29336 199.66538 202.12339 204.61641 206.71742 208.57243
 210.21145 211.36946 211.61147 211.85249 211.80250 211.52052 211.16653 210.80954
 210.43956 210.16257 209.98359 209.86060 209.80161 210.14563 210.54464 210.94666
 211.75267 212.94368 214.20670 216.00271 217.94373 219.99974 222.10775 224.20377
 226.27678 228.37380 230.48381 232.60282 234.74484 236.92985 239.19887 241.58188
 244.21589 246.47991 248.49492 250.27294 251.70295 252.83896 253.67398 254.00299
 254.05301 253.84002 253.21303 252.17405 250.79306 248.96708 246.88909 244.73510
 242.53912 240.35613 238.18915 236.04116 233.91417 231.79419 229.83320 228.00322
 226.29923 224.78424 223.42726 222.21227 221.10728 220.08030 219.19731 218.35133
 217.60634 216.79935 215.91037 215.28738 214.75040 214.62616 214.33263 214.93526
 215.58057 216.25180 217.04865 217.91957 219.11856 221.93269 226.86780 231.62846
 235.37294 238.73520 241.54474 244.21927 247.22719 250.41739 253.87010 257.42300
 260.64703 263.59848 266.44360 269.27499 271.96283 274.34302 276.26462 277.93750
 279.49426 280.95831 282.44156 283.80438 284.99310 286.04764 287.00766 287.88052
 288.66605 289.37436 289.99420 290.81259
 366.78100 356.34814 345.79329 334.67243 323.08858 311.29572 299.17887 286.99501
 274.72016 262.63030 250.65245 239.96659 230.10174 221.21888 213.41403 206.42917
 200.27632 195.22746 191.82261 189.87775 188.92789 189.00504 189.85318 191.17433
 192.91247 195.02062 197.29676 199.66891 202.12705 204.62020 206.72134 208.57649
 210.21563 211.37378 211.61592 211.85707 211.80721 211.52536 211.17150 210.81464
 210.44479 210.16793 209.98908 209.86622 209.80737 210.15151 210.55066 210.95280
 211.75895 212.95009 214.21324 216.00938 217.95053 220.00667 222.11482 224.21096
 226.28411 228.38125 230.49139 232.61054 234.75268 236.93783 239.20697 241.59012
 244.22426 246.48841 248.50355 250.28170 251.71184 252.84799 253.68313 254.01228
 254.06242 253.84957 253.22271 252.18386 250.80300 248.97714 246.89929 244.74543
 242.54958 240.36672 238.19987 236.05201 233.92516 231.80530 229.84445 228.01459
 226.31074 224.79588 223.43903 222.22417 221.11932 220.09246 219.20961 218.36375
 217.61889 216.81204 215.92318 215.30033 214.76347 214.63049 214.31635 214.99165
 215.70580 216.37775 217.15065 217.97087 219.13670 221.94273 226.87782 231.60367
 235.29471 238.58540 241.36018 244.05171 247.09999 250.34184 253.82101 257.36349
 260.56985 263.51617 266.37302 269.22238 271.91849 274.29688 276.22952 277.91971
 279.49213 280.97113 282.44919 283.81146 284.99948 286.05389 287.01147 287.88245
 288.66846 289.37277 289.99432 290.81082
 366.78100 356.34842 345.79383 334.67325 323.08967 311.29708 299.18050 286.99692
 274.72234 262.63275 250.65517 239.96959 230.10500 221.22242 213.41784 206.43325
 200.28067 195.23209 191.82751 189.88292 188.93334 189.01076 189.85917 191.18059
 192.91901 195.02742 197.30384 199.67626 202.13467 204.62809 206.72951 208.58493
 210.22434 211.38276 211.62518 211.86659 211.81701 211.53543 211.18184 210.82526
 210.45568 210.17910 210.00051 209.87793 209.81935 210.16376 210.56318 210.96560
 211.77201 212.96343 214.22685 216.02326 217.96468 220.02110 222.12952 224.22593
 226.29935 228.39677 230.50718 232.62660 234.76902 236.95443 239.22385 241.60727
 244.24168 246.50610 248.52152 250.29994 251.73035 252.86677 253.70219 254.03160
 254.08202 253.86944 253.24285 252.20427 250.82369 248.99811 246.92052 244.76694
 242.57136 240.38877 238.22219 236.07461 233.94802 231.82844 229.86786 228.03827
 226.33469 224.82011 223.46353 222.24894 221.14436 220.11778 219.23519 218.38961
 217.64503 216.83844 215.94986 215.32728 214.79070 214.64096 214.28720 215.05217
 215.83794 216.50114 217.26218 218.02448 219.15103 221.94919 226.88274 231.57211
 235.20906 238.43048 241.17955 243.89693 246.99089 250.28027 253.77794 257.30374
 260.49011 263.43176 266.30258 269.16791 271.86899 274.24396 276.18488 277.89392
 279.48434 280.97659 282.45020 283.81284 284.99841 286.05185 287.01056 287.88098
 288.66653 289.36908 289.99200 290.80496
 366.78100 356.34861 345.79422 334.67383 323.09044 311.29805 299.18166 286.99827
 274.72388 262.63450 250.65711 239.97172 230.10733 221.22494 213.42055 206.43616
 200.28377 195.23538 191.83099 189.88660 188.93721 189.01482 189.86343 191.18504
 192.92365 195.03226 197.30888 199.68149 202.14010 204.63371 206.73532 208.59093
 210.23054 211.38915 211.63176 211.87337 211.82398 211.54259 211.18920 210.83281
 210.46342 210.18703 210.00864 209.88626 209.82787 210.17248 210.57209 210.97470
 211.78131 212.97292 214.23653 216.03314 217.97475 220.03136 222.13997 224.23658
 226.31019 228.40780 230.51841 232.63802 234.78064 236.96625 239.23586 241.61947
 244.25408 246.51869 248.53430 250.31291 251.74352 252.88013 253.71574 254.04535
 254.09596 253.88357 253.25718 252.21879 250.83840 249.01302 246.93563 244.78224
 242.58685 240.40446 238.23807 236.09068 233.96429 231.84490 229.88451 228.05512
 226.35173 224.83734 223.48095 222.26656 221.16217 220.13578 219.25340 218.40801
 217.66362 216.85723 215.96884 215.34645 214.81006 214.64828 214.26605 215.09599
 215.98161 216.63805 217.36624 218.07423 219.17728 221.95732 226.88052 231.53178
 235.11212 238.26688 240.99821 243.75217 246.89790 250.23204 253.74028 257.24411
 260.40857 263.34808 266.23331 269.11273 271.81485 274.18307 276.13184 277.85748
 279.46640 280.97214 282.44977 283.81122 284.99829 286.04855 287.00714 287.87869
 288.66745 289.37604 289.99619 290.81339
 366.78100 356.34888 345.79477 334.67465 323.09154 311.29942 299.18331 287.00019
 274.72607 262.63696 250.65984 239.97473 230.11061 221.22849 213.42438 206.44026
 200.28815 195.24003 191.83592 189.89180 188.94268 189.02057 189.86945 191.19134
 192.93022 195.03910 197.31599 199.68887 202.14776 204.64164 206.74353 208.59941
 210.23929 211.39818 211.64106 211.88295 211.83383 211.55271 211.19960 210.84348
 210.47437 210.19825 210.02014 209.89802 209.83990 210.18479 210.58467 210.98756
 211.79444 212.98632 214.25021 216.04709 217.98898 220.04586 222.15475 224.25163
 226.32551 228.42340 230.53428 232.65417 234.79705 236.98293 239.25282 241.63670
 244.27159 246.53647 248.55236 250.33124 251.76212 252.89901 253.73489 254.06478
 254.11566 253.90354 253.27743 252.23931 250.85920 249.03408 246.95697 244.80385
 242.60873 240.42662 238.26050 236.11339 233.98727 231.86815 229.90804 228.07892
 226.37581 224.86169 223.50558 222.29146 221.18734 220.16123 219.27911 218.43400
 217.68988 216.88377 215.99565 215.37353 214.83742 214.66122 214.24493 215.13821
 216.11763 216.78403 217.50354 218.13025 219.18176 221.95097 226.86993 231.48216
 235.00562 238.09689 240.81926 243.62001 246.82193 250.19690 253.70703 257.18314
 260.32431 263.26251 266.16351 269.05356 271.75363 274.11285 276.06689 277.80765
 279.43604 280.95828 282.44287 283.80420 284.98886 286.03958 286.99646 287.86755
 288.65479 289.36441 289.98550 290.79526
 366.78100 356.34947 345.79594 334.67641 323.09388 311.30235 299.18682 287.00429
 274.73076 262.64224 250.66571 239.98118 230.11765 221.23612 213.43259 206.44906
 200.29753 195.25000 191.84647 189.90294 188.95441 189.03288 189.88235 191.20482
 192.94429 195.05376 197.33123 199.70471 202.16418 204.65865 206.76112 208.61759
 210.25806 211.41753 211.66100 211.90347 211.85494 211.57441 211.22188 210.86635
 210.49782 210.22229 210.04476 209.92323 209.86571 210.21118 210.61165 211.01512
 211.82259 213.01506 214.27953 216.07700 218.01947 220.07694 222.18641 224.28388
 226.35835 228.45682 230.56829 232.68876 234.83223 237.01870 239.28918 241.67365
 244.30912 246.57459 248.59106 250.37053 251.80200 252.93947 253.77594 254.10641
 254.15788 253.94635 253.32082 252.28329 250.90376 249.07923 247.00270 244.85018
 242.65565 240.47412 238.30859 236.16206 234.03653 231.91800 229.95847 228.12994
 226.42741 224.91388 223.55835 222.34482 221.24129 220.21576 219.33423 218.48970
 217.74617 216.94065 216.05312 215.43159 214.89606 214.69116 214.20709 215.18056
 216.28372 216.92836 217.59952 218.18347 219.21719 221.95769 226.85707 231.42551
 234.88913 237.91856 240.63774 243.49321 246.75658 250.16821 253.67426 257.11746
 260.23376 263.17343 266.09171 268.99133 271.68597 274.03482 275.99258 277.74872
 279.39600 280.93634 282.42496 283.78458 284.96759 286.01691 286.97305 287.84024
 288.62759 289.33377 289.95319 290.76260
 366.78100 356.34988 345.79675 334.67763 323.09551 311.30438 299.18926 287.00714
 274.73401 262.64589 250.66976 239.98564 230.12252 221.24139 213.43827 206.45515
 200.30402 195.25690 191.85378 189.91065 188.96253 189.04141 189.89128 191.21416
 192.95403 195.06391 197.34179 199.71566 202.17554 204.67042 206.77329 208.63017
 210.27105 211.43092 211.67480 211.91768 211.86955 211.58943 211.23731 210.88218
 210.51406 210.23893 210.06181 209.94069 209.88356 210.22944 210.63032 211.03419
 211.84207 213.03495 214.29982 216.09770 218.04058 220.09845 222.20833 224.30621
 226.38108 228.47996 230.59183 232.71271 234.85659 237.04346 239.31434 241.69922
 244.33509 246.60097 248.61785 250.39772 251.82960 252.96748 253.80435 254.13523
 254.18710 253.97598 253.35086 252.31373 250.93461 249.11049 247.03436 244.88224
 242.68812 240.50699 238.34187 236.19575 234.07062 231.95250 229.99338 228.16525
 226.46313 224.95000 223.59488 222.38176 221.27863 220.25351 219.37239 218.52826
 217.78514 216.98002 216.09289 215.47177 214.93665 214.71211 214.18166 215.18979
 216.45128 217.11995 217.75006 218.24471 219.21545 221.93633 226.82779 231.34949
 234.75151 237.72113 240.44781 243.37044 246.70111 250.14809 253.64442 257.05185
 260.14417 263.08740 266.02396 268.93112 271.61908 273.95779 275.92038 277.68875
 279.35287 280.90845 282.39539 283.75293 284.93509 285.98145 286.93604 287.80252
 288.58728 289.29056 289.90875 290.71524
 366.78100 356.34995 345.79691 334.67786 323.09581 311.30477 299.18972 287.00767
 274.73463 262.64658 250.67053 239.98649 230.12344 221.24239 213.43935 206.45630
 200.30525 195.25821 191.85516 189.91211 188.96407 189.04302 189.89297 191.21593
 192.95588 195.06583 197.34379 199.71774 202.17769 204.67265 206.77560 208.63255
 210.27351 211.43346 211.67741 211.92037 211.87232 211.59227 211.24023 210.88518
 210.51713 210.24209 210.06504 209.94399 209.88695 210.23290 210.63385 211.03781
 211.84576 213.03871 214.30367 216.10162 218.04457 220.10253 222.21248 224.31043
 226.38539 228.48434 230.59629 232.71725 234.86120 237.04815 239.31911 241.70406
 244.34001 246.60597 248.62292 250.40288 251.83483 252.97278 253.80974 254.14069
 254.19264 253.98160 253.35655 252.31950 250.94046 249.11641 247.04036 244.88832
 242.69427 240.51322 238.34818 236.20213 234.07708 231.95904 229.99999 228.17194
 226.46990 224.95685 223.60180 222.38876 221.28571 220.26066 219.37962 218.53557
 217.79252 216.98748 216.10043 215.47938 214.94434 214.71405 214.16997 215.18842
 216.59317 217.32246 217.91783 218.29834 219.18880 221.90784 226.79456 231.26747
 234.60938 237.52611 240.26933 243.26659 246.66762 250.14493 253.62482 256.99210
 260.06061 263.00812 265.96173 268.87292 271.55188 273.87994 275.84442 277.62286
 279.30643 280.87497 282.35654 283.70993 284.88953 285.93341 286.88770 287.75162
 288.53391 289.23544 289.85315 290.65756
 366.78100 356.34994 345.79689 334.67783 323.09577 311.30472 299.18966 287.00760
 274.73455 262.64649 250.67043 239.98637 230.12332 221.24226 213.43920 206.45615
 200.30509 195.25803 191.85498 189.91192 188.96386 189.04281 189.89275 191.21569
 192.95564 195.06558 197.34352 199.71746 202.17741 204.67235 206.77529 208.63224
 210.27318 211.43312 211.67707 211.92001 211.87195 211.59190 211.23984 210.88478
 210.51673 210.24167 210.06461 209.94355 209.88650 210.23244 210.63338 211.03733
 211.84527 213.03821 214.30316 216.10110 218.04404 220.10199 222.21193 224.30987
 226.38482 228.48376 230.59570 232.71665 234.86059 237.04753 239.31847 241.70342
 244.33936 246.60530 248.62225 250.40219 251.83413 252.97208 253.80902 254.13996
 254.19191 253.98085 253.35579 252.31874 250.93968 249.11562 247.03956 244.88751
 242.69345 240.51239 238.34734 236.20128 234.07622 231.95817 229.99911 228.17105
 226.46900 224.95594 223.60088 222.38783 221.28477 220.25971 219.37865 218.53460
 217.79154 216.98648 216.09943 215.47837 214.94331 214.70859 214.15402 215.19791
 216.71709 217.51579 218.07858 218.35947 219.17635 221.88922 226.76393 231.18556
 234.46881 237.33823 240.10297 243.17851 246.64934 250.15047 253.60680 256.93051
 259.97482 262.92676 265.89505 268.80701 271.47461 273.78967 275.75418 277.54785
 279.25189 280.83417 282.31009 283.65451 284.83145 285.87384 286.82474 287.68829
 288.46875 289.16870 289.78528 290.58768
 366.78100 356.34996 345.79693 334.67789 323.09586 311.30482 299.18979 287.00775
 274.73472 262.64668 250.67065 239.98661 230.12358 221.24254 213.43951 206.45647
 200.30543 195.25840 191.85536 189.91233 188.96429 189.04326 189.89322 191.21619
 192.95615 195.06612 197.34408 199.71805 202.17801 204.67297 206.77594 208.63290
 210.27387 211.43383 211.67780 211.92076 211.87273 211.59269 211.24066 210.88562
 210.51759 210.24255 210.06552 209.94448 209.88744 210.23341 210.63437 211.03834
 211.84630 213.03927 214.30423 216.10220 218.04516 220.10313 222.21309 224.31106
 226.38602 228.48499 230.59695 232.71791 234.86188 237.04884 239.31981 241.70477
 244.34074 246.60670 248.62367 250.40363 251.83560 252.97356 253.81053 254.14149
 254.19345 253.98242 253.35738 252.32035 250.94131 249.11728 247.04124 244.88921
 242.69517 240.51414 238.34910 236.20307 234.07803 231.96000 230.00096 228.17292
 226.47089 224.95785 223.60282 222.38978 221.28675 220.26171 219.38068 218.53664
 217.79361 216.98857 216.10154 215.48050 214.94547 214.70430 214.13454 215.21056
 216.83350 217.68837 218.23242 218.42920 219.18539 221.88268 226.73528 231.10252
 234.32779 237.15359 239.94481 243.10144 246.63992 250.15900 253.58623 256.86371
 259.88486 262.84225 265.82373 268.73245 271.38528 273.68521 275.64981 277.46069
 279.18570 280.78091 282.25204 283.58517 284.75870 285.79904 286.74817 287.60941
 288.38898 289.08881 289.70398 290.50400
 366.78100 356.34994 345.79689 334.67783 323.09577 311.30472 299.18966 287.00760
 274.73455 262.64649 250.67043 239.98637 230.12332 221.24226 213.43920 206.45615
 200.30509 195.25803 191.85498 189.91192 188.96386 189.04281 189.89275 191.21569
 192.95564 195.06558 197.34352 199.71746 202.17741 204.67235 206.77529 208.63224
 210.27318 211.43312 211.67707 211.92001 211.87195 211.59190 211.23984 210.88478
 210.51673 210.24167 210.06461 209.94355 209.88650 210.23244 210.63338 211.03733
 211.84527 213.03821 214.30316 216.10110 218.04404 220.10199 222.21193 224.30987
 226.38482 228.48376 230.59570 232.71665 234.86059 237.04753 239.31847 241.70342
 244.33936 246.60530 248.62225 250.40219 251.83413 252.97208 253.80902 254.13996
 254.19191 253.98085 253.35579 252.31874 250.93968 249.11562 247.03956 244.88751
 242.69345 240.51239 238.34734 236.20128 234.07622 231.95817 229.99911 228.17105
 226.46900 224.95594 223.60088 222.38783 221.28477 220.25971 219.37865 218.53460
 217.79154 216.98648 216.09943 215.47837 214.94331 214.69908 214.12207 215.21407
 216.94295 217.83936 218.37956 218.50150 219.20625 221.88353 226.70773 231.01891
 234.18980 236.97801 239.80089 243.04031 246.64424 250.17477 253.56876 256.79901
 259.79672 262.75842 265.75058 268.65433 271.29068 273.57303 275.53534 277.36066
 279.10541 280.71512 282.18094 283.50198 284.66672 285.70203 286.64786 287.50970
 288.28867 288.98364 289.60031 290.39951
 366.78100 356.34968 345.79636 334.67704 323.09472 311.30339 299.18807 287.00575
 274.73243 262.64411 250.66779 239.98347 230.12015 221.23883 213.43550 206.45218
 200.30086 195.25354 191.85022 189.90690 188.95858 189.03726 189.88693 191.20961
 192.94929 195.05897 197.33665 199.71033 202.17001 204.66469 206.76737 208.62404
 210.26472 211.42440 211.66808 211.91076 211.86244 211.58212 211.22980 210.87448
 210.50615 210.23083 210.05351 209.93219 209.87487 210.22055 210.62123 211.02491
 211.83258 213.02526 214.28994 216.08762 218.03030 220.08798 222.19766 224.29534
 226.37002 228.46869 230.58037 232.70105 234.84473 237.03141 239.30209 241.68677
 244.32245 246.58813 248.60480 250.38448 251.81616 252.95384 253.79052 254.12120
 254.17288 253.96156 253.33624 252.29891 250.91959 249.09527 247.01895 244.86663
 242.67231 240.49099 238.32567 236.17934 234.05402 231.93570 229.97638 228.14806
 226.44574 224.93242 223.57710 222.36378 221.26045 220.23513 219.35381 218.50949
 217.76617 216.96085 216.07353 215.45221 214.91689 214.68109 214.12399 215.21518
 217.03609 217.97264 218.51367 218.56920 219.22411 221.88492 226.68016 230.93770
 234.05995 236.81924 239.68007 243.00395 246.67152 250.21010 253.56543 256.74667
 259.71893 262.67960 265.67636 268.57004 271.18402 273.44061 275.39850 277.24158
 279.01062 280.63300 282.09113 283.39819 284.55164 285.57751 286.52109 287.38135
 288.15823 288.85532 289.46942 290.26920
 366.78100 356.34905 345.79511 334.67516 323.09222 311.30027 299.18432 287.00138
 274.72743 262.63848 250.66154 239.97659 230.11265 221.23070 213.42675 206.44281
 200.29086 195.24292 191.83897 189.89502 188.94608 189.02413 189.87318 191.19524
 192.93429 195.04335 197.32040 199.69345 202.15251 204.64656 206.74862 208.60467
 210.24472 211.40378 211.64683 211.88888 211.83994 211.55899 211.20605 210.85010
 210.48115 210.20521 210.02726 209.90532 209.84737 210.19242 210.59248 210.99553
 211.80258 212.99464 214.25869 216.05575 217.99780 220.05485 222.16391 224.26096
 226.33502 228.43307 230.54412 232.66418 234.80723 236.99329 239.26334 241.64739
 244.28245 246.54750 248.56355 250.34261 251.77366 252.91072 253.74677 254.07682
 254.12788 253.91593 253.28999 252.25204 250.87209 249.04715 246.97020 244.81725
 242.62231 240.44036 238.27442 236.12747 234.00152 231.88258 229.92263 228.09369
 226.39074 224.87679 223.52085 222.30690 221.20295 220.17701 219.29506 218.45012
 217.70617 216.90022 216.01228 215.39033 214.85439 214.64120 214.13754 215.24205
 217.11356 218.08450 218.61517 218.61542 219.22290 221.87738 226.64836 230.85574
 233.93602 236.67741 239.58502 242.99702 246.73221 250.27922 253.59598 256.72699
 259.67017 262.61945 265.60721 268.47702 271.05783 273.28244 275.23923 277.09729
 278.89438 280.52524 281.96939 283.25568 284.38138 285.38596 286.31720 287.17538
 287.95126 288.64764 289.26028 290.06430
 366.78100 356.34849 345.79398 334.67347 323.08997 311.29746 299.18095 286.99744
 274.72293 262.63342 250.65591 239.97041 230.10590 221.22339 213.41888 206.43437
 200.28186 195.23335 191.82885 189.88434 188.93483 189.01232 189.86081 191.18230
 192.92079 195.02929 197.30578 199.67827 202.13676 204.63025 206.73174 208.58723
 210.22673 211.38522 211.62771 211.86920 211.81969 211.53818 211.18467 210.82817
 210.45866 210.18215 210.00364 209.88113 209.82262 210.16711 210.56661 210.96910
 211.77559 212.96708 214.23057 216.02706 217.96855 220.02504 222.13354 224.23003
 226.30352 228.40101 230.51150 232.63099 234.77348 236.95898 239.22847 241.61196
 244.24645 246.51094 248.52643 250.30492 251.73542 252.87191 253.70740 254.03689
 254.08738 253.87487 253.24836 252.20986 250.82935 249.00384 246.92633 244.77282
 242.57731 240.39480 238.22830 236.08079 233.95428 231.83477 229.87426 228.04475
 226.34124 224.82674 223.47023 222.25572 221.15121 220.12470 219.24219 218.39668
 217.65218 216.84567 215.95716 215.33465 214.79814 214.60243 214.14005 215.29903
 217.19608 218.18697 218.68665 218.63316 219.19283 221.85123 226.60588 230.76344
 233.80482 236.53539 239.49863 243.00560 246.81424 250.37540 253.65970 256.75034
 259.66562 262.59726 265.56808 268.40765 270.95584 273.15314 275.09512 276.96408
 278.77734 280.38062 281.78635 283.02460 284.10876 285.08197 285.99390 286.85071
 287.62732 288.32593 288.93909 289.74570
 366.78100 356.34847 345.79394 334.67342 323.08989 311.29736 299.18083 286.99730
 274.72277 262.63325 250.65572 239.97019 230.10566 221.22313 213.41860 206.43408
 200.28155 195.23302 191.82849 189.88396 188.93443 189.01191 189.86038 191.18185
 192.92032 195.02879 197.30527 199.67774 202.13621 204.62968 206.73115 208.58662
 210.22610 211.38457 211.62704 211.86851 211.81898 211.53745 211.18393 210.82740
 210.45787 210.18134 210.00281 209.88028 209.82176 210.16623 210.56570 210.96817
 211.77464 212.96611 214.22959 216.02606 217.96753 220.02400 222.13247 224.22895
 226.30242 228.39989 230.51036 232.62983 234.77230 236.95778 239.22725 241.61072
 244.24519 246.50966 248.52513 250.30361 251.73408 252.87055 253.70602 254.03549
 254.08596 253.87344 253.24691 252.20838 250.82785 249.00232 246.92480 244.77127
 242.57574 240.39321 238.22668 236.07915 233.95263 231.83310 229.87257 228.04304
 226.33951 224.82498 223.46846 222.25393 221.14940 220.12287 219.24034 218.39481
 217.65029 216.84376 215.95523 215.33270 214.79617 214.59268 214.11191 215.36258
 217.31335 218.31451 218.76031 218.64349 219.14940 221.80629 226.54530 230.64467
 233.64221 236.36349 239.39067 242.99802 246.88066 250.45966 253.72797 256.78931
 259.68713 262.60828 265.56653 268.38666 270.91589 273.09622 275.03281 276.84204
 278.66934 280.22968 281.57642 282.76035 283.79184 284.71851 285.60562 286.45963
 287.23740 287.93796 288.55533 289.36923
 366.78100 356.34894 345.79488 334.67482 323.09176 311.29969 299.18363 287.00057
 274.72651 262.63745 250.66039 239.97533 230.11127 221.22920 213.42514 206.44108
 200.28902 195.24096 191.83690 189.89284 188.94378 189.02171 189.87065 191.19259
 192.93153 195.04047 197.31741 199.69035 202.14929 204.64323 206.74516 208.60110
 210.24104 211.39998 211.64292 211.88486 211.83580 211.55474 211.20167 210.84561
 210.47655 210.20049 210.02243 209.90037 209.84231 210.18725 210.58718 210.99012
 211.79706 212.98900 214.25294 216.04988 217.99182 220.04876 222.15770 224.25463
 226.32857 228.42651 230.53745 232.65739 234.80033 236.98627 239.25621 241.64014
 244.27508 246.54002 248.55596 250.33490 251.76584 252.90278 253.73872 254.06865
 254.11959 253.90753 253.28147 252.24341 250.86335 249.03829 246.96123 244.80817
 242.61310 240.43104 238.26498 236.11792 233.99186 231.87280 229.91274 228.08368
 226.38061 224.86655 223.51049 222.29643 221.19237 220.16631 219.28425 218.43919
 217.69513 216.88906 216.00100 215.37894 214.84288 214.61108 214.06348 215.40453
 217.47609 218.49330 218.86937 218.66992 219.10730 221.74980 226.46796 230.49799
 233.44400 236.15578 239.25038 242.95917 246.89656 250.48886 253.74667 256.79501
 259.69043 262.61526 265.57623 268.39212 270.92166 273.10623 275.04678 276.82446
 278.60892 280.11603 281.41504 282.54785 283.51462 284.37329 285.22070 286.07367
 286.85529 287.55609 288.18137 289.00351
 366.78100 356.34938 345.79576 334.67613 323.09351 311.30189 299.18627 287.00365
 274.73003 262.64140 250.66478 239.98016 230.11654 221.23492 213.43130 206.44767
 200.29605 195.24843 191.84481 189.90119 188.95257 189.03094 189.88032 191.20270
 192.94208 195.05146 197.32883 199.70221 202.16159 204.65597 206.75835 208.61473
 210.25510 211.41448 211.65786 211.90024 211.85162 211.57100 211.21837 210.86275
 210.49413 210.21851 210.04089 209.91926 209.86164 210.20702 210.60740 211.01078
 211.81816 213.01053 214.27491 216.07229 218.01467 220.07205 222.18143 224.27880
 226.35318 228.45156 230.56294 232.68332 234.82670 237.01307 239.28345 241.66783
 244.30321 246.56859 248.58496 250.36434 251.79572 252.93310 253.76948 254.09986
 254.15123 253.93961 253.31399 252.27637 250.89675 249.07213 246.99550 244.84288
 242.64826 240.46664 238.30102 236.15440 234.02877 231.91015 229.95053 228.12191
 226.41929 224.90566 223.55004 222.33642 221.23280 220.20718 219.32556 218.48093
 217.73731 216.93169 216.04407 215.42245 214.88683 214.63112 214.02699 215.41852
 217.63820 218.69370 219.00529 218.72556 219.09074 221.69907 226.38823 230.34529
 233.23895 235.94382 239.10764 242.90927 246.88089 250.47017 253.71793 256.76083
 259.66348 262.60294 265.57581 268.38855 270.92313 273.13644 275.07028 276.84894
 278.58823 280.04434 281.30688 282.38882 283.28326 284.07050 284.88986 285.74448
 286.52753 287.23734 287.86749 288.69867
 366.78100 356.34942 345.79584 334.67626 323.09368 311.30210 299.18652 287.00394
 274.73035 262.64177 250.66519 239.98061 230.11703 221.23545 213.43187 206.44829
 200.29671 195.24913 191.84555 189.90197 188.95339 189.03181 189.88122 191.20364
 192.94306 195.05248 197.32990 199.70332 202.16274 204.65716 206.75958 208.61600
 210.25642 211.41584 211.65926 211.90168 211.85309 211.57251 211.21993 210.86435
 210.49577 210.22019 210.04261 209.92103 209.86345 210.20887 210.60929 211.01271
 211.82013 213.01255 214.27697 216.07438 218.01680 220.07422 222.18364 224.28106
 226.35548 228.45390 230.56532 232.68574 234.82916 237.01558 239.28600 241.67042
 244.30584 246.57125 248.58767 250.36709 251.79851 252.93593 253.77235 254.10277
 254.15419 253.94261 253.31703 252.27945 250.89987 249.07529 246.99871 244.84612
 242.65154 240.46996 238.30438 236.15780 234.03222 231.91364 229.95406 228.12548
 226.42290 224.90932 223.55374 222.34016 221.23658 220.21100 219.32941 218.48483
 217.74125 216.93567 216.04809 215.42651 214.89093 214.62549 213.99832 215.46880
 217.76552 218.84450 219.11154 218.78130 219.08640 221.65718 226.31497 230.20476
 233.05804 235.76793 239.00011 242.88344 246.87605 250.45096 253.68698 256.72504
 259.63412 262.58856 265.56610 268.36853 270.90875 273.14862 275.06116 276.84396
 278.55338 279.97488 281.19681 282.22336 283.05441 283.79614 284.61798 285.47366
 286.26132 286.97733 287.61218 288.45087
 366.78100 356.34913 345.79526 334.67538 323.09251 311.30064 299.18477 287.00190
 274.72802 262.63915 250.66228 239.97741 230.11354 221.23166 213.42779 206.44392
 200.29205 195.24418 191.84030 189.89643 188.94756 189.02569 189.87482 191.19694
 192.93607 195.04520 197.32233 199.69546 202.15458 204.64871 206.75084 208.60697
 210.24710 211.40622 211.64935 211.89148 211.84261 211.56174 211.20886 210.85299
 210.48412 210.20825 210.03038 209.90850 209.85063 210.19576 210.59589 210.99902
 211.80614 212.99827 214.26240 216.05953 218.00166 220.05878 222.16791 224.26504
 226.33917 228.43730 230.54842 232.66855 234.81168 236.99781 239.26794 241.65206
 244.28719 246.55232 248.56845 250.34758 251.77870 252.91583 253.75196 254.08209
 254.13322 253.92134 253.29547 252.25760 250.87773 249.05286 246.97598 244.82311
 242.62824 240.44637 238.28050 236.13362 234.00775 231.88888 229.92901 228.10014
 226.39727 224.88339 223.52752 222.31365 221.20978 220.18391 219.30203 218.45716
 217.71329 216.90742 216.01955 215.39767 214.86180 214.60866 214.01056 215.51512
 217.86313 218.94843 219.14784 218.78279 219.06847 221.61752 226.25418 230.08841
 232.90868 235.63290 238.93333 242.88812 246.90025 250.45688 253.66701 256.69324
 259.61179 262.58173 265.56314 268.35754 270.90204 273.15140 275.05219 276.82434
 278.49902 279.87329 281.03726 282.01059 282.80936 283.55038 284.39471 285.25497
 286.04797 286.76965 287.41058 288.25830
 366.78100 356.34822 345.79344 334.67266 323.08888 311.29610 299.17933 286.99555
 274.72077 262.63099 250.65321 239.96743 230.10265 221.21987 213.41509 206.43031
 200.27753 195.22875 191.82398 189.87920 188.92942 189.00664 189.85486 191.17608
 192.91430 195.02252 197.29874 199.67096 202.12918 204.62241 206.72363 208.57885
 210.21807 211.37629 211.61851 211.85973 211.80995 211.52817 211.17439 210.81761
 210.44784 210.17106 209.99228 209.86950 209.81072 210.15494 210.55416 210.95638
 211.76260 212.95382 214.21704 216.01326 217.95449 220.01071 222.11893 224.21515
 226.28837 228.38559 230.49581 232.61503 234.75725 236.94247 239.21169 241.59492
 244.22914 246.49336 248.50858 250.28680 251.71702 252.85324 253.68846 254.01768
 254.06790 253.85512 253.22834 252.18957 250.80879 248.98301 246.90523 244.75145
 242.55567 240.37289 238.20611 236.05833 233.93155 231.81177 229.85100 228.02122
 226.31744 224.80266 223.44588 222.23110 221.12632 220.09954 219.21676 218.37098
 217.62620 216.81943 215.93065 215.30787 214.77109 214.56189 214.06764 215.52521
 217.93349 219.05917 219.17914 218.77373 219.04001 221.56476 226.17621 229.95105
 232.75172 235.50562 238.88391 242.91161 246.94554 250.48543 253.66272 256.68826
 259.61920 262.59515 265.57162 268.35291 270.89377 273.14569 275.05667 276.81924
 278.44241 279.77747 280.89362 281.83649 282.61011 283.29608 284.12643 284.98508
 285.77911 286.50473 287.14130 287.96625
 366.78100 356.34724 345.79149 334.66973 323.08497 311.29122 299.17346 286.98871
 274.71295 262.62219 250.64344 239.95668 230.09092 221.20717 213.40141 206.41566
 200.26190 195.21214 191.80639 189.86063 188.90987 188.98612 189.83336 191.15361
 192.89085 194.99809 197.27334 199.64458 202.10182 204.59407 206.69431 208.54855
 210.18680 211.34404 211.58529 211.82553 211.77477 211.49202 211.13726 210.77950
 210.40875 210.13099 209.95124 209.82748 209.76772 210.11097 210.50921 210.91045
 211.71570 212.90594 214.16819 215.96343 217.90367 219.95892 222.06616 224.16140
 226.23365 228.32989 230.43913 232.55738 234.69862 236.88287 239.15111 241.53335
 244.16660 246.42984 248.44408 250.22133 251.65057 252.78582 253.62006 253.94830
 253.99755 253.78379 253.15603 252.11628 250.73452 248.90777 246.82901 244.67425
 242.47750 240.29374 238.12598 235.97723 233.84947 231.72871 229.76696 227.93620
 226.23145 224.71569 223.35793 222.14218 221.03642 220.00866 219.12491 218.27815
 217.53240 216.72464 215.83488 215.21113 214.67337 214.50774 214.11642 215.53825
 218.00536 219.19740 219.26402 218.74338 218.96184 221.47682 226.08337 229.80763
 232.58052 235.37215 238.83748 242.93770 246.99640 250.51849 253.67458 256.70685
 259.64825 262.62180 265.58405 268.33783 270.86496 273.11813 275.05106 276.80807
 278.36615 279.66272 280.74838 281.67456 282.43390 283.07327 283.90201 284.76062
 285.55795 286.28546 286.92404 287.74988
 366.78100 356.34680 345.79060 334.66840 323.08320 311.28900 299.17080 286.98560
 274.70940 262.61820 250.63900 239.95180 230.08561 221.20141 213.39521 206.40901
 200.25481 195.20461 191.79841 189.85221 188.90101 188.97681 189.82361 191.14341
 192.88021 194.98701 197.26181 199.63261 202.08941 204.58121 206.68101 208.53481
 210.17261 211.32941 211.57021 211.81002 211.75882 211.47562 211.12042 210.76222
 210.39102 210.11282 209.93262 209.80842 209.74822 210.09102 210.48882 210.88962
 211.69442 212.88422 214.14602 215.94082 217.88062 219.93542 222.04222 224.13702
 226.20882 228.30462 230.41343 232.53123 234.67203 236.85583 239.12363 241.50543
 244.13823 246.40103 248.41483 250.19163 251.62043 252.75523 253.58903 253.91683
 253.96563 253.75143 253.12323 252.08303 250.70083 248.87363 246.79443 244.63923
 242.44203 240.25784 238.08964 235.94044 233.81224 231.69104 229.72884 227.89764
 226.19244 224.67624 223.31804 222.10184 220.99564 219.96744 219.08324 218.23604
 217.48984 216.68164 215.79144 215.16724 214.62904 214.48834 214.15588 215.52486
 218.07613 219.34450 219.36121 218.70985 218.87297 221.37856 225.98102 229.65169
 232.39938 235.23759 238.79655 242.96776 247.05309 250.56070 253.70041 256.74667
 259.69888 262.66565 265.60141 268.31561 270.82269 273.08112 275.03098 276.78387
 278.27164 279.51593 280.55899 281.45602 282.20270 282.86505 283.71936 284.58102
 285.38199 286.11279 286.74777 287.57513
 366.78100 356.34601 345.78902 334.66604 323.08005 311.28506 299.16607 286.98009
 274.70310 262.61111 250.63112 239.94314 230.07615 221.19116 213.38417 206.39718
 200.24220 195.19121 191.78422 189.83723 188.88525 188.96026 189.80627 191.12528
 192.86130 194.96731 197.24132 199.61133 202.06734 204.55836 206.65737 208.51038
 210.14739 211.30341 211.54342 211.78243 211.73044 211.44646 211.09047 210.73148
 210.35949 210.08051 209.89952 209.77453 209.71354 210.05555 210.45257 210.85258
 211.65659 212.84560 214.10662 215.90063 217.83964 219.89365 221.99967 224.09368
 226.16469 228.25970 230.36771 232.48473 234.62474 236.80775 239.07476 241.45578
 244.08779 246.34980 248.36281 250.13883 251.56684 252.70085 253.53386 253.86087
 253.90889 253.69390 253.06491 252.02392 250.64094 248.81295 246.73296 244.57697
 242.37899 240.19400 238.02501 235.87502 233.74603 231.62405 229.66106 227.82907
 226.12308 224.60610 223.24711 222.03012 220.92313 219.89415 219.00916 218.16117
 217.41418 216.60519 215.71421 215.08922 214.55023 214.45802 214.24017 215.49535
 218.08888 219.48938 219.48207 218.70271 218.79999 221.28055 225.86479 229.47122
 232.19341 235.08760 238.74844 243.00052 247.11186 250.59544 253.73175 256.79990
 259.75790 262.71832 265.62335 268.29648 270.78577 273.05072 275.01852 276.76102
 278.18228 279.37604 280.38205 281.24786 281.97681 282.64676 283.50879 284.37189
 285.17548 285.91113 286.54208 287.37350
 366.78100 356.34431 345.78563 334.66094 323.07326 311.27657 299.15588 286.96820
 274.68951 262.59583 250.61414 239.92445 230.05577 221.16908 213.36040 206.37171
 200.21502 195.16234 191.75365 189.80497 188.85128 188.92459 189.76891 191.08622
 192.82054 194.92485 197.19716 199.56548 202.01979 204.50911 206.60642 208.45773
 210.09305 211.24736 211.48568 211.72299 211.66930 211.38362 211.02593 210.66525
 210.29156 210.01087 209.82819 209.70150 209.63882 209.97913 210.37444 210.77276
 211.57507 212.76239 214.02170 215.81401 217.75133 219.80364 221.90796 224.00027
 226.06958 228.16290 230.26921 232.38453 234.52284 236.70415 238.96947 241.34878
 243.97910 246.23941 248.25073 250.02504 251.45135 252.58367 253.41498 253.74030
 253.78661 253.56992 252.93924 251.89655 250.51187 248.68218 246.60049 244.44281
 242.24312 240.05644 237.88575 235.73406 233.60338 231.47969 229.51501 227.68132
 225.97363 224.45495 223.09426 221.87558 220.76689 219.73620 218.84952 217.99983
 217.25115 216.44046 215.54777 214.92109 214.38040 214.37570 214.36459 215.52315
 218.01674 219.54863 219.58598 218.72134 218.76022 221.20930 225.76476 229.30606
 232.00847 234.95670 238.71199 243.04002 247.15436 250.63704 253.77211 256.84915
 259.79987 262.75110 265.62039 268.26254 270.74106 273.02072 275.01859 276.76358
 278.15005 279.30695 280.27591 281.10248 281.80139 282.42612 283.28955 284.15253
 284.95953 285.70013 286.32999 287.16449
 366.78100 356.34284 345.78268 334.65651 323.06735 311.26919 299.14703 286.95786
 274.67770 262.58254 250.59938 239.90822 230.03805 221.14989 213.33973 206.34957
 200.19140 195.13724 191.72708 189.77692 188.82175 188.89359 189.73643 191.05227
 192.78511 194.88794 197.15878 199.52562 201.97846 204.46629 206.56213 208.41197
 210.04581 211.19865 211.43548 211.67132 211.61616 211.32900 210.96983 210.60767
 210.23251 209.95035 209.76618 209.63802 209.57386 209.91270 210.30654 210.70337
 211.50421 212.69005 213.94789 215.73872 217.67456 219.72540 221.82824 223.91908
 225.98691 228.07875 230.18359 232.29743 234.43426 236.61410 238.87794 241.25578
 243.88461 246.14345 248.15329 249.92613 251.35097 252.48180 253.31164 253.63548
 253.68032 253.46215 252.82999 251.78583 250.39967 248.56851 246.48534 244.32618
 242.12502 239.93686 237.76469 235.61153 233.47937 231.35421 229.38804 227.55288
 225.84372 224.32356 222.96140 221.74123 220.63107 219.59891 218.71075 217.85958
 217.10942 216.29726 215.40310 214.77494 214.23277 214.29968 214.45773 215.61757
 217.94337 219.51842 219.60973 218.69333 218.69969 221.13562 225.66805 229.15692
 231.84535 234.85904 238.70270 243.12361 247.25766 250.72868 253.86778 256.94226
 259.88794 262.82559 265.66272 268.26657 270.71622 272.98434 274.99454 276.71463
 278.04230 279.15570 280.06393 280.84094 281.51096 282.22864 283.11679 283.98315
 284.78995 285.52689 286.15341 286.98804
 366.78100 356.34213 345.78127 334.65440 323.06453 311.26567 299.14280 286.95293
 274.67207 262.57620 250.59233 239.90047 230.02960 221.14073 213.32987 206.33900
 200.18013 195.12527 191.71440 189.76353 188.80767 188.87880 189.72093 191.03607
 192.76820 194.87033 197.14047 199.50660 201.95873 204.44587 206.54100 208.39013
 210.02327 211.17540 211.41154 211.64667 211.59080 211.30294 210.94307 210.58020
 210.20434 209.92147 209.73660 209.60774 209.54287 209.88100 210.27414 210.67027
 211.47040 212.65554 213.91267 215.70280 217.63794 219.68807 221.79020 223.88034
 225.94747 228.03860 230.14274 232.25587 234.39200 236.57114 238.83427 241.21140
 243.83954 246.09767 248.10680 249.87894 251.30307 252.43320 253.26234 253.58547
 253.62960 253.41074 252.77787 251.73300 250.34614 248.51427 246.43040 244.27054
 242.06867 239.87980 237.70694 235.55307 233.42020 231.29434 229.32747 227.49160
 225.78174 224.26087 222.89800 221.67714 220.56627 219.53340 218.64454 217.79267
 217.04180 216.22894 215.33407 214.70520 214.16234 214.26717 214.51482 215.70517
 217.91458 219.51559 219.67377 218.72176 218.66655 221.06760 225.54918 228.94922
 231.63370 234.71835 238.67151 243.16151 247.30400 250.84225 253.98613 257.05124
 259.98575 262.91257 265.69583 268.25330 270.67490 272.93555 274.94980 276.63904
 277.93970 278.97589 279.85809 280.65955 281.35056 282.00995 282.75278 283.58698
 284.38251 285.11252 285.73502 286.57184
 366.78100 356.34265 345.78231 334.65596 323.06662 311.26827 299.14592 286.95658
 274.67623 262.58088 250.59754 239.90619 230.03585 221.14750 213.33715 206.34681
 200.18846 195.13412 191.72377 189.77342 188.81808 188.88973 189.73238 191.04804
 192.78069 194.88335 197.15400 199.52065 201.97331 204.46096 206.55662 208.40627
 210.03992 211.19258 211.42923 211.66489 211.60954 211.32219 210.96285 210.60050
 210.22515 209.94281 209.75846 209.63012 209.56577 209.90442 210.29808 210.69473
 211.49539 212.68104 213.93869 215.72935 217.66500 219.71565 221.81831 223.90896
 225.97662 228.06827 230.17292 232.28658 234.42323 236.60289 238.86654 241.24419
 243.87285 246.13150 248.14115 249.91381 251.33846 252.46912 253.29877 253.62242
 253.66708 253.44873 252.81639 251.77204 250.38569 248.55435 246.47100 244.31165
 242.11031 239.92196 237.74962 235.59627 233.46392 231.33858 229.37223 227.53689
 225.82754 224.30719 222.94485 221.72450 220.61416 219.58181 218.69346 217.84212
 217.09177 216.27942 215.38508 214.75673 214.21439 214.31212 214.54301 215.70145
 217.94719 219.61810 219.80766 218.75415 218.57466 220.95587 225.42494 228.77292
 231.39719 234.51868 238.60646 243.19612 247.37849 250.87218 253.89944 256.92715
 259.86420 262.81805 265.61459 268.17090 270.59775 272.88950 274.94934 276.68073
 278.03397 279.09888 279.98709 280.77878 281.45557 282.04639 282.67767 283.45398
 284.23282 284.97852 285.67688 286.56686
 366.78100 356.34615 345.78931 334.66646 323.08062 311.28577 299.16693 286.98108
 274.70423 262.61239 250.63254 239.94470 230.07785 221.19300 213.38616 206.39931
 200.24447 195.19362 191.78678 189.83993 188.88808 188.96324 189.80939 191.12855
 192.86470 194.97086 197.24501 199.61516 202.07132 204.56247 206.66163 208.51478
 210.15194 211.30809 211.54824 211.78740 211.73555 211.45171 211.09586 210.73701
 210.36517 210.08632 209.90548 209.78063 209.71979 210.06194 210.45909 210.85925
 211.66340 212.85256 214.11371 215.90787 217.84702 219.90117 222.00733 224.10148
 226.17264 228.26779 230.37595 232.49310 234.63325 236.81641 239.08356 241.46472
 244.09687 246.35902 248.37218 250.14833 251.57649 252.71064 253.54380 253.87095
 253.91910 253.70426 253.07541 252.03457 250.65172 248.82388 246.74403 244.58818
 242.39034 240.20549 238.03665 235.88680 233.75795 231.63611 229.67326 227.84142
 226.13557 224.61873 223.25988 222.04303 220.93619 219.90734 219.02250 218.17465
 217.42781 216.61896 215.72811 215.10327 214.56442 214.53200 214.49190 215.65773
 218.01175 219.53572 219.69102 218.61577 218.42686 220.80020 225.22212 228.69019
 231.21559 234.47314 238.64822 243.21736 247.37222 250.83621 253.88264 256.88760
 259.87149 262.81567 265.60202 268.17731 270.60669 272.89758 274.97385 276.72888
 278.12625 279.22275 280.12018 280.84955 281.42526 282.14117 283.11786 284.15112
 285.10593 285.95618 286.69897 287.64554
 366.78100 356.34556 345.78812 334.66468 323.07823 311.28279 299.16335 286.97691
 274.69947 262.60703 250.62659 239.93814 230.07070 221.18526 213.37782 206.39038
 200.23494 195.18349 191.77605 189.82861 188.87617 188.95073 189.79629 191.11485
 192.85040 194.95596 197.22952 199.59908 202.05464 204.54520 206.64376 208.49631
 210.13287 211.28843 211.52799 211.76655 211.71411 211.42967 211.07322 210.71378
 210.34134 210.06190 209.88046 209.75502 209.69358 210.03513 210.43169 210.83125
 211.63481 212.82337 214.08393 215.87748 217.81604 219.86960 221.97516 224.06872
 226.13928 228.23384 230.34139 232.45795 234.59751 236.78007 239.04663 241.42719
 244.05875 246.32030 248.33286 250.10842 251.53598 252.66954 253.50210 253.82866
 253.87621 253.66077 253.03133 251.98989 250.60645 248.77801 246.69756 244.54112
 242.34268 240.15724 237.98780 235.83736 233.70792 231.58547 229.62203 227.78959
 226.08315 224.56571 223.20627 221.98883 220.88138 219.85194 218.96650 218.11806
 217.37062 216.56118 215.66974 215.04429 214.50485 214.53838 214.66499 215.60896
 217.79411 219.40495 219.57898 218.64386 218.62793 220.90079 225.13841 228.65070
 231.19597 234.51878 238.72218 243.30296 247.46153 250.88884 253.92336 256.92001
 259.92532 262.88177 265.67734 268.23273 270.62839 272.90643 274.97897 276.77927
 278.16519 279.20142 279.83969 280.23047 281.10910 282.20966 283.25140 284.19516
 285.04398 285.79984 286.46014 287.30161
 366.78100 356.33875 345.77450 334.64425 323.05099 311.24874 299.12249 286.92924
 274.64499 262.54574 250.55849 239.86324 229.98898 221.09673 213.28248 206.28823
 200.12598 195.06773 191.65348 189.69922 188.73997 188.80772 189.64647 190.95822
 192.68697 194.78572 197.05247 199.41521 201.86396 204.34771 206.43946 208.28521
 209.91496 211.06371 211.29646 211.52820 211.46895 211.17770 210.81445 210.44820
 210.06895 209.78270 209.59444 209.46219 209.39394 209.72869 210.11844 210.51119
 211.30794 212.48969 213.74343 215.53018 217.46193 219.50868 221.60743 223.69418
 225.75793 227.84567 229.94642 232.05617 234.18892 236.36467 238.62442 240.99817
 243.62292 245.87766 247.88341 249.65216 251.07291 252.19966 253.02541 253.34516
 253.38590 253.16365 252.52740 251.47915 250.08890 248.25365 246.16640 244.00315
 241.79789 239.60564 237.42939 235.27214 233.13589 231.00664 229.03639 227.19713
 225.48388 223.95963 222.59338 221.36913 220.25488 219.21863 218.32638 217.47112
 216.71687 215.90062 215.00237 214.37012 213.82387 214.18375 215.03745 215.78506
 217.10626 218.95482 219.61124 218.80676 218.70705 220.98308 225.30078 228.73883
 231.23924 234.54016 238.77196 243.40121 247.54878 250.98088 254.00874 257.00360
 259.99045 262.91483 265.66891 268.18921 270.56653 272.83539 274.89783 276.63461
 277.96066 278.92609 279.62857 280.26834 280.97116 281.88669 282.87070 283.78873
 284.61444 285.34970 285.99203 286.81061
 366.78100 356.33648 345.76996 334.63744 323.04192 311.23740 299.10888 286.91336
 274.62684 262.52532 250.53580 239.83828 229.96176 221.06724 213.25072 206.25420
 200.08968 195.02917 191.61265 189.65613 188.69461 188.76009 189.59657 190.90605
 192.63253 194.72901 196.99349 199.35397 201.80045 204.28193 206.37141 208.21489
 209.84237 210.98885 211.21933 211.44881 211.38729 211.09377 210.72825 210.35973
 209.97821 209.68969 209.49917 209.36465 209.29413 209.62661 210.01409 210.40457
 211.19905 212.37854 213.63002 215.41450 217.34398 219.38846 221.48494 223.56942
 225.63090 227.71638 229.81486 231.92234 234.05282 236.22630 238.48378 240.85526
 243.47774 245.73022 247.73370 249.50018 250.91866 252.04314 252.86662 253.18410
 253.22258 252.99806 252.35954 251.30902 249.91650 248.07898 245.98946 243.82394
 241.61642 239.42190 237.24339 235.08387 232.94535 230.81383 228.84131 226.99979
 225.28427 223.75775 222.38923 221.16271 220.04619 219.00767 218.11315 217.25563
 216.49911 215.68059 214.78007 214.14555 213.59703 214.05428 215.13454 216.09062
 217.10164 218.81952 219.51457 218.81654 218.78375 221.03065 225.29361 228.51053
 231.11397 234.44725 238.75835 243.38190 247.49438 250.97888 254.12128 257.14069
 260.16663 263.07562 265.78513 268.18600 270.45612 272.61942 274.61453 276.32413
 277.64685 278.67261 279.55536 280.37555 281.18463 281.91928 282.51483 283.06949
 283.71109 284.35519 284.89682 285.58707
 366.78100 356.33808 345.77317 334.64225 323.04833 311.24542 299.11850 286.92458
 274.63967 262.53975 250.55184 239.85592 229.98100 221.08809 213.27317 206.27825
 200.11534 195.05642 191.64150 189.68659 188.72667 188.79375 189.63184 190.94292
 192.67101 194.76909 197.03517 199.39726 201.84534 204.32842 206.41951 208.26459
 209.89367 211.04176 211.27384 211.50492 211.44501 211.15309 210.78917 210.42226
 210.04234 209.75543 209.56651 209.43359 209.36468 209.69876 210.08784 210.47993
 211.27601 212.45709 213.71018 215.49626 217.42734 219.47343 221.57151 223.65760
 225.72068 227.80776 229.90785 232.01693 234.14901 236.32410 238.58318 240.95626
 243.58035 245.83443 247.83951 249.60760 251.02768 252.15376 252.97885 253.29793
 253.33802 253.11510 252.47818 251.42927 250.03835 248.20243 246.11452 243.95060
 241.74468 239.55177 237.37485 235.21693 233.08002 230.95010 228.97919 227.13927
 225.42535 223.90044 222.53352 221.30860 220.19369 219.15677 218.26385 217.40794
 216.65302 215.83610 214.93719 214.30427 213.75735 214.16524 215.12889 216.02055
 217.18073 218.98871 219.71942 218.91121 218.65646 220.86134 225.09935 228.13904
 230.75134 234.25655 238.73248 243.34048 247.34628 250.81717 254.10236 257.26477
 260.25452 263.15604 265.86346 268.25186 270.41208 272.53146 274.43930 276.05341
 277.36581 278.41495 279.29929 280.16504 281.16461 281.82932 282.25937 282.81281
 283.44537 284.05920 284.59995 285.28903
 366.78100 356.33850 345.77399 334.64349 323.04999 311.24748 299.12098 286.92748
 274.64297 262.54347 250.55597 239.86046 229.98596 221.09346 213.27895 206.28445
 200.12195 195.06344 191.64894 189.69444 188.73494 188.80243 189.64093 190.95243
 192.68092 194.77942 197.04592 199.40841 201.85691 204.34041 206.43190 208.27740
 209.90690 211.05539 211.28789 211.51939 211.45988 211.16838 210.80488 210.43837
 210.05887 209.77237 209.58386 209.45136 209.38286 209.71735 210.10685 210.49935
 211.29584 212.47734 213.73084 215.51733 217.44883 219.49533 221.59382 223.68032
 225.74382 227.83132 229.93181 232.04131 234.17381 236.34930 238.60880 240.98230
 243.60679 245.86129 247.86679 249.63528 251.05578 252.18228 253.00777 253.32727
 253.36777 253.14526 252.50876 251.46026 250.06975 248.23425 246.14675 243.98324
 241.77774 239.58524 237.40873 235.25123 233.11473 230.98522 229.01472 227.17522
 225.46171 223.93721 222.57071 221.34620 220.23170 219.19520 218.30270 217.44719
 216.69269 215.87619 214.97768 214.34518 213.79868 214.22208 215.22240 216.00836
 216.89536 218.77376 219.90099 219.27910 218.78596 220.84346 225.00826 228.00702
 230.62814 234.16310 238.72693 243.33902 247.31506 250.82283 254.17815 257.37567
 260.30472 263.19370 265.88245 268.28119 270.47299 272.54202 274.38358 275.95178
 277.21552 278.22394 279.10440 280.17285 281.06970 281.59985 282.13235 282.71173
 283.30545 283.94507 284.50385 285.21591
 366.78100 356.33903 345.77506 334.64509 323.05212 311.25015 299.12418 286.93121
 274.64724 262.54827 250.56130 239.86633 229.99236 221.10039 213.28642 206.29245
 200.13048 195.07251 191.65854 189.70457 188.74560 188.81363 189.65266 190.96469
 192.69372 194.79275 197.05978 199.42281 201.87184 204.35587 206.44790 208.29393
 209.92396 211.07299 211.30602 211.53805 211.47908 211.18811 210.82514 210.45917
 210.08020 209.79423 209.60626 209.47429 209.40632 209.74135 210.13138 210.52441
 211.32144 212.50346 213.75749 215.54452 217.47655 219.52358 221.62261 223.70964
 225.77367 227.86170 229.96273 232.07276 234.20579 236.38182 238.64185 241.01588
 243.64091 245.89594 247.90197 249.67100 251.09203 252.21906 253.04509 253.36512
 253.40615 253.18418 252.54821 251.50024 250.11027 248.27530 246.18833 244.02536
 241.82039 239.62842 237.45245 235.29548 233.15951 231.03054 229.06057 227.22160
 225.50863 223.98466 222.61869 221.39472 220.28075 219.24478 218.35281 217.49784
 216.74387 215.92790 215.02993 214.39796 213.85199 214.28070 215.29376 216.07153
 216.86140 218.57561 219.89449 219.40121 218.79839 220.83669 225.01270 227.82967
 230.35359 234.10655 238.82550 243.40530 247.29320 250.76572 254.17233 257.43655
 260.37814 263.23633 265.94351 268.37097 270.55743 272.56351 274.28101 275.77341
 277.03806 278.11368 279.05453 280.02402 280.77319 281.39954 281.98358 282.48584
 283.10843 283.75558 284.32092 285.04138
 366.78100 356.34067 345.77834 334.65001 323.05867 311.25834 299.13401 286.94268
 274.66035 262.56302 250.57768 239.88435 230.01202 221.12169 213.30936 206.31703
 200.15669 195.10036 191.68803 189.73570 188.77837 188.84804 189.68870 191.00237
 192.73304 194.83371 197.10238 199.46705 201.91771 204.40338 206.49705 208.34472
 209.97639 211.12706 211.36173 211.59539 211.53806 211.24873 210.88740 210.52307
 210.14574 209.86140 209.67507 209.54474 209.47841 209.81508 210.20675 210.60141
 211.40008 212.58375 213.83942 215.62809 217.56176 219.61042 221.71109 223.79976
 225.86543 227.95510 230.05777 232.16943 234.30410 236.48177 238.74344 241.11911
 243.74578 246.00245 248.01011 249.78078 251.20345 252.33212 253.15979 253.48146
 253.52412 253.30379 252.66946 251.62313 250.23480 248.40147 246.31613 244.15480
 241.95147 239.76114 237.58681 235.43148 233.29714 231.16981 229.20148 227.36415
 225.65282 224.13049 222.76615 221.54382 220.43149 219.39716 218.50683 217.65350
 216.90117 216.08683 215.19050 214.56017 214.01584 214.42050 215.37347 216.05673
 216.96062 218.51901 219.68910 219.33116 219.10577 220.90187 224.69533 227.84505
 230.41985 234.16142 238.74927 243.27928 247.23764 250.77319 254.23245 257.42261
 260.36624 263.17587 265.82324 268.25421 270.51700 272.52893 274.22772 275.70953
 277.00830 278.10904 279.04224 279.94339 280.63403 281.16226 281.64417 282.08075
 282.47342 282.82306 283.12854 283.51779
 366.78100 356.34104 345.77909 334.65113 323.06018 311.26022 299.13626 286.94531
 274.66335 262.56640 250.58144 239.88848 230.01653 221.12657 213.31462 206.32266
 200.16270 195.10675 191.69479 189.74284 188.78588 188.85593 189.69697 191.01101
 192.74206 194.84310 197.11215 199.47719 201.92823 204.41428 206.50832 208.35637
 209.98841 211.13945 211.37450 211.60854 211.55159 211.26263 210.90167 210.53772
 210.16076 209.87681 209.69085 209.56089 209.49494 209.83198 210.22403 210.61907
 211.41811 212.60216 213.85820 215.64725 217.58129 219.63034 221.73138 223.82042
 225.88647 227.97651 230.07956 232.19160 234.32664 236.50469 238.76673 241.14278
 243.76982 246.02686 248.03491 249.80595 251.22900 252.35804 253.18608 253.50813
 253.55117 253.33122 252.69726 251.65130 250.26335 248.43039 246.34544 244.18448
 241.98152 239.79157 237.61761 235.46266 233.32870 231.20174 229.23379 227.39683
 225.68588 224.16392 222.79997 221.57801 220.46605 219.43210 218.54214 217.68919
 216.93723 216.12327 215.22732 214.59736 214.05341 214.50148 215.52112 216.04935
 216.83099 218.62189 219.75188 219.29437 219.09828 220.98376 224.90073 227.85384
 230.59763 234.35880 238.83362 243.25037 247.18608 250.83385 254.28003 257.46518
 260.45117 263.27472 265.93176 268.39816 270.62836 272.57227 274.27341 275.86096
 277.18588 278.30438 279.27228 280.12216 280.85767 281.50839 282.10208 282.63992
 283.12366 283.55444 283.93073 284.41031
 366.78100 356.33816 345.77332 334.64248 323.04863 311.24579 299.11895 286.92511
 274.64027 262.54043 250.55259 239.85674 229.98190 221.08906 213.27422 206.27938
 200.11654 195.05770 191.64286 189.68801 188.72817 188.79533 189.63349 190.94465
 192.67281 194.77097 197.03712 199.39928 201.84744 204.33060 206.42176 208.26692
 209.89608 211.04423 211.27639 211.50755 211.44771 211.15587 210.79203 210.42519
 210.04534 209.75850 209.56966 209.43682 209.36798 209.70214 210.09130 210.48346
 211.27961 212.46077 213.71393 215.50009 217.43125 219.47741 221.57557 223.66172
 225.72488 227.81204 229.91220 232.02136 234.15352 236.32868 238.58783 240.96099
 243.58515 245.83931 247.84447 249.61263 251.03279 252.15894 252.98410 253.30326
 253.34342 253.12058 252.48374 251.43490 250.04406 248.20821 246.12037 243.95653
 241.75069 239.55785 237.38101 235.22317 233.08632 230.95648 228.98564 227.14580
 225.43196 223.90712 222.54028 221.31543 220.20059 219.16375 218.27091 217.41507
 216.66023 215.84339 214.94454 214.31170 213.76486 214.40594 215.77548 216.02190
 216.37561 218.40878 219.81444 219.37668 219.31808 221.10646 224.95750 227.97977
 230.65128 234.40260 238.93411 243.34937 247.24864 250.87076 254.29391 257.50937
 260.55728 263.43292 266.12695 268.56940 270.71078 272.68741 274.29086 275.60080
 276.63455 277.52063 278.28738 278.96066 279.54330 280.05881 280.52911 280.95520
 281.33841 281.67966 281.97775 282.35767
 366.78100 356.33541 345.76783 334.63424 323.03766 311.23207 299.10249 286.90590
 274.61832 262.51573 250.52514 239.82656 229.94897 221.05339 213.23580 206.23822
 200.07263 195.01105 191.59346 189.63588 188.67329 188.73770 189.57312 190.88153
 192.60695 194.70236 196.96578 199.32519 201.77061 204.25102 206.33943 208.18185
 209.80826 210.95368 211.18309 211.41151 211.34892 211.05434 210.68775 210.31816
 209.93558 209.64599 209.45441 209.31882 209.24724 209.57865 209.96507 210.35448
 211.14790 212.32631 213.57672 215.36014 217.28855 219.33197 221.42738 223.51080
 225.57121 227.65563 229.75304 231.85945 233.98887 236.16128 238.41770 240.78811
 243.40953 245.66094 247.66336 249.42877 250.84618 251.96960 252.79201 253.10843
 253.14584 252.92026 252.28067 251.22909 249.83550 247.99691 245.90633 243.73974
 241.53116 239.33557 237.15599 234.99540 232.85582 230.72323 228.74965 226.90706
 225.19047 223.66289 222.29330 221.06572 219.94813 218.90855 218.01296 217.15438
 216.39679 215.57720 214.67562 214.04003 213.49045 214.31110 215.97983 216.08328
 216.08575 218.05176 219.67128 219.33176 219.28162 221.14819 224.93683 227.98265
 230.58678 234.38454 238.93523 243.31210 247.20868 250.83115 254.28278 257.56378
 260.64468 263.54156 266.27542 268.70590 270.80801 272.70981 273.93127 274.62570
 275.22842 275.74506 276.19214 276.58469 276.92441 277.22498 277.49921 277.74762
 277.97107 278.17001 278.34384 278.56534
 366.78100 356.33679 345.77058 334.63837 323.04316 311.23895 299.11075 286.91554
 274.62933 262.52812 250.53891 239.84170 229.96549 221.07128 213.25507 206.25886
 200.09466 195.03445 191.61824 189.66203 188.70082 188.76661 189.60340 190.91319
 192.63998 194.73677 197.00157 199.36236 201.80915 204.29094 206.38073 208.22452
 209.85231 210.99910 211.22989 211.45968 211.39848 211.10527 210.74006 210.37185
 209.99064 209.70243 209.51222 209.37801 209.30780 209.64059 210.02838 210.41918
 211.21397 212.39376 213.64555 215.43034 217.36013 219.40492 221.50171 223.58650
 225.64829 227.73409 229.83288 231.94067 234.07146 236.24525 238.50304 240.87483
 243.49762 245.75041 247.75420 249.52100 250.93979 252.06458 252.88837 253.20616
 253.24495 253.02074 252.38253 251.33232 249.94011 248.10291 246.01370 243.84849
 241.64128 239.44707 237.26886 235.10965 232.97144 230.84023 228.86802 227.02681
 225.31161 223.78540 222.41719 221.19098 220.07477 219.03656 218.14235 217.28514
 216.52893 215.71072 214.81052 214.17631 213.62810 214.40251 216.00639 216.21037
 216.00368 217.67915 219.56827 219.42902 219.36443 221.16245 224.94620 227.97116
 230.52025 234.36844 238.95039 243.30530 247.19315 250.82161 254.30988 257.63379
 260.74216 263.66833 266.44070 268.87344 270.96518 272.79526 273.74796 274.18066
 274.55624 274.87817 275.15674 275.40134 275.61304 275.80032 275.97119 276.12598
 276.26520 276.38919 276.49750 276.63553
 366.78100 356.33820 345.77339 334.64259 323.04879 311.24599 299.11918 286.92538
 274.64058 262.54078 250.55297 239.85717 229.98237 221.08956 213.27476 206.27996
 200.11716 195.05835 191.64355 189.68875 188.72894 188.79614 189.63434 190.94554
 192.67373 194.77193 197.03813 199.40033 201.84852 204.33172 206.42292 208.26811
 209.89731 211.04551 211.27771 211.50890 211.44910 211.15730 210.79349 210.42669
 210.04689 209.76009 209.57128 209.43848 209.36968 209.70388 210.09307 210.48527
 211.28147 212.46266 213.71586 215.50206 217.43326 219.47945 221.57765 223.66385
 225.72704 227.81424 229.91444 232.02364 234.15583 236.33103 238.59023 240.96343
 243.58762 245.84182 247.84702 249.61521 251.03541 252.16161 252.98681 253.30600
 253.34620 253.12340 252.48659 251.43779 250.04699 248.21119 246.12338 243.95958
 241.75378 239.56098 237.38417 235.22637 233.08957 230.95976 228.98896 227.14916
 225.43536 223.91055 222.54375 221.31895 220.20414 219.16734 218.27454 217.41874
 216.66393 215.84713 214.94833 214.31553 213.76872 214.50053 216.04692 216.23674
 216.03804 217.57195 219.43112 219.38831 219.34802 221.10771 224.92145 227.94473
 230.54552 234.39641 238.99004 243.32018 247.18837 250.81406 254.33195 257.69028
 260.81723 263.75134 266.50470 268.93692 271.03067 272.82913 273.81683 274.60684
 275.26215 275.82385 276.30994 276.73676 277.10611 277.43289 277.73105 278.00116
 278.24408 278.46042 278.64938 278.89023
 366.78100 356.33831 345.77361 334.64292 323.04922 311.24653 299.11984 286.92614
 274.64145 262.54175 250.55406 239.85836 229.98367 221.09098 213.27628 206.28159
 200.11889 195.06020 191.64551 189.69081 188.73112 188.79842 189.63673 190.94803
 192.67634 194.77465 197.04095 199.40326 201.85156 204.33487 206.42618 208.27148
 209.90079 211.04909 211.28140 211.51271 211.45301 211.16132 210.79762 210.43093
 210.05123 209.76454 209.57585 209.44315 209.37446 209.70876 210.09807 210.49038
 211.28668 212.46799 213.72129 215.50760 217.43891 219.48521 221.58352 223.66982
 225.73313 227.82043 229.92074 232.03005 234.16235 236.33766 238.59696 240.97027
 243.59458 245.84888 247.85419 249.62249 251.04280 252.16910 252.99441 253.31372
 253.35402 253.13133 252.49463 251.44594 250.05525 248.21955 246.13186 243.96816
 241.76247 239.56978 237.39308 235.23539 233.09869 230.96900 228.99830 227.15861
 225.44492 223.92022 222.55353 221.32883 220.21414 219.17745 218.28475 217.42906
 216.67436 215.85767 214.95898 214.32628 213.77959 214.53532 216.16028 216.21863
 215.80705 217.48056 219.29486 219.27525 219.28987 221.05690 224.83282 227.88123
 230.47833 234.43419 239.03302 243.35416 247.23323 250.87344 254.39920 257.78668
 260.93094 263.85361 266.57834 268.96371 271.03043 272.84882 273.79990 274.97253
 275.99051 276.86307 277.61813 278.28113 278.85489 279.36255 279.82568 280.24527
 280.62262 280.95865 281.25223 281.62631
 366.78100 356.34173 345.78045 334.65318 323.06291 311.26363 299.14036 286.95009
 274.66881 262.57254 250.58827 239.89599 230.02472 221.13545 213.32417 206.33290
 200.17363 195.11835 191.70708 189.75581 188.79953 188.87026 189.71198 191.02671
 192.75844 194.86016 197.12989 199.49562 201.94734 204.43407 206.52880 208.37752
 210.01025 211.16198 211.39770 211.63243 211.57616 211.28788 210.92761 210.56434
 210.18806 209.90479 209.71952 209.59024 209.52497 209.86270 210.25542 210.65115
 211.45088 212.63560 213.89233 215.68206 217.61678 219.66651 221.76824 223.85796
 225.92469 228.01542 230.11914 232.23187 234.36759 236.54632 238.80905 241.18577
 243.81350 246.07123 248.07995 249.85168 251.27541 252.40513 253.23386 253.55659
 253.60031 253.38104 252.74777 251.70249 250.31522 248.48295 246.39867 244.23840
 242.03613 239.84685 237.67358 235.51931 233.38603 231.25976 229.29249 227.45621
 225.74594 224.22467 222.86139 221.64012 220.52885 219.49557 218.60630 217.75403
 217.00275 216.18948 215.29421 214.66493 214.12166 214.70615 216.12363 216.42720
 215.67111 217.07524 218.98041 219.15350 219.33290 221.13995 224.93768 228.03452
 230.69603 234.57649 239.16336 243.48863 247.36423 250.98270 254.49849 257.89246
 261.03384 263.95285 266.67520 269.07748 271.17773 272.95288 273.97012 275.78937
 277.85559 279.62665 281.15924 282.50494 283.66953 284.69989 285.63995 286.49158
 287.25754 287.93961 288.53546 289.29480
 366.78100 356.34364 345.78427 334.65891 323.07054 311.27318 299.15181 286.96345
 274.68408 262.58972 250.60736 239.91699 230.04763 221.16026 213.35090 206.36153
 200.20417 195.15081 191.74144 189.79208 188.83771 188.91035 189.75398 191.07062
 192.80425 194.90789 197.17953 199.54716 202.00080 204.48943 206.58607 208.43670
 210.07134 211.22498 211.46261 211.69925 211.64488 211.35852 211.00015 210.63879
 210.26442 209.98306 209.79970 209.67233 209.60897 209.94860 210.34324 210.74087
 211.54251 212.72914 213.98778 215.77942 217.71605 219.76769 221.87132 223.96296
 226.03159 228.12423 230.22987 232.34450 234.48214 236.66277 238.92741 241.30604
 243.93568 246.19531 248.20595 249.97959 251.40522 252.53686 253.36749 253.69213
 253.73776 253.52040 252.88904 251.84567 250.46031 248.62994 246.54758 244.38921
 242.18885 240.00148 237.83012 235.67776 233.54639 231.42203 229.45666 227.62230
 225.91393 224.39457 223.03320 221.81384 220.70448 219.67311 218.78575 217.93538
 217.18602 216.37465 215.48129 214.85393 214.31256 214.82338 216.08572 216.60423
 215.87045 216.76363 218.43971 218.79428 219.16827 221.15564 224.94284 228.13860
 230.87436 234.68474 239.18491 243.51727 247.41597 251.02419 254.53441 257.91095
 261.05048 263.95621 266.65265 269.04224 271.11719 272.92007 274.31735 275.98898
 278.26508 280.27057 282.00598 283.52979 284.84854 286.01526 287.07974 288.04410
 288.91141 289.68375 290.35846 291.21832
 366.78100 356.34238 345.78175 334.65513 323.06550 311.26688 299.14426 286.95463
 274.67401 262.57838 250.59476 239.90314 230.03251 221.14389 213.33326 206.34264
 200.18402 195.12939 191.71877 189.76814 188.81252 188.88390 189.72627 191.04165
 192.77402 194.87640 197.14678 199.51315 201.96553 204.45290 206.54828 208.39766
 210.03103 211.18341 211.41978 211.65516 211.59954 211.31191 210.95229 210.58966
 210.21404 209.93142 209.74679 209.61817 209.55354 209.89192 210.28530 210.68167
 211.48205 212.66742 213.92480 215.71518 217.65055 219.70093 221.80330 223.89368
 225.96106 228.05243 230.15681 232.27018 234.40656 236.58594 238.84931 241.22669
 243.85506 246.11344 248.12282 249.89519 251.31957 252.44994 253.27932 253.60270
 253.64707 253.42845 252.79582 251.75120 250.36458 248.53295 246.44933 244.28970
 242.08808 239.89946 237.72683 235.57321 233.44058 231.31496 229.34834 227.51271
 225.80309 224.28246 222.91984 221.69922 220.58859 219.55597 218.66734 217.81572
 217.06510 216.25247 215.35785 214.72922 214.18660 214.80070 216.19087 216.55682
 215.91568 216.68477 218.28609 218.59143 218.99547 221.09651 224.86482 228.06848
 230.83873 234.69147 239.20236 243.52650 247.43951 251.08426 254.62027 258.00522
 261.13434 264.02838 266.70667 269.07425 271.13135 272.93185 274.37161 276.27057
 278.51617 280.52386 282.26117 283.78668 285.10687 286.27490 287.34055 288.30594
 289.17419 289.94742 290.62286 291.48364
 366.78100 356.34132 345.77963 334.65195 323.06126 311.26158 299.13789 286.94721
 274.66552 262.56884 250.58416 239.89147 230.01979 221.13010 213.31842 206.32673
 200.16705 195.11136 191.69968 189.74799 188.79131 188.86163 189.70294 191.01726
 192.74857 194.84989 197.11920 199.48452 201.93583 204.42215 206.51647 208.36478
 209.99710 211.14841 211.38373 211.61804 211.56136 211.27267 210.91199 210.54830
 210.17162 209.88794 209.70225 209.57257 209.50688 209.84420 210.23651 210.63183
 211.43114 212.61546 213.87178 215.66109 217.59541 219.64472 221.74604 223.83535
 225.90167 227.99198 230.09530 232.20762 234.34293 236.52125 238.78356 241.15988
 243.78719 246.04451 248.05282 249.82414 251.24745 252.37677 253.20509 253.52740
 253.57072 253.35103 252.71735 251.67166 250.28398 248.45129 246.36661 244.20593
 242.00324 239.81356 237.63987 235.48519 233.35150 231.22482 229.25713 227.42045
 225.70977 224.18808 222.82440 221.60271 220.49103 219.45734 218.56766 217.71497
 216.96329 216.14960 215.25392 214.62424 214.08055 214.76849 216.29327 216.55798
 215.87436 216.49030 217.99312 218.40736 218.97894 221.28880 224.85260 228.13907
 230.90808 234.74179 239.25336 243.58980 247.52435 251.19810 254.73102 258.10532
 261.22766 264.11850 266.80722 269.18814 271.27133 273.05762 274.68484 276.36737
 277.89847 279.79941 281.47714 282.95035 284.22525 285.35321 286.38232 287.31461
 288.15311 288.89978 289.55209 290.38336
 366.78100 356.34197 345.78094 334.65390 323.06387 311.26484 299.14181 286.95177
 274.67074 262.57471 250.59068 239.89865 230.02761 221.13858 213.32755 206.33652
 200.17749 195.12245 191.71142 189.76039 188.80436 188.87532 189.71729 191.03226
 192.76423 194.86620 197.13616 199.50213 201.95410 204.44107 206.53603 208.38500
 210.01797 211.16994 211.40591 211.64087 211.58484 211.29681 210.93678 210.57375
 210.19771 209.91468 209.72965 209.60062 209.53558 209.87355 210.26652 210.66249
 211.46246 212.64742 213.90439 215.69436 217.62933 219.67929 221.78126 223.87123
 225.93820 228.02917 230.13313 232.24610 234.38207 236.56104 238.82401 241.20097
 243.82894 246.08691 248.09588 249.86784 251.29181 252.42178 253.25075 253.57372
 253.61768 253.39865 252.76562 251.72059 250.33355 248.50152 246.41749 244.25746
 242.05543 239.86639 237.69336 235.53933 233.40630 231.28027 229.31323 227.47720
 225.76717 224.24614 222.88310 221.66207 220.55104 219.51801 218.62898 217.77694
 217.02591 216.21288 215.31785 214.68881 214.14578 214.81000 216.31100 216.66682
 215.91582 216.29832 217.69760 218.15662 218.88478 221.25906 224.75824 228.11732
 230.86707 234.76334 239.31895 243.65759 247.59186 251.27188 254.80424 258.15906
 261.26239 264.13794 266.81921 269.21729 271.32001 273.14392 274.89746 276.51294
 277.60281 279.24628 280.96869 282.48111 283.78995 284.94797 286.00446 286.96158
 287.82239 288.58896 289.25861 290.11203
 366.78100 356.34234 345.78169 334.65503 323.06537 311.26672 299.14406 286.95440
 274.67375 262.57809 250.59443 239.90278 230.03212 221.14347 213.33281 206.34215
 200.18350 195.12884 191.71818 189.76753 188.81187 188.88321 189.72556 191.04090
 192.77324 194.87559 197.14593 199.51227 201.96462 204.45196 206.54730 208.39665
 210.02999 211.18234 211.41868 211.65402 211.59837 211.31071 210.95105 210.58840
 210.21274 209.93008 209.74543 209.61677 209.55211 209.89046 210.28380 210.68014
 211.48049 212.66583 213.92317 215.71352 217.64886 219.69921 221.80155 223.89189
 225.95924 228.05058 230.15492 232.26827 234.40461 236.58395 238.84730 241.22464
 243.85298 246.11133 248.12067 249.89301 251.31736 252.44770 253.27704 253.60039
 253.64473 253.42608 252.79342 251.74876 250.36211 248.53045 246.44679 244.28714
 242.08548 239.89682 237.72417 235.57051 233.43785 231.31220 229.34554 227.50988
 225.80023 224.27957 222.91691 221.69626 220.58560 219.55295 218.66429 217.81263
 217.06198 216.24932 215.35466 214.72601 214.18335 214.84900 216.33623 216.64812
 215.96150 216.29863 217.61369 218.00317 218.67955 221.11237 224.65373 227.98869
 230.85973 234.81442 239.35928 243.70268 247.66652 251.37451 254.92291 258.26620
 261.33844 264.18646 266.84070 269.22552 271.33063 273.27231 275.02542 276.57745
 277.56158 279.34909 281.09998 282.63739 283.96790 285.14505 286.21899 287.19196
 288.06702 288.84625 289.52698 290.39447
 366.78100 356.34217 345.78134 334.65451 323.06468 311.26585 299.14301 286.95318
 274.67235 262.57652 250.59269 239.90086 230.03003 221.14120 213.33037 206.33954
 200.18071 195.12587 191.71504 189.76421 188.80838 188.87955 189.72172 191.03689
 192.76906 194.87123 197.14140 199.50757 201.95973 204.44690 206.54207 208.39124
 210.02441 211.17658 211.41275 211.64792 211.59209 211.30426 210.94443 210.58159
 210.20576 209.92293 209.73810 209.60927 209.54444 209.88261 210.27578 210.67195
 211.47212 212.65729 213.91445 215.70462 217.63979 219.68996 221.79213 223.88230
 225.94947 228.04064 230.14481 232.25798 234.39415 236.57331 238.83648 241.21365
 243.84182 246.09999 248.10916 249.88133 251.30550 252.43567 253.26484 253.58801
 253.63217 253.41334 252.78051 251.73568 250.34885 248.51702 246.43319 244.27336
 242.07153 239.88270 237.70987 235.55603 233.42320 231.29737 229.33054 227.49471
 225.78488 224.26405 222.90122 221.68039 220.56956 219.53673 218.64789 217.79606
 217.04523 216.23240 215.33757 214.70874 214.16591 214.85448 216.37700 216.62610
 215.94215 216.25064 217.50060 217.85025 218.56071 221.04306 224.64354 228.00240
 230.88794 234.87701 239.44405 243.79964 247.78122 251.50294 255.05241 258.37329
 261.41205 264.24841 266.90613 269.30060 271.44131 273.43408 275.32004 276.85767
 277.73938 279.57074 281.33289 282.88016 284.21921 285.40390 286.48477 287.46396
 288.34464 289.12888 289.81400 290.68707
 366.78100 356.34251 345.78203 334.65554 323.06606 311.26757 299.14509 286.95560
 274.67512 262.57963 250.59615 239.90466 230.03417 221.14569 213.33520 206.34472
 200.18623 195.13175 191.72126 189.77078 188.81529 188.88681 189.72932 191.04483
 192.77735 194.87986 197.15038 199.51689 201.96941 204.45692 206.55244 208.40195
 210.03547 211.18798 211.42449 211.66001 211.60452 211.31704 210.95755 210.59507
 210.21958 209.93710 209.75261 209.62413 209.55964 209.89815 210.29167 210.68818
 211.48870 212.67421 213.93173 215.72224 217.65776 219.70827 221.81079 223.90130
 225.96881 228.06033 230.16484 232.27836 234.41487 236.59439 238.85790 241.23542
 243.86393 246.12245 248.13196 249.90447 251.32899 252.45950 253.28902 253.61253
 253.65705 253.43856 252.80608 251.76159 250.37511 248.54362 246.46013 244.30065
 242.09916 239.91068 237.73819 235.58471 233.45222 231.32674 229.36025 227.52477
 225.81528 224.29479 222.93231 221.71182 220.60134 219.56885 218.68037 217.82888
 217.07840 216.26591 215.37143 214.74294 214.20045 214.87148 216.38190 216.71544
 216.01422 216.11816 217.15009 217.58858 218.48065 220.99146 224.62311 228.02698
 230.85907 234.91231 239.53557 243.89038 247.86916 251.57707 255.09296 258.37534
 261.40894 264.24146 266.90594 269.32126 271.51529 273.57858 275.48224 277.03601
 278.15250 279.55615 281.20187 282.70911 284.01352 285.16757 286.22046 287.17432
 288.03220 288.79617 289.46353 290.31403
 366.78100 356.34299 345.78297 334.65696 323.06795 311.26994 299.14792 286.95891
 274.67890 262.58389 250.60087 239.90986 230.03985 221.15183 213.34182 206.35181
 200.19380 195.13978 191.72977 189.77976 188.82475 188.89673 189.73972 191.05571
 192.78869 194.89168 197.16267 199.52966 201.98264 204.47063 206.56662 208.41661
 210.05059 211.20358 211.44057 211.67655 211.62154 211.33453 210.97552 210.61350
 210.23849 209.95648 209.77247 209.64445 209.58044 209.91943 210.31341 210.71040
 211.51139 212.69738 213.95536 215.74635 217.68234 219.73333 221.83631 223.92730
 225.99529 228.08727 230.19226 232.30625 234.44324 236.62322 238.88721 241.26520
 243.89418 246.15317 248.16316 249.93615 251.36113 252.49212 253.32211 253.64610
 253.69108 253.47307 252.84106 251.79704 250.41103 248.58002 246.49701 244.33799
 242.13698 239.94897 237.77696 235.62394 233.49193 231.36692 229.40090 227.56589
 225.85688 224.33687 222.97485 221.75484 220.64483 219.61282 218.72480 217.87379
 217.12378 216.31176 215.41775 214.78974 214.24773 214.89479 216.36853 216.77095
 216.08868 216.07715 216.91214 217.34760 218.32948 220.88570 224.58972 228.01698
 230.94141 234.99063 239.58870 243.96681 247.95558 251.65910 255.16507 258.41367
 261.39624 264.20068 266.85522 269.27875 271.52722 273.68494 275.58878 277.04791
 278.13654 279.53220 281.10001 282.54083 283.80368 284.92099 285.94034 286.86383
 287.69437 288.43399 289.08011 289.90353
 366.78100 356.34389 345.78479 334.65968 323.07157 311.27447 299.15336 286.96525
 274.68615 262.59204 250.60993 239.91983 230.05072 221.16361 213.35451 206.36540
 200.20829 195.15519 191.74608 189.79697 188.84287 188.91576 189.75965 191.07655
 192.81044 194.91433 197.18623 199.55412 202.00801 204.49691 206.59380 208.44469
 210.07959 211.23348 211.47137 211.70827 211.65416 211.36805 211.00995 210.64884
 210.27473 209.99363 209.81052 209.68341 209.62031 209.96020 210.35509 210.75299
 211.55488 212.74177 214.00067 215.79256 217.72945 219.78135 221.88524 223.97713
 226.04603 228.13892 230.24481 232.35971 234.49760 236.67849 238.94339 241.32228
 243.95217 246.21207 248.22296 249.99685 251.42275 252.55464 253.38553 253.71043
 253.75632 253.53921 252.90811 251.86500 250.47989 248.64979 246.56768 244.40957
 242.20947 240.02236 237.85125 235.69915 233.56804 231.44393 229.47883 227.64472
 225.93661 224.41751 223.05640 221.83729 220.72819 219.69708 218.80997 217.95987
 217.21076 216.39965 215.50655 214.87944 214.33833 214.93854 216.32562 216.82509
 216.09131 216.01688 216.75987 217.19154 218.22911 220.82521 224.59587 228.05104
 230.99632 235.05251 239.67114 244.07436 248.08086 251.78516 255.26894 258.47256
 261.42719 264.22107 266.85345 269.26300 271.55835 273.79642 275.65790 277.02631
 278.13339 279.45770 280.97345 282.37924 283.63419 284.74451 285.75751 286.67520
 287.50058 288.23557 288.87766 289.69589
 366.78100 356.34600 345.78901 334.66601 323.08001 311.28502 299.16602 286.98003
 274.70303 262.61103 250.63104 239.94304 230.07604 221.19105 213.38405 206.39705
 200.24206 195.19106 191.78407 189.83707 188.88507 188.96008 189.80608 191.12508
 192.86109 194.96709 197.24109 199.61110 202.06710 204.55811 206.65711 208.51011
 210.14712 211.30312 211.54312 211.78213 211.73013 211.44613 211.09014 210.73114
 210.35914 210.08015 209.89915 209.77416 209.71316 210.05516 210.45217 210.85217
 211.65617 212.84518 214.10618 215.90018 217.83919 219.89319 221.99920 224.09320
 226.16420 228.25921 230.36721 232.48421 234.62422 236.80722 239.07422 241.45523
 244.08723 246.34924 248.36224 250.13824 251.56625 252.70025 253.53325 253.86026
 253.90826 253.69326 253.06427 252.02327 250.64028 248.81228 246.73228 244.57629
 242.37829 240.19329 238.02430 235.87430 233.74530 231.62331 229.66031 227.82832
 226.12232 224.60532 223.24633 222.02933 220.92233 219.89334 219.00834 218.16034
 217.41335 216.60435 215.71335 215.08836 214.54936 215.04521 216.22893 216.88356
 216.20894 216.03860 216.64891 216.98921 218.06566 220.69739 224.53517 228.00078
 230.95026 235.08005 239.74895 244.18358 248.20673 251.93312 255.41919 258.59778
 261.52243 264.29407 266.90884 269.31192 271.63794 273.94464 275.73508 277.01053
 278.14584 279.53088 281.10666 282.64941 283.98453 285.16574 286.24344 287.21976
 288.09784 288.87979 289.56287 290.43338
 366.78100 356.34786 345.79273 334.67159 323.08745 311.29431 299.17718 286.99304
 274.71790 262.62777 250.64963 239.96349 230.09835 221.21522 213.41008 206.42494
 200.27181 195.22267 191.81753 189.87240 188.92226 188.99912 189.84698 191.16785
 192.90571 195.01357 197.28944 199.66130 202.11916 204.61202 206.71289 208.56775
 210.20661 211.36448 211.60634 211.84720 211.79706 211.51493 211.16079 210.80365
 210.43352 210.15638 209.97724 209.85410 209.79497 210.13883 210.53769 210.93956
 211.74542 212.93628 214.19915 215.99501 217.93587 219.99173 222.09960 224.19546
 226.26832 228.36519 230.47505 232.59391 234.73577 236.92064 239.18950 241.57236
 244.20623 246.47009 248.48495 250.26281 251.69268 252.82854 253.66340 253.99227
 254.04213 253.82899 253.20185 252.16272 250.78158 248.95544 246.87731 244.72317
 242.52703 240.34390 238.17676 236.02862 233.90148 231.78135 229.82021 227.99007
 226.28594 224.77080 223.41366 222.19852 221.09339 220.06625 219.18311 218.33698
 217.59184 216.78470 215.89556 215.27243 214.73529 215.14691 216.15575 216.82346
 216.37137 216.17220 216.63899 216.83150 217.88750 220.52899 224.45093 227.91035
 230.91397 235.10114 239.79034 244.24754 248.30363 252.05713 255.55576 258.72827
 261.63037 264.38361 266.98685 269.39993 271.79089 274.12521 275.90082 277.16754
 278.28345 279.97244 281.79675 283.41101 284.80798 286.04395 287.17157 288.19315
 289.11191 289.93008 290.64484 291.55569
 366.78100 356.34665 345.79030 334.66795 323.08259 311.28824 299.16989 286.98454
 274.70819 262.61684 250.63748 239.95013 230.08378 221.19943 213.39308 206.40673
 200.25238 195.20202 191.79567 189.84932 188.89797 188.97362 189.82027 191.13991
 192.87656 194.98321 197.25786 199.62851 202.08516 204.57681 206.67645 208.53010
 210.16775 211.32440 211.56505 211.80470 211.75334 211.46999 211.11464 210.75629
 210.38494 210.10659 209.92624 209.80188 209.74153 210.08418 210.48183 210.88248
 211.68713 212.87677 214.13842 215.93307 217.87272 219.92737 222.03402 224.12867
 226.20031 228.29596 230.40461 232.52226 234.66291 236.84656 239.11420 241.49585
 244.12850 246.39115 248.40480 250.18145 251.61010 252.74474 253.57839 253.90604
 253.95469 253.74034 253.11199 252.07163 250.68928 248.86193 246.78258 244.62723
 242.42988 240.24553 238.07717 235.92782 233.79947 231.67812 229.71577 227.88442
 226.17906 224.66271 223.30436 222.08801 220.98166 219.95331 219.06896 218.22160
 217.47525 216.66690 215.77655 215.15220 214.61385 215.09596 216.20248 216.68855
 216.49715 216.29291 216.60133 216.71982 217.76469 220.42963 224.35509 227.82388
 230.86195 235.13200 239.86836 244.32755 248.37747 252.11749 255.60085 258.76505
 261.67258 264.44290 267.07828 269.52307 271.94537 274.39832 276.22543 277.48792
 278.65842 280.41089 282.21054 283.82584 285.22372 286.46051 287.58890 288.61111
 289.53052 290.34921 291.06445 291.97589
 366.78100 356.34487 345.78675 334.66262 323.07549 311.27937 299.15924 286.97212
 274.69399 262.60086 250.61974 239.93061 230.06248 221.17636 213.36823 206.38011
 200.22398 195.17185 191.76373 189.81560 188.86247 188.93635 189.78122 191.09910
 192.83397 194.93884 197.21172 199.58059 202.03546 204.52534 206.62321 208.47508
 210.11096 211.26583 211.50471 211.74258 211.68945 211.40433 211.04720 210.68707
 210.31395 210.03382 209.85170 209.72557 209.66344 210.00432 210.40019 210.79906
 211.60194 212.78981 214.04969 215.84256 217.78043 219.83331 221.93818 224.03105
 226.10093 228.19480 230.30168 232.41755 234.55642 236.73830 239.00417 241.38404
 244.01492 246.27579 248.28766 250.06254 251.48941 252.62229 253.45416 253.78003
 253.82691 253.61078 252.98065 251.93853 250.55440 248.72528 246.64415 244.48702
 242.28790 240.10177 237.93164 235.78052 233.65039 231.52727 229.56314 227.73001
 226.02289 224.50476 223.14463 221.92651 220.81838 219.78825 218.90213 218.05300
 217.30488 216.49475 215.60262 214.97650 214.43637 215.00415 216.27075 216.58922
 216.59770 216.41888 216.50581 216.54166 217.58139 220.29015 224.15533 227.65581
 230.82233 235.18344 239.95587 244.41853 248.46211 252.19359 255.65988 258.80856
 261.71744 264.49658 267.14444 269.63339 272.15897 274.61017 276.42383 277.74963
 279.00006 280.43719 281.93695 283.33401 284.55386 285.63315 286.61783 287.50986
 288.31216 289.02661 289.65073 290.44611
 366.78100 356.34480 345.78660 334.66241 323.07521 311.27901 299.15881 286.97161
 274.69342 262.60022 250.61902 239.92982 230.06162 221.17543 213.36723 206.37903
 200.22283 195.17063 191.76244 189.81424 188.86104 188.93484 189.77964 191.09745
 192.83225 194.93705 197.20985 199.57865 202.03346 204.52326 206.62106 208.47286
 210.10866 211.26347 211.50227 211.74007 211.68687 211.40167 211.04448 210.68428
 210.31108 210.03088 209.84868 209.72249 209.66029 210.00109 210.39689 210.79569
 211.59850 212.78630 214.04610 215.83890 217.77670 219.82951 221.93431 224.02711
 226.09691 228.19071 230.29752 232.41332 234.55212 236.73392 238.99972 241.37953
 244.01033 246.27113 248.28293 250.05773 251.48454 252.61734 253.44914 253.77494
 253.82174 253.60555 252.97535 251.93315 250.54895 248.71975 246.63856 244.48136
 242.28216 240.09596 237.92576 235.77457 233.64437 231.52117 229.55697 227.72377
 226.01658 224.49838 223.13818 221.91998 220.81178 219.78159 218.89539 218.04619
 217.29799 216.48779 215.59560 214.96940 214.42920 214.98326 216.24983 216.57855
 216.60464 216.47717 216.39859 216.33560 217.34242 220.08182 224.02806 227.53300
 230.91028 235.22829 239.97272 244.45012 248.51648 252.25241 255.68977 258.81052
 261.70853 264.50534 267.19098 269.75638 272.30777 274.75055 276.66663 278.06317
 279.33069 280.51840 281.61307 282.64902 283.71661 284.74756 285.68814 286.54022
 287.30661 287.98904 288.58524 289.34500
 366.78100 356.34626 345.78952 334.66678 323.08104 311.28630 299.16756 286.98182
 274.70507 262.61333 250.63359 239.94585 230.07911 221.19437 213.38763 206.40089
 200.24615 195.19541 191.78867 189.84193 188.89019 188.96545 189.81171 191.13097
 192.86722 194.97348 197.24774 199.61800 202.07426 204.56552 206.66478 208.51804
 210.15530 211.31156 211.55182 211.79108 211.73934 211.45560 211.09986 210.74112
 210.36937 210.09063 209.90989 209.78515 209.72441 210.06667 210.46393 210.86419
 211.66845 212.85771 214.11897 215.91323 217.85249 219.90675 222.01301 224.10726
 226.17852 228.27378 230.38204 232.49930 234.63956 236.82282 239.09008 241.47134
 244.10360 246.36586 248.37912 250.15538 251.58364 252.71790 253.55116 253.87841
 253.92667 253.71193 253.08319 252.04245 250.65971 248.83197 246.75223 244.59649
 242.39875 240.21401 238.04527 235.89553 233.76679 231.64505 229.68230 227.85056
 226.14482 224.62808 223.26934 222.05260 220.94586 219.91712 219.03238 218.18464
 217.43790 216.62916 215.73842 215.11368 214.57494 215.04027 216.13080 216.67838
 216.64595 216.43010 216.26842 216.11902 217.10669 219.91624 223.97868 227.38190
 230.89131 235.25340 240.03772 244.52205 248.58408 252.30463 255.70879 258.79382
 261.66354 264.44095 267.13409 269.72873 272.33679 274.81610 276.72845 278.16449
 279.48926 280.70166 281.77942 282.61621 283.22870 284.08942 284.99289 285.82187
 286.56744 287.23141 287.81140 288.55057
 366.78100 356.34755 345.79210 334.67065 323.08621 311.29276 299.17531 286.99086
 274.71541 262.62496 250.64651 239.96007 230.09462 221.21117 213.40572 206.42027
 200.26682 195.21738 191.81193 189.86648 188.91603 188.99258 189.84013 191.16068
 192.89824 195.00579 197.28134 199.65289 202.11044 204.60299 206.70354 208.55810
 210.19665 211.35420 211.59575 211.83630 211.78585 211.50340 211.14896 210.79151
 210.42106 210.14361 209.96416 209.84071 209.78126 210.12482 210.52337 210.92492
 211.73047 212.92102 214.18357 215.97913 217.91968 219.97523 222.08278 224.17833
 226.25088 228.34743 230.45699 232.57554 234.71709 236.90164 239.17019 241.55274
 244.18629 246.44985 248.46440 250.24195 251.67150 252.80705 253.64160 253.97015
 254.01971 253.80626 253.17881 252.13936 250.75791 248.93146 246.85301 244.69857
 242.50212 240.31867 238.15122 236.00277 233.87532 231.75488 229.79343 227.96298
 226.25853 224.74308 223.38563 222.17018 221.06474 220.03729 219.15384 218.30739
 217.56194 216.75449 215.86504 215.24160 214.70415 215.10733 216.05507 216.63475
 216.77325 216.52449 216.29074 216.15369 217.13057 219.86475 223.83611 227.35143
 230.86209 235.31326 240.09245 244.58105 248.65125 252.37775 255.78320 258.85904
 261.70139 264.42419 267.07718 269.69901 272.37607 274.87149 276.78726 278.23199
 279.57434 280.78479 281.81744 282.50577 283.12372 284.09451 285.03885 285.89435
 286.66379 287.34897 287.94751 288.71033
 366.78100 356.34673 345.79047 334.66820 323.08294 311.28867 299.17041 286.98514
 274.70888 262.61761 250.63835 239.95108 230.08482 221.20055 213.39429 206.40802
 200.25375 195.20349 191.79722 189.85096 188.89969 188.97543 189.82216 191.14190
 192.87863 194.98537 197.26010 199.63084 202.08757 204.57931 206.67904 208.53277
 210.17051 211.32724 211.56798 211.80771 211.75645 211.47318 211.11792 210.75965
 210.38839 210.11012 209.92986 209.80559 209.74533 210.08806 210.48579 210.88653
 211.69126 212.88100 214.14273 215.93747 217.87720 219.93194 222.03867 224.13341
 226.20514 228.30088 230.40961 232.52735 234.66808 236.85181 239.11955 241.50128
 244.13402 246.39675 248.41049 250.18722 251.61596 252.75069 253.58443 253.91216
 253.96090 253.74663 253.11837 252.07810 250.69583 248.86857 246.78930 244.63404
 242.43677 240.25251 238.08424 235.93498 233.80671 231.68545 229.72318 227.89192
 226.18665 224.67039 223.31212 222.09586 220.98959 219.96132 219.07706 218.22979
 217.48353 216.67526 215.78500 215.16073 214.62247 215.07188 216.10535 216.50613
 216.73918 216.70413 216.44762 216.22427 217.13516 219.80846 223.71548 227.26079
 230.81694 235.35033 240.13634 244.62703 248.69078 252.42021 255.83926 258.93347
 261.79349 264.51620 267.14975 269.74982 272.46091 275.04211 276.98215 278.40576
 279.71133 280.87909 281.75836 282.37094 283.33279 284.33328 285.24609 286.07303
 286.81677 287.47910 288.05765 288.79498
 366.78100 356.34752 345.79205 334.67057 323.08609 311.29261 299.17514 286.99066
 274.71518 262.62471 250.64623 239.95975 230.09428 221.21080 213.40532 206.41984
 200.26637 195.21689 191.81141 189.86594 188.91546 188.99198 189.83950 191.16003
 192.89755 195.00507 197.28060 199.65212 202.10964 204.60217 206.70269 208.55721
 210.19573 211.35326 211.59478 211.83530 211.78483 211.50235 211.14787 210.79039
 210.41992 210.14244 209.96296 209.83949 209.78001 210.12353 210.52206 210.92358
 211.72910 212.91962 214.18215 215.97767 217.91819 219.97372 222.08124 224.17676
 226.24928 228.34581 230.45533 232.57385 234.71538 236.89990 239.16842 241.55095
 244.18447 246.44799 248.46251 250.24004 251.66956 252.80508 253.63961 253.96813
 254.01765 253.80417 253.17670 252.13722 250.75574 248.92927 246.85079 244.69631
 242.49984 240.31636 238.14888 236.00040 233.87293 231.75245 229.79097 227.96050
 226.25602 224.74054 223.38306 222.16759 221.06211 220.03463 219.15116 218.30468
 217.55920 216.75173 215.86225 215.23877 214.70129 215.09636 216.02803 216.63008
 216.66391 216.58980 216.36244 216.11668 217.01883 219.71431 223.67067 227.13844
 230.80606 235.35852 240.16342 244.64238 248.69577 252.40291 255.80414 258.90918
 261.80518 264.55658 267.18234 269.77295 272.51443 275.18317 277.25217 278.74802
 280.04272 281.16574 281.96338 282.45737 282.93619 283.70505 284.58386 285.38004
 286.09610 286.73373 287.29077 288.00067
 366.78100 356.34866 345.79432 334.67398 323.09064 311.29831 299.18197 286.99863
 274.72429 262.63495 250.65761 239.97227 230.10793 221.22560 213.42126 206.43692
 200.28458 195.23624 191.83190 189.88756 188.93822 189.01589 189.86455 191.18621
 192.92487 195.03353 197.31019 199.68285 202.14151 204.63518 206.73684 208.59250
 210.23216 211.39082 211.63348 211.87514 211.82580 211.54447 211.19113 210.83479
 210.46545 210.18911 210.01077 209.88843 209.83009 210.17476 210.57442 210.97708
 211.78374 212.97540 214.23906 216.03572 217.97738 220.03405 222.14271 224.23937
 226.31303 228.41069 230.52135 232.64101 234.78367 236.96934 239.23900 241.62266
 244.25732 246.52198 248.53764 250.31630 251.74696 252.88363 253.71929 254.04895
 254.09961 253.88727 253.26093 252.22259 250.84225 249.01692 246.93958 244.78624
 242.59090 240.40856 238.24222 236.09488 233.96854 231.84921 229.88887 228.05953
 226.35619 224.84185 223.48551 222.27117 221.16683 220.14050 219.25816 218.41282
 217.66848 216.86214 215.97380 215.35146 214.81512 215.13960 215.90958 216.69698
 217.00116 216.70732 216.30771 215.86018 216.72942 219.48425 223.62070 226.93622
 230.77522 235.36649 240.21849 244.70230 248.75093 252.44049 255.82713 258.91046
 261.78027 264.50964 267.13989 269.77582 272.53796 275.22769 277.36984 278.94733
 280.28799 281.42676 282.26437 282.80319 283.15219 283.43628 283.87173 284.60065
 285.33826 285.99512 286.56894 287.30020
 366.78100 356.34711 345.79122 334.66933 323.08444 311.29055 299.17266 286.98777
 274.71188 262.62099 250.64210 239.95521 230.08932 221.20543 213.39954 206.41365
 200.25976 195.20987 191.80398 189.85809 188.90720 188.98331 189.83042 191.15053
 192.88764 194.99475 197.26986 199.64097 202.09808 204.59019 206.69030 208.54441
 210.18252 211.33963 211.58074 211.82085 211.76996 211.48707 211.13218 210.77429
 210.40340 210.12551 209.94562 209.82173 209.76184 210.10495 210.50306 210.90417
 211.70928 212.89939 214.16150 215.95661 217.89672 219.95183 222.05894 224.15405
 226.22616 228.32227 230.43138 232.54949 234.69060 236.87471 239.14282 241.52493
 244.15804 246.42115 248.43526 250.21237 251.64148 252.77659 253.61070 253.93881
 253.98792 253.77403 253.14614 252.10625 250.72436 248.89747 246.81858 244.66369
 242.46680 240.28291 238.11502 235.96613 233.83824 231.71735 229.75546 227.92457
 226.21968 224.70379 223.34590 222.13001 221.02412 219.99623 219.11234 218.26545
 217.51956 216.71167 215.82178 215.19789 214.66000 215.06075 216.00697 216.49011
 217.18234 216.96379 216.38632 215.72495 216.51088 219.26755 223.47122 226.80139
 230.74904 235.39545 240.27831 244.77576 248.83141 252.52484 255.92265 259.00180
 261.84454 264.51624 267.06824 269.65909 272.46332 275.22839 277.40631 279.00894
 280.39307 281.56461 282.41714 282.91483 283.24231 283.47321 283.75043 284.35901
 285.03842 285.66992 286.22159 286.92462
 366.78100 356.34540 345.78779 334.66419 323.07759 311.28199 299.16238 286.97578
 274.69818 262.60558 250.62497 239.93637 230.06877 221.18317 213.37556 206.38796
 200.23236 195.18076 191.77315 189.82555 188.87295 188.94735 189.79274 191.11114
 192.84654 194.95193 197.22533 199.59473 202.05013 204.54052 206.63892 208.49132
 210.12772 211.28311 211.52251 211.76091 211.70831 211.42370 211.06710 210.70750
 210.33490 210.05529 209.87369 209.74809 209.68649 210.02788 210.42428 210.82368
 211.62707 212.81547 214.07587 215.86927 217.80766 219.86106 221.96646 224.05986
 226.13025 228.22465 230.33205 232.44845 234.58784 236.77024 239.03664 241.41704
 244.04843 246.30983 248.32223 250.09763 251.52502 252.65842 253.49082 253.81721
 253.86461 253.64901 253.01941 251.97780 250.59420 248.76560 246.68500 244.52839
 242.32979 240.14419 237.97459 235.82398 233.69438 231.57178 229.60818 227.77557
 226.06897 224.55137 223.19177 221.97416 220.86656 219.83696 218.95135 218.10275
 217.35515 216.54555 215.65394 215.02834 214.48874 214.97270 216.11615 216.39815
 217.12073 217.05830 216.46138 215.72363 216.45465 219.14853 223.35469 226.75368
 230.75008 235.43196 240.33334 244.83783 248.89482 252.59015 256.00052 259.09103
 261.93573 264.58060 267.06534 269.57565 272.37033 275.20963 277.42987 279.05286
 280.47598 281.65851 282.49319 282.88995 283.09204 283.25333 283.62720 284.20071
 284.84540 285.45126 285.98053 286.65506
 366.78100 356.34565 345.78830 334.66496 323.07861 311.28326 299.16391 286.97756
 274.70021 262.60787 250.62752 239.93917 230.07182 221.18647 213.37912 206.39178
 200.23643 195.18508 191.77773 189.83038 188.87804 188.95269 189.79834 191.11699
 192.85264 194.95829 197.23195 199.60160 202.05725 204.54790 206.64655 208.49920
 210.13586 211.29151 211.53116 211.76981 211.71746 211.43311 211.07677 210.71742
 210.34507 210.06572 209.88437 209.75903 209.69768 210.03933 210.43598 210.83563
 211.63928 212.82794 214.08859 215.88224 217.82089 219.87454 221.98019 224.07385
 226.14450 228.23915 230.34680 232.46345 234.60311 236.78576 239.05241 241.43306
 244.06471 246.32636 248.33902 250.11467 251.54232 252.67597 253.50862 253.83527
 253.88293 253.66758 253.03823 251.99688 250.61353 248.78519 246.70484 244.54849
 242.35014 240.16479 237.99544 235.84510 233.71575 231.59340 229.63005 227.79770
 226.09135 224.57401 223.21466 221.99731 220.88996 219.86061 218.97526 218.12692
 217.37957 216.57022 215.67887 215.05352 214.51418 214.97934 216.07835 216.48557
 217.10063 217.07246 216.44443 215.72658 216.43938 219.07458 223.25536 226.69727
 230.74512 235.45842 240.37819 244.87827 248.92918 252.62990 256.05560 259.16187
 262.02081 264.66205 267.10666 269.52725 272.25131 275.16476 277.45926 279.09720
 280.50958 281.65561 282.38504 282.70584 282.83459 282.95407 283.28665 283.87988
 284.45273 285.05814 285.61801 286.33154
 366.78100 356.34609 345.78917 334.66626 323.08034 311.28543 299.16651 286.98060
 274.70368 262.61177 250.63185 239.94394 230.07702 221.19211 213.38519 206.39828
 200.24336 195.19245 191.78553 189.83862 188.88670 188.96179 189.80787 191.12696
 192.86304 194.96913 197.24321 199.61330 202.06938 204.56047 206.65955 208.51264
 210.14972 211.30581 211.54589 211.78498 211.73306 211.44915 211.09323 210.73432
 210.36240 210.08349 209.90257 209.77766 209.71674 210.05883 210.45591 210.85600
 211.66008 212.84917 214.11026 215.90434 217.84343 219.89751 222.00360 224.09768
 226.16877 228.26385 230.37194 232.48902 234.62911 236.81219 239.07928 241.46036
 244.09245 246.35453 248.36762 250.14370 251.57179 252.70587 253.53896 253.86604
 253.91413 253.69921 253.07030 252.02938 250.64647 248.81855 246.73864 244.58272
 242.38481 240.19989 238.03098 235.88106 233.75215 231.63023 229.66732 227.83540
 226.12949 224.61257 223.25366 222.03674 220.92983 219.90091 219.01600 218.16808
 217.42117 216.61226 215.72134 215.09643 214.55751 214.99792 216.03848 216.55341
 217.13097 217.07991 216.41443 215.70293 216.37706 218.94955 223.09207 226.64827
 230.74527 235.48576 240.40388 244.89812 248.95033 252.67081 256.11978 259.24600
 262.11810 264.75024 267.15903 269.49734 272.15042 275.13553 277.51569 279.17896
 280.60880 281.73663 282.37689 282.56128 282.59247 282.69312 283.11984 283.67526
 284.18906 284.73486 285.29315 286.00464
 366.78100 356.34591 345.78883 334.66574 323.07965 311.28457 299.16548 286.97940
 274.70231 262.61022 250.63014 239.94205 230.07496 221.18988 213.38279 206.39570
 200.24062 195.18953 191.78244 189.83536 188.88327 188.95819 189.80410 191.12301
 192.85893 194.96484 197.23875 199.60867 202.06458 204.55549 206.65441 208.50732
 210.14424 211.30015 211.54006 211.77898 211.72689 211.44280 211.08672 210.72763
 210.35554 210.07646 209.89537 209.77028 209.70920 210.05111 210.44803 210.84794
 211.65185 212.84077 214.10168 215.89559 217.83451 219.88842 221.99433 224.08825
 226.15916 228.25407 230.36199 232.47890 234.61882 236.80173 239.06864 241.44956
 244.08147 246.34338 248.35630 250.13221 251.56012 252.69404 253.52695 253.85387
 253.90178 253.68669 253.05761 252.01652 250.63343 248.80535 246.72526 244.56917
 242.37109 240.18600 238.01691 235.86683 233.73774 231.61566 229.65257 227.82048
 226.11440 224.59731 223.23822 222.02114 220.91405 219.88496 218.99988 218.15179
 217.40471 216.59562 215.70453 215.07945 214.54036 214.98798 216.04550 216.59317
 217.14520 217.05663 216.33986 215.64076 216.30392 218.85532 222.98599 226.60303
 230.74472 235.51089 240.43901 244.94354 249.00682 252.74538 256.20856 259.33722
 262.20685 264.82962 267.21939 269.50107 272.04330 275.05090 277.55597 279.26376
 280.68976 281.80865 282.43762 282.56778 282.54361 282.61459 282.98013 283.49536
 284.02078 284.57571 285.12442 285.82367
 354.97500 345.04800 334.58700 324.11500 313.32600 302.53700 291.65000 280.76700
 269.93100 259.19300 248.62200 238.61700 229.08700 220.35500 212.54000 205.53500
 199.46400 194.49300 191.14300 189.19000 188.08900 188.01400 188.72400 189.90600
 191.46900 193.38200 195.40300 197.55600 199.80700 202.06000 204.28800 206.47900
 208.55200 210.37800 212.02500 213.65900 214.99800 216.11800 217.17200 218.25900
 219.49400 220.64500 221.67900 222.61400 223.54500 224.98200 226.57100 228.19000
 229.79700 231.81100 233.86500 235.97200 238.24200 240.55300 242.89900 245.25300
 247.48800 249.53500 251.36600 252.84800 254.09800 255.16700 256.02700 256.25300
 256.09500 255.54300 253.93500 252.56600 251.38400 250.24500 249.05200 247.70100
 246.01600 243.99600 241.78400 239.39300 236.81300 234.22300 231.65800 229.14400
 226.74000 224.47300 222.33500 220.32500 218.44000 216.67700 214.96200 213.47200
 212.20000 211.10800 210.26000 209.63900 209.24400 209.03100 209.05800 209.33300
 209.78400 210.62600 211.33100 212.39100 213.62500 214.84668 217.72949 219.47640
 220.32566 220.86828 220.88710 220.27371 219.43733 218.84250 219.04934 220.86203
 222.60583 225.72206 229.03064 232.61777 236.12270 239.51333 242.70767 245.68587
 248.41061 250.90679 253.19353 254.91714 256.48655 257.94920 259.39966 260.69384
 261.81714 262.77997 263.71679 264.54570 265.26305 265.89772 266.47676 267.00133
 267.47312 267.89325 268.26027 268.72800
