|-------------------------------------------------------------------------|
|   File Name : in_temp.dat
|   Subject   : temperature profiles used for initial guess atmosphere
|   File Type : input of gmtr
|   Data Type : atmospherical data
|   Author/s  : WRF-Chem
|   Date      : Fri Jul 26 15:39:24 2024
|-------------------------------------------------------------------------|

 WRF-Chem temperature
#
 values of T (K)    (8f10.5)
#
 354.97500 345.04800 334.58700 324.11500 313.32600 302.53700 291.65000 280.76700
 269.93100 259.19300 248.62200 238.61700 229.08700 220.35500 212.54000 205.53500
 199.46400 194.49300 191.14300 189.19000 188.08900 188.01400 188.72400 189.90600
 191.46900 193.38200 195.40300 197.55600 199.80700 202.06000 204.28800 206.47900
 208.55200 210.37800 212.02500 213.65900 214.99800 216.11800 217.17200 218.25900
 219.49400 220.64500 221.67900 222.61400 223.54500 224.98200 226.57100 228.19000
 229.79700 231.81100 233.86500 235.97200 238.24200 240.55300 242.89900 245.25300
 247.48800 249.53500 251.36600 252.84800 254.09800 255.16700 256.02700 256.25300
 256.09500 255.54300 253.93500 252.56600 251.38400 250.24500 249.05200 247.70100
 246.01600 243.99600 241.78400 239.39300 236.81300 234.22300 231.65800 229.14400
 226.74000 224.47300 222.33500 220.32500 218.44000 216.67700 214.96200 213.47200
 212.20000 211.10800 210.26000 209.63900 209.24400 209.03100 209.05800 209.33300
 209.78400 210.62600 211.33100 212.39100 213.62500 214.84668 217.72949 219.47640
 220.32566 220.86828 220.88710 220.27371 219.43733 218.84250 219.04934 220.86203
 222.60583 225.72206 229.03064 232.61777 236.12270 239.51333 242.70767 245.68587
 248.41061 250.90679 253.19353 254.91714 256.48655 257.94920 259.39966 260.69384
 261.81714 262.77997 263.71679 264.54570 265.26305 265.89772 266.47676 267.00133
 267.47312 267.89325 268.26027 268.72800
 366.78100 356.33500 345.76700 334.63300 323.03600 311.23000 299.10000 286.90300
 274.61500 262.51200 250.52100 239.82200 229.94400 221.04800 213.23000 206.23200
 200.06600 195.00400 191.58600 189.62800 188.66500 188.72900 189.56400 190.87200
 192.59700 194.69200 196.95500 199.31400 201.75900 204.23900 206.32700 208.16900
 209.79500 210.94000 211.16900 211.39700 211.33400 211.03900 210.67200 210.30200
 209.91900 209.62900 209.43700 209.30100 209.22900 209.56000 209.94600 210.33500
 211.12800 212.30600 213.55600 215.33900 217.26700 219.31000 221.40500 223.48800
 225.54800 227.63200 229.72900 231.83500 233.96400 236.13600 238.39200 240.76200
 243.38300 245.63400 247.63600 249.40100 250.81800 251.94100 252.76300 253.07900
 253.11600 252.89000 252.25000 251.19800 249.80400 247.96500 245.87400 243.70700
 241.49800 239.30200 237.12200 234.96100 232.82100 230.68800 228.71400 226.87100
 225.15400 223.62600 222.25600 221.02800 219.91000 218.87000 217.97400 217.11500
 216.35700 215.53700 214.63500 213.99900 213.44900 212.85855 212.01316 212.61654
 214.26826 216.08686 218.14273 220.53346 223.40855 226.78828 231.49734 235.90155
 239.42278 243.28576 247.23140 251.11907 254.80144 258.23331 261.38913 264.27520
 266.89312 269.26852 271.44504 273.08845 274.58484 275.98591 277.39845 278.65879
 279.75272 280.69038 281.56708 282.34086 283.01050 283.60295 284.14348 284.63317
 285.07358 285.46577 285.80838 286.24500
 381.81900 372.39900 361.20600 349.77600 337.62200 324.85300 311.81000 298.35300
 284.86000 271.32400 258.56100 246.30400 236.08700 226.79600 218.44800 211.29000
 205.52200 200.89400 197.38100 194.84800 193.01500 192.31500 192.25000 192.43100
 192.91200 193.53700 194.13600 194.71200 195.26200 195.83100 196.39300 196.97600
 197.60400 198.14900 198.58400 199.05700 199.69500 200.37800 201.05400 201.70800
 202.31300 202.85700 203.35500 203.86200 204.56900 205.29700 206.02600 206.98700
 208.19300 209.44100 210.96900 212.57600 214.46200 216.51300 218.63000 220.85300
 223.34100 225.96200 228.73900 231.69700 234.70600 237.70600 240.69200 243.65700
 246.73700 249.69900 252.52100 255.06300 257.29000 259.23300 260.63300 261.68000
 262.46100 262.79800 262.69100 262.22400 261.06900 259.52500 257.70700 255.50700
 253.00100 250.30200 247.39800 244.45200 241.65400 239.05400 236.73300 234.59000
 232.59500 230.72500 228.83400 226.82600 224.66600 222.38700 220.10400 217.71500
 215.45900 213.06600 210.54600 208.09300 205.35400 202.08130 196.05959 200.71215
 209.01611 216.90438 223.84126 229.78593 235.00632 240.20838 245.98943 250.68668
 254.32982 257.93487 261.55666 264.96801 268.15192 271.06452 273.76717 276.25691
 278.57680 280.74479 282.77456 284.60533 286.27232 287.81705 289.31715 290.65561
 291.81734 292.81312 293.70701 294.49387 295.17482 295.77730 296.32696 296.82492
 297.27278 297.67160 298.02000 298.46400
 399.33000 389.90700 379.81300 368.66800 357.52200 345.30100 333.07400 320.22700
 307.21600 293.84800 280.37600 267.29600 254.61000 242.98700 232.15100 221.97700
 212.67200 204.28600 197.66900 192.82100 189.48600 187.45200 186.81400 187.08900
 187.78100 189.05400 190.64800 192.54200 194.63000 196.75200 198.67100 200.15800
 201.53500 202.48700 202.97500 203.34000 203.53900 203.49700 203.38500 203.24700
 203.00500 202.78600 202.60300 202.43700 202.42600 202.88800 203.42000 203.95100
 204.89500 205.99200 207.30100 208.95800 210.73800 213.10000 215.56400 218.18000
 220.96600 223.91800 226.96100 230.09200 233.29300 236.55700 239.95500 243.53700
 246.84500 249.39000 251.54200 253.47400 255.19500 256.48400 257.43100 258.05900
 258.21200 258.04000 257.58200 256.64300 255.23900 253.50700 251.40800 249.05600
 246.57600 243.99400 241.38900 238.83000 236.34400 233.98600 231.96900 230.11800
 228.42300 226.89900 225.54800 224.29700 223.10500 221.96500 220.95800 220.11300
 219.49000 218.92000 218.32500 217.88100 217.42300 216.96366 216.35568 216.80261
 217.73415 218.28582 218.64258 219.10077 220.44626 222.53987 226.38451 230.35736
 233.59734 237.39164 241.29814 245.22796 248.98002 252.51130 255.78595 258.80109
 261.54781 264.05210 266.34239 268.04198 269.58951 271.01303 272.35754 273.55718
 274.59842 275.49092 276.28989 276.99307 277.60161 278.14001 278.63122 279.07623
 279.47646 279.83287 280.14422 280.54100
 399.73800 389.78500 379.66200 368.15100 356.64100 344.35000 331.79200 318.88800
 305.72600 292.49300 279.20900 266.73800 254.69600 244.21100 234.45700 225.43300
 217.56900 210.45100 204.30000 199.30600 195.45800 192.57600 191.02700 190.38600
 190.23900 190.53400 191.16600 191.92500 192.79500 193.76600 194.73200 195.31200
 195.80000 196.05200 196.11500 196.11500 196.03900 195.72300 195.34000 194.98900
 194.75100 194.79200 195.13300 195.59800 196.50600 198.13600 199.85800 201.56600
 204.17900 206.82300 209.89300 213.28400 216.82800 220.60500 224.38700 228.20900
 232.03200 235.82500 239.56000 243.25800 246.84500 250.20100 253.70900 257.46800
 261.53000 264.22100 266.60100 268.68100 270.32900 271.74100 272.83600 273.47400
 273.89800 274.00200 273.75700 273.28800 272.37100 271.10000 269.58900 267.77900
 265.81600 263.72100 261.39300 258.91600 256.29800 253.42300 250.33100 247.11400
 243.83700 240.52900 237.24900 233.99900 230.72800 227.51500 224.25400 220.95200
 217.62700 213.65600 210.12100 206.78900 204.01000 201.99491 199.07309 198.76551
 199.40006 200.48994 201.46112 202.31912 203.45100 204.96110 207.47502 210.85391
 213.70530 217.29629 220.99574 224.72316 228.28753 231.64854 234.68024 237.40893
 239.70644 241.60899 243.46854 245.67368 247.68154 249.52395 251.24767 252.78566
 254.12057 255.26479 256.23740 257.09036 257.82852 258.48160 259.07744 259.61723
 260.10271 260.53504 260.91270 261.39400
 399.73800 389.78500 379.66200 368.15100 356.64100 344.35000 331.79200 318.88800
 305.72600 292.49300 279.20900 266.73800 254.69600 244.21100 234.45700 225.43300
 217.56900 210.45100 204.30000 199.30600 195.45800 192.57600 191.02700 190.38600
 190.23900 190.53400 191.16600 191.92500 192.79500 193.76600 194.73200 195.31200
 195.80000 196.05200 196.11500 196.11500 196.03900 195.72300 195.34000 194.98900
 194.75100 194.79200 195.13300 195.59800 196.50600 198.13600 199.85800 201.56600
 204.17900 206.82300 209.89300 213.28400 216.82800 220.60500 224.38700 228.20900
 232.03200 235.82500 239.56000 243.25800 246.84500 250.20100 253.70900 257.46800
 261.53000 264.22100 266.60100 268.68100 270.32900 271.74100 272.83600 273.47400
 273.89800 274.00200 273.75700 273.28800 272.37100 271.10000 269.58900 267.77900
 265.81600 263.72100 261.39300 258.91600 256.29800 253.42300 250.33100 247.11400
 243.83700 240.52900 237.24900 233.99900 230.72800 227.51500 224.25400 220.95200
 217.62700 213.65600 210.12100 206.78900 204.01000 201.99491 199.07309 198.76551
 199.40006 200.48994 201.46112 202.31912 203.45100 204.96110 207.47502 210.85391
 213.70530 217.29629 220.99574 224.72316 228.28753 231.64854 234.68024 237.40893
 239.70644 241.60899 243.46854 245.67368 247.68154 249.52395 251.24767 252.78566
 254.12057 255.26479 256.23740 257.09036 257.82852 258.48160 259.07744 259.61723
 260.10271 260.53504 260.91270 261.39400
 399.33000 389.90700 379.81300 368.66800 357.52200 345.30100 333.07400 320.22700
 307.21600 293.84800 280.37600 267.29600 254.61000 242.98700 232.15100 221.97700
 212.67200 204.28600 197.66900 192.82100 189.48600 187.45200 186.81400 187.08900
 187.78100 189.05400 190.64800 192.54200 194.63000 196.75200 198.67100 200.15800
 201.53500 202.48700 202.97500 203.34000 203.53900 203.49700 203.38500 203.24700
 203.00500 202.78600 202.60300 202.43700 202.42600 202.88800 203.42000 203.95100
 204.89500 205.99200 207.30100 208.95800 210.73800 213.10000 215.56400 218.18000
 220.96600 223.91800 226.96100 230.09200 233.29300 236.55700 239.95500 243.53700
 246.84500 249.39000 251.54200 253.47400 255.19500 256.48400 257.43100 258.05900
 258.21200 258.04000 257.58200 256.64300 255.23900 253.50700 251.40800 249.05600
 246.57600 243.99400 241.38900 238.83000 236.34400 233.98600 231.96900 230.11800
 228.42300 226.89900 225.54800 224.29700 223.10500 221.96500 220.95800 220.11300
 219.49000 218.92000 218.32500 217.88100 217.42300 216.96366 216.35568 216.80261
 217.73415 218.28582 218.64258 219.10077 220.44626 222.53987 226.38451 230.35736
 233.59734 237.39164 241.29814 245.22796 248.98002 252.51130 255.78595 258.80109
 261.54781 264.05210 266.34239 268.04198 269.58951 271.01303 272.35754 273.55718
 274.59842 275.49092 276.28989 276.99307 277.60161 278.14001 278.63122 279.07623
 279.47646 279.83287 280.14422 280.54100
 381.81900 372.39900 361.20600 349.77600 337.62200 324.85300 311.81000 298.35300
 284.86000 271.32400 258.56100 246.30400 236.08700 226.79600 218.44800 211.29000
 205.52200 200.89400 197.38100 194.84800 193.01500 192.31500 192.25000 192.43100
 192.91200 193.53700 194.13600 194.71200 195.26200 195.83100 196.39300 196.97600
 197.60400 198.14900 198.58400 199.05700 199.69500 200.37800 201.05400 201.70800
 202.31300 202.85700 203.35500 203.86200 204.56900 205.29700 206.02600 206.98700
 208.19300 209.44100 210.96900 212.57600 214.46200 216.51300 218.63000 220.85300
 223.34100 225.96200 228.73900 231.69700 234.70600 237.70600 240.69200 243.65700
 246.73700 249.69900 252.52100 255.06300 257.29000 259.23300 260.63300 261.68000
 262.46100 262.79800 262.69100 262.22400 261.06900 259.52500 257.70700 255.50700
 253.00100 250.30200 247.39800 244.45200 241.65400 239.05400 236.73300 234.59000
 232.59500 230.72500 228.83400 226.82600 224.66600 222.38700 220.10400 217.71500
 215.45900 213.06600 210.54600 208.09300 205.35400 202.08130 196.05959 200.71215
 209.01611 216.90438 223.84126 229.78593 235.00632 240.20838 245.98943 250.68668
 254.32982 257.93487 261.55666 264.96801 268.15192 271.06452 273.76717 276.25691
 278.57680 280.74479 282.77456 284.60533 286.27232 287.81705 289.31715 290.65561
 291.81734 292.81312 293.70701 294.49387 295.17482 295.77730 296.32696 296.82492
 297.27278 297.67160 298.02000 298.46400
 366.78100 356.36321 345.82343 334.71764 323.14885 311.37107 299.26928 287.10049
 274.84071 262.76592 250.80314 240.13235 230.28256 221.41478 213.62499 206.65520
 200.51742 195.48363 192.09384 190.16406 189.22927 189.32148 190.18470 191.52091
 193.27413 195.39734 197.68855 200.07577 202.54898 205.05719 207.17341 209.04362
 210.69783 211.87105 212.12826 212.38447 212.34969 212.08290 211.74411 211.40233
 211.04754 210.78576 210.62197 210.51418 210.47040 210.82961 211.24382 211.66104
 212.48225 213.68846 214.96668 216.77789 218.73410 220.80532 222.92853 225.03975
 227.12796 229.24017 231.36539 233.49960 235.65681 237.85703 240.14124 242.53945
 245.18867 247.46788 249.49809 251.29131 252.73652 253.88774 254.73795 255.08216
 255.14738 254.94959 254.33780 253.31402 251.94823 250.13744 248.07466 245.93587
 243.75508 241.58730 239.43551 237.30272 235.19094 233.08615 231.14037 229.32558
 227.63679 226.13701 224.79522 223.59543 222.50565 221.49386 220.62607 219.79529
 219.06550 218.27371 217.39993 216.79214 216.27036 214.20850 209.36604 208.30051
 209.74960 210.53679 212.00142 215.62703 220.05115 224.86256 230.59625 235.65546
 239.52716 243.60390 248.00826 252.36890 255.97928 258.82080 261.36304 264.00604
 266.75897 269.35098 271.89301 274.42511 276.27759 277.71991 279.19666 280.90546
 282.81964 284.61136 286.15695 287.51230 288.68372 289.71921 290.66272 291.51691
 292.28574 292.96951 293.56677 294.31735
 366.78100 356.36287 345.82275 334.71662 323.14749 311.36937 299.26724 287.09811
 274.83799 262.76286 250.79973 240.12861 230.27848 221.41035 213.62023 206.65010
 200.51197 195.47785 192.08772 190.15760 189.22247 189.31434 190.17722 191.51309
 193.26596 195.38884 197.67971 200.06658 202.53946 205.04733 207.16320 209.03308
 210.68695 211.85982 212.11670 212.37257 212.33744 212.07032 211.73119 211.38906
 211.03394 210.77181 210.60768 210.49956 210.45543 210.81430 211.22818 211.64505
 212.46592 213.67180 214.94967 216.76055 218.71642 220.78729 222.91017 225.02104
 227.10891 229.22079 231.34566 233.47953 235.63641 237.83628 240.12015 242.51803
 245.16690 247.44577 249.47565 251.26852 252.71339 253.86427 254.71414 255.05801
 255.12289 254.92476 254.31263 253.28851 251.92238 250.11125 248.04813 245.90900
 243.72787 241.55975 239.40762 237.27450 235.16237 233.05724 231.11112 229.29599
 227.60686 226.10674 224.76461 223.56448 222.47436 221.46223 220.59410 219.76298
 219.03285 218.24072 217.36660 216.75847 216.23634 214.20296 209.42616 208.38594
 209.76881 210.54427 212.01266 215.57146 219.96347 224.78777 230.53006 235.57936
 239.44933 243.52850 247.94092 252.32445 255.97278 258.83347 261.36801 263.99249
 266.73654 269.32846 271.86734 274.38101 276.21356 277.64722 279.13760 280.86896
 282.79999 284.59134 286.13675 287.49182 288.66272 289.69754 290.64062 291.49469
 292.26184 292.94598 293.54202 294.29150
 366.78100 356.36251 345.82201 334.71552 323.14603 311.36753 299.26504 287.09555
 274.83506 262.75956 250.79607 240.12458 230.27408 221.40559 213.61510 206.64460
 200.50611 195.47162 192.08112 190.15063 189.21514 189.30665 190.16915 191.50466
 193.25717 195.37967 197.67018 200.05669 202.52919 205.03670 207.15221 209.02171
 210.67522 211.84773 212.10424 212.35974 212.32425 212.05676 211.71726 211.37477
 211.01928 210.75678 210.59229 210.48380 210.43930 210.79781 211.21132 211.62783
 212.44833 213.65384 214.93135 216.74185 218.69736 220.76787 222.89037 225.00088
 227.08839 229.19989 231.32440 233.45791 235.61442 237.81392 240.09743 242.49494
 245.14344 247.42195 249.45146 251.24396 252.68847 253.83898 254.68848 255.03199
 255.09650 254.89800 254.28551 253.26102 251.89453 250.08303 248.01954 245.88005
 243.69855 241.53006 239.37757 237.24407 235.13158 233.02609 231.07959 229.26410
 227.57461 226.07412 224.73162 223.53113 222.44064 221.42814 220.55965 219.72816
 218.99766 218.20517 217.33068 216.72218 216.19969 214.19568 209.48672 208.47495
 209.77643 210.56551 212.01566 215.51419 219.89276 224.71223 230.45924 235.50352
 239.37357 243.45558 247.87495 252.27983 255.96504 258.84576 261.37460 263.98022
 266.71451 269.30487 271.83878 274.33377 276.14719 277.57245 279.07602 280.82980
 282.77823 284.56903 286.11359 287.46902 288.63882 289.67355 290.61508 291.46835
 292.23523 292.91705 293.51553 294.26096
 366.78100 356.36195 345.82091 334.71386 323.14381 311.36476 299.26172 287.09167
 274.83062 262.75457 250.79053 240.11848 230.26743 221.39839 213.60734 206.63629
 200.49724 195.46220 192.07115 190.14010 189.20405 189.29501 190.15696 191.49191
 193.24387 195.36582 197.65577 200.04172 202.51368 205.02063 207.13558 209.00453
 210.65749 211.82944 212.08539 212.34035 212.30430 212.03625 211.69620 211.35316
 210.99711 210.73406 210.56901 210.45997 210.41492 210.77287 211.18583 211.60178
 212.42173 213.62668 214.90364 216.71359 218.66854 220.73849 222.86045 224.97040
 227.05735 229.16830 231.29226 233.42521 235.58116 237.78012 240.06307 242.46002
 245.10797 247.38593 249.41488 251.20683 252.65078 253.80074 254.64969 254.99264
 255.05660 254.85755 254.24450 253.21945 251.85241 250.04036 247.97631 245.83626
 243.65422 241.48517 239.33212 237.19808 235.08503 232.97898 231.03193 229.21589
 227.52584 226.02479 224.68174 223.48070 222.38965 221.37660 220.50756 219.67551
 218.94446 218.15141 217.27637 216.66732 216.14427 214.17844 209.55791 208.56386
 209.77849 210.58751 212.01030 215.46445 219.83348 224.63814 230.38298 235.42961
 239.30138 243.38441 247.80821 252.23215 255.95381 258.85791 261.38406 263.97147
 266.69370 269.27994 271.80710 274.28348 276.07718 277.49542 279.01205 280.78955
 282.75531 284.54382 286.08893 287.44296 288.61273 289.64703 290.58670 291.43854
 292.20477 292.88739 293.48181 294.22653
 366.78100 356.36134 345.81969 334.71203 323.14138 311.36172 299.25807 287.08741
 274.82576 262.74910 250.78445 240.11179 230.26013 221.39048 213.59882 206.62717
 200.48751 195.45186 192.06020 190.12855 189.19189 189.28223 190.14358 191.47792
 193.22927 195.35061 197.63996 200.02530 202.49665 205.00299 207.11734 208.98568
 210.63802 211.80937 212.06471 212.31906 212.28240 212.01375 211.67309 211.32944
 210.97278 210.70912 210.54347 210.43381 210.38816 210.74550 211.15785 211.57319
 212.39254 213.59688 214.87323 216.68257 218.63691 220.70626 222.82760 224.93695
 227.02329 229.13364 231.25698 233.38933 235.54467 237.74301 240.02536 242.42170
 245.06905 247.34639 249.37474 251.16608 252.60943 253.75877 254.60712 254.94946
 255.01280 254.81315 254.19949 253.17384 251.80618 249.99353 247.92887 245.78822
 243.60556 241.43590 239.28225 237.14759 235.03394 232.92728 230.97963 229.16297
 227.47232 225.97066 224.62701 223.42535 222.33369 221.32004 220.45038 219.61773
 218.88607 218.09242 217.21676 216.60711 216.08345 214.15788 209.63084 208.65437
 209.79002 210.60078 211.99730 215.41899 219.77461 224.56491 230.30539 235.35724
 239.23174 243.31665 247.74356 252.18422 255.93977 258.86987 261.39700 263.96616
 266.67441 269.25351 271.77246 274.22815 276.00443 277.41602 278.94830 280.74991
 282.72855 284.51694 286.05942 287.41418 288.58328 289.61594 290.55222 291.40488
 292.16791 292.85077 293.44409 294.18588
 366.78100 356.36060 345.81820 334.70980 323.13839 311.35799 299.25359 287.08219
 274.81979 262.74239 250.77699 240.10359 230.25118 221.38078 213.58838 206.61598
 200.47558 195.43918 192.04678 190.11437 189.17697 189.26657 190.12717 191.46077
 193.21137 195.33197 197.62056 200.00516 202.47576 204.98136 207.09496 208.96256
 210.61416 211.78476 212.03935 212.29295 212.25555 211.98615 211.64475 211.30035
 210.94295 210.67854 210.51214 210.40174 210.35534 210.71194 211.12354 211.53814
 212.35674 213.56033 214.83593 216.64453 218.59813 220.66673 222.78733 224.89593
 226.98152 229.09112 231.21372 233.34532 235.49992 237.69752 239.97912 242.37472
 245.02131 247.29791 249.32551 251.11611 252.55871 253.70731 254.55491 254.89650
 254.95910 254.75870 254.14430 253.11790 251.74950 249.93610 247.87069 245.72929
 243.54589 241.37549 239.22109 237.08569 234.97129 232.86389 230.91548 229.09808
 227.40668 225.90428 224.55988 223.35748 222.26508 221.25067 220.38027 219.54687
 218.81447 218.02007 217.14367 216.53327 216.00887 214.12933 209.70927 208.74503
 209.81244 210.60178 211.97853 215.38234 219.71266 224.49265 230.23032 235.28516
 239.16234 243.25029 247.68077 252.13516 255.92113 258.87784 261.40973 263.96259
 266.65594 269.22534 271.73407 274.16928 275.92776 277.33545 278.88315 280.70963
 282.70059 284.48660 286.02713 287.38177 288.55035 289.58234 290.51685 291.36508
 292.12988 292.81073 293.40259 294.14059
 366.78100 356.35993 345.81687 334.70780 323.13573 311.35467 299.24960 287.07753
 274.81446 262.73640 250.77033 240.09626 230.24320 221.37213 213.57906 206.60600
 200.46493 195.42786 192.03480 190.10173 189.16366 189.25259 190.11253 191.44546
 193.19539 195.31533 197.60326 199.98719 202.45713 204.96206 207.07499 208.94193
 210.59286 211.76279 212.01672 212.26966 212.23159 211.96152 211.61946 211.27439
 210.91632 210.65126 210.48419 210.37312 210.32605 210.68199 211.09292 211.50685
 212.32479 213.52772 214.80265 216.61059 218.56352 220.63145 222.75139 224.85932
 226.94425 229.05318 231.17512 233.30605 235.45998 237.65692 239.93785 242.33278
 244.97872 247.25465 249.28158 251.07152 252.51345 253.66138 254.50831 254.84925
 254.91118 254.71011 254.09505 253.06798 251.69891 249.88485 247.81878 245.67671
 243.49265 241.32158 239.16651 237.03044 234.91538 232.80731 230.85824 229.04018
 227.34811 225.84504 224.49998 223.29691 222.20384 221.18878 220.31771 219.48364
 218.75057 217.95551 217.07844 216.46737 215.94231 214.10455 209.78171 208.84293
 209.83963 210.59364 211.96007 215.35075 219.64796 224.41838 230.15828 235.21587
 239.09766 243.19083 247.62491 252.09140 255.90472 258.88794 261.42627 263.96152
 266.63635 269.19049 271.68393 274.09119 275.82874 277.23544 278.80731 280.66599
 282.66953 284.45331 285.99185 287.34677 288.51627 289.54318 290.47217 291.31937
 292.08304 292.76389 293.35715 294.10208
 366.78100 356.35916 345.81532 334.70548 323.13264 311.35080 299.24496 287.07212
 274.80827 262.72943 250.76259 240.08775 230.23391 221.36207 213.56823 206.59439
 200.45255 195.41471 192.02087 190.08703 189.14819 189.23635 190.09550 191.42766
 193.17682 195.29598 197.58314 199.96630 202.43546 204.93962 207.05178 208.91794
 210.56810 211.73726 211.99042 212.24258 212.20373 211.93289 211.59005 211.24421
 210.88537 210.61953 210.45169 210.33985 210.29201 210.64717 211.05733 211.47049
 212.28765 213.48981 214.76396 216.57112 218.52328 220.59044 222.70960 224.81676
 226.90092 229.00908 231.13024 233.26040 235.41356 237.60972 239.88988 242.28404
 244.92919 247.20435 249.23051 251.01967 252.46083 253.60799 254.45415 254.79431
 254.85547 254.65363 254.03779 253.00995 251.64011 249.82527 247.75842 245.61558
 243.43074 241.25890 239.10306 236.96622 234.85038 232.74154 230.79170 228.97286
 227.28002 225.77618 224.43034 223.22650 222.13265 221.11681 220.24497 219.41013
 218.67629 217.88045 217.00261 216.39077 215.86493 214.07651 209.87849 208.94807
 209.86493 210.56364 211.94122 215.31371 219.57173 224.34102 230.08775 235.14871
 239.03114 243.14389 247.58086 252.05029 255.89778 258.92459 261.47742 263.98987
 266.62338 269.15247 271.61658 273.96512 275.67911 277.09705 278.71405 280.62354
 282.63748 284.41287 285.94492 287.29562 288.46310 289.49002 290.42477 291.27402
 292.03781 292.71997 293.31696 294.07761
 366.78100 356.35822 345.81344 334.70265 323.12887 311.34609 299.23931 287.06552
 274.80074 262.72096 250.75318 240.07739 230.22261 221.34983 213.55505 206.58026
 200.43748 195.39870 192.00392 190.06913 189.12935 189.21657 190.07479 191.40600
 193.15422 195.27244 197.55866 199.94087 202.40909 204.91231 207.02353 208.88874
 210.53796 211.70618 211.95840 212.20961 212.16983 211.89805 211.55427 211.20748
 210.84770 210.58092 210.41214 210.29935 210.25057 210.60479 211.01401 211.42622
 212.24244 213.44366 214.71688 216.52309 218.47431 220.54053 222.65875 224.76496
 226.84818 228.95540 231.07562 233.20483 235.35705 237.55227 239.83149 242.22470
 244.86892 247.14314 249.16836 250.95657 252.39679 253.54301 254.38823 254.72744
 254.78766 254.58488 253.96810 252.93931 251.56853 249.75275 247.68497 245.54118
 243.35540 241.18262 239.02584 236.88805 234.77127 232.66149 230.71071 228.89092
 227.19714 225.69236 224.34558 223.14079 222.04601 221.02923 220.15645 219.32066
 218.58588 217.78910 216.91032 216.29753 215.77075 214.03941 209.99347 209.07010
 209.90262 210.51714 211.89003 215.24939 219.47177 224.24490 230.00929 235.07600
 238.95808 243.10345 247.54724 252.01109 255.88870 258.97662 261.56647 264.06854
 266.64911 269.14630 271.57355 273.84610 275.55051 276.98688 278.62753 280.57529
 282.58139 284.35385 285.88812 287.23901 288.40747 289.44067 290.38159 291.23392
 292.00586 292.70029 293.31577 294.10013
 366.78100 356.35756 345.81213 334.70069 323.12625 311.34282 299.23538 287.06095
 274.79551 262.71507 250.74664 240.07020 230.21476 221.34133 213.54589 206.57046
 200.42702 195.38758 191.99215 190.05671 189.11627 189.20284 190.06040 191.39096
 193.13853 195.25609 197.54166 199.92322 202.39078 204.89335 207.00391 208.86847
 210.51704 211.68460 211.93617 212.18673 212.14629 211.87386 211.52942 211.18198
 210.82155 210.55411 210.38467 210.27124 210.22180 210.57537 210.98393 211.39549
 212.21106 213.41162 214.68418 216.48975 218.44031 220.50588 222.62344 224.72900
 226.81157 228.91813 231.03769 233.16626 235.31782 237.51238 239.79095 242.18351
 244.82708 247.10064 249.12520 250.91277 252.35233 253.49789 254.34246 254.68102
 254.74058 254.53715 253.91971 252.89028 251.51884 249.70240 247.63397 245.48953
 243.30309 241.12966 238.97222 236.83379 234.71635 232.60591 230.65448 228.83404
 227.13960 225.63417 224.28673 223.08129 221.98586 220.96842 220.09499 219.25855
 218.52311 217.72568 216.84624 216.23280 215.70537 214.00922 210.04962 209.20686
 210.00519 210.48016 211.81844 215.17056 219.36183 224.14232 229.92776 234.99875
 238.88663 243.04582 247.49825 251.96701 255.86787 259.00146 261.62823 264.13391
 266.69443 269.17282 271.57739 273.82404 275.53656 276.98108 278.60995 280.53836
 282.52518 284.29434 285.83130 287.18549 288.35678 289.39236 290.33728 291.19427
 291.97226 292.67432 293.29813 294.09308
 366.78100 356.35832 345.81363 334.70295 323.12926 311.34658 299.23989 287.06621
 274.80152 262.72184 250.75415 240.07847 230.22378 221.35110 213.55641 206.58173
 200.43904 195.40036 192.00567 190.07099 189.13130 189.21862 190.07693 191.40825
 193.15656 195.27488 197.56119 199.94351 202.41182 204.91514 207.02646 208.89177
 210.54109 211.70940 211.96172 212.21303 212.17335 211.90166 211.55798 211.21129
 210.85161 210.58492 210.41624 210.30355 210.25487 210.60918 211.01850 211.43081
 212.24713 213.44844 214.72176 216.52807 218.47939 220.54570 222.66402 224.77033
 226.85365 228.96097 231.08128 233.21060 235.36291 237.55823 239.83754 242.23086
 244.87517 247.14949 249.17480 250.96312 252.40343 253.54975 254.39506 254.73438
 254.79469 254.59201 253.97532 252.94664 251.57595 249.76027 247.69258 245.54890
 243.36321 241.19053 239.03384 236.89616 234.77947 232.66979 230.71911 228.89942
 227.20574 225.70105 224.35437 223.14968 222.05500 221.03831 220.16563 219.32994
 218.59526 217.79857 216.91989 216.30720 215.78052 214.04971 209.99281 209.32132
 210.17613 210.50308 211.76349 215.11150 219.27487 224.06146 229.85541 234.92659
 238.82474 242.96776 247.42461 251.90938 255.80975 258.95233 261.60403 264.12173
 266.70578 269.18201 271.56924 273.85751 275.58221 277.01065 278.61197 280.50446
 282.48453 284.24234 285.77676 287.13043 288.30310 289.34045 290.28644 291.14529
 291.92096 292.61481 293.22672 294.01117
 366.78100 356.35864 345.81427 334.70391 323.13055 311.34818 299.24182 287.06846
 274.80410 262.72473 250.75737 240.08201 230.22764 221.35528 213.56092 206.58655
 200.44419 195.40583 192.01147 190.07710 189.13774 189.22538 190.08401 191.41565
 193.16429 195.28292 197.56956 199.95220 202.42084 204.92447 207.03611 208.90175
 210.55138 211.72002 211.97266 212.22429 212.18493 211.91357 211.57021 211.22384
 210.86448 210.59812 210.42975 210.31739 210.26903 210.62366 211.03330 211.44594
 212.26258 213.46421 214.73785 216.54449 218.49612 220.56276 222.68140 224.78803
 226.87167 228.97931 231.09995 233.22958 235.38222 237.57786 239.85749 242.25113
 244.89577 247.17040 249.19604 250.98468 252.42531 253.57195 254.41759 254.75723
 254.81786 254.61550 253.99914 252.97077 251.60041 249.78505 247.71768 245.57432
 243.38896 241.21660 239.06023 236.92287 234.80651 232.69714 230.74678 228.92742
 227.23405 225.72969 224.38333 223.17897 222.08460 221.06824 220.19588 219.36051
 218.62615 217.82979 216.95142 216.33906 215.81270 214.08348 210.01515 209.29436
 210.34276 210.59366 211.68637 215.10632 219.21587 223.99113 229.80894 234.87523
 238.77745 242.91066 247.36717 251.85657 255.74596 258.89246 261.56161 264.08151
 266.67371 269.13638 271.50894 273.80219 275.52646 276.96182 278.57193 280.46304
 282.44357 284.19202 285.71548 287.06833 288.24112 289.27805 290.22281 291.07996
 291.85522 292.54779 293.15280 293.92566
 366.78100 356.35724 345.81147 334.69971 323.12495 311.34118 299.23342 287.05866
 274.79289 262.71213 250.74337 240.06660 230.21084 221.33708 213.54131 206.56555
 200.42179 195.38202 191.98626 190.05050 189.10973 189.19597 190.05321 191.38344
 193.13068 195.24792 197.53315 199.91439 202.38163 204.88386 206.99410 208.85834
 210.50657 211.67381 211.92505 212.17528 212.13452 211.86176 211.51699 211.16923
 210.80847 210.54070 210.37094 210.25718 210.20741 210.56065 210.96889 211.38012
 212.19536 213.39560 214.66783 216.47307 218.42331 220.48854 222.60578 224.71102
 226.79325 228.89949 231.01873 233.14696 235.29820 237.49244 239.77067 242.16291
 244.80615 247.07938 249.10362 250.89086 252.33009 253.47533 254.31957 254.65780
 254.71704 254.51328 253.89551 252.86575 251.49399 249.67722 247.60846 245.46370
 243.27693 241.10317 238.94541 236.80664 234.68888 232.57812 230.62635 228.80559
 227.11083 225.60506 224.25730 223.05154 221.95577 220.93801 220.06425 219.22749
 218.49172 217.69396 216.81420 216.20043 215.67267 214.03401 210.18066 209.25333
 210.38370 210.71437 211.62607 215.02621 219.15794 223.93814 229.76601 234.82854
 238.72925 242.88138 247.33589 251.82423 255.73537 258.92184 261.61438 264.11700
 266.66791 269.09201 271.42297 273.67691 275.39352 276.84360 278.47961 280.40134
 282.39551 284.13998 285.64581 286.98706 288.15536 289.18359 290.12421 290.97665
 291.74417 292.42361 293.00952 293.76318
 366.78100 356.35533 345.80766 334.69399 323.11732 311.33165 299.22197 287.04530
 274.77763 262.69496 250.72429 240.04562 230.18795 221.31228 213.51461 206.53694
 200.39126 195.34959 191.95192 190.01425 189.07158 189.15591 190.01124 191.33957
 193.08490 195.20023 197.48355 199.86288 202.32821 204.82854 206.93687 208.79920
 210.44553 211.61086 211.86019 212.10852 212.06585 211.79117 211.44450 211.09483
 210.73216 210.46249 210.29082 210.17515 210.12348 210.47481 210.88114 211.29046
 212.10379 213.30212 214.57245 216.37578 218.32411 220.38744 222.50277 224.60610
 226.68643 228.79075 230.90808 233.03441 235.18374 237.37607 239.65240 242.04273
 244.68406 246.95539 248.97772 250.76305 252.20037 253.34370 254.18603 254.52236
 254.57969 254.37402 253.75435 252.72268 251.34901 249.53034 247.45966 245.31299
 243.12432 240.94865 238.78898 236.64831 234.52864 232.41597 230.46230 228.63963
 226.94295 225.43528 224.08561 222.87794 221.78027 220.76060 219.88493 219.04626
 218.30859 217.50892 216.62725 216.01157 215.48190 213.95990 210.40814 209.31564
 210.26231 210.67615 211.70029 214.94940 219.07793 223.87482 229.69228 234.74901
 238.64325 242.85010 247.31429 251.76678 255.70215 258.96887 261.72556 264.25488
 266.74176 269.12332 271.42294 273.56335 275.28604 276.79031 278.44623 280.37598
 282.33319 284.07181 285.57379 286.90060 288.04849 289.07028 290.00516 290.85583
 291.61642 292.31912 292.93295 293.71524
 366.78100 356.35442 345.80585 334.69127 323.11369 311.32711 299.21654 287.03896
 274.77038 262.68681 250.71523 240.03565 230.17707 221.30050 213.50192 206.52334
 200.37676 195.33419 191.93561 189.99703 189.05346 189.13688 189.99130 191.31872
 193.06315 195.17757 197.45999 199.83842 202.30284 204.80226 206.90968 208.77111
 210.41653 211.58095 211.82938 212.07680 212.03322 211.75764 211.41007 211.05949
 210.69591 210.42534 210.25276 210.13618 210.08360 210.43403 210.83945 211.24787
 212.06029 213.25772 214.52714 216.32956 218.27699 220.33941 222.45383 224.55625
 226.63568 228.73910 230.85552 232.98095 235.12937 237.32079 239.59621 241.98564
 244.62606 246.89648 248.91791 250.70233 252.13875 253.28117 254.12260 254.45802
 254.51444 254.30787 253.68729 252.65471 251.28013 249.46056 247.38898 245.24140
 243.05182 240.87525 238.71467 236.57309 234.45252 232.33894 230.38436 228.56078
 226.86321 225.35463 224.00405 222.79548 221.69690 220.67632 219.79974 218.96017
 218.22159 217.42101 216.53844 215.92186 215.39128 213.92674 210.51837 209.44035
 210.22200 210.64461 211.76849 214.88875 218.97658 223.79402 229.61002 234.66304
 238.56470 242.79237 247.26813 251.72000 255.67981 259.00000 261.80286 264.34958
 266.81522 269.17447 271.45639 273.57550 275.32297 276.84689 278.47745 280.35828
 282.27982 284.01172 285.50607 286.82214 287.97192 288.99881 289.94342 290.81094
 291.62256 292.36066 293.00546 293.82718
 366.78100 356.35218 345.80137 334.68455 323.10473 311.31591 299.20310 287.02328
 274.75246 262.66665 250.69283 240.01101 230.15020 221.27138 213.47056 206.48974
 200.34093 195.29611 191.89529 189.95448 189.00866 189.08984 189.94203 191.26721
 193.00939 195.12157 197.40176 199.77794 202.24012 204.73731 206.84249 208.70167
 210.34486 211.50704 211.75322 211.99840 211.95259 211.67477 211.32495 210.97214
 210.60632 210.33350 210.15868 210.03987 209.98505 210.33323 210.73642 211.14260
 211.95278 213.14797 214.41515 216.21533 218.16051 220.22070 222.33288 224.43306
 226.51025 228.61143 230.72561 232.84880 234.99498 237.18416 239.45734 241.84453
 244.48271 246.75089 248.77008 250.55226 251.98644 253.12663 253.96581 254.29899
 254.35317 254.14436 253.52154 252.48672 251.10991 249.28809 247.21427 245.06445
 242.87264 240.69382 238.53100 236.38719 234.26437 232.14855 230.19174 228.36592
 226.66610 225.15528 223.80247 222.59165 221.49083 220.46802 219.58920 218.74738
 218.00657 217.20375 216.31893 215.70011 215.16730 213.82436 210.70212 209.56587
 210.19040 210.58655 211.78056 214.84378 218.87897 223.69440 229.52101 234.57068
 238.47496 242.72433 247.21602 251.66800 255.65416 259.03204 261.89288 264.46649
 266.92255 269.23685 271.46561 273.53635 275.24918 276.73242 278.33527 280.24402
 282.22363 283.95465 285.42325 286.71759 287.86746 288.90244 289.85657 290.75397
 291.59799 292.34964 293.00623 293.84302
 366.78100 356.34765 345.79229 334.67094 323.08658 311.29323 299.17587 286.99152
 274.71616 262.62581 250.64746 239.96110 230.09575 221.21239 213.40704 206.42168
 200.26833 195.21898 191.81362 189.86827 188.91791 188.99456 189.84220 191.16285
 192.90049 195.00814 197.28379 199.65543 202.11308 204.60572 206.70637 208.56101
 210.19966 211.35731 211.59895 211.83960 211.78924 211.50689 211.15253 210.79518
 210.42482 210.14747 209.96812 209.84476 209.78541 210.12905 210.52770 210.92934
 211.73499 212.92564 214.18828 215.98393 217.92457 219.98022 222.08786 224.18351
 226.25615 228.35280 230.46245 232.58109 234.72274 236.90738 239.17603 241.55867
 244.19232 246.45597 248.47061 250.24826 251.67790 252.81355 253.64819 253.97684
 254.02648 253.81313 253.18578 252.14642 250.76507 248.93871 246.86036 244.70600
 242.50965 240.32630 238.15894 236.01059 233.88323 231.76288 229.80152 227.97117
 226.26681 224.75146 223.39411 222.17875 221.07340 220.04604 219.16269 218.31633
 217.57098 216.76363 215.87427 215.25092 214.71356 213.60625 211.02571 209.76707
 210.03757 210.37735 211.79099 214.84967 218.82986 223.61220 229.47519 234.51796
 238.42818 242.69026 247.20612 251.66512 255.69147 259.12045 262.01434 264.59784
 267.03958 269.36319 271.48328 273.65268 275.36737 276.80777 278.33786 280.16635
 282.11588 283.83173 285.30536 286.65527 287.84332 288.94278 289.99185 290.94223
 291.79697 292.55814 293.22308 294.07047
 366.78100 356.34684 345.79068 334.66851 323.08335 311.28919 299.17103 286.98586
 274.70970 262.61854 250.63938 239.95221 230.08605 221.20189 213.39573 206.40957
 200.25540 195.20524 191.79908 189.85292 188.90175 188.97759 189.82443 191.14427
 192.88110 194.98794 197.26278 199.63362 202.09045 204.58229 206.68213 208.53597
 210.17381 211.33064 211.57148 211.81132 211.76016 211.47699 211.12183 210.76367
 210.39251 210.11434 209.93418 209.81002 209.74986 210.09270 210.49053 210.89137
 211.69621 212.88605 214.14788 215.94272 217.88256 219.93740 222.04423 224.13907
 226.21091 228.30675 230.41558 232.53342 234.67426 236.85810 239.12594 241.50777
 244.14061 246.40345 248.41729 250.19412 251.62296 252.75780 253.59164 253.91947
 253.96831 253.75415 253.12599 252.08583 250.70366 248.87650 246.79734 244.64218
 242.44501 240.26085 238.09269 235.94353 233.81536 231.69420 229.73204 227.90088
 226.19571 224.67955 223.32139 222.10523 220.99907 219.97090 219.08674 218.23958
 217.49342 216.68525 215.79509 215.17093 214.63277 213.57042 211.10234 209.91595
 210.07861 210.46155 211.95053 214.89084 218.77332 223.55254 229.42833 234.45259
 238.36842 242.64777 247.19025 251.65242 255.65875 259.08203 261.99802 264.62967
 267.12189 269.44016 271.72052 273.95782 275.81732 277.24423 278.62088 280.23096
 282.07748 283.73822 285.17508 286.55698 287.86670 289.10751 290.23959 291.26514
 292.18753 293.00891 293.72647 294.64090
 366.78100 356.35187 345.80074 334.68361 323.10349 311.31436 299.20123 287.02110
 274.74997 262.66384 250.68971 240.00759 230.14646 221.26733 213.46620 206.48507
 200.33594 195.29081 191.88969 189.94856 189.00243 189.08330 189.93517 191.26004
 193.00191 195.11378 197.39366 199.76953 202.23140 204.72827 206.83314 208.69201
 210.33488 211.49676 211.74263 211.98750 211.94137 211.66324 211.31311 210.95998
 210.59386 210.32073 210.14560 210.02647 209.97134 210.31921 210.72208 211.12796
 211.93783 213.13270 214.39957 216.19944 218.14431 220.20418 222.31606 224.41593
 226.49280 228.59367 230.70754 232.83041 234.97628 237.16515 239.43803 241.82490
 244.46277 246.73064 248.74951 250.53138 251.96525 253.10513 253.94400 254.27687
 254.33074 254.12161 253.49848 252.46335 251.08623 249.26410 247.18997 245.03984
 242.84771 240.66858 238.50545 236.36133 234.23820 232.12207 230.16494 228.33881
 226.63868 225.12755 223.77443 222.56330 221.46217 220.43904 219.55991 218.71778
 217.97665 217.17352 216.28840 215.66927 215.13614 213.84312 210.88394 209.89542
 210.30327 210.72490 212.14084 214.91943 218.69502 223.44827 229.25429 234.26239
 238.18159 242.47208 246.95174 251.29422 255.20059 258.63403 261.67087 264.44025
 267.05353 269.50064 271.97455 274.32257 276.31787 277.86984 279.19104 280.62384
 282.22363 283.78879 285.18808 286.55380 287.79050 289.02499 290.18295 291.23196
 292.17542 293.01559 293.74954 294.68488
 366.78100 356.35901 345.81501 334.70502 323.13203 311.35004 299.24404 287.07105
 274.80706 262.72806 250.76107 240.08608 230.23208 221.36009 213.56610 206.59211
 200.45011 195.41212 192.01813 190.08413 189.14514 189.23315 190.09215 191.42416
 193.17317 195.29218 197.57918 199.96219 202.43120 204.93520 207.04721 208.91322
 210.56322 211.73223 211.98524 212.23725 212.19825 211.92726 211.58427 211.23827
 210.87928 210.61329 210.44529 210.33330 210.28531 210.64032 211.05032 211.46333
 212.28034 213.48234 214.75635 216.56336 218.51536 220.58237 222.70138 224.80839
 226.89239 229.00040 231.12141 233.25141 235.40442 237.60043 239.88043 242.27444
 244.91945 247.19446 249.22046 251.00947 252.45048 253.59748 254.44349 254.78350
 254.84450 254.64251 254.02652 252.99853 251.62853 249.81354 247.74655 245.60355
 243.41856 241.24657 239.09057 236.95358 234.83759 232.72860 230.77860 228.95961
 227.26662 225.76262 224.41663 223.21264 222.11864 221.10265 220.23066 219.39567
 218.66167 217.86568 216.98769 216.37569 215.84970 214.25249 210.57028 209.65092
 210.56187 211.16689 212.45448 215.00610 218.63705 223.33200 229.10965 234.05675
 238.00427 242.27600 246.68385 250.93816 254.77788 258.17929 261.23041 264.04245
 266.72467 269.32809 271.89136 274.30948 276.42865 278.17642 279.65948 281.08395
 282.53174 283.95563 285.28284 286.54742 287.72366 288.80182 289.79599 290.59485
 291.27179 291.87460 292.40121 293.07233
 366.78100 356.36182 345.82064 334.71345 323.14327 311.36409 299.26091 287.09072
 274.82954 262.75336 250.78918 240.11699 230.26581 221.39663 213.60545 206.63426
 200.49508 195.45990 192.06872 190.13753 189.20135 189.29217 190.15399 191.48880
 193.24062 195.36244 197.65226 200.03807 202.50989 205.01671 207.13153 209.00034
 210.65316 211.82498 212.08080 212.33561 212.29943 212.03125 211.69107 211.34788
 210.99170 210.72852 210.56334 210.45415 210.40897 210.76679 211.17961 211.59542
 212.41524 213.62006 214.89688 216.70669 218.66151 220.73133 222.85315 224.96296
 227.04978 229.16060 231.28442 233.41723 235.57305 237.77187 240.05469 242.45150
 245.09932 247.37714 249.40596 251.19777 252.64159 253.79141 254.64023 254.98304
 255.04686 254.84768 254.23450 253.20931 251.84213 250.02995 247.96577 245.82558
 243.64340 241.47422 239.32104 237.18685 235.07367 232.96749 231.02031 229.20412
 227.51394 226.01276 224.66958 223.46839 222.37721 221.36403 220.49485 219.66266
 218.93148 218.13830 217.26312 216.65394 216.13075 214.43787 210.46106 209.48982
 210.63374 211.37819 212.63643 215.09042 218.60919 223.27191 229.10983 233.97513
 237.99350 242.25072 246.67416 250.98051 254.86618 258.25815 261.24210 263.93820
 266.52228 269.06302 271.55356 273.91339 276.02292 277.85913 279.50696 281.06570
 282.58072 284.01413 285.35867 286.61530 287.76810 288.81772 289.78357 290.65457
 291.42346 292.06815 292.60422 293.28232
 366.78100 356.35575 345.80849 334.69524 323.11899 311.33373 299.22448 287.04823
 274.78097 262.69872 250.72847 240.05021 230.19296 221.31771 213.52045 206.54320
 200.39795 195.35669 191.95944 190.02219 189.07993 189.16468 190.02043 191.34917
 193.09492 195.21067 197.49441 199.87416 202.33991 204.84065 206.94940 208.81215
 210.45889 211.62464 211.87439 212.12313 212.08088 211.80663 211.46037 211.11112
 210.74887 210.47961 210.30836 210.19311 210.14185 210.49360 210.90035 211.31009
 212.12384 213.32259 214.59333 216.39708 218.34583 220.40957 222.52532 224.62907
 226.70981 228.81456 230.93231 233.05905 235.20880 237.40155 239.67829 242.06904
 244.71079 246.98253 249.00528 250.79103 252.22877 253.37252 254.21527 254.55201
 254.60976 254.40451 253.78525 252.75400 251.38075 249.56249 247.49224 245.34599
 243.15773 240.98248 238.82323 236.68297 234.56372 232.45147 230.49821 228.67596
 226.97971 225.47245 224.12320 222.91595 221.81869 220.79944 219.92419 219.08593
 218.34868 217.54943 216.66817 216.05292 215.52367 214.12482 210.82333 209.70081
 210.43770 211.15215 212.46811 214.99728 218.54662 223.21516 229.08366 233.95399
 238.01015 242.28897 246.73628 251.10414 255.08504 258.55096 261.52255 264.12381
 266.58740 269.00836 271.39087 273.66641 275.69250 277.46375 279.11548 280.73694
 282.35190 283.85910 285.24768 286.53830 287.71494 288.76010 289.71710 290.59460
 291.37955 292.01895 292.50388 293.22363
 366.78100 356.34686 345.79072 334.66858 323.08344 311.28930 299.17116 286.98602
 274.70987 262.61873 250.63959 239.95245 230.08631 221.20217 213.39603 206.40989
 200.25575 195.20561 191.79947 189.85333 188.90219 188.97805 189.82491 191.14476
 192.88162 194.98848 197.26334 199.63420 202.09106 204.58292 206.68278 208.53664
 210.17450 211.33136 211.57222 211.81208 211.76094 211.47780 211.12265 210.76451
 210.39337 210.11523 209.93509 209.81095 209.75081 210.09367 210.49153 210.89239
 211.69725 212.88711 214.14897 215.94383 217.88369 219.93854 222.04540 224.14026
 226.21212 228.30798 230.41684 232.53470 234.67556 236.85942 239.12728 241.50914
 244.14200 246.40486 248.41872 250.19558 251.62443 252.75929 253.59315 253.92101
 253.96987 253.75573 253.12759 252.08745 250.70531 248.87817 246.79903 244.64389
 242.44675 240.26261 238.09447 235.94532 233.81718 231.69604 229.73390 227.90276
 226.19762 224.68148 223.32334 222.10720 221.00106 219.97292 219.08878 218.24164
 217.49550 216.68736 215.79721 215.17307 214.63493 213.62866 211.25337 210.21814
 210.26343 210.78453 212.20894 214.83307 218.44453 223.15135 229.03149 233.91313
 238.00186 242.28793 246.74757 251.14062 255.17607 258.70157 261.68442 264.23459
 266.63037 268.98431 271.31131 273.55563 275.54391 277.29895 278.97083 280.63211
 282.29416 283.83685 285.23489 286.51505 287.67960 288.70947 289.64682 290.53549
 291.34973 291.92242 292.30548 292.80313
 366.78100 356.34559 345.78818 334.66477 323.07836 311.28295 299.16353 286.97712
 274.69971 262.60730 250.62689 239.93848 230.07107 221.18566 213.37825 206.39084
 200.23542 195.18401 191.77660 189.82919 188.87678 188.95137 189.79696 191.11555
 192.85114 194.95673 197.23032 199.59990 202.05549 204.54608 206.64467 208.49726
 210.13385 211.28944 211.52903 211.76762 211.71521 211.43079 211.07438 210.71497
 210.34256 210.06315 209.88174 209.75633 209.69492 210.03651 210.43310 210.83268
 211.63627 212.82486 214.08545 215.87904 217.81763 219.87122 221.97681 224.07040
 226.14099 228.23558 230.34316 232.45975 234.59934 236.78193 239.04852 241.42911
 244.06070 246.32229 248.33488 250.11047 251.53805 252.67164 253.50423 253.83082
 253.87841 253.66300 253.03359 251.99218 250.60877 248.78036 246.69995 244.54353
 242.34512 240.15971 237.99030 235.83989 233.71048 231.58807 229.62466 227.79225
 226.08584 224.56842 223.20901 221.99160 220.88419 219.85478 218.96937 218.12096
 217.37355 216.56414 215.67273 215.04732 214.50790 213.55284 211.29887 210.47743
 210.38925 210.72188 212.12375 214.75790 218.34358 223.05827 228.93823 233.81689
 237.92017 242.20888 246.67668 251.07826 255.13782 258.70007 261.70547 264.24411
 266.62265 268.95798 271.26898 273.50247 275.46069 277.20380 278.90402 280.60791
 282.30853 283.87613 285.28238 286.54895 287.68558 288.69156 289.60876 290.48712
 291.30637 291.84390 292.19736 292.63031
 366.78100 356.34902 345.79504 334.67506 323.09208 311.30010 299.18412 287.00113
 274.72715 262.63817 250.66119 239.97621 230.11223 221.23025 213.42627 206.44229
 200.29031 195.24233 191.83835 189.89437 188.94538 189.02340 189.87242 191.19444
 192.93346 195.04248 197.31950 199.69252 202.15154 204.64556 206.74758 208.60360
 210.24361 211.40263 211.64565 211.88767 211.83869 211.55771 211.20473 210.84875
 210.47977 210.20379 210.02581 209.90383 209.84585 210.19086 210.59088 210.99390
 211.80092 212.99294 214.25696 216.05398 217.99600 220.05302 222.16204 224.25906
 226.33308 228.43110 230.54211 232.66213 234.80515 236.99117 239.26119 241.64521
 244.28023 246.54525 248.56127 250.34029 251.77131 252.90833 253.74435 254.07436
 254.12538 253.91340 253.28742 252.24944 250.86946 249.04448 246.96750 244.81452
 242.61954 240.43756 238.27158 236.12459 233.99861 231.87963 229.91965 228.09067
 226.38769 224.87371 223.51773 222.30375 221.19977 220.17379 219.29181 218.44683
 217.70284 216.89686 216.00888 215.38690 214.85092 213.75577 211.17714 210.47534
 210.59225 210.88336 212.19806 214.76581 218.26915 222.94571 228.81972 233.71970
 237.81277 242.11353 246.58806 250.99196 255.06871 258.66077 261.69110 264.24356
 266.62708 268.95694 271.25537 273.46707 275.38403 277.08960 278.78433 280.52216
 282.27606 283.88025 285.29828 286.55981 287.67889 288.67361 289.57281 290.46237
 291.21976 291.63324 291.86551 292.14822
 366.78100 356.35020 345.79741 334.67861 323.09682 311.30602 299.19123 287.00943
 274.73664 262.64884 250.67305 239.98925 230.12646 221.24566 213.44287 206.46007
 200.30928 195.26248 191.85969 189.91689 188.96910 189.04830 189.89851 191.22171
 192.96192 195.07212 197.35033 199.72453 202.18474 204.67994 206.78314 208.64035
 210.28155 211.44176 211.68596 211.92917 211.88137 211.60158 211.24978 210.89499
 210.52719 210.25240 210.07560 209.95481 209.89801 210.24422 210.64542 211.04963
 211.85783 213.05104 214.31624 216.11445 218.05765 220.11586 222.22606 224.32427
 226.39947 228.49867 230.61088 232.73208 234.87629 237.06349 239.33470 241.71990
 244.35611 246.62231 248.63952 250.41972 251.85193 252.99013 253.82734 254.15854
 254.21075 253.99995 253.37516 252.33836 250.95957 249.13577 247.05998 244.90818
 242.71439 240.53359 238.36880 236.22300 234.09821 231.98041 230.02161 228.19382
 226.49202 224.97923 223.62443 222.41164 221.30884 220.28405 219.40325 218.55946
 217.81666 217.01187 216.12507 215.50428 214.96948 213.86177 211.27603 210.33656
 210.73254 211.03534 212.23643 214.71803 218.13147 222.81740 228.67645 233.67322
 237.70450 242.05386 246.52586 250.93076 255.03510 258.66544 261.72485 264.31082
 266.68576 268.98935 271.26614 273.43390 275.32822 277.01163 278.66751 280.39825
 282.14825 283.78195 285.22635 286.50015 287.60611 288.56595 289.49054 290.32367
 291.10312 291.81372 292.43448 293.22559
 366.78100 356.34813 345.79326 334.67239 323.08852 311.29565 299.17878 286.99491
 274.72004 262.63017 250.65230 239.96643 230.10156 221.21869 213.41381 206.42894
 200.27607 195.22720 191.82233 189.87746 188.92759 189.00472 189.85285 191.17398
 192.91211 195.02024 197.29637 199.66850 202.12663 204.61976 206.72089 208.57602
 210.21515 211.37328 211.61541 211.85654 211.80667 211.52480 211.17093 210.81406
 210.44419 210.16731 209.98844 209.86557 209.80670 210.15083 210.54996 210.95209
 211.75822 212.94935 214.21248 216.00861 217.94974 220.00587 222.11400 224.21013
 226.28326 228.38039 230.49052 232.60965 234.75178 236.93691 239.20604 241.58917
 244.22330 246.48743 248.50256 250.28069 251.71081 252.84694 253.68207 254.01120
 254.06133 253.84846 253.22159 252.18272 250.80185 248.97598 246.89811 244.74424
 242.54837 240.36550 238.19863 236.05076 233.92389 231.80402 229.84315 228.01328
 226.30941 224.79454 223.43767 222.22280 221.11793 220.09106 219.20819 218.36231
 217.61744 216.81057 215.92170 215.29883 214.76196 213.80104 211.54523 210.27638
 210.49783 211.06676 212.33122 214.64700 218.06870 222.74965 228.63998 233.69116
 237.69435 242.04910 246.51836 250.92267 255.05313 258.72476 261.80673 264.40689
 266.77829 269.05136 271.31656 273.47488 275.33850 276.99500 278.63025 280.33588
 282.08575 283.71088 285.13980 286.41061 287.59036 288.67682 289.74069 290.70825
 291.57846 292.35339 293.03036 293.89307
 366.78100 356.35091 345.79882 334.68073 323.09963 311.30954 299.19545 287.01436
 274.74227 262.65518 250.68008 239.99699 230.13490 221.25481 213.45272 206.47063
 200.32053 195.27444 191.87235 189.93026 188.98317 189.06308 189.91398 191.23789
 192.97880 195.08971 197.36862 199.74353 202.20444 204.70034 206.80425 208.66216
 210.30407 211.46498 211.70989 211.95379 211.90670 211.62761 211.27652 210.92243
 210.55534 210.28124 210.10515 209.98506 209.92897 210.27588 210.67779 211.08270
 211.89160 213.08551 214.35142 216.15033 218.09424 220.15315 222.26405 224.36296
 226.43887 228.53878 230.65169 232.77360 234.91850 237.10641 239.37832 241.76423
 244.40114 246.66805 248.68595 250.46686 251.89977 253.03868 253.87659 254.20850
 254.26141 254.05131 253.42722 252.39113 251.01304 249.18995 247.11486 244.96376
 242.77067 240.59058 238.42649 236.28140 234.15731 232.04021 230.08212 228.25503
 226.55394 225.04185 223.68776 222.47567 221.37357 220.34948 219.46939 218.62630
 217.88421 217.08012 216.19402 215.57393 215.03984 213.97612 211.49504 210.24664
 210.52426 211.29617 212.56749 214.70679 218.04591 222.70685 228.60718 233.64554
 237.63248 241.96687 246.41368 250.80319 254.93291 258.61130 261.71509 264.36096
 266.80872 269.15347 271.46637 273.67856 275.57623 277.20367 278.76703 280.41010
 282.10977 283.70316 285.19168 286.57068 287.80087 288.97171 290.07791 291.08008
 291.98138 292.78400 293.48517 294.37872
 366.78100 356.35579 345.80858 334.69537 323.11916 311.33394 299.22473 287.04852
 274.78131 262.69910 250.72889 240.05068 230.19347 221.31826 213.52105 206.54383
 200.39862 195.35741 191.96020 190.02299 189.08078 189.16557 190.02136 191.35015
 193.09593 195.21172 197.49551 199.87530 202.34109 204.84188 206.95067 208.81346
 210.46025 211.62603 211.87582 212.12461 212.08240 211.80819 211.46198 211.11277
 210.75056 210.48135 210.31014 210.19492 210.14371 210.49550 210.90229 211.31208
 212.12587 213.32466 214.59545 216.39924 218.34802 220.41181 222.52760 224.63139
 226.71218 228.81697 230.93476 233.06155 235.21134 237.40412 239.68091 242.07170
 244.71349 246.98528 249.00807 250.79386 252.23165 253.37544 254.21823 254.55501
 254.61280 254.40759 253.78838 252.75717 251.38396 249.56575 247.49554 245.34933
 243.16111 240.98590 238.82669 236.68648 234.56727 232.45506 230.50185 228.67964
 226.98343 225.47621 224.12700 222.91979 221.82258 220.80337 219.92816 219.08995
 218.35274 217.55353 216.67232 216.05710 215.52789 214.26768 211.34787 210.14046
 210.62355 211.53722 212.76132 214.71857 217.97896 222.61642 228.49254 233.51917
 237.48801 241.79951 246.21121 250.55568 254.64230 258.29242 261.41953 264.14798
 266.70401 269.16766 271.56131 273.84039 275.80560 277.47122 279.02280 280.59210
 282.21829 283.77881 285.30536 286.68402 287.89645 289.00140 290.08057 291.05820
 291.93750 292.72049 293.40451 294.27621
 366.78100 356.35545 345.80789 334.69434 323.11778 311.33223 299.22267 287.04612
 274.77857 262.69601 250.72546 240.04690 230.18935 221.31379 213.51624 206.53869
 200.39313 195.35158 191.95402 190.01647 189.07392 189.15836 190.01381 191.34225
 193.08770 195.20314 197.48659 199.86604 202.33148 204.83193 206.94037 208.80282
 210.44926 211.61471 211.86416 212.11260 212.07005 211.79549 211.44894 211.09938
 210.73683 210.46728 210.29572 210.18017 210.12861 210.48006 210.88650 211.29595
 212.10940 213.30784 214.57829 216.38173 218.33018 220.39363 222.50907 224.61252
 226.69296 228.79741 230.91485 233.04130 235.19075 237.38319 239.65964 242.05008
 244.69153 246.96297 248.98542 250.77087 252.20831 253.35176 254.19420 254.53065
 254.58809 254.38254 253.76299 252.73143 251.35788 249.53932 247.46877 245.32222
 243.13366 240.95811 238.79855 236.65800 234.53844 232.42589 230.47234 228.64978
 226.95323 225.44567 224.09612 222.88856 221.79101 220.77146 219.89590 219.05735
 218.31979 217.52024 216.63868 216.02313 215.49358 214.27098 211.42284 210.17007
 210.51781 211.60170 212.92265 214.75992 217.94099 222.56889 228.45956 233.45866
 237.42725 241.72404 246.11469 250.43773 254.50917 258.13461 261.22797 263.93658
 266.50381 269.03146 271.52057 273.87213 275.87323 277.55148 279.12552 280.71118
 282.29456 283.85010 285.38956 286.76126 287.95694 289.03824 290.04312 291.00357
 291.86737 292.63660 293.30856 294.16492
 366.78100 356.35230 345.80160 334.68490 323.10519 311.31649 299.20379 287.02409
 274.75339 262.66769 250.69398 240.01228 230.15158 221.27288 213.47218 206.49148
 200.34278 195.29807 191.89737 189.95667 189.01097 189.09227 189.94457 191.26987
 193.01216 195.12446 197.40476 199.78106 202.24336 204.74066 206.84595 208.70525
 210.34855 211.51085 211.75715 212.00245 211.95675 211.67904 211.32934 210.97664
 210.61094 210.33824 210.16354 210.04483 209.99013 210.33843 210.74173 211.14803
 211.95833 213.15363 214.42092 216.22122 218.16652 220.22682 222.33912 224.43942
 226.51672 228.61801 230.73231 232.85561 235.00191 237.19121 239.46451 241.85180
 244.49010 246.75840 248.77770 250.56000 251.99430 253.13460 253.97389 254.30719
 254.36149 254.15279 253.53009 252.49539 251.11868 249.29698 247.22328 245.07358
 242.88188 240.70318 238.54048 236.39677 234.27407 232.15837 230.20167 228.37597
 226.67627 225.16556 223.81286 222.60216 221.50146 220.47876 219.60006 218.75836
 218.01765 217.21495 216.33025 215.71155 215.17885 214.09398 211.54454 210.39743
 210.42665 211.47108 212.99136 214.80405 217.88307 222.50562 228.47644 233.42087
 237.42273 241.71779 246.11426 250.44676 254.55997 258.23465 261.34317 263.99976
 266.48776 268.94513 271.35901 273.62653 275.59058 277.29871 278.95425 280.63562
 282.30359 283.90494 285.41196 286.77478 287.96078 289.01755 289.99231 290.88834
 291.69565 292.43338 293.09033 293.92752
 366.78100 356.34954 345.79609 334.67663 323.09418 311.30272 299.18727 287.00481
 274.73136 262.64290 250.66645 239.98199 230.11854 221.23708 213.43363 206.45017
 200.29872 195.25126 191.84781 189.90435 188.95589 189.03444 189.88398 191.20653
 192.94607 195.05562 197.33316 199.70671 202.16625 204.66080 206.76334 208.61989
 210.26043 211.41998 211.66352 211.90607 211.85761 211.57715 211.22470 210.86924
 210.50079 210.22533 210.04788 209.92642 209.86897 210.21451 210.61506 211.01860
 211.82615 213.01869 214.28324 216.08078 218.02333 220.08087 222.19042 224.28796
 226.36250 228.46105 230.57259 232.69314 234.83668 237.02323 239.29377 241.67832
 244.31386 246.57941 248.59595 250.37550 251.80704 252.94459 253.78113 254.11168
 254.16322 253.95177 253.32631 252.28885 250.90940 249.08494 247.00849 244.85603
 242.66158 240.48012 238.31467 236.16821 234.04276 231.92430 229.96485 228.13639
 226.43394 224.92048 223.56503 222.35157 221.24812 220.22266 219.34120 218.49675
 217.75329 216.94784 216.06038 215.43893 214.90347 213.96765 211.76187 210.41211
 210.36819 211.44138 212.96692 214.82915 217.87224 222.45644 228.40005 233.35742
 237.34843 241.65825 246.05544 250.39941 254.55493 258.28455 261.42776 264.07990
 266.54279 268.95682 271.33682 273.61053 275.56332 277.20593 278.78973 280.43085
 282.08521 283.69666 285.22610 286.60864 287.78876 288.79593 289.73602 290.60059
 291.29742 291.23495 291.18036 291.11081
 366.78100 356.34850 345.79400 334.67350 323.09000 311.29750 299.18100 286.99750
 274.72300 262.63351 250.65601 239.97051 230.10601 221.22351 213.41901 206.43451
 200.28201 195.23351 191.82901 189.88451 188.93501 189.01251 189.86101 191.18251
 192.92101 195.02951 197.30601 199.67852 202.13702 204.63052 206.73202 208.58752
 210.22702 211.38552 211.62802 211.86952 211.82002 211.53852 211.18502 210.82852
 210.45902 210.18252 210.00402 209.88152 209.82303 210.16753 210.56703 210.96953
 211.77603 212.96753 214.23103 216.02753 217.96903 220.02553 222.13403 224.23053
 226.30403 228.40153 230.51203 232.63153 234.77403 236.95953 239.22904 241.61254
 244.24704 246.51154 248.52704 250.30554 251.73604 252.87254 253.70804 254.03754
 254.08804 253.87554 253.24904 252.21054 250.83004 249.00454 246.92704 244.77355
 242.57805 240.39555 238.22905 236.08155 233.95505 231.83555 229.87505 228.04555
 226.34205 224.82755 223.47105 222.25655 221.15205 220.12555 219.24305 218.39755
 217.65305 216.84656 215.95806 215.33556 214.79906 213.95352 211.94286 210.42415
 210.19571 211.30746 212.93723 214.90590 217.99478 222.50540 228.31993 233.31332
 237.28177 241.59303 245.97447 250.32133 254.48567 258.22437 261.35580 264.02374
 266.52423 268.94638 271.35999 273.70074 275.66162 277.31042 278.90872 280.53622
 282.16663 283.74182 285.17651 286.53702 287.73938 288.84372 289.92987 290.93454
 291.83813 292.64276 293.34570 294.24152
 366.78100 356.35133 345.79967 334.68200 323.10134 311.31167 299.19800 287.01734
 274.74567 262.65900 250.68434 240.00167 230.14001 221.26034 213.45867 206.47701
 200.32734 195.28167 191.88001 189.93834 188.99168 189.07201 189.92334 191.24768
 192.98901 195.10035 197.37968 199.75501 202.21635 204.71268 206.81701 208.67535
 210.31768 211.47902 211.72435 211.96868 211.92202 211.64335 211.29269 210.93902
 210.57235 210.29869 210.12302 210.00335 209.94769 210.29502 210.69736 211.10269
 211.91202 213.10636 214.37269 216.17202 218.11636 220.17569 222.28703 224.38636
 226.46269 228.56303 230.67636 232.79870 234.94403 237.13236 239.40470 241.79103
 244.42836 246.69570 248.71403 250.49537 251.92870 253.06803 253.90637 254.23870
 254.29204 254.08237 253.45870 252.42304 251.04537 249.22270 247.14804 244.99737
 242.80471 240.62504 238.46137 236.31671 234.19304 232.07637 230.11871 228.29204
 226.59138 225.07971 223.72604 222.51438 221.41271 220.38905 219.50938 218.66671
 217.92505 217.12138 216.23571 215.61605 215.08238 214.10263 211.80780 210.60089
 210.34215 211.23994 212.90689 214.93138 217.98991 222.47778 228.31142 233.29390
 237.25389 241.55353 245.92378 250.25050 254.39995 258.13055 261.27814 263.96396
 266.46948 268.91721 271.34604 273.68170 275.67340 277.36853 278.99796 280.65698
 282.28366 283.84415 285.34421 286.71323 287.92020 289.00769 290.03162 291.01651
 291.93427 292.75150 293.46542 294.37524
 366.78100 356.35198 345.80096 334.68394 323.10393 311.31491 299.20189 287.02187
 274.75085 262.66483 250.69081 240.00880 230.14778 221.26876 213.46774 206.48672
 200.33770 195.29268 191.89167 189.95065 189.00463 189.08561 189.93759 191.26257
 193.00455 195.11654 197.39652 199.77250 202.23448 204.73146 206.83644 208.69542
 210.33840 211.50039 211.74637 211.99135 211.94533 211.66731 211.31729 210.96427
 210.59826 210.32524 210.15022 210.03120 209.97618 210.32416 210.72714 211.13313
 211.94311 213.13809 214.40507 216.20505 218.15003 220.21001 222.32200 224.42198
 226.49896 228.59994 230.71392 232.83690 234.98288 237.17187 239.44485 241.83183
 244.46981 246.73779 248.75677 250.53875 251.97274 253.11272 253.95170 254.28468
 254.33866 254.12964 253.50662 252.47161 251.09459 249.27257 247.19855 245.04853
 242.85651 240.67749 238.51448 236.37046 234.24744 232.13142 230.17440 228.34838
 226.64836 225.13735 223.78433 222.57331 221.47229 220.44927 219.57025 218.72823
 217.98721 217.18420 216.29918 215.68016 215.14714 214.14513 211.79024 210.62854
 210.56340 211.41876 212.77129 214.69701 217.81660 222.40654 228.29895 233.26970
 237.22366 241.52957 245.89301 250.20911 254.38399 258.15063 261.30948 263.96384
 266.43753 268.86823 271.28970 273.63593 275.62311 277.26700 278.86038 280.52185
 282.18991 283.76431 285.22382 286.58127 287.76044 288.80893 289.79221 290.69730
 291.50775 291.85455 292.15750 292.54358
 366.78100 356.35426 345.80552 334.69079 323.11305 311.32631 299.21557 287.03783
 274.76910 262.68536 250.71362 240.03388 230.17515 221.29841 213.49967 206.52093
 200.37419 195.33146 191.93272 189.99398 189.05024 189.13350 189.98777 191.31503
 193.05929 195.17355 197.45582 199.83408 202.29834 204.79760 206.90486 208.76613
 210.41139 211.57565 211.82391 212.07117 212.02744 211.75170 211.40396 211.05322
 210.68949 210.41875 210.24601 210.12927 210.07653 210.42680 210.83206 211.24032
 212.05258 213.24984 214.51911 216.32137 218.26863 220.33089 222.44516 224.54742
 226.62668 228.72994 230.84620 232.97147 235.11973 237.31099 239.58625 241.97551
 244.61578 246.88604 248.90730 250.69156 252.12783 253.27009 254.11135 254.44661
 254.50287 254.29614 253.67540 252.64266 251.26792 249.44818 247.37645 245.22871
 243.03897 240.86223 238.70150 236.55976 234.43902 232.32528 230.37054 228.54681
 226.84907 225.34033 223.98959 222.78085 221.68212 220.66138 219.78464 218.94490
 218.20617 217.40543 216.52269 215.90595 215.37521 214.30284 211.79520 210.54858
 210.69983 211.44466 212.63873 214.58492 217.79997 222.39314 228.20442 233.18683
 237.14737 241.45757 245.82393 250.15952 254.34111 258.12296 261.31470 264.03473
 266.54984 268.96930 271.39450 273.72260 275.67511 277.30264 278.88876 280.51505
 282.13803 283.68585 285.18103 286.55133 287.75177 288.84406 289.87354 290.85846
 291.74426 292.53311 293.22223 294.10040
 366.78100 356.35571 345.80842 334.69513 323.11884 311.33355 299.22426 287.04798
 274.78069 262.69840 250.72811 240.04982 230.19253 221.31724 213.51995 206.54266
 200.39737 195.35608 191.95879 190.02151 189.07922 189.16393 190.01964 191.34835
 193.09406 195.20977 197.49348 199.87319 202.33890 204.83961 206.94832 208.81103
 210.45775 211.62346 211.87317 212.12188 212.07959 211.80530 211.45901 211.10972
 210.74743 210.47814 210.30685 210.19156 210.14028 210.49199 210.89870 211.30841
 212.12212 213.32083 214.59154 216.39525 218.34396 220.40767 222.52338 224.62709
 226.70781 228.81252 230.93023 233.05694 235.20665 237.39936 239.67607 242.06678
 244.70849 246.98020 249.00291 250.78862 252.22633 253.37005 254.21276 254.54947
 254.60718 254.40189 253.78260 252.75131 251.37802 249.55973 247.48944 245.34315
 243.15486 240.97958 238.82029 236.68000 234.56071 232.44842 230.49513 228.67284
 226.97655 225.46926 224.11997 222.91268 221.81539 220.79610 219.92082 219.08253
 218.34524 217.54595 216.66466 216.04937 215.52008 214.40587 211.80063 210.50609
 210.72916 211.52527 212.77431 214.64282 217.80550 222.34363 228.10631 233.07362
 237.04227 241.34332 245.69791 250.02785 254.20506 257.97653 261.18088 263.96796
 266.58469 269.08295 271.55176 273.95630 275.99872 277.64941 279.19263 280.72549
 282.24622 283.71136 285.21951 286.59555 287.80627 288.90976 289.96036 290.98303
 291.90283 292.72189 293.43744 294.34930
 366.78100 356.35479 345.80658 334.69237 323.11516 311.32895 299.21874 287.04153
 274.77332 262.69011 250.71890 240.03969 230.18148 221.30527 213.50706 206.52885
 200.38264 195.34043 191.94222 190.00401 189.06080 189.14460 189.99939 191.32718
 193.07197 195.18676 197.46955 199.84834 202.31313 204.81292 206.92071 208.78250
 210.42829 211.59308 211.84187 212.08966 212.04645 211.77124 211.42403 211.07382
 210.71061 210.44040 210.26819 210.15198 210.09977 210.45056 210.85635 211.26514
 212.07793 213.27572 214.54551 216.34830 218.29609 220.35888 222.47367 224.57646
 226.65625 228.76004 230.87683 233.00262 235.15141 237.34320 239.61900 242.00879
 244.64958 246.92037 248.94216 250.72695 252.16374 253.30653 254.14832 254.48411
 254.54090 254.33469 253.71448 252.68227 251.30806 249.48885 247.41764 245.27043
 243.08122 240.90501 238.74480 236.60359 234.48338 232.37017 230.41596 228.59275
 226.89554 225.38733 224.03712 222.82891 221.73070 220.71049 219.83428 218.99507
 218.25686 217.45665 216.57444 215.95823 215.42802 214.35985 211.85133 210.61670
 210.66765 211.53989 212.92697 214.75552 217.82697 222.30722 228.09084 233.01836
 236.99925 241.29265 245.64427 249.94121 254.07375 257.79880 260.97498 263.74716
 266.38193 268.96027 271.49548 273.93524 276.05933 277.82681 279.41934 280.95178
 282.43320 283.84399 285.22485 286.58893 287.78009 288.84503 289.83334 290.74567
 291.59915 292.38232 293.06650 293.93839
 366.78100 356.35508 345.80717 334.69325 323.11633 311.33041 299.22050 287.04358
 274.77566 262.69275 250.72183 240.04291 230.18499 221.30908 213.51116 206.53324
 200.38733 195.34541 191.94749 190.00958 189.06666 189.15074 190.00582 191.33391
 193.07899 195.19407 197.47716 199.85624 202.32132 204.82140 206.92949 208.79157
 210.43765 211.60274 211.85182 212.09990 212.05698 211.78207 211.43515 211.08523
 210.72232 210.45240 210.28048 210.16456 210.11265 210.46373 210.86981 211.27890
 212.09198 213.29006 214.56015 216.36323 218.31131 220.37439 222.48948 224.59256
 226.67264 228.77673 230.89381 233.01989 235.16897 237.36106 239.63714 242.02722
 244.66831 246.93939 248.96147 250.74655 252.18364 253.32672 254.16880 254.50489
 254.56197 254.35605 253.73614 252.70422 251.33030 249.51138 247.44047 245.29355
 243.10463 240.92872 238.76880 236.62788 234.50796 232.39505 230.44113 228.61821
 226.92130 225.41338 224.06346 222.85554 221.75763 220.73771 219.86179 219.02288
 218.28496 217.48504 216.60312 215.98721 215.45729 214.38840 211.87529 210.67767
 210.75066 211.47594 212.84926 214.70412 217.76216 222.28096 228.08231 232.97012
 236.96704 241.26231 245.62672 249.93552 254.08368 257.83212 261.01733 263.75729
 266.34396 268.87183 271.37033 273.80478 275.92267 277.70328 279.34116 280.92026
 282.43362 283.85513 285.20517 286.55530 287.74295 288.80374 289.78329 290.68234
 291.50845 292.26862 292.93326 293.78027
 366.78100 356.35497 345.80695 334.69292 323.11589 311.32987 299.21984 287.04281
 274.77478 262.69176 250.72073 240.04170 230.18368 221.30765 213.50962 206.53160
 200.38557 195.34354 191.94551 190.00749 189.06446 189.14843 190.00341 191.33138
 193.07635 195.19133 197.47430 199.85327 202.31825 204.81822 206.92619 208.78816
 210.43414 211.59911 211.84808 212.09606 212.05303 211.77800 211.43098 211.08095
 210.71792 210.44789 210.27587 210.15984 210.10781 210.45879 210.86476 211.27373
 212.08671 213.28468 214.55465 216.35763 218.30560 220.36857 222.48354 224.58652
 226.66649 228.77046 230.88744 233.01341 235.16238 237.35436 239.63033 242.02030
 244.66127 246.93225 248.95422 250.73919 252.17617 253.31914 254.16111 254.49709
 254.55406 254.34803 253.72801 252.69598 251.32195 249.50292 247.43190 245.28487
 243.09584 240.91982 238.75979 236.61876 234.49874 232.38571 230.43168 228.60865
 226.91163 225.40360 224.05357 222.84555 221.74752 220.72749 219.85147 219.01244
 218.27441 217.47439 216.59236 215.97633 215.44630 214.41487 211.98622 210.56956
 210.87560 211.46593 212.70186 214.71161 217.80254 222.25107 228.00037 232.90244
 236.87869 241.17964 245.55667 249.88611 254.04730 257.82117 261.05014 263.83701
 266.43832 268.94330 271.41699 273.81573 275.90472 277.68396 279.32138 280.88937
 282.39377 283.81668 285.18448 286.53079 287.71951 288.78275 289.76907 290.67374
 291.53165 292.30258 292.97604 293.83429
 366.78100 356.35466 345.80632 334.69198 323.11464 311.32830 299.21796 287.04062
 274.77228 262.68894 250.71760 240.03826 230.17992 221.30358 213.50524 206.52690
 200.38056 195.33822 191.93988 190.00154 189.05820 189.14186 189.99652 191.32418
 193.06884 195.18350 197.46616 199.84482 202.30948 204.80914 206.91680 208.77846
 210.42412 211.58878 211.83744 212.08510 212.04176 211.76642 211.41908 211.06874
 210.70540 210.43506 210.26272 210.14638 210.09404 210.44470 210.85036 211.25902
 212.07168 213.26934 214.53900 216.34166 218.28932 220.35198 222.46664 224.56930
 226.64896 228.75262 230.86928 232.99495 235.14361 237.33527 239.61093 242.00059
 244.64125 246.91191 248.93357 250.71823 252.15489 253.29755 254.13921 254.47487
 254.53153 254.32519 253.70485 252.67251 251.29817 249.47883 247.40749 245.26015
 243.07081 240.89447 238.73413 236.59279 234.47245 232.35911 230.40477 228.58143
 226.88409 225.37575 224.02541 222.81707 221.71873 220.69839 219.82205 218.98271
 218.24437 217.44403 216.56169 215.94535 215.41501 214.42157 212.07655 210.54193
 210.74327 211.44221 212.79898 214.90512 217.95387 222.25571 227.93297 232.82562
 236.78772 241.08406 245.45688 249.78012 253.92781 257.68320 260.91019 263.73474
 266.40121 268.95581 271.45874 273.90866 276.05255 277.85471 279.48117 281.01553
 282.48535 283.87411 285.18808 286.49542 287.68268 288.74216 289.72415 290.62589
 291.47482 292.23724 292.90329 293.75208
 366.78100 356.35543 345.80786 334.69429 323.11773 311.33216 299.22259 287.04602
 274.77845 262.69588 250.72531 240.04675 230.18918 221.31361 213.51604 206.53847
 200.39290 195.35133 191.95377 190.01620 189.07363 189.15806 190.01349 191.34192
 193.08735 195.20279 197.48622 199.86565 202.33108 204.83151 206.93994 208.80237
 210.44881 211.61424 211.86367 212.11210 212.06953 211.79496 211.44839 211.09883
 210.73626 210.46669 210.29512 210.17955 210.12798 210.47941 210.88585 211.29528
 212.10871 213.30714 214.57757 216.38100 218.32943 220.39287 222.50830 224.61173
 226.69216 228.79659 230.91402 233.04045 235.18989 237.38232 239.65875 242.04918
 244.69061 246.96204 248.98447 250.76990 252.20734 253.35077 254.19320 254.52963
 254.58706 254.38149 253.76192 252.73036 251.35679 249.53822 247.46765 245.32108
 243.13251 240.95694 238.79738 236.65681 234.53724 232.42467 230.47110 228.64853
 226.95196 225.44440 224.09483 222.88726 221.78969 220.77012 219.89455 219.05598
 218.31842 217.51885 216.63728 216.02171 215.49214 214.46542 212.04240 210.63303
 210.64081 211.42729 212.88893 215.02924 218.01974 222.22652 227.92207 232.78770
 236.74699 241.04205 245.40823 249.71008 253.83133 257.55536 260.76855 263.58902
 266.28311 268.88321 271.39658 273.87372 276.08264 277.92844 279.57922 281.11688
 282.56107 283.92163 285.21884 286.49472 287.67035 288.72180 289.68961 290.57910
 291.38974 292.11575 292.76593 293.59454
 366.78100 356.35715 345.81130 334.69945 323.12460 311.34076 299.23291 287.05806
 274.79221 262.71136 250.74251 240.06566 230.20981 221.33596 213.54012 206.56427
 200.42042 195.38057 191.98472 190.04887 189.10802 189.19417 190.05132 191.38147
 193.12863 195.24578 197.53093 199.91208 202.37923 204.88138 206.99153 208.85568
 210.50383 211.67099 211.92214 212.17229 212.13144 211.85859 211.51374 211.16589
 210.80504 210.53719 210.36735 210.25350 210.20365 210.55680 210.96495 211.37610
 212.19125 213.39140 214.66355 216.46871 218.41886 220.48401 222.60116 224.70631
 226.78846 228.89461 231.01376 233.14191 235.29306 237.48722 239.76537 242.15752
 244.80067 247.07382 249.09797 250.88512 252.32427 253.46942 254.31358 254.65173
 254.71088 254.50703 253.88918 252.85933 251.48748 249.67063 247.60178 245.45694
 243.27009 241.09624 238.93839 236.79954 234.68169 232.57084 230.61899 228.79814
 227.10330 225.59745 224.24960 223.04375 221.94790 220.93005 220.05620 219.21935
 218.48350 217.68566 216.80581 216.19196 215.66411 214.56119 211.95543 210.72423
 210.65982 211.46619 212.87688 214.95833 217.93797 222.16895 227.90515 232.73676
 236.72311 241.02365 245.40294 249.71576 253.84732 257.57452 260.77258 263.56403
 266.26880 268.84900 271.34088 273.86136 276.06302 277.84357 279.41473 280.92609
 282.41318 283.83173 285.18054 286.43924 287.58722 288.61572 289.56821 290.44354
 291.23087 291.85376 292.30234 292.78925
 366.78100 356.36017 345.81733 334.70850 323.13667 311.35583 299.25100 287.07917
 274.81633 262.73850 250.77267 240.09883 230.24600 221.37517 213.58233 206.60950
 200.46867 195.43183 192.03900 190.10617 189.16833 189.25750 190.11767 191.45083
 193.20100 195.32117 197.60933 199.99350 202.46367 204.96883 207.08200 208.94917
 210.60033 211.77050 212.02467 212.27783 212.24000 211.97017 211.62833 211.28350
 210.92567 210.66083 210.49400 210.38317 210.33633 210.69250 211.10367 211.51783
 212.33600 213.53917 214.81433 216.62250 218.57567 220.64383 222.76400 224.87217
 226.95733 229.06650 231.18867 233.31983 235.47400 237.67117 239.95233 242.34750
 244.99367 247.26983 249.29700 251.08717 252.52933 253.67750 254.52467 254.86583
 254.92800 254.72717 254.11233 253.08550 251.71667 249.90283 247.83700 245.69517
 243.51133 241.34050 239.18567 237.04983 234.93500 232.82717 230.87833 229.06050
 227.36867 225.86583 224.52100 223.31817 222.22533 221.21050 220.33967 219.50583
 218.77300 217.97817 217.10133 216.49050 215.96567 214.75397 211.91162 210.70897
 210.70110 211.50983 212.85556 214.85915 217.86470 222.13751 227.81514 232.71483
 236.65781 240.97299 245.36705 249.69562 253.81445 257.53812 260.76407 263.61951
 266.32422 268.89023 271.38660 273.84644 276.03976 277.86340 279.42062 280.84824
 282.22791 283.58823 284.94043 286.22952 287.39859 288.43716 289.38376 290.14523
 290.82928 291.48499 292.05780 292.78775
 366.78100 356.36297 345.82293 334.71690 323.14787 311.36983 299.26780 287.09876
 274.83873 262.76370 250.80066 240.12963 230.27960 221.41156 213.62153 206.65150
 200.51346 195.47943 192.08939 190.15936 189.22433 189.31629 190.17926 191.51523
 193.26819 195.39116 197.68213 200.06909 202.54206 205.05002 207.16599 209.03596
 210.68992 211.86289 212.11986 212.37582 212.34079 212.07376 211.73472 211.39269
 211.03765 210.77562 210.61159 210.50355 210.45952 210.81849 211.23245 211.64942
 212.47039 213.67635 214.95432 216.76528 218.72125 220.79222 222.91518 225.02615
 227.11412 229.22608 231.35105 233.48502 235.64198 237.84195 240.12591 242.52388
 245.17285 247.45181 249.48178 251.27475 252.71971 253.87068 254.72065 255.06461
 255.12958 254.93154 254.31951 253.29548 251.92944 250.11841 248.05538 245.91634
 243.73531 241.56728 239.41524 237.28221 235.17017 233.06514 231.11911 229.30407
 227.61504 226.11501 224.77297 223.57294 222.48291 221.47087 220.60284 219.77180
 219.04177 218.24974 217.37570 216.76767 216.24564 214.95139 211.95087 210.62602
 210.64215 211.53659 212.93341 214.89484 217.89975 222.17140 227.77348 232.66704
 236.60388 240.90984 245.30516 249.64095 253.75037 257.45776 260.67474 263.56915
 266.33105 268.91171 271.44543 273.92877 276.14951 278.02170 279.60767 281.01294
 282.34073 283.65222 284.96210 286.29086 287.50012 288.68100 289.86038 290.92880
 291.88971 292.74542 293.49298 294.44562
 366.78100 356.36074 345.81849 334.71023 323.13897 311.35871 299.25446 287.08320
 274.82094 262.74369 250.77843 240.10517 230.25291 221.38266 213.59040 206.61814
 200.47789 195.44163 192.04937 190.11711 189.17986 189.26960 190.13034 191.46409
 193.21483 195.33557 197.62431 200.00906 202.47980 204.98554 207.09929 208.96703
 210.61877 211.78951 212.04426 212.29800 212.26074 211.99149 211.65023 211.30597
 210.94871 210.68446 210.51820 210.40794 210.36169 210.71843 211.13017 211.54491
 212.36366 213.56740 214.84314 216.65189 218.60563 220.67437 222.79511 224.90386
 226.98960 229.09934 231.22209 233.35383 235.50857 237.70631 239.98806 242.38380
 245.03054 247.30729 249.33503 251.12577 252.56851 253.71726 254.56500 254.90674
 254.96949 254.76923 254.15497 253.12871 251.76046 249.94720 247.88194 245.74069
 243.55743 241.38717 239.23291 237.09766 234.98340 232.87614 230.92789 229.11063
 227.41937 225.91711 224.57286 223.37060 222.27834 221.26408 220.39383 219.56057
 218.82831 218.03406 217.15780 216.54754 216.02328 214.85942 212.12241 210.49335
 210.50131 211.44295 213.02779 215.03334 217.97482 222.18927 227.77130 232.64084
 236.55435 240.84225 245.22594 249.54590 253.62439 257.29205 260.49335 263.40530
 266.19299 268.79892 271.36377 273.95276 276.28918 278.28064 279.96930 281.42294
 282.70193 283.88406 285.06097 286.38571 287.58844 288.68896 289.81339 290.88586
 291.85043 292.70938 293.45975 294.41602
 366.78100 356.35782 345.81265 334.70147 323.12729 311.34411 299.23694 287.06276
 274.79758 262.71741 250.74923 240.07305 230.21788 221.34470 213.54952 206.57434
 200.43117 195.39199 191.99681 190.06164 189.12146 189.20828 190.06610 191.39693
 193.14475 195.26257 197.54840 199.93022 202.39804 204.90086 207.01169 208.87651
 210.52533 211.69316 211.94498 212.19580 212.15563 211.88345 211.53927 211.19209
 210.83192 210.56474 210.39556 210.28239 210.23321 210.58703 210.99585 211.40768
 212.22350 213.42432 214.69715 216.50297 218.45379 220.51962 222.63744 224.74326
 226.82608 228.93291 231.05273 233.18155 235.33338 237.52820 239.80702 242.19984
 244.84367 247.11749 249.14231 250.93014 252.36996 253.51578 254.36060 254.69943
 254.75925 254.55607 253.93890 252.90972 251.53854 249.72237 247.65419 245.51001
 243.32383 241.15066 238.99348 236.85530 234.73813 232.62795 230.67677 228.85659
 227.16242 225.65724 224.31006 223.10489 222.00971 220.99253 220.11936 219.28318
 218.54800 217.75082 216.87165 216.25847 215.73129 214.69719 212.25305 210.43634
 210.54257 211.50073 213.07074 215.14282 218.00024 222.15514 227.80437 232.61299
 236.53326 240.80177 245.18073 249.48878 253.55609 257.20947 260.40646 263.29404
 266.06674 268.70605 271.24908 273.77216 276.05670 278.01575 279.74957 281.31973
 282.74130 284.03976 285.26514 286.46881 287.62354 288.67569 289.64926 290.54453
 291.36560 292.12723 292.81161 293.68378
 366.78100 356.35827 345.81354 334.70280 323.12907 311.34634 299.23961 287.06588
 274.80115 262.72141 250.75368 240.07795 230.22322 221.35049 213.55576 206.58102
 200.43829 195.39956 192.00483 190.07010 189.13037 189.21763 190.07590 191.40717
 193.15544 195.27371 197.55998 199.94224 202.41051 204.91378 207.02505 208.89032
 210.53959 211.70785 211.96012 212.21139 212.17166 211.89993 211.55620 211.20946
 210.84973 210.58300 210.41427 210.30154 210.25281 210.60707 211.01634 211.42861
 212.24488 213.44615 214.71942 216.52568 218.47695 220.54322 222.66149 224.76776
 226.85103 228.95829 231.07856 233.20783 235.36010 237.55537 239.83464 242.22790
 244.87217 247.14644 249.17171 250.95998 252.40025 253.54651 254.39178 254.73105
 254.79132 254.58859 253.97186 252.94312 251.57239 249.75666 247.68893 245.54520
 243.35947 241.18673 239.03000 236.89227 234.77554 232.66581 230.71508 228.89534
 227.20161 225.69688 224.35015 223.14542 222.05069 221.03395 220.16122 219.32549
 218.59076 217.79403 216.91530 216.30256 215.77583 214.72145 212.23035 210.50224
 210.53555 211.47478 213.01833 215.12140 217.96677 222.12695 227.80276 232.60402
 236.52802 240.78566 245.16588 249.47755 253.55254 257.19342 260.36700 263.24466
 266.07062 268.71561 271.21326 273.77960 276.08276 277.97775 279.55978 280.99469
 282.38773 283.73074 285.03171 286.29263 287.45810 288.49478 289.42856 290.29068
 291.06354 291.66309 292.04831 292.47998
 366.78100 356.36101 345.81903 334.71104 323.14005 311.36006 299.25608 287.08509
 274.82310 262.74612 250.78113 240.10814 230.25616 221.38617 213.59418 206.62219
 200.48221 195.44622 192.05423 190.12225 189.18526 189.27527 190.13628 191.47030
 193.22131 195.34232 197.63134 200.01635 202.48736 204.99337 207.10739 208.97540
 210.62741 211.79843 212.05344 212.30745 212.27047 212.00148 211.66049 211.31650
 210.95952 210.69553 210.52954 210.41956 210.37357 210.73058 211.14259 211.55761
 212.37662 213.58063 214.85665 216.66566 218.61967 220.68869 222.80970 224.91871
 227.00472 229.11474 231.23775 233.36976 235.52478 237.72279 240.00480 242.40081
 245.04783 247.32484 249.35285 251.14387 252.58688 253.73589 254.58391 254.92592
 254.98893 254.78894 254.17496 253.14897 251.78098 249.96800 247.90301 245.76202
 243.57903 241.40905 239.25506 237.12007 235.00609 232.89910 230.95111 229.13412
 227.44314 225.94115 224.59716 223.39518 222.30319 221.28920 220.41922 219.58623
 218.85424 218.06025 217.18427 216.57428 216.05029 214.87965 212.11717 210.61411
 210.52669 211.42743 213.02715 215.05798 217.92812 222.10435 227.75552 232.61253
 236.51918 240.78325 245.16188 249.46989 253.52649 257.14600 260.30960 263.20737
 266.05591 268.71292 271.22861 273.79575 276.11276 278.03174 279.59940 280.97220
 282.28256 283.57886 284.86401 286.12097 287.26428 288.28958 289.23566 290.10388
 290.88980 291.60739 292.25092 293.07104
 366.78100 356.36105 345.81910 334.71115 323.14020 311.36025 299.25630 287.08535
 274.82340 262.74645 250.78150 240.10855 230.25660 221.38665 213.59470 206.62275
 200.48280 195.44685 192.05490 190.12295 189.18600 189.27605 190.13710 191.47115
 193.22220 195.34325 197.63230 200.01735 202.48840 204.99445 207.10850 208.97655
 210.62861 211.79966 212.05471 212.30876 212.27181 212.00286 211.66191 211.31796
 210.96101 210.69706 210.53111 210.42116 210.37521 210.73226 211.14431 211.55936
 212.37841 213.58246 214.85851 216.66756 218.62161 220.69066 222.81171 224.92076
 227.00681 229.11686 231.23991 233.37196 235.52701 237.72506 240.00711 242.40316
 245.05021 247.32726 249.35531 251.14636 252.58941 253.73846 254.58651 254.92856
 254.99161 254.79166 254.17771 253.15176 251.78381 249.97086 247.90591 245.76496
 243.58201 241.41206 239.25811 237.12316 235.00921 232.90226 230.95431 229.13736
 227.44641 225.94446 224.60051 223.39856 222.30661 221.29266 220.42272 219.58977
 218.85782 218.06387 217.18792 216.57797 216.05402 214.89609 212.16342 210.59427
 210.50755 211.48190 213.02966 214.98311 217.88420 222.08914 227.75168 232.61755
 236.51224 240.78145 245.16245 249.46840 253.50699 257.09637 260.23581 263.13434
 265.98666 268.65146 271.18509 273.76163 276.10837 278.07333 279.68192 281.05371
 282.31973 283.55405 284.78815 285.99170 287.09042 288.09180 289.02182 289.87714
 290.65182 291.33725 291.93280 292.69180
 366.78100 356.35915 345.81531 334.70546 323.13262 311.35077 299.24493 287.07208
 274.80824 262.72939 250.76255 240.08770 230.23386 221.36201 213.56817 206.59432
 200.45248 195.41463 192.02079 190.08694 189.14810 189.23625 190.09541 191.42756
 193.17672 195.29587 197.58303 199.96618 202.43534 204.93949 207.05165 208.91780
 210.56796 211.73711 211.99027 212.24242 212.20358 211.93273 211.58988 211.24404
 210.88519 210.61935 210.45150 210.33966 210.29181 210.64697 211.05712 211.47028
 212.28743 213.48959 214.76374 216.57090 218.52305 220.59021 222.70936 224.81652
 226.90067 229.00883 231.12998 233.26014 235.41329 237.60945 239.88960 242.28376
 244.92891 247.20407 249.23022 251.01938 252.46053 253.60769 254.45384 254.79400
 254.85515 254.65331 254.03746 253.00962 251.63977 249.82492 247.75808 245.61523
 243.43039 241.25854 239.10270 236.96585 234.85001 232.74116 230.79132 228.97247
 227.27963 225.77578 224.42994 223.22609 222.13225 221.11640 220.24456 219.40971
 218.67587 217.88002 217.00218 216.39033 215.86449 214.79808 212.27856 210.59723
 210.48361 211.45709 213.01372 214.99809 217.89685 222.08942 227.75314 232.57672
 236.47151 240.73833 245.12473 249.43408 253.45856 257.01266 260.12158 263.01636
 265.88742 268.57724 271.12012 273.70596 276.07690 278.08661 279.75684 281.17252
 282.43497 283.62979 284.79242 285.93405 286.98340 287.93231 288.81131 289.64081
 290.40375 291.08078 291.65369 292.36603
 366.78100 356.35727 345.81153 334.69980 323.12506 311.34133 299.23359 287.05886
 274.79312 262.71239 250.74366 240.06692 230.21119 221.33745 213.54172 206.56598
 200.42225 195.38251 191.98678 190.05104 189.11031 189.19658 190.05384 191.38411
 193.13137 195.24864 197.53390 199.91517 202.38243 204.88470 206.99497 208.85923
 210.50750 211.67476 211.92603 212.17629 212.13556 211.86282 211.51809 211.17036
 210.80962 210.54189 210.37215 210.25842 210.20868 210.56195 210.97021 211.38148
 212.19675 213.39701 214.66928 216.47454 218.42481 220.49007 222.60734 224.71260
 226.79487 228.90113 231.02040 233.14867 235.29993 237.49420 239.77246 242.16473
 244.80799 247.08126 249.10552 250.89279 252.33206 253.47732 254.32159 254.65985
 254.71912 254.51538 253.89765 252.86791 251.49618 249.67945 247.61071 245.46598
 243.27924 241.10551 238.94777 236.80904 234.69130 232.58057 230.62884 228.80810
 227.11337 225.60763 224.25990 223.05416 221.95843 220.94069 220.06696 219.23022
 218.49449 217.69676 216.81702 216.20329 215.67555 214.69649 212.38335 210.66711
 210.39497 211.37781 213.05562 215.08153 217.93114 222.09547 227.74559 232.52066
 236.41026 240.66747 245.05536 249.36636 253.37753 256.90692 260.00638 262.91632
 265.81412 268.51831 271.06360 273.65549 276.04883 278.09293 279.79697 281.23862
 282.51389 283.70331 284.82767 285.92365 286.94492 287.87100 288.69965 289.51651
 290.28284 290.97083 291.56268 292.23895
 366.78100 356.35723 345.81145 334.69968 323.12491 311.34114 299.23336 287.05859
 274.79282 262.71205 250.74327 240.06650 230.21073 221.33695 213.54118 206.56541
 200.42164 195.38186 191.98609 190.05032 189.10954 189.19577 190.05300 191.38323
 193.13045 195.24768 197.53291 199.91414 202.38136 204.88359 206.99382 208.85804
 210.50627 211.67350 211.92473 212.17495 212.13418 211.86141 211.51663 211.16886
 210.80809 210.54032 210.37054 210.25677 210.20700 210.56023 210.96845 211.37968
 212.19491 213.39513 214.66736 216.47259 218.42282 220.48804 222.60527 224.71050
 226.79272 228.89895 231.01818 233.14641 235.29763 237.49186 239.77009 242.16232
 244.80554 247.07877 249.10300 250.89022 252.32945 253.47468 254.31891 254.65713
 254.71636 254.51259 253.89481 252.86504 251.49327 249.67650 247.60772 245.46295
 243.27618 241.10241 238.94463 236.80586 234.68809 232.57731 230.62554 228.80477
 227.11000 225.60422 224.25645 223.05068 221.95490 220.93713 220.06336 219.22659
 218.49081 217.69304 216.81327 216.19950 215.67172 214.69742 212.39549 210.73686
 210.29625 211.32861 213.09933 215.14375 217.99219 222.12453 227.75067 232.51277
 236.39275 240.64493 245.03294 249.34084 253.33649 256.84323 259.93442 262.85153
 265.76233 268.47995 271.04013 273.62225 276.01636 278.08209 279.79764 281.23758
 282.50452 283.67923 284.77988 285.85294 286.86646 287.78439 288.60623 289.44257
 290.21689 290.91357 291.51505 292.20447
 366.78100 356.35757 345.81215 334.70072 323.12629 311.34286 299.23544 287.06101
 274.79558 262.71515 250.74673 240.07030 230.21487 221.34144 213.54602 206.57059
 200.42716 195.38773 191.99231 190.05688 189.11645 189.20302 190.06060 191.39117
 193.13874 195.25631 197.54189 199.92346 202.39103 204.89360 207.00418 208.86875
 210.51732 211.68489 211.93647 212.18704 212.14661 211.87418 211.52976 211.18233
 210.82190 210.55447 210.38505 210.27162 210.22219 210.57576 210.98434 211.39591
 212.21148 213.41205 214.68463 216.49020 218.44077 220.50634 222.62392 224.72949
 226.81206 228.91863 231.03821 233.16678 235.31835 237.51292 239.79150 242.18407
 244.82764 247.10121 249.12579 250.91336 252.35293 253.49850 254.34308 254.68165
 254.74122 254.53779 253.92037 252.89094 251.51951 249.70308 247.63466 245.49023
 243.30380 241.13037 238.97295 236.83452 234.71709 232.60667 230.65524 228.83481
 227.14038 225.63496 224.28753 223.08210 221.98667 220.96925 220.09582 219.25939
 218.52396 217.72654 216.84711 216.23368 215.70625 214.71965 212.38870 210.81480
 210.31076 211.22774 213.02940 215.11485 218.00797 222.14027 227.75386 232.50453
 236.39355 240.65027 245.04539 249.35970 253.34848 256.82693 259.88507 262.78473
 265.68811 268.40384 270.97241 273.55649 275.95444 278.04178 279.77719 281.22009
 282.47000 283.61517 284.67877 285.72369 286.73221 287.63486 288.51175 289.36209
 290.14020 290.83838 291.44418 292.16376
 366.78100 356.35676 345.81053 334.69829 323.12305 311.33882 299.23058 287.05535
 274.78911 262.70787 250.73864 240.06140 230.20516 221.33093 213.53469 206.55845
 200.41422 195.37398 191.97775 190.04151 189.10027 189.18604 190.04280 191.37256
 193.11933 195.23609 197.52086 199.90162 202.36838 204.87015 206.97991 208.84367
 210.49144 211.65820 211.90896 212.15873 212.11749 211.84426 211.49902 211.15078
 210.78955 210.52131 210.35107 210.23684 210.18660 210.53936 210.94713 211.35789
 212.17266 213.37242 214.64418 216.44895 218.39871 220.46347 222.58024 224.68500
 226.76677 228.87253 230.99129 233.11906 235.26982 237.46358 239.74135 242.13311
 244.77587 247.04864 249.07240 250.85917 252.29793 253.44269 254.28646 254.62422
 254.68298 254.47875 253.86051 252.83027 251.45804 249.64080 247.57157 245.42633
 243.23909 241.06486 238.90662 236.76738 234.64915 232.53791 230.58567 228.76444
 227.06920 225.56297 224.21473 223.00849 221.91226 220.89402 220.01978 219.18255
 218.44631 217.64808 216.76784 216.15360 215.62537 214.68001 212.44650 210.83357
 210.40945 211.15788 212.92543 215.06740 218.00266 222.13361 227.73763 232.46770
 236.37480 240.63531 245.04323 249.36969 253.36081 256.81351 259.83865 262.72061
 265.61609 268.31931 270.88004 273.46179 275.86688 277.98361 279.75861 281.22891
 282.47516 283.59009 284.60577 285.60611 286.59467 287.48785 288.39896 289.25549
 290.03549 290.72986 291.33475 292.07697
 366.78100 356.35546 345.80792 334.69438 323.11783 311.33229 299.22275 287.04621
 274.77867 262.69613 250.72559 240.04705 230.18950 221.31396 213.51642 206.53888
 200.39334 195.35180 191.95426 190.01672 189.07417 189.15863 190.01409 191.34255
 193.08801 195.20347 197.48693 199.86639 202.33184 204.83230 206.94076 208.80322
 210.44968 211.61514 211.86460 212.11306 212.07051 211.79597 211.44943 211.09989
 210.73735 210.46781 210.29627 210.18073 210.12918 210.48064 210.88710 211.29656
 212.11002 213.30848 214.57894 216.38240 218.33085 220.39431 222.50977 224.61323
 226.69369 228.79815 230.91561 233.04207 235.19152 237.38398 239.66044 242.05090
 244.69236 246.96382 248.98628 250.77173 252.20919 253.35265 254.19511 254.53157
 254.58903 254.38349 253.76395 252.73240 251.35886 249.54032 247.46978 245.32324
 243.13470 240.95916 238.79962 236.65907 234.53953 232.42699 230.47345 228.65091
 226.95437 225.44683 224.09729 222.88974 221.79220 220.77266 219.89712 219.05858
 218.32104 217.52150 216.63996 216.02441 215.49487 214.61636 212.54080 210.81001
 210.47331 211.13814 212.85576 215.06044 218.01768 222.14035 227.71751 232.43408
 236.34592 240.60728 245.02388 249.35803 253.34869 256.77728 259.78094 262.66132
 265.56540 268.26926 270.81583 273.38327 275.78342 277.91797 279.72519 281.22571
 282.47479 283.56381 284.53473 285.49017 286.44525 287.36319 288.29602 289.15598
 289.93686 290.63779 291.24567 291.99542
 366.78100 356.35421 345.80541 334.69062 323.11283 311.32603 299.21524 287.03745
 274.76865 262.68486 250.71307 240.03327 230.17448 221.29769 213.49889 206.52010
 200.37331 195.33051 191.93172 189.99293 189.04913 189.13234 189.98655 191.31376
 193.05796 195.17217 197.45438 199.83258 202.29679 204.79600 206.90320 208.76441
 210.40962 211.57382 211.82203 212.06924 212.02544 211.74965 211.40186 211.05106
 210.68727 210.41648 210.24368 210.12689 210.07410 210.42430 210.82951 211.23772
 212.04992 213.24713 214.51634 216.31854 218.26575 220.32796 222.44216 224.54437
 226.62358 228.72678 230.84299 232.96820 235.11640 237.30761 239.58282 241.97203
 244.61223 246.88244 248.90365 250.68785 252.12406 253.26627 254.10747 254.44268
 254.49889 254.29209 253.67130 252.63851 251.26371 249.44392 247.37213 245.22433
 243.03454 240.85775 238.69695 236.55516 234.43437 232.32057 230.36578 228.54199
 226.84419 225.33540 223.98461 222.77581 221.67702 220.65623 219.77943 218.93964
 218.20085 217.40005 216.51726 215.90047 215.36967 214.55432 212.62796 210.82088
 210.48589 211.11221 212.79836 215.06776 218.03564 222.15582 227.70226 232.41449
 236.32005 240.58398 245.00484 249.34392 253.32840 256.72638 259.70834 262.59482
 265.51852 268.23578 270.77713 273.32782 275.71274 277.84549 279.66827 281.18802
 282.44458 283.52441 284.46353 285.38403 286.33279 287.24887 288.15625 289.00665
 289.77148 290.45499 291.05618 291.82639
 366.78100 356.35338 345.80375 334.68813 323.10950 311.32188 299.21025 287.03163
 274.76200 262.67738 250.70475 240.02413 230.16450 221.28688 213.48725 206.50763
 200.36000 195.31638 191.91676 189.97713 189.03251 189.11488 189.96826 191.29463
 193.03801 195.15138 197.43276 199.81013 202.27351 204.77188 206.87826 208.73863
 210.38301 211.54638 211.79376 212.04014 211.99551 211.71889 211.37026 211.01864
 210.65401 210.38239 210.20876 210.09114 210.03751 210.38689 210.79126 211.19864
 212.01001 213.20639 214.47476 216.27614 218.22252 220.28389 222.39727 224.49864
 226.57702 228.67939 230.79477 232.91914 235.06652 237.25689 239.53127 241.91964
 244.55902 246.82839 248.84877 250.63214 252.06752 253.20890 254.04927 254.38365
 254.43902 254.23140 253.60977 252.57615 251.20052 249.37990 247.30727 245.15865
 242.96802 240.79040 238.62877 236.48615 234.36452 232.24990 230.29428 228.46965
 226.77103 225.26140 223.90978 222.70015 221.60053 220.57890 219.70128 218.86065
 218.12103 217.31940 216.43578 215.81815 215.28653 214.51157 212.68063 210.88721
 210.50877 211.04596 212.73569 215.06546 218.03770 222.16237 227.69003 232.40253
 236.29851 240.56589 244.99097 249.33504 253.31429 256.68140 259.63794 262.52890
 265.47031 268.20016 270.74194 273.27908 275.64642 277.76547 279.58615 281.11118
 282.37109 283.44293 284.35809 285.26202 286.21014 287.12668 288.03549 288.88339
 289.65079 290.33505 290.93402 291.70682
 366.78100 356.35272 345.80244 334.68616 323.10688 311.31859 299.20631 287.02703
 274.75675 262.67147 250.69819 240.01691 230.15663 221.27835 213.47806 206.49778
 200.34950 195.30522 191.90494 189.96466 189.01938 189.10110 189.95381 191.27953
 193.02225 195.13497 197.41569 199.79241 202.25513 204.75285 206.85857 208.71828
 210.36200 211.52472 211.77144 212.01716 211.97188 211.69460 211.34532 210.99304
 210.62775 210.35547 210.18119 210.06291 210.00863 210.35735 210.76107 211.16779
 211.97851 213.17422 214.44194 216.24266 218.18838 220.24910 222.36182 224.46254
 226.54026 228.64198 230.75669 232.88041 235.02713 237.21685 239.49057 241.87829
 244.51701 246.78573 248.80544 250.58816 252.02288 253.16360 254.00332 254.33704
 254.39176 254.18348 253.56120 252.52691 251.15063 249.32935 247.25607 245.10679
 242.91551 240.73723 238.57495 236.43167 234.30938 232.19410 230.23782 228.41254
 226.71326 225.20298 223.85070 222.64042 221.54014 220.51785 219.63957 218.79829
 218.05801 217.25573 216.37145 215.75317 215.22089 214.47752 212.72124 210.98628
 210.51074 210.98924 212.66837 215.05338 218.03648 222.15941 227.67664 232.39896
 236.27904 240.54848 244.97523 249.32222 253.29457 256.63770 259.57599 262.47333
 265.42548 268.16464 270.71033 273.23480 275.58597 277.68881 279.50372 281.03012
 282.29022 283.35193 284.24573 285.12909 286.10794 287.03732 287.89331 288.69421
 289.44797 290.12375 290.71826 291.47812
 366.78100 356.35179 345.80058 334.68337 323.10316 311.31394 299.20073 287.02052
 274.74931 262.66310 250.68889 240.00668 230.14547 221.26625 213.46504 206.48383
 200.33462 195.28941 191.88820 189.94699 189.00078 189.08157 189.93335 191.25814
 192.99993 195.11172 197.39151 199.76730 202.22909 204.72588 206.83067 208.68945
 210.33224 211.49403 211.73982 211.98461 211.93840 211.66019 211.30998 210.95676
 210.59055 210.31734 210.14213 210.02292 209.96771 210.31550 210.71829 211.12408
 211.93386 213.12865 214.39544 216.19523 218.14002 220.19981 222.31160 224.41139
 226.48817 228.58896 230.70275 232.82554 234.97133 237.16012 239.43291 241.81970
 244.45749 246.72527 248.74406 250.52585 251.95964 253.09943 253.93822 254.27101
 254.32480 254.11559 253.49237 252.45716 251.07995 249.25774 247.18353 245.03332
 242.84111 240.66190 238.49868 236.35447 234.23126 232.11505 230.15784 228.33163
 226.63142 225.12021 223.76700 222.55578 221.45457 220.43136 219.55215 218.70994
 217.96873 217.16552 216.28031 215.66110 215.12788 214.43193 212.78767 211.06543
 210.48428 210.96370 212.61845 215.02620 218.02792 222.15730 227.66325 232.40848
 236.26468 240.53630 244.96158 249.30449 253.26195 256.59467 259.53070 262.43756
 265.38333 268.12781 270.67825 273.18311 275.51743 277.60300 279.41003 280.93619
 282.19971 283.25226 284.14801 285.03360 285.97064 286.92844 287.85703 288.71561
 289.50275 290.22006 290.89078 291.75986
 366.78100 356.35061 345.79821 334.67982 323.09843 311.30803 299.19364 287.01225
 274.73985 262.65246 250.67707 239.99367 230.13128 221.25089 213.44849 206.46610
 200.31571 195.26931 191.86692 189.92453 188.97713 189.05674 189.90734 191.23095
 192.97156 195.08216 197.36077 199.73538 202.19598 204.69159 206.79520 208.65280
 210.29441 211.45502 211.69962 211.94323 211.89584 211.61644 211.26505 210.91066
 210.54326 210.26887 210.09248 209.97208 209.91569 210.26230 210.66390 211.06851
 211.87712 213.07072 214.33633 216.13494 218.07854 220.13715 222.24776 224.34636
 226.42197 228.52158 230.63418 232.75579 234.90040 237.08800 239.35961 241.74522
 244.38182 246.64843 248.66603 250.44664 251.87925 253.01785 253.85546 254.18707
 254.23967 254.02928 253.40489 252.36849 250.99010 249.16671 247.09131 244.93992
 242.74653 240.56613 238.40174 236.25635 234.13195 232.01456 230.05617 228.22877
 226.52738 225.01499 223.66059 222.44820 221.34581 220.32141 219.44102 218.59763
 217.85523 217.05084 216.16445 215.54405 215.00966 214.36893 212.85512 211.13669
 210.47391 210.96355 212.57983 214.97466 217.98299 222.14159 227.65916 232.40128
 236.25751 240.53036 244.96143 249.30861 253.26309 256.57730 259.49664 262.40549
 265.35556 268.09238 270.62726 273.11060 275.41513 277.47464 279.26917 280.79483
 282.06461 283.11551 284.00192 284.88998 285.89548 286.92413 287.87790 288.75082
 289.54636 290.26801 290.94009 291.81360
 366.78100 356.34959 345.79618 334.67677 323.09436 311.30295 299.18754 287.00512
 274.73171 262.64330 250.66689 239.98248 230.11907 221.23766 213.43425 206.45084
 200.29943 195.25202 191.84861 189.90520 188.95679 189.03537 189.88496 191.20755
 192.94714 195.05673 197.33432 199.70791 202.16750 204.66209 206.76468 208.62127
 210.26186 211.42145 211.66504 211.90762 211.85921 211.57880 211.22639 210.87098
 210.50257 210.22716 210.04975 209.92834 209.87093 210.21652 210.61711 211.02070
 211.82829 213.02087 214.28546 216.08305 218.02564 220.08323 222.19282 224.29041
 226.36500 228.46359 230.57518 232.69577 234.83936 237.02595 239.29654 241.68112
 244.31671 246.58230 248.59889 250.37848 251.81007 252.94766 253.78425 254.11484
 254.16643 253.95502 253.32961 252.29220 250.91279 249.08837 247.01196 244.85955
 242.66514 240.48373 238.31832 236.17191 234.04650 231.92809 229.96868 228.14027
 226.43786 224.92445 223.56904 222.35562 221.25221 220.22680 219.34539 218.50098
 217.75757 216.95216 216.06475 215.44334 214.90793 214.31166 212.90292 211.22122
 210.51437 210.96770 212.52832 214.89771 217.91859 222.10648 227.65123 232.37416
 236.24130 240.52039 244.96295 249.32153 253.27332 256.55457 259.44678 262.36060
 265.31778 268.05359 270.56989 273.03030 275.30734 277.33041 279.09595 280.60364
 281.86984 282.91357 283.79990 284.71536 285.75891 286.78998 287.71094 288.55252
 289.31970 290.00525 290.61029 291.39883
 366.78100 356.34949 345.79598 334.67646 323.09395 311.30244 299.18693 287.00441
 274.73090 262.64239 250.66588 239.98136 230.11785 221.23634 213.43283 206.44931
 200.29780 195.25029 191.84678 189.90326 188.95475 189.03324 189.88273 191.20521
 192.94470 195.05419 197.33168 199.70516 202.16465 204.65914 206.76163 208.61811
 210.25860 211.41809 211.66158 211.90406 211.85555 211.57504 211.22253 210.86701
 210.49850 210.22299 210.04548 209.92396 209.86645 210.21194 210.61243 211.01591
 211.82340 213.01589 214.28038 216.07786 218.02035 220.07784 222.18733 224.28481
 226.35930 228.45779 230.56928 232.68976 234.83325 237.01974 239.29023 241.67471
 244.31020 246.57569 248.59218 250.37166 251.80315 252.94064 253.77713 254.10761
 254.15910 253.94759 253.32208 252.28456 250.90505 249.08054 247.00403 244.85151
 242.65700 240.47549 238.30998 236.16346 234.03795 231.91944 229.95993 228.13141
 226.42890 224.91539 223.55988 222.34636 221.24285 220.21734 219.33583 218.49131
 217.74780 216.94229 216.05478 215.43326 214.89775 214.30804 212.91476 211.32812
 210.57426 210.93930 212.47105 214.81769 217.87317 222.08081 227.63441 232.33571
 236.22824 240.50897 244.96320 249.33229 253.28325 256.54407 259.41962 262.33817
 265.29480 268.00574 270.50949 272.94705 275.16925 277.13684 278.87311 280.38193
 281.66998 282.75034 283.67227 284.61621 285.64301 286.59912 287.47925 288.32870
 289.10443 289.80295 290.41330 291.19373
 366.78100 356.34830 345.79359 334.67289 323.08919 311.29648 299.17978 286.99608
 274.72137 262.63167 250.65397 239.96827 230.10356 221.22086 213.41616 206.43145
 200.27875 195.23005 191.82534 189.88064 188.93094 189.00823 189.85653 191.17783
 192.91612 195.02442 197.30072 199.67302 202.13131 204.62461 206.72591 208.58120
 210.22050 211.37880 211.62109 211.86239 211.81269 211.53098 211.17728 210.82058
 210.45087 210.17417 209.99547 209.87277 209.81406 210.15836 210.55766 210.95995
 211.76625 212.95755 214.22084 216.01714 217.95844 220.01473 222.12303 224.21933
 226.29262 228.38992 230.50022 232.61952 234.76181 236.94711 239.21641 241.59970
 244.23400 246.49830 248.51359 250.29189 251.72219 252.85848 253.69378 254.02308
 254.07337 253.86067 253.23397 252.19526 250.81456 248.98886 246.91116 244.75745
 242.56175 240.37905 238.21234 236.06464 233.93794 231.81823 229.85753 228.02783
 226.32412 224.80942 223.45272 222.23801 221.13331 220.10661 219.22391 218.37820
 217.63350 216.82680 215.93809 215.31539 214.77869 214.25664 213.02321 211.33894
 210.64548 211.00241 212.39638 214.69357 217.79318 222.03737 227.59299 232.33774
 236.20229 240.50043 244.96022 249.33035 253.27646 256.56104 259.46066 262.37097
 265.29578 268.00876 270.49084 272.85678 275.00339 276.88742 278.54825 280.01529
 281.30792 282.42548 283.42917 284.46100 285.52728 286.54535 287.49030 288.35617
 289.14819 289.85846 290.48572 291.28510
 366.78100 356.34629 345.78958 334.66688 323.08117 311.28646 299.16775 286.98204
 274.70533 262.61363 250.63392 239.94621 230.07950 221.19479 213.38809 206.40138
 200.24667 195.19596 191.78925 189.84255 188.89084 188.96613 189.81242 191.13171
 192.86800 194.97430 197.24859 199.61888 202.07517 204.56646 206.66576 208.51905
 210.15634 211.31263 211.55292 211.79222 211.74051 211.45680 211.10109 210.74238
 210.37067 210.09197 209.91126 209.78655 209.72584 210.06813 210.46543 210.86572
 211.67001 212.85930 214.12059 215.91488 217.85418 219.90847 222.01476 224.10905
 226.18034 228.27564 230.38393 232.50122 234.64151 236.82480 239.09210 241.47339
 244.10568 246.36797 248.38126 250.15755 251.58585 252.72014 253.55343 253.88072
 253.92901 253.71431 253.08560 252.04489 250.66218 248.83447 246.75477 244.59906
 242.40135 240.21664 238.04793 235.89822 233.76952 231.64781 229.68510 227.85339
 226.14768 224.63098 223.27227 222.05556 220.94885 219.92014 219.03543 218.18773
 217.44102 216.63231 215.74160 215.11689 214.57819 214.17552 213.17152 211.37979
 210.61836 210.87587 212.25616 214.65607 217.86371 222.08897 227.56067 232.35312
 236.19870 240.49487 244.95070 249.29787 253.19368 256.50159 259.49280 262.44919
 265.33917 268.03436 270.54037 272.85632 274.90753 276.68774 278.26044 279.64166
 280.83548 281.90247 283.02780 284.24020 285.42468 286.49326 287.51404 288.48734
 289.36267 290.14218 290.82315 291.69095
 366.78100 356.34615 345.78930 334.66645 323.08060 311.28575 299.16690 286.98105
 274.70420 262.61235 250.63249 239.94464 230.07779 221.19294 213.38609 206.39924
 200.24439 195.19354 191.78669 189.83984 188.88799 188.96314 189.80929 191.12844
 192.86459 194.97074 197.24489 199.61504 202.07119 204.56234 206.66148 208.51463
 210.15178 211.30793 211.54808 211.78723 211.73538 211.45153 211.09568 210.73683
 210.36498 210.08613 209.90528 209.78043 209.71958 210.06173 210.45888 210.85903
 211.66318 212.85233 214.11347 215.90762 217.84677 219.90092 222.00707 224.10122
 226.17237 228.26752 230.37567 232.49282 234.63297 236.81612 239.08327 241.46442
 244.09657 246.35872 248.37187 250.14802 251.57617 252.71032 253.54346 253.87061
 253.91876 253.70391 253.07506 252.03421 250.65136 248.82351 246.74366 244.58781
 242.38996 240.20511 238.03626 235.88641 233.75756 231.63571 229.67286 227.84101
 226.13516 224.61831 223.25945 222.04260 220.93575 219.90690 219.02205 218.17420
 217.42735 216.61850 215.72765 215.10280 214.56395 214.18787 213.18915 211.49620
 210.70619 211.03265 212.38905 214.67210 217.87180 222.09402 227.56750 232.31984
 236.18706 240.47762 244.93781 249.28856 253.17136 256.44315 259.45728 262.47824
 265.41299 268.15671 270.69907 273.01419 275.03174 276.75064 278.20563 279.45322
 280.52640 281.59891 282.90436 284.31406 285.77914 287.15012 288.40094 289.53409
 290.55322 291.46078 292.25360 293.26395
 366.78100 356.34689 345.79078 334.66867 323.08355 311.28944 299.17133 286.98622
 274.71011 262.61900 250.63988 239.95277 230.08666 221.20255 213.39644 206.41033
 200.25622 195.20610 191.79999 189.85388 188.90277 188.97866 189.82555 191.14544
 192.88232 194.98921 197.26410 199.63499 202.09188 204.58377 206.68365 208.53754
 210.17543 211.33232 211.57321 211.81310 211.76199 211.47887 211.12376 210.76565
 210.39454 210.11643 209.93632 209.81220 209.75209 210.09498 210.49287 210.89376
 211.69865 212.88854 214.15042 215.94531 217.88520 219.94009 222.04698 224.14187
 226.21375 228.30964 230.41853 232.53642 234.67731 236.86120 239.12909 241.51097
 244.14386 246.40675 248.42064 250.19753 251.62642 252.76131 253.59519 253.92308
 253.97197 253.75786 253.12975 252.08964 250.70752 248.88041 246.80130 244.64619
 242.44908 240.26497 238.09686 235.94774 233.81963 231.69852 229.73641 227.90530
 226.20019 224.68407 223.32596 222.10985 221.00374 219.97563 219.09152 218.24441
 217.49829 216.69018 215.80007 215.17596 214.63785 214.22061 213.16116 211.65434
 210.73737 210.89684 212.26906 214.62050 217.86234 222.11853 227.57637 232.33635
 236.19728 240.47922 244.93854 249.26762 253.09496 256.31836 259.31314 262.38538
 265.34991 268.13531 270.74091 273.13190 275.20282 276.98874 278.53830 279.82291
 280.86108 281.77530 282.91797 284.30978 285.70901 287.12082 288.40891 289.57578
 290.62527 291.55984 292.37628 293.41672
 366.78100 356.34794 345.79288 334.67182 323.08776 311.29470 299.17764 286.99358
 274.71852 262.62846 250.65040 239.96433 230.09927 221.21621 213.41115 206.42609
 200.27303 195.22397 191.81891 189.87385 188.92379 189.00073 189.84867 191.16961
 192.90755 195.01549 197.29143 199.66337 202.12131 204.61425 206.71519 208.57012
 210.20906 211.36700 211.60894 211.84988 211.79982 211.51776 211.16370 210.80664
 210.43658 210.15952 209.98046 209.85740 209.79834 210.14228 210.54122 210.94316
 211.74910 212.94004 214.20298 215.99891 217.93985 219.99579 222.10373 224.19967
 226.27261 228.36955 230.47949 232.59843 234.74037 236.92531 239.19425 241.57719
 244.21113 246.47507 248.49001 250.26795 251.69789 252.83383 253.66877 253.99770
 254.04764 253.83458 253.20752 252.16846 250.78740 248.96134 246.88328 244.72922
 242.53316 240.35010 238.18304 236.03498 233.90792 231.78786 229.82680 227.99674
 226.29268 224.77762 223.42056 222.20549 221.10043 220.07337 219.19031 218.34425
 217.59919 216.79213 215.90307 215.28001 214.74295 214.25310 213.08060 211.81590
 210.81290 210.58829 212.01823 214.54440 217.83203 222.10048 227.57559 232.36240
 236.23315 240.51180 244.94566 249.24541 253.07741 256.36163 259.36777 262.35287
 265.24359 267.93558 270.44174 272.76379 274.83771 276.69357 278.36591 279.80008
 281.01022 282.08676 283.13019 284.29739 285.46405 286.53696 287.56125 288.58835
 289.53510 290.37817 291.11465 292.05322
 366.78100 356.34790 345.79281 334.67171 323.08762 311.29452 299.17743 286.99333
 274.71824 262.62814 250.65005 239.96395 230.09886 221.21576 213.41067 206.42557
 200.27248 195.22338 191.81829 189.87319 188.92310 189.00000 189.84791 191.16881
 192.90672 195.01462 197.29053 199.66243 202.12034 204.61324 206.71415 208.56905
 210.20796 211.36586 211.60777 211.84867 211.79858 211.51648 211.16238 210.80529
 210.43519 210.15810 209.97900 209.85591 209.79681 210.14072 210.53962 210.94153
 211.74743 212.93834 214.20124 215.99715 217.93805 219.99396 222.10186 224.19777
 226.27067 228.36758 230.47748 232.59639 234.73829 236.92320 239.19210 241.57501
 244.20891 246.47282 248.48772 250.26563 251.69553 252.83144 253.66634 253.99525
 254.04515 253.83206 253.20496 252.16587 250.78477 248.95867 246.88058 244.72648
 242.53039 240.34729 238.18020 236.03210 233.90501 231.78491 229.82382 227.99372
 226.28963 224.77453 223.41744 222.20234 221.09725 220.07015 219.18706 218.34096
 217.59587 216.78877 215.89968 215.27658 214.73949 214.24773 213.08244 211.83659
 211.03947 210.69690 211.86710 214.39209 217.69408 222.00783 227.55132 232.32481
 236.22427 240.51038 244.95598 249.28740 253.14603 256.42911 259.41904 262.42300
 265.33609 268.01221 270.43491 272.60950 274.52017 276.25714 277.87949 279.30353
 280.52899 281.65320 282.73514 283.90607 285.07983 286.13492 287.10861 288.01114
 288.86215 289.66537 290.36707 291.26129
 366.78100 356.34697 345.79093 334.66890 323.08386 311.28983 299.17179 286.98676
 274.71072 262.61969 250.64066 239.95362 230.08759 221.20355 213.39752 206.41148
 200.25745 195.20741 191.80138 189.85535 188.90431 188.98028 189.82724 191.14721
 192.88417 194.99114 197.26610 199.63707 202.09404 204.58600 206.68597 208.53993
 210.17790 211.33486 211.57583 211.81579 211.76476 211.48172 211.12669 210.76866
 210.39762 210.11959 209.93955 209.81552 209.75548 210.09845 210.49641 210.89738
 211.70235 212.89231 214.15428 215.94924 217.88921 219.94417 222.05114 224.14610
 226.21807 228.31404 230.42300 232.54097 234.68193 236.86590 239.13386 241.51583
 244.14879 246.41176 248.42573 250.20269 251.63166 252.76662 253.60059 253.92855
 253.97752 253.76348 253.13545 252.09542 250.71338 248.88635 246.80731 244.65228
 242.45524 240.27121 238.10317 235.95414 233.82611 231.70507 229.74304 227.91200
 226.20697 224.69093 223.33290 222.11686 221.01083 219.98279 219.09876 218.25173
 217.50569 216.69766 215.80762 215.18359 214.64555 214.22322 213.19768 211.84839
 210.99730 210.63168 211.78256 214.32864 217.67795 221.99628 227.51163 232.33684
 236.21677 240.51344 244.96082 249.26936 253.10242 256.39502 259.45242 262.48654
 265.39807 268.08163 270.52112 272.66232 274.44708 276.07709 277.63507 279.02097
 280.23615 281.34903 282.44147 283.50418 284.64813 285.72635 286.77570 287.80557
 288.73184 289.55667 290.27725 291.19553
 366.78100 356.34567 345.78834 334.66501 323.07868 311.28335 299.16402 286.97769
 274.70036 262.60803 250.62771 239.93938 230.07205 221.18672 213.37939 206.39206
 200.23673 195.18540 191.77807 189.83074 188.87841 188.95308 189.79875 191.11742
 192.85309 194.95876 197.23243 199.60210 202.05777 204.54845 206.64712 208.49979
 210.13646 211.29213 211.53180 211.77047 211.71814 211.43381 211.07748 210.71815
 210.34582 210.06649 209.88516 209.75983 209.69850 210.04017 210.43684 210.83651
 211.64019 212.82886 214.08953 215.88320 217.82187 219.87554 221.98121 224.07488
 226.14555 228.24022 230.34789 232.46456 234.60423 236.78690 239.05357 241.43424
 244.06591 246.32758 248.34025 250.11593 251.54360 252.67727 253.50994 253.83661
 253.88428 253.66895 253.03962 251.99829 250.61496 248.78663 246.70630 244.54997
 242.35164 240.16631 237.99698 235.84665 233.71732 231.59499 229.63166 227.79934
 226.09301 224.57568 223.21635 221.99902 220.89169 219.86236 218.97703 218.12870
 217.38137 216.57204 215.68071 215.05538 214.51605 214.17917 213.31352 211.86407
 211.03027 210.69431 211.82819 214.33374 217.67262 221.98532 227.50267 232.32993
 236.21906 240.51091 244.96796 249.28389 253.11760 256.37958 259.44537 262.52325
 265.45819 268.13657 270.57849 272.72311 274.47803 276.06293 277.60422 278.92099
 280.01910 281.05481 282.20840 283.58807 284.85040 286.13605 287.34116 288.43292
 289.41483 290.28922 291.05304 292.02649
 366.78100 356.34478 345.78655 334.66233 323.07510 311.27888 299.15865 286.97143
 274.69320 262.59998 250.61876 239.92953 230.06131 221.17508 213.36686 206.37863
 200.22241 195.17019 191.76196 189.81374 188.86051 188.93429 189.77906 191.09684
 192.83161 194.93639 197.20917 199.57794 202.03272 204.52249 206.62027 208.47204
 210.10782 211.26259 211.50137 211.73915 211.68592 211.40070 211.04347 210.68325
 210.31002 210.02980 209.84757 209.72135 209.65913 209.99990 210.39568 210.79445
 211.59723 212.78500 214.04478 215.83756 217.77533 219.82811 221.93288 224.02566
 226.09543 228.18921 230.29598 232.41176 234.55054 236.73231 238.99809 241.37786
 244.00864 246.26941 248.28119 250.05596 251.48274 252.61552 253.44729 253.77307
 253.81984 253.60362 252.97339 251.93117 250.54695 248.71772 246.63650 244.47927
 242.28005 240.09382 237.92360 235.77237 233.64215 231.51893 229.55470 227.72148
 226.01425 224.49603 223.13580 221.91758 220.80935 219.77913 218.89291 218.04368
 217.29546 216.48523 215.59301 214.96678 214.42656 214.11899 213.35889 211.98692
 210.92976 210.60159 211.76306 214.28018 217.60004 221.93607 227.46960 232.30638
 236.20699 240.50378 244.94569 249.24147 253.06139 256.36801 259.46750 262.54947
 265.47021 268.14194 270.56757 272.68509 274.41574 275.95581 277.44141 278.73792
 279.90179 281.04474 282.25586 283.55862 284.75439 285.84976 286.89117 287.91391
 288.83374 289.65286 290.36844 291.28033
 366.78100 356.34552 345.78805 334.66457 323.07809 311.28261 299.16314 286.97666
 274.69918 262.60670 250.62623 239.93775 230.07027 221.18479 213.37732 206.38984
 200.23436 195.18289 191.77541 189.82793 188.87545 188.94998 189.79550 191.11402
 192.84954 194.95507 197.22859 199.59811 202.05363 204.54416 206.64268 208.49520
 210.13173 211.28725 211.52677 211.76529 211.71282 211.42834 211.07186 210.71238
 210.33991 210.06043 209.87895 209.75347 209.69200 210.03352 210.43004 210.82957
 211.63309 212.82161 214.08213 215.87566 217.81418 219.86770 221.97322 224.06675
 226.13727 228.23179 230.33931 232.45584 234.59536 236.77788 239.04441 241.42493
 244.05645 246.31797 248.33050 250.10602 251.53354 252.66706 253.49959 253.82611
 253.87363 253.65815 253.02868 251.98720 250.60372 248.77525 246.69477 244.53829
 242.33981 240.15434 237.98486 235.83438 233.70490 231.58243 229.61895 227.78647
 226.07999 224.56252 223.20304 221.98556 220.87809 219.84861 218.96313 218.11465
 217.36718 216.55770 215.66622 215.04074 214.50127 214.13338 213.26419 212.20406
 211.11168 210.66757 211.67905 214.15408 217.45589 221.82899 227.46095 232.21922
 236.16330 240.45668 244.89186 249.18590 252.99261 256.30157 259.40921 262.55267
 265.52634 268.19885 270.58759 272.66559 274.37323 275.83179 277.24179 278.53815
 279.73776 280.93439 282.15366 283.37592 284.53720 285.58917 286.55508 287.42471
 288.19955 288.89044 289.52115 290.33389
 366.78100 356.34601 345.78901 334.66602 323.08002 311.28503 299.16604 286.98004
 274.70305 262.61106 250.63106 239.94307 230.07607 221.19108 213.38409 206.39709
 200.24210 195.19111 191.78411 189.83712 188.88512 188.96013 189.80614 191.12514
 192.86115 194.96716 197.24116 199.61117 202.06717 204.55818 206.65719 208.51019
 210.14720 211.30321 211.54321 211.78222 211.73022 211.44623 211.09024 210.73124
 210.35925 210.08025 209.89926 209.77427 209.71327 210.05528 210.45229 210.85229
 211.65630 212.84530 214.10631 215.90032 217.83932 219.89333 221.99934 224.09334
 226.16435 228.25935 230.36736 232.48437 234.62437 236.80738 239.07439 241.45539
 244.08740 246.34940 248.36241 250.13842 251.56642 252.70043 253.53344 253.86044
 253.90845 253.69345 253.06446 252.02347 250.64047 248.81248 246.73248 244.57649
 242.37850 240.19350 238.02451 235.87452 233.74552 231.62353 229.66053 227.82854
 226.12255 224.60555 223.24656 222.02957 220.92257 219.89358 219.00858 218.16059
 217.41360 216.60460 215.71361 215.08862 214.54962 214.15903 213.23619 212.26317
 211.26559 210.78345 211.64490 214.03224 217.35870 221.75890 227.41130 232.13696
 236.13525 240.41402 244.85126 249.13150 252.89801 256.18127 259.33487 262.56131
 265.56055 268.25311 270.67365 272.77945 274.43085 275.81409 277.20993 278.49802
 279.67087 280.85800 282.08063 283.28516 284.42114 285.47028 286.43491 287.29660
 288.04239 288.70532 289.30322 290.10214
 366.78100 356.34352 345.78404 334.65856 323.07008 311.27260 299.15112 286.96264
 274.68316 262.58868 250.60620 239.91572 230.04624 221.15876 213.34928 206.35979
 200.20231 195.14883 191.73935 189.78987 188.83539 188.90791 189.75143 191.06795
 192.80147 194.90499 197.17651 199.54403 201.99755 204.48607 206.58259 208.43311
 210.06763 211.22115 211.45867 211.69519 211.64071 211.35423 210.99575 210.63427
 210.25979 209.97831 209.79483 209.66734 209.60386 209.94338 210.33790 210.73542
 211.53694 212.72346 213.98198 215.77350 217.71002 219.76154 221.86506 223.95658
 226.02510 228.11762 230.22314 232.33766 234.47518 236.65570 238.92022 241.29874
 243.92826 246.18778 248.19830 249.97182 251.39734 252.52886 253.35938 253.68389
 253.72941 253.51193 252.88045 251.83697 250.45149 248.62101 246.53853 244.38005
 242.17957 239.99209 237.82061 235.66813 233.53665 231.41217 229.44669 227.61221
 225.90373 224.38425 223.02277 221.80329 220.69381 219.66233 218.77485 217.92437
 217.17489 216.36341 215.46993 214.84244 214.30096 214.04909 213.44595 212.23822
 211.25177 210.77379 211.63405 213.99226 217.34299 221.73187 227.34814 232.19911
 236.10112 240.40279 244.83118 249.09682 252.86829 256.16626 259.31064 262.49265
 265.49927 268.20862 270.62900 272.72113 274.40579 275.82285 277.17969 278.50235
 279.76672 280.99313 282.22040 283.46918 284.65057 285.71793 286.69888 287.58954
 288.42987 289.22461 289.91885 290.80362
 366.78100 356.34213 345.78126 334.65440 323.06453 311.26566 299.14279 286.95292
 274.67205 262.57619 250.59232 239.90045 230.02958 221.14071 213.32985 206.33898
 200.18011 195.12524 191.71437 189.76351 188.80764 188.87877 189.72090 191.03603
 192.76816 194.87030 197.14043 199.50656 201.95869 204.44582 206.54096 208.39009
 210.02322 211.17535 211.41148 211.64661 211.59075 211.30288 210.94301 210.58014
 210.20427 209.92141 209.73654 209.60767 209.54280 209.88093 210.27407 210.67020
 211.47033 212.65546 213.91259 215.70272 217.63786 219.68799 221.79012 223.88025
 225.94738 228.03852 230.14265 232.25578 234.39191 236.57104 238.83418 241.21131
 243.83944 246.09757 248.10670 249.87883 251.30297 252.43310 253.26223 253.58536
 253.62949 253.41063 252.77776 251.73289 250.34602 248.51415 246.43028 244.27042
 242.06855 239.87968 237.70681 235.55294 233.42008 231.29421 229.32734 227.49147
 225.78160 224.26074 222.89787 221.67700 220.56613 219.53326 218.64439 217.79253
 217.04166 216.22879 215.33392 214.70505 214.16219 214.02414 213.57213 212.28758
 211.24092 210.74080 211.75093 214.16074 217.51340 221.83069 227.39172 232.21008
 236.11597 240.40533 244.83713 249.05524 252.79294 256.13065 259.35703 262.51050
 265.44995 268.12473 270.50699 272.51361 274.16376 275.66879 277.14050 278.62134
 280.08746 281.45984 283.00552 284.56931 285.99960 287.26508 288.41962 289.46555
 290.40625 291.24396 291.97574 292.90833
 366.78100 356.34361 345.78423 334.65884 323.07046 311.27307 299.15169 286.96330
 274.68391 262.58953 250.60714 239.91676 230.04737 221.15999 213.35060 206.36121
 200.20383 195.15044 191.74106 189.79167 188.83728 188.90990 189.75351 191.07013
 192.80374 194.90736 197.17897 199.54658 202.00020 204.48881 206.58543 208.43604
 210.07066 211.22427 211.46188 211.69850 211.64411 211.35773 210.99934 210.63796
 210.26357 209.98218 209.79880 209.67141 209.60803 209.94764 210.34226 210.73987
 211.54148 212.72810 213.98671 215.77833 217.71494 219.76656 221.87017 223.96178
 226.03040 228.12301 230.22863 232.34324 234.48085 236.66147 238.92608 241.30470
 243.93431 246.19393 248.20454 249.97815 251.40377 252.53538 253.36600 253.69061
 253.73623 253.51884 252.88745 251.84407 250.45868 248.62830 246.54591 244.38753
 242.18714 239.99975 237.82837 235.67598 233.54460 231.42021 229.45483 227.62044
 225.91205 224.39267 223.03128 221.81190 220.70251 219.67113 218.78374 217.93335
 217.18397 216.37258 215.47920 214.85181 214.31042 214.13472 213.52696 212.31512
 211.34485 210.83075 211.72858 214.13396 217.49179 221.72327 227.38400 232.21043
 236.11443 240.40662 244.80785 248.99930 252.74213 256.12393 259.39526 262.57614
 265.52390 268.20319 270.57520 272.52945 274.17673 275.63815 277.02039 278.25369
 280.32663 282.67401 284.73694 286.54834 288.11597 289.50290 290.76828 291.91461
 292.94562 293.86374 294.66580 295.68793
 366.78100 356.34421 345.78542 334.66064 323.07285 311.27606 299.15527 286.96749
 274.68870 262.59491 250.61312 239.92333 230.05455 221.16776 213.35897 206.37018
 200.21340 195.16061 191.75182 189.80303 188.84924 188.92246 189.76667 191.08388
 192.81809 194.92231 197.19452 199.56273 202.01694 204.50615 206.60337 208.45458
 210.08979 211.24400 211.48222 211.71943 211.66564 211.37985 211.02207 210.66128
 210.28749 210.00670 209.82391 209.69713 209.63434 209.97455 210.36976 210.76798
 211.57019 212.75740 214.01661 215.80882 217.74604 219.79825 221.90246 223.99467
 226.06389 228.15710 230.26331 232.37852 234.51673 236.69795 238.96316 241.34237
 243.97258 246.23280 248.24401 250.01822 251.44443 252.57664 253.40786 253.73307
 253.77928 253.56249 252.93171 251.88892 250.50413 248.67434 246.59255 244.43477
 242.23498 240.04819 237.87740 235.72562 233.59483 231.47104 229.50625 227.67246
 225.96468 224.44589 223.08510 221.86631 220.75753 219.72674 218.83995 217.99016
 217.24138 216.43059 215.53780 214.91101 214.37022 214.17862 213.52531 212.34724
 211.47751 210.91212 211.69856 214.08046 217.42685 221.67154 227.29489 232.13379
 236.04306 240.33430 244.73245 248.90912 252.63010 256.00616 259.32315 262.56531
 265.55438 268.25739 270.64639 272.62915 274.21106 275.49646 276.54559 278.12140
 280.37927 282.70853 284.72412 286.49396 288.02560 289.38071 290.61703 291.73706
 292.74442 293.64145 294.42508 295.42374
 366.78100 356.34496 345.78692 334.66288 323.07584 311.27980 299.15975 286.97271
 274.69467 262.60163 250.62059 239.93155 230.06351 221.17747 213.36943 206.38139
 200.22535 195.17331 191.76526 189.81722 188.86418 188.93814 189.78310 191.10106
 192.83602 194.94098 197.21394 199.58290 202.03786 204.52782 206.62577 208.47773
 210.11369 211.26865 211.50761 211.74557 211.69253 211.40749 211.05045 210.69041
 210.31737 210.03733 209.85528 209.72924 209.66720 210.00816 210.40412 210.80308
 211.60604 212.79400 214.05396 215.84692 217.78488 219.83784 221.94279 224.03575
 226.10571 228.19967 230.30663 232.42259 234.56155 236.74351 239.00947 241.38943
 244.02039 246.28135 248.29330 250.06826 251.49522 252.62818 253.46014 253.78610
 253.83306 253.61702 252.98698 251.94494 250.56090 248.73186 246.65081 244.49377
 242.29473 240.10869 237.93865 235.78761 233.65757 231.53453 229.57049 227.73745
 226.03041 224.51237 223.15232 221.93428 220.82624 219.79620 218.91016 218.06112
 217.31308 216.50304 215.61100 214.98496 214.44492 214.22321 213.52261 212.42244
 211.56067 210.96724 211.70145 214.06516 217.39746 221.62434 227.21304 232.05766
 235.96803 240.25606 244.65236 248.81769 252.52489 255.90327 259.24158 262.50476
 265.49551 268.19498 270.58206 272.56375 274.09622 275.35007 276.52975 278.09042
 280.38437 282.68491 284.67566 286.42368 287.93643 289.27484 290.49594 291.60214
 292.59708 293.48306 294.25705 295.24341
 366.78100 356.34674 345.79048 334.66822 323.08296 311.28869 299.17043 286.98517
 274.70891 262.61765 250.63839 239.95113 230.08487 221.20061 213.39435 206.40808
 200.25382 195.20356 191.79730 189.85104 188.89978 188.97552 189.82226 191.14200
 192.87873 194.98547 197.26021 199.63095 202.08769 204.57943 206.67917 208.53291
 210.17065 211.32739 211.56812 211.80786 211.75660 211.47334 211.11808 210.75982
 210.38856 210.11030 209.93004 209.80577 209.74551 210.08825 210.48599 210.88673
 211.69147 212.88121 214.14295 215.93769 217.87743 219.93216 222.03890 224.13364
 226.20538 228.30112 230.40986 232.52760 234.66834 236.85208 239.11981 241.50155
 244.13429 246.39703 248.41077 250.18751 251.61625 252.75099 253.58473 253.91246
 253.96120 253.74694 253.11868 252.07842 250.69616 248.86890 246.78964 244.63438
 242.43712 240.25285 238.08459 235.93533 233.80707 231.68581 229.72355 227.89229
 226.18703 224.67077 223.31250 222.09624 220.98998 219.96172 219.07746 218.23020
 217.48394 216.67568 215.78542 215.16116 214.62289 214.31715 213.47717 212.51219
 211.59166 210.93825 211.70531 214.05699 217.38309 221.60141 227.17416 232.02028
 235.93582 240.22314 244.62204 248.79774 252.52298 255.92520 259.26559 262.51575
 265.47070 268.10199 270.42209 272.39435 273.90167 275.19049 276.56134 278.40283
 280.71619 282.87997 284.75238 286.39651 287.81934 289.07819 290.22672 291.26718
 292.20297 293.03629 293.76425 294.69199
 366.78100 356.34811 345.79322 334.67232 323.08843 311.29554 299.17865 286.99476
 274.71986 262.62997 250.65208 239.96619 230.10130 221.21840 213.41351 206.42862
 200.27573 195.22684 191.82194 189.87705 188.92716 189.00427 189.85238 191.17348
 192.91159 195.01970 197.29581 199.66791 202.12602 204.61913 206.72024 208.57535
 210.21445 211.37256 211.61467 211.85578 211.80589 211.52399 211.17010 210.81321
 210.44332 210.16643 209.98753 209.86464 209.80575 210.14986 210.54897 210.95107
 211.75718 212.94829 214.21140 216.00751 217.94861 220.00472 222.11283 224.20894
 226.28205 228.37915 230.48926 232.60837 234.75048 236.93559 239.20469 241.58780
 244.22191 246.48602 248.50113 250.27923 251.70934 252.84545 253.68056 254.00967
 254.05977 253.84688 253.21999 252.18110 250.80021 248.97431 246.89642 244.74253
 242.54664 240.36374 238.19685 236.04896 233.92207 231.80218 229.84128 228.01139
 226.30750 224.79261 223.43572 222.22082 221.11593 220.08904 219.20615 218.36026
 217.61536 216.80847 215.91958 215.29669 214.75980 214.38664 213.44035 212.58931
 211.67506 210.87120 211.67325 213.97801 217.30092 221.57359 227.12280 231.99863
 235.92381 240.21851 244.62070 248.80421 252.55394 255.98529 259.33304 262.57230
 265.48792 268.04080 270.25833 272.10184 273.56131 274.88986 276.47546 278.71295
 280.98950 283.25922 285.22327 286.94785 288.44034 289.76080 290.96552 292.05692
 293.03851 293.91263 294.67621 295.64935
 366.78100 356.34693 345.79085 334.66878 323.08370 311.28963 299.17155 286.98648
 274.71040 262.61933 250.64025 239.95318 230.08710 221.20303 213.39696 206.41088
 200.25681 195.20673 191.80066 189.85458 188.90351 188.97943 189.82636 191.14628
 192.88321 194.99014 197.26506 199.63599 202.09291 204.58484 206.68476 208.53869
 210.17661 211.33354 211.57446 211.81439 211.76331 211.48024 211.12517 210.76709
 210.39602 210.11794 209.93787 209.81379 209.75372 210.09664 210.49457 210.89549
 211.70042 212.89034 214.15227 215.94720 217.88712 219.94205 222.04897 224.14390
 226.21582 228.31175 230.42067 232.53860 234.67952 236.86345 239.13138 241.51330
 244.14623 246.40915 248.42308 250.20000 251.62893 252.76385 253.59778 253.92570
 253.97463 253.76055 253.13248 252.09241 250.71033 248.88326 246.80418 244.64911
 242.45203 240.26796 238.09988 235.95081 233.82273 231.70166 229.73958 227.90851
 226.20344 224.68736 223.32929 222.11321 221.00714 219.97906 219.09499 218.24791
 217.50184 216.69376 215.80369 215.17962 214.64154 214.31784 213.49829 212.64963
 211.77461 210.84877 211.53262 213.85071 217.18979 221.59773 227.06944 231.99966
 235.93962 240.23431 244.61708 248.81058 252.61060 256.09763 259.43701 262.63812
 265.52762 267.99060 270.07822 271.84320 273.37085 274.87381 276.56631 278.58490
 280.69885 282.60507 284.53244 286.22479 287.68939 288.98517 290.16739 291.23837
 292.20163 293.05942 293.80875 294.76370
 366.78100 356.34397 345.78493 334.65990 323.07186 311.27483 299.15380 286.96576
 274.68673 262.59270 250.61066 239.92063 230.05159 221.16456 213.35553 206.36649
 200.20946 195.15642 191.74739 189.79836 188.84432 188.91729 189.76125 191.07822
 192.81219 194.91615 197.18812 199.55609 202.01005 204.49902 206.59598 208.44695
 210.08192 211.23588 211.47385 211.71081 211.65678 211.37075 211.01271 210.65168
 210.27764 209.99661 209.81358 209.68654 209.62351 209.96348 210.35844 210.75641
 211.55837 212.74534 214.00431 215.79627 217.73324 219.78520 221.88917 223.98114
 226.05010 228.14307 230.24903 232.36400 234.50197 236.68293 238.94790 241.32687
 243.95683 246.21680 248.22776 250.00173 251.42770 252.55966 253.39063 253.71559
 253.76156 253.54453 252.91349 251.87046 250.48542 248.65539 246.57336 244.41532
 242.21529 240.02826 237.85722 235.70519 233.57415 231.45012 229.48509 227.65105
 225.94302 224.42398 223.06295 221.84392 220.73488 219.70385 218.81681 217.96678
 217.21775 216.40671 215.51368 214.88665 214.34561 214.16835 213.65833 212.72260
 211.84398 210.88829 211.36586 213.71777 217.10023 221.53658 226.93486 231.93109
 235.86520 240.17224 244.56264 248.76898 252.60338 256.14536 259.52621 262.74237
 265.65933 268.15210 270.14774 271.76065 273.27213 274.88202 276.70477 278.65665
 280.61969 282.44037 284.13416 285.72229 287.09671 288.31268 289.42212 290.42715
 291.33109 292.13605 292.83923 293.73538
 366.78100 356.34201 345.78101 334.65402 323.06402 311.26503 299.14203 286.95204
 274.67105 262.57505 250.59106 239.89906 230.02807 221.13907 213.32808 206.33708
 200.17809 195.12310 191.71210 189.76111 188.80511 188.87612 189.71812 191.03313
 192.76514 194.86714 197.13715 199.50315 201.95516 204.44216 206.53717 208.38618
 210.01918 211.17119 211.40719 211.64220 211.58620 211.29821 210.93822 210.57522
 210.19923 209.91623 209.73124 209.60224 209.53725 209.87525 210.26826 210.66427
 211.46427 212.64928 213.90628 215.69629 217.63129 219.68130 221.78331 223.87331
 225.94032 228.03132 230.13533 232.24833 234.38434 236.56335 238.82635 241.20336
 243.83136 246.08937 248.09837 249.87038 251.29439 252.42439 253.25340 253.57640
 253.62041 253.40141 252.76842 251.72342 250.33643 248.50444 246.42044 244.26045
 242.05845 239.86946 237.69646 235.54247 233.40948 231.28348 229.31649 227.48049
 225.77050 224.24950 222.88651 221.66552 220.55452 219.52153 218.63253 217.78054
 217.02954 216.21655 215.32156 214.69256 214.14957 214.09462 213.79308 212.74068
 211.79536 210.95560 211.44313 213.73175 217.08913 221.46350 226.89008 231.80951
 235.75029 240.04066 244.40253 248.57878 252.43182 256.05588 259.53851 262.83282
 265.80563 268.34351 270.35822 271.90436 273.35110 275.00165 276.96210 278.95776
 281.03424 283.08899 284.97107 286.62369 288.05386 289.31924 290.47366 291.51953
 292.46014 293.29779 294.02951 294.96204
 366.78100 356.34297 345.78293 334.65690 323.06787 311.26983 299.14780 286.95877
 274.67873 262.58370 250.60067 239.90963 230.03960 221.15156 213.34153 206.35150
 200.19346 195.13943 191.72940 189.77936 188.82433 188.89630 189.73926 191.05523
 192.78820 194.89116 197.16213 199.52910 201.98206 204.47003 206.56600 208.41596
 210.04993 211.20289 211.43986 211.67583 211.62079 211.33376 210.97473 210.61269
 210.23766 209.95563 209.77159 209.64356 209.57953 209.91849 210.31246 210.70943
 211.51039 212.69636 213.95433 215.74529 217.68126 219.73223 221.83519 223.92616
 225.99412 228.08609 230.19106 232.30502 234.44199 236.62196 238.88592 241.26389
 243.89286 246.15182 248.16179 249.93476 251.35972 252.49069 253.32066 253.64462
 253.68959 253.47156 252.83952 251.79549 250.40945 248.57842 246.49539 244.33635
 242.13532 239.94729 237.77525 235.62222 233.49019 231.36515 229.39912 227.56409
 225.85505 224.33502 222.97299 221.75295 220.64292 219.61089 218.72285 217.87182
 217.12179 216.30975 215.41572 214.78768 214.24565 214.15952 213.79355 212.80466
 211.68987 210.82852 211.45605 213.97723 217.33618 221.54231 226.92252 231.79062
 235.71579 239.98318 244.31421 248.45212 252.26747 255.92130 259.45914 262.80682
 265.87479 268.51389 270.58209 272.14798 273.54584 275.17191 277.19394 279.64520
 282.30164 284.69327 286.76285 288.58008 290.15271 291.54413 292.81357 293.96359
 294.99789 295.91898 296.72360 297.74899
 366.78100 356.34515 345.78731 334.66346 323.07662 311.28077 299.16093 286.97408
 274.69623 262.60339 250.62254 239.93370 230.06585 221.18001 213.37216 206.38431
 200.22847 195.17662 191.76878 189.82093 188.86809 188.94224 189.78739 191.10555
 192.84070 194.94586 197.21901 199.58817 202.04332 204.53348 206.63163 208.48378
 210.11994 211.27509 211.51425 211.75240 211.69956 211.41471 211.05786 210.69802
 210.32517 210.04533 209.86348 209.73764 209.67579 210.01694 210.41310 210.81225
 211.61541 212.80356 214.06372 215.85687 217.79502 219.84818 221.95333 224.04649
 226.11664 228.21080 230.31795 232.43410 234.57326 236.75541 239.02157 241.40172
 244.03288 246.29403 248.30618 250.08134 251.50849 252.64165 253.47380 253.79996
 253.84711 253.63127 253.00142 251.95957 250.57573 248.74688 246.66604 244.50919
 242.31035 240.12450 237.95465 235.80381 233.67396 231.55112 229.58727 227.75443
 226.04758 224.52973 223.16989 221.95204 220.84420 219.81435 218.92851 218.07966
 217.33181 216.52197 215.63012 215.00428 214.46443 214.27394 213.74042 212.91551
 211.72041 210.64795 211.41898 213.99754 217.39299 221.58304 226.92558 231.80412
 235.73581 239.99428 244.30391 248.41008 252.21460 255.85739 259.37540 262.69476
 265.74698 268.43054 270.60666 272.18262 273.58197 275.18677 277.71500 280.42773
 283.11237 285.41351 287.40479 289.15329 290.66644 292.00519 293.22659 294.33313
 295.32831 296.21454 296.98871 297.97534
 366.78100 356.34773 345.79246 334.67120 323.08693 311.29366 299.17639 286.99212
 274.71685 262.62659 250.64832 239.96205 230.09678 221.21351 213.40825 206.42298
 200.26971 195.22044 191.81517 189.86990 188.91964 188.99637 189.84410 191.16483
 192.90256 195.01030 197.28603 199.65776 202.11549 204.60822 206.70895 208.56369
 210.20242 211.36015 211.60188 211.84261 211.79235 211.51008 211.15581 210.79854
 210.42827 210.15101 209.97174 209.84847 209.78920 210.13293 210.53166 210.93340
 211.73913 212.92986 214.19259 215.98832 217.92906 219.98479 222.09252 224.18825
 226.26098 228.35771 230.46745 232.58618 234.72791 236.91264 239.18137 241.56411
 244.19784 246.46157 248.47630 250.25403 251.68376 252.81950 253.65423 253.98296
 254.03269 253.81942 253.19216 252.15289 250.77162 248.94535 246.86708 244.71281
 242.51655 240.33328 238.16601 236.01774 233.89047 231.77021 229.80894 227.97867
 226.27440 224.75913 223.40186 222.18660 221.08133 220.05406 219.17079 218.32452
 217.57926 216.77199 215.88272 215.25945 214.72218 214.39943 213.65962 213.05222
 211.86090 210.57239 211.25587 213.87953 217.33183 221.54236 226.90948 231.81215
 235.75516 240.01971 244.34067 248.46356 252.27016 255.91031 259.39511 262.65436
 265.65030 268.24509 270.33856 271.91699 273.40359 275.35110 278.01205 280.58499
 283.11417 285.28204 287.15799 288.80521 290.23071 291.49194 292.64264 293.68506
 294.62262 295.45752 296.18686 297.11633
 366.78100 356.34810 345.79320 334.67230 323.08840 311.29550 299.17860 286.99470
 274.71981 262.62991 250.65201 239.96611 230.10121 221.21831 213.41341 206.42851
 200.27561 195.22671 191.82181 189.87691 188.92701 189.00411 189.85221 191.17331
 192.91142 195.01952 197.29562 199.66772 202.12582 204.61892 206.72002 208.57512
 210.21422 211.37232 211.61442 211.85552 211.80562 211.52372 211.16982 210.81292
 210.44303 210.16613 209.98723 209.86433 209.80543 210.14953 210.54863 210.95073
 211.75683 212.94793 214.21103 216.00713 217.94823 220.00433 222.11243 224.20854
 226.28164 228.37874 230.48884 232.60794 234.75004 236.93514 239.20424 241.58734
 244.22144 246.48554 248.50064 250.27874 251.70884 252.84494 253.68004 254.00915
 254.05925 253.84635 253.21945 252.18055 250.79965 248.97375 246.89585 244.74195
 242.54605 240.36315 238.19625 236.04835 233.92145 231.80155 229.84065 228.01076
 226.30686 224.79196 223.43506 222.22016 221.11526 220.08836 219.20546 218.35956
 217.61466 216.80776 215.91886 215.29596 214.75906 214.43538 213.67026 213.08537
 212.11197 210.63023 210.96542 213.69728 217.23073 221.48805 226.84076 231.77200
 235.73654 240.01224 244.35313 248.51648 252.35649 256.02100 259.52234 262.75235
 265.69263 268.24210 270.27170 271.66504 272.97217 275.03726 277.82370 280.43661
 282.95605 285.11563 286.98438 288.62524 290.04529 291.30167 292.44794 293.48636
 294.42032 295.25198 295.97855 296.90445
 366.78100 356.34529 345.78757 334.66386 323.07715 311.28144 299.16172 286.97501
 274.69730 262.60458 250.62387 239.93516 230.06745 221.18173 213.37402 206.38631
 200.23060 195.17888 191.77117 189.82346 188.87074 188.94503 189.79032 191.10861
 192.84389 194.94918 197.22247 199.59175 202.04704 204.53733 206.63562 208.48790
 210.12419 211.27948 211.51877 211.75705 211.70434 211.41963 211.06291 210.70320
 210.33049 210.05078 209.86906 209.74335 209.68164 210.02292 210.41921 210.81850
 211.62179 212.81007 214.07036 215.86365 217.80194 219.85522 221.96051 224.05380
 226.12408 228.21837 230.32566 232.44195 234.58123 236.76352 239.02981 241.41009
 244.04138 246.30267 248.31496 250.09024 251.51753 252.65082 253.48311 253.80939
 253.85668 253.64097 253.01125 251.96954 250.58583 248.75712 246.67640 244.51969
 242.32098 240.13526 237.96555 235.81484 233.68513 231.56241 229.59870 227.76599
 226.05928 224.54156 223.18185 221.96414 220.85642 219.82671 218.94100 218.09229
 217.34457 216.53486 215.64315 215.01743 214.47772 214.36324 213.81276 212.95934
 212.31807 210.58284 210.97281 213.61072 217.08405 221.40259 226.73158 231.66090
 235.61278 239.89162 244.24300 248.45316 252.41199 256.18271 259.74713 263.01273
 265.90942 268.35550 270.22116 271.64508 273.21442 275.39044 278.66632 281.84213
 284.59860 286.96133 289.00586 290.80112 292.35477 293.72934 294.98343 296.11957
 297.14139 298.05130 298.84619 299.85919
 366.78100 356.34404 345.78508 334.66012 323.07216 311.27520 299.15424 286.96628
 274.68732 262.59336 250.61140 239.92144 230.05248 221.16552 213.35656 206.36760
 200.21064 195.15768 191.74872 189.79976 188.84580 188.91884 189.76288 191.07992
 192.81396 194.91800 197.19004 199.55808 202.01212 204.50116 206.59820 208.44924
 210.08428 211.23832 211.47636 211.71340 211.65944 211.37348 211.01552 210.65456
 210.28060 209.99964 209.81669 209.68973 209.62677 209.96681 210.36185 210.75989
 211.56193 212.74897 214.00801 215.80005 217.73709 219.78913 221.89317 223.98521
 226.05425 228.14729 230.25333 232.36837 234.50641 236.68745 238.95249 241.33153
 243.96157 246.22161 248.23265 250.00669 251.43273 252.56477 253.39581 253.72085
 253.76689 253.54993 252.91897 251.87601 250.49105 248.66109 246.57913 244.42117
 242.22121 240.03425 237.86329 235.71133 233.58037 231.45641 229.49145 227.65749
 225.94953 224.43057 223.06961 221.85065 220.74169 219.71073 218.82377 217.97381
 217.22485 216.41389 215.52093 214.89397 214.35301 214.32474 213.91063 212.83455
 211.98720 210.87576 211.39819 213.77045 217.17714 221.28450 226.60306 231.52208
 235.46440 239.72812 244.02716 248.16945 252.13469 256.03833 259.78354 263.26682
 266.41556 269.10312 270.97879 272.06897 273.43060 276.10065 279.50092 282.71176
 285.49860 287.88739 289.95447 291.76950 293.34027 294.73001 295.99792 297.14658
 298.17966 299.09961 299.90326 300.92746
 366.78100 356.34572 345.78844 334.66516 323.07888 311.28361 299.16433 286.97805
 274.70077 262.60849 250.62821 239.93993 230.07265 221.18738 213.38010 206.39282
 200.23754 195.18626 191.77898 189.83170 188.87942 188.95414 189.79987 191.11859
 192.85431 194.96003 197.23375 199.60347 202.05919 204.54991 206.64864 208.50136
 210.13808 211.29380 211.53352 211.77224 211.71996 211.43568 211.07940 210.72013
 210.34785 210.06857 209.88729 209.76201 209.70073 210.04245 210.43917 210.83890
 211.64262 212.83134 214.09206 215.88578 217.82450 219.87822 221.98394 224.07766
 226.14839 228.24311 230.35083 232.46755 234.60727 236.78999 239.05671 241.43743
 244.06916 246.33088 248.34360 250.11932 251.54704 252.68076 253.51348 253.84020
 253.88793 253.67265 253.04337 252.00209 250.61881 248.79053 246.71025 244.55397
 242.35569 240.17042 238.00114 235.85086 233.72158 231.59930 229.63602 227.80374
 226.09746 224.58019 223.22091 222.00363 220.89635 219.86707 218.98179 218.13351
 217.38623 216.57695 215.68568 215.06040 214.52112 214.35339 213.88321 213.02647
 211.80806 210.93918 211.56575 213.93179 217.41473 221.59151 226.64323 231.57036
 235.44827 239.62999 243.81889 247.86517 251.75328 255.57474 259.31009 262.81888
 266.02121 268.84686 271.20044 273.03055 274.56265 276.15021 278.11169 280.34927
 282.49823 284.65625 286.54376 288.20114 289.63544 290.90445 292.06223 293.11108
 294.05441 294.89447 295.62830 296.56351
 366.78100 356.34666 345.79033 334.66799 323.08266 311.28832 299.16999 286.98465
 274.70832 262.61698 250.63765 239.95031 230.08398 221.19964 213.39331 206.40697
 200.25264 195.20230 191.79597 189.84963 188.89830 188.97396 189.82063 191.14029
 192.87695 194.98362 197.25828 199.62895 202.08561 204.57728 206.67694 208.53061
 210.16827 211.32494 211.56560 211.80527 211.75393 211.47060 211.11526 210.75693
 210.38559 210.10726 209.92692 209.80259 209.74225 210.08492 210.48258 210.88324
 211.68791 212.87757 214.13924 215.93390 217.87357 219.92823 222.03490 224.12956
 226.20123 228.29689 230.40556 232.52322 234.66389 236.84755 239.11522 241.49688
 244.12955 246.39221 248.40588 250.18254 251.61121 252.74587 253.57953 253.90720
 253.95586 253.74153 253.11319 252.07286 250.69052 248.86319 246.78385 244.62852
 242.43118 240.24685 238.07851 235.92918 233.80084 231.67951 229.71717 227.88584
 226.18050 224.66417 223.30583 222.08950 220.98316 219.95483 219.07049 218.22315
 217.47682 216.66848 215.77815 215.15381 214.61548 214.37469 213.80763 213.26999
 211.99438 210.70041 211.21674 213.72449 217.27791 221.59413 226.63422 231.64685
 235.50752 239.72983 243.95041 248.01825 251.85519 255.59961 259.24545 262.66272
 265.78522 268.55225 270.90457 272.87335 274.61450 276.31113 278.07675 279.94254
 281.65292 283.00931 284.38788 285.78113 287.05087 288.17426 289.19919 290.12772
 290.96280 291.70645 292.35611 293.18399
 366.78100 356.34743 345.79186 334.67029 323.08572 311.29216 299.17459 286.99002
 274.71445 262.62388 250.64531 239.95874 230.09317 221.20960 213.40404 206.41847
 200.26490 195.21533 191.80976 189.86419 188.91362 188.99005 189.83748 191.15791
 192.89535 195.00278 197.27821 199.64964 202.10707 204.59950 206.69993 208.55436
 210.19279 211.35023 211.59166 211.83209 211.78152 211.49895 211.14438 210.78681
 210.41624 210.13867 209.95911 209.83554 209.77597 210.11940 210.51783 210.91926
 211.72469 212.91512 214.17755 215.97299 217.91342 219.96885 222.07628 224.17171
 226.24414 228.34057 230.45000 232.56843 234.70986 236.89430 239.16273 241.54516
 244.17859 246.44202 248.45645 250.23388 251.66331 252.79874 253.63318 253.96161
 254.01104 253.79747 253.16990 252.13033 250.74876 248.92219 246.84362 244.68906
 242.49249 240.30892 238.14135 235.99278 233.86521 231.74464 229.78307 227.95250
 226.24794 224.73237 223.37480 222.15923 221.05366 220.02609 219.14252 218.29595
 217.55038 216.74281 215.85325 215.22968 214.69211 214.42734 213.80544 213.27220
 212.14619 210.79022 211.08899 213.55142 217.12852 221.46785 226.57108 231.57558
 235.48679 239.73256 243.99814 248.12386 252.01262 255.77892 259.41306 262.78476
 265.85046 268.56070 270.84161 272.70966 274.40570 276.14374 277.99106 279.86319
 281.52649 282.77802 284.21951 285.67630 286.97891 288.13141 289.18286 290.13544
 290.99216 291.75507 292.42154 293.27087
 366.78100 356.34665 345.79030 334.66795 323.08260 311.28826 299.16991 286.98456
 274.70821 262.61686 250.63751 239.95016 230.08381 221.19947 213.39312 206.40677
 200.25242 195.20207 191.79572 189.84937 188.89802 188.97368 189.82033 191.13998
 192.87663 194.98328 197.25793 199.62858 202.08523 204.57688 206.67654 208.53019
 210.16784 211.32449 211.56514 211.80479 211.75344 211.47009 211.11475 210.75640
 210.38505 210.10670 209.92635 209.80200 209.74165 210.08430 210.48196 210.88261
 211.68726 212.87691 214.13856 215.93321 217.87286 219.92751 222.03417 224.12882
 226.20047 228.29612 230.40477 232.52242 234.66307 236.84672 239.11437 241.49603
 244.12868 246.39133 248.40498 250.18163 251.61028 252.74493 253.57858 253.90624
 253.95489 253.74054 253.11219 252.07184 250.68949 248.86214 246.78279 244.62745
 242.43010 240.24575 238.07740 235.92805 233.79970 231.67835 229.71600 227.88465
 226.17931 224.66296 223.30461 222.08826 220.98191 219.95356 219.06921 218.22186
 217.47552 216.66717 215.77682 215.15247 214.61412 214.41286 213.90335 213.22044
 212.15048 210.91145 211.14462 213.54172 217.11253 221.42381 226.50575 231.51845
 235.43668 239.67526 243.95192 248.09717 252.01265 255.80983 259.46204 262.83887
 265.90891 268.63278 270.90869 272.75330 274.42383 276.11670 277.90170 279.66400
 281.15659 282.89520 284.60324 286.24786 287.67117 288.93042 290.07928 291.12009
 292.05618 292.88977 293.61798 294.54599
 366.78100 356.34560 345.78819 334.66479 323.07839 311.28299 299.16358 286.97718
 274.69978 262.60737 250.62697 239.93857 230.07117 221.18576 213.37836 206.39096
 200.23555 195.18415 191.77675 189.82935 188.87694 188.95154 189.79714 191.11573
 192.85133 194.95693 197.23053 199.60012 202.05572 204.54632 206.64491 208.49751
 210.13411 211.28971 211.52930 211.76790 211.71550 211.43109 211.07469 210.71529
 210.34289 210.06348 209.88208 209.75668 209.69527 210.03687 210.43347 210.83307
 211.63666 212.82526 214.08586 215.87945 217.81805 219.87165 221.97724 224.07084
 226.14144 228.23604 230.34363 232.46023 234.59983 236.78242 239.04902 241.42962
 244.06122 246.32281 248.33541 250.11101 251.53860 252.67220 253.50480 253.83140
 253.87899 253.66359 253.03419 251.99278 250.60938 248.78098 246.70058 244.54417
 242.34577 240.16037 237.99096 235.84056 233.71116 231.58876 229.62535 227.79295
 226.08655 224.56914 223.20974 221.99234 220.88494 219.85553 218.97013 218.12173
 217.37432 216.56492 215.67352 215.04812 214.50871 214.37860 214.00574 213.23929
 212.14400 210.91628 211.15494 213.57716 217.12671 221.40437 226.46500 231.46742
 235.38087 239.60796 243.87781 248.01312 251.92397 255.73654 259.41129 262.80820
 265.90472 268.66766 270.98752 272.88553 274.56924 276.22504 277.90994 279.54422
 280.97430 282.81329 284.53702 286.15479 287.55481 288.79346 289.92355 290.94733
 291.86810 292.68808 293.40439 294.31723
 366.78100 356.34577 345.78853 334.66530 323.07906 311.28383 299.16459 286.97836
 274.70112 262.60889 250.62865 239.94042 230.07318 221.18795 213.38071 206.39348
 200.23824 195.18701 191.77977 189.83254 188.88030 188.95507 189.80083 191.11960
 192.85536 194.96113 197.23489 199.60466 202.06042 204.55119 206.64995 208.50272
 210.13948 211.29525 211.53501 211.77378 211.72154 211.43731 211.08107 210.72184
 210.34961 210.07037 209.88914 209.76390 209.70267 210.04443 210.44120 210.84096
 211.64473 212.83349 214.09426 215.88802 217.82679 219.88055 221.98632 224.08008
 226.15085 228.24561 230.35338 232.47014 234.60991 236.79267 239.05944 241.44020
 244.07197 246.33373 248.34650 250.12226 251.55003 252.68379 253.51656 253.84332
 253.89109 253.67585 253.04662 252.00538 250.62215 248.79391 246.71368 244.55745
 242.35921 240.17398 238.00474 235.85451 233.72527 231.60304 229.63980 227.80757
 226.10133 224.58410 223.22486 222.00763 220.90039 219.87116 218.98592 218.13769
 217.39045 216.58122 215.68998 215.06475 214.52551 214.39745 214.03897 213.31075
 212.18518 210.82104 211.12523 213.61728 217.14116 221.39816 226.46095 231.45970
 235.35297 239.57414 243.83586 247.96313 251.85579 255.67032 259.36279 262.77164
 265.87943 268.65332 271.03656 272.98822 274.70010 276.31012 277.91745 279.44662
 280.85349 282.65005 284.29642 285.86270 287.22464 288.42960 289.52893 290.52484
 291.42056 292.21820 292.91501 293.80301
 366.78100 356.34626 345.78951 334.66677 323.08103 311.28629 299.16754 286.98180
 274.70506 262.61331 250.63357 239.94583 230.07908 221.19434 213.38760 206.40086
 200.24611 195.19537 191.78863 189.84188 188.89014 188.96540 189.81166 191.13091
 192.86717 194.97343 197.24768 199.61794 202.07420 204.56546 206.66471 208.51797
 210.15523 211.31148 211.55174 211.79100 211.73925 211.45551 211.09977 210.74103
 210.36928 210.09054 209.90980 209.78505 209.72431 210.06657 210.46383 210.86408
 211.66834 212.85760 214.11885 215.91311 217.85237 219.90662 222.01288 224.10714
 226.17840 228.27365 230.38191 232.49917 234.63942 236.82268 239.08994 241.47120
 244.10345 246.36571 248.37897 250.15522 251.58348 252.71774 253.55099 253.87825
 253.92651 253.71177 253.08302 252.04228 250.65954 248.83179 246.75205 244.59631
 242.39857 240.21382 238.04508 235.89534 233.76659 231.64485 229.68211 227.85037
 226.14462 224.62788 223.26914 222.05239 220.94565 219.91691 219.03216 218.18442
 217.43768 216.62894 215.73819 215.11345 214.57471 214.44550 214.07385 213.35419
 212.27119 210.75159 211.09770 213.63762 217.11433 221.35310 226.44141 231.40567
 235.32016 239.53410 243.79291 247.91214 251.80890 255.63052 259.32599 262.74411
 265.86270 268.65698 271.05597 273.07910 274.82312 276.41040 277.92157 279.35550
 280.65591 282.45337 284.16605 285.78424 287.18463 288.42361 289.55402 290.57806
 291.49911 292.31927 293.03577 293.94885
 366.78100 356.34584 345.78867 334.66551 323.07935 311.28418 299.16502 286.97886
 274.70169 262.60953 250.62937 239.94121 230.07404 221.18888 213.38172 206.39455
 200.23939 195.18823 191.78106 189.83390 188.88174 188.95657 189.80241 191.12125
 192.85708 194.96292 197.23676 199.60659 202.06243 204.55327 206.65211 208.50494
 210.14178 211.29762 211.53745 211.77629 211.72413 211.43996 211.08380 210.72464
 210.35247 210.07331 209.89215 209.76698 209.70582 210.04766 210.44449 210.84433
 211.64817 212.83701 214.09784 215.89168 217.83052 219.88435 221.99019 224.08403
 226.15486 228.24970 230.35754 232.47437 234.61421 236.79705 239.06388 241.44472
 244.07656 246.33839 248.35123 250.12707 251.55491 252.68874 253.52158 253.84842
 253.89625 253.68109 253.05193 252.01076 250.62760 248.79944 246.71927 244.56311
 242.36495 240.17978 238.01062 235.86046 233.73129 231.60913 229.64597 227.81381
 226.10764 224.59048 223.23132 222.01415 220.90699 219.87783 218.99266 218.14450
 217.39734 216.58817 215.69701 215.07185 214.53268 214.45879 214.15575 213.31754
 212.28822 210.74673 211.09953 213.66927 217.08347 221.28856 226.45782 231.37047
 235.28816 239.49940 243.76173 247.88191 251.78743 255.61852 259.31732 262.73691
 265.85010 268.64172 271.08289 273.18799 274.98853 276.57932 278.01318 279.34021
 281.06659 283.00275 284.85873 286.48840 287.89877 289.14655 290.28497 291.31631
 292.24390 293.06989 293.79147 294.71106
 366.78100 356.34586 345.78872 334.66558 323.07944 311.28431 299.16517 286.97903
 274.70189 262.60975 250.62961 239.94147 230.07433 221.18919 213.38206 206.39492
 200.23978 195.18864 191.78150 189.83436 188.88222 188.95708 189.80294 191.12181
 192.85767 194.96353 197.23739 199.60725 202.06311 204.55397 206.65283 208.50569
 210.14256 211.29842 211.53828 211.77714 211.72500 211.44086 211.08472 210.72558
 210.35344 210.07431 209.89317 209.76803 209.70689 210.04875 210.44561 210.84547
 211.64933 212.83819 214.09906 215.89292 217.83178 219.88564 221.99150 224.08536
 226.15622 228.25108 230.35894 232.47581 234.61567 236.79853 239.06539 241.44625
 244.07811 246.33997 248.35283 250.12869 251.55656 252.69042 253.52328 253.85014
 253.89800 253.68286 253.05372 252.01258 250.62944 248.80131 246.72117 244.56503
 242.36689 240.18175 238.01261 235.86247 233.73333 231.61119 229.64806 227.81592
 226.10978 224.59264 223.23350 222.01636 220.90922 219.88008 218.99494 218.14680
 217.39967 216.59053 215.69939 215.07425 214.53511 214.46896 214.20813 213.32436
 212.23283 210.77562 211.09460 213.67134 217.09311 221.31750 226.44305 231.37936
 235.30508 239.51569 243.77222 247.88704 251.77747 255.58817 259.28262 262.70209
 265.81561 268.61661 271.09235 273.25681 275.07895 276.64322 278.06705 279.44052
 281.06720 282.89789 284.61133 286.20602 287.58609 288.80707 289.92105 290.93024
 291.83789 292.64615 293.35223 294.25204
 366.78100 356.34702 345.79103 334.66905 323.08406 311.29008 299.17209 286.98711
 274.71112 262.62014 250.64116 239.95417 230.08819 221.20420 213.39822 206.41223
 200.25825 195.20826 191.80228 189.85630 188.90531 188.98133 189.82834 191.14836
 192.88537 194.99239 197.26741 199.63842 202.09544 204.58745 206.68747 208.54148
 210.17950 211.33651 211.57753 211.81755 211.76656 211.48358 211.12859 210.77061
 210.39962 210.12164 209.94165 209.81767 209.75769 210.10070 210.49872 210.89973
 211.70475 212.89476 214.15678 215.95179 217.89181 219.94683 222.05384 224.14886
 226.22087 228.31689 230.42590 232.54392 234.68494 236.86895 239.13697 241.51898
 244.15200 246.41501 248.42903 250.20604 251.63506 252.77008 253.60409 253.93211
 253.98112 253.76714 253.13915 252.09917 250.71718 248.89020 246.81122 244.65623
 242.45925 240.27526 238.10728 235.95829 233.83031 231.70932 229.74734 227.91636
 226.21137 224.69539 223.33740 222.12142 221.01543 219.98745 219.10346 218.25648
 217.51050 216.70251 215.81253 215.18854 214.65056 214.52562 214.19087 213.45203
 212.22057 210.66254 210.94337 213.54514 217.03101 221.27808 226.48080 231.35385
 235.28682 239.49496 243.74123 247.85263 251.74594 255.55672 259.26443 262.68939
 265.80042 268.60275 271.10110 273.29013 275.12250 276.64963 278.04266 279.40103
 280.83286 282.44592 284.01382 285.46729 286.76880 287.91278 288.95648 289.90201
 290.75238 291.50967 292.17120 293.01425
 366.78100 356.34724 345.79148 334.66972 323.08496 311.29120 299.17343 286.98867
 274.71291 262.62215 250.64339 239.95663 230.09087 221.20711 213.40135 206.41559
 200.26183 195.21207 191.80630 189.86054 188.90978 188.98602 189.83326 191.15350
 192.89074 194.99798 197.27322 199.64446 202.10170 204.59393 206.69417 208.54841
 210.18665 211.34389 211.58513 211.82537 211.77461 211.49185 211.13709 210.77933
 210.40857 210.13080 209.95104 209.82728 209.76752 210.11076 210.50900 210.91024
 211.71548 212.90572 214.16796 215.96320 217.90343 219.95867 222.06591 224.16115
 226.23339 228.32963 230.43887 232.55711 234.69835 236.88259 239.15083 241.53306
 244.16630 246.42954 248.44378 250.22102 251.65026 252.78550 253.61974 253.94798
 253.99722 253.78346 253.15570 252.11593 250.73417 248.90741 246.82865 244.67389
 242.47713 240.29337 238.12561 235.97685 233.84909 231.72833 229.76656 227.93580
 226.23104 224.71528 223.35752 222.14176 221.03600 220.00824 219.12448 218.27772
 217.53196 216.72420 215.83443 215.21067 214.67291 214.55315 214.23502 213.47145
 212.26720 210.59891 210.83807 213.46428 216.96118 221.21735 226.46683 231.30705
 235.25183 239.45743 243.70242 247.81525 251.72104 255.54337 259.25510 262.69669
 265.81903 268.62781 271.14337 273.38193 275.23401 276.72745 278.04120 279.35306
 280.69223 282.07568 283.56097 284.98309 286.24231 287.35272 288.37720 289.30530
 290.14001 290.88333 291.53271 292.36023
 366.78100 356.34742 345.79184 334.67026 323.08568 311.29210 299.17452 286.98994
 274.71436 262.62378 250.64520 239.95862 230.09304 221.20946 213.40388 206.41830
 200.26472 195.21514 191.80956 189.86398 188.91340 188.98983 189.83725 191.15767
 192.89509 195.00251 197.27793 199.64935 202.10677 204.59919 206.69961 208.55403
 210.19245 211.34987 211.59129 211.83171 211.78113 211.49855 211.14397 210.78639
 210.41581 210.13823 209.95865 209.83507 209.77549 210.11891 210.51733 210.91875
 211.72417 212.91459 214.17701 215.97243 217.91285 219.96827 222.07569 224.17111
 226.24353 228.33995 230.44937 232.56779 234.70921 236.89364 239.16206 241.54448
 244.17790 246.44132 248.45574 250.23316 251.66258 252.79800 253.63242 253.96084
 254.01026 253.79668 253.16910 252.12952 250.74794 248.92136 246.84278 244.68820
 242.49162 240.30804 238.14046 235.99188 233.86430 231.74372 229.78214 227.95156
 226.24698 224.73140 223.37382 222.15824 221.05266 220.02508 219.14150 218.29492
 217.54934 216.74176 215.85218 215.22860 214.69102 214.57774 214.28239 213.51050
 212.20253 210.46111 210.76576 213.44815 216.94994 221.20592 226.48712 231.28880
 235.24576 239.44914 243.69322 247.80521 251.71405 255.53566 259.24774 262.69403
 265.81201 268.62225 271.15338 273.44611 275.32153 276.79031 278.05856 279.30933
 280.65268 281.94150 283.18924 284.58279 285.80600 286.85767 287.86887 288.78674
 289.61227 290.34741 290.98962 291.80801
 366.78100 356.34771 345.79243 334.67114 323.08686 311.29357 299.17629 286.99200
 274.71671 262.62643 250.64814 239.96186 230.09657 221.21329 213.40800 206.42271
 200.26943 195.22014 191.81486 189.86957 188.91929 188.99600 189.84371 191.16443
 192.90214 195.00986 197.28557 199.65729 202.11500 204.60771 206.70843 208.56314
 210.20186 211.35957 211.60129 211.84200 211.79171 211.50943 211.15514 210.79786
 210.42757 210.15029 209.97100 209.84771 209.78843 210.13214 210.53086 210.93257
 211.73829 212.92900 214.19171 215.98743 217.92814 219.98386 222.09157 224.18729
 226.26000 228.35671 230.46643 232.58514 234.72686 236.91157 239.18029 241.56300
 244.19671 246.46043 248.47514 250.25286 251.68257 252.81829 253.65300 253.98171
 254.03143 253.81814 253.19086 252.15157 250.77029 248.94400 246.86571 244.71143
 242.51514 240.33186 238.16457 236.01629 233.88900 231.76871 229.80743 227.97714
 226.27286 224.75757 223.40029 222.18500 221.07971 220.05243 219.16914 218.32286
 217.57757 216.77029 215.88100 215.25771 214.72043 214.60559 214.31876 213.57680
 212.29254 210.40428 210.63297 213.38399 216.90486 221.17426 226.50050 231.25304
 235.23625 239.43616 243.67815 247.78767 251.69852 255.51091 259.22272 262.67255
 265.79071 268.59985 271.15155 273.45856 275.36133 276.84384 278.06204 279.28476
 280.59653 281.89282 283.05496 284.22131 285.40561 286.40353 287.22980 288.11197
 288.91284 289.62601 290.24902 291.04300
 366.78100 356.34798 345.79297 334.67195 323.08794 311.29492 299.17790 286.99389
 274.71887 262.62886 250.65084 239.96482 230.09981 221.21679 213.41177 206.42676
 200.27374 195.22473 191.81971 189.87469 188.92468 189.00166 189.84965 191.17063
 192.90861 195.01660 197.29258 199.66457 202.12255 204.61553 206.71652 208.57150
 210.21049 211.36847 211.61045 211.85144 211.80142 211.51940 211.16539 210.80837
 210.43836 210.16134 209.98232 209.85931 209.80029 210.14428 210.54326 210.94524
 211.75123 212.94221 214.20520 216.00118 217.94216 219.99815 222.10613 224.20211
 226.27510 228.37208 230.48207 232.60105 234.74303 236.92802 239.19700 241.57999
 244.21397 246.47795 248.49294 250.27092 251.70091 252.83689 253.67187 254.00086
 254.05084 253.83783 253.21081 252.17179 250.79078 248.96476 246.88674 244.73273
 242.53671 240.35370 238.18668 236.03866 233.91165 231.79163 229.83062 228.00060
 226.29658 224.78157 223.42455 222.20954 221.10452 220.07750 219.19449 218.34847
 217.60346 216.79644 215.90742 215.28441 214.74739 214.63763 214.36281 213.61104
 212.33217 210.38138 210.55975 213.32826 216.86868 221.14833 226.47627 231.23300
 235.21210 239.41534 243.66310 247.77611 251.68593 255.49471 259.20547 262.65897
 265.77887 268.58765 271.15448 273.48505 275.40237 276.89493 278.08493 279.24664
 280.49716 281.72992 282.82642 283.98569 285.12952 285.97836 286.79184 287.68582
 288.49887 289.22287 289.85535 290.66138
 366.78100 356.34913 345.79526 334.67539 323.09252 311.30065 299.18478 287.00191
 274.72804 262.63918 250.66231 239.97744 230.11357 221.23170 213.42783 206.44396
 200.29209 195.24422 191.84035 189.89648 188.94761 189.02574 189.87487 191.19700
 192.93613 195.04527 197.32240 199.69553 202.15466 204.64879 206.75092 208.60705
 210.24718 211.40631 211.64944 211.89157 211.84270 211.56183 211.20896 210.85309
 210.48422 210.20835 210.03049 209.90862 209.85075 210.19588 210.59601 210.99914
 211.80627 212.99840 214.26253 216.05966 218.00179 220.05892 222.16805 224.26518
 226.33931 228.43744 230.54858 232.66871 234.81184 236.99797 239.26810 241.65223
 244.28736 246.55249 248.56862 250.34775 251.77888 252.91601 253.75214 254.08227
 254.13340 253.92153 253.29566 252.25780 250.87793 249.05306 246.97619 244.82332
 242.62845 240.44658 238.28071 236.13384 234.00797 231.88910 229.92923 228.10036
 226.39749 224.88362 223.52775 222.31389 221.21002 220.18415 219.30228 218.45741
 217.71354 216.90767 216.01980 215.39793 214.86206 214.71062 214.34389 213.70599
 212.31947 210.32318 210.52859 213.28656 216.84892 221.14268 226.47389 231.22797
 235.20651 239.41379 243.66635 247.78062 251.68604 255.48634 259.19360 262.64978
 265.76959 268.57486 271.14648 273.48929 275.42075 276.93631 278.13391 279.26236
 280.47543 281.64569 282.68411 283.51889 284.40027 285.46460 286.43738 287.32947
 288.14386 288.86908 289.50262 290.31000
 366.78100 356.35010 345.79719 334.67829 323.09638 311.30548 299.19057 287.00867
 274.73576 262.64786 250.67195 239.98805 230.12514 221.24424 213.44133 206.45843
 200.30752 195.26062 191.85771 189.91481 188.96691 189.04600 189.89610 191.21919
 192.95929 195.06938 197.34748 199.72157 202.18167 204.67676 206.77986 208.63695
 210.27805 211.43814 211.68224 211.92533 211.87743 211.59752 211.24562 210.89072
 210.52281 210.24791 210.07100 209.95010 209.89319 210.23929 210.64038 211.04448
 211.85257 213.04567 214.31076 216.10886 218.05195 220.11005 222.22014 224.31824
 226.39333 228.49243 230.60453 232.72562 234.86972 237.05681 239.32791 241.71300
 244.34910 246.61519 248.63229 250.41238 251.84448 252.98257 253.81967 254.15076
 254.20286 253.99195 253.36705 252.33014 250.95124 249.12734 247.05143 244.89953
 242.70562 240.52472 238.35981 236.21391 234.08900 231.97110 230.01219 228.18429
 226.48238 224.96948 223.61457 222.40167 221.29876 220.27386 219.39296 218.54905
 217.80615 217.00124 216.11434 215.49343 214.95853 214.77127 214.32671 213.78674
 212.41316 210.31470 210.42545 213.19446 216.79753 221.11424 226.47928 231.20412
 235.20406 239.41077 243.66319 247.77489 251.67474 255.46495 259.17029 262.63120
 265.75223 268.55823 271.12625 273.46045 275.40921 276.94656 278.18744 279.30829
 280.46924 281.56174 282.48657 283.24915 284.17468 285.23117 286.13409 286.82831
 287.63626 288.36911 289.00931 289.82513
 366.78100 356.35051 345.79802 334.67952 323.09803 311.30754 299.19305 287.01156
 274.73906 262.65157 250.67608 239.99259 230.13009 221.24960 213.44711 206.46462
 200.31413 195.26763 191.86514 189.92265 188.97516 189.05467 189.90517 191.22868
 192.96919 195.07970 197.35820 199.73271 202.19322 204.68873 206.79224 208.64974
 210.29125 211.45176 211.69627 211.93978 211.89228 211.61279 211.26130 210.90681
 210.53931 210.26482 210.08833 209.96784 209.91135 210.25785 210.65936 211.06387
 211.87238 213.06589 214.33139 216.12990 218.07341 220.13192 222.24242 224.34093
 226.41644 228.51595 230.62846 232.74996 234.89447 237.08198 239.35349 241.73900
 244.37550 246.64201 248.65952 250.44003 251.87253 253.01104 253.84855 254.18006
 254.23257 254.02207 253.39758 252.36109 250.98260 249.15911 247.08361 244.93212
 242.73863 240.55814 238.39364 236.24815 234.12366 232.00617 230.04768 228.22018
 226.51869 225.00620 223.65171 222.43922 221.33672 220.31223 219.43174 218.58825
 217.84575 217.04126 216.15477 215.53428 214.99979 214.80591 214.34779 213.81133
 212.49031 210.36331 210.33917 213.07980 216.72113 221.07098 226.46379 231.17511
 235.19092 239.39833 243.65373 247.76651 251.66165 255.44641 259.15198 262.61957
 265.74078 268.54422 271.10675 273.43939 275.39999 276.94995 278.21509 279.35263
 280.47827 281.51120 282.33954 283.05737 283.90897 284.97607 285.91803 286.45535
 287.19772 287.93802 288.58472 289.40887
 366.78100 356.35072 345.79844 334.68016 323.09887 311.30859 299.19431 287.01303
 274.74075 262.65347 250.67819 239.99490 230.13262 221.25234 213.45006 206.46778
 200.31750 195.27122 191.86893 189.92665 188.97937 189.05909 189.90981 191.23353
 192.97425 195.08496 197.36368 199.73840 202.19912 204.69484 206.79856 208.65628
 210.29799 211.45871 211.70343 211.94715 211.89987 211.62059 211.26931 210.91502
 210.54774 210.27346 210.09718 209.97690 209.92062 210.26734 210.66906 211.07377
 211.88249 213.07621 214.34193 216.14065 218.08437 220.14309 222.25380 224.35252
 226.42824 228.52796 230.64068 232.76240 234.90712 237.09483 239.36655 241.75227
 244.38899 246.65571 248.67343 250.45415 251.88686 253.02558 253.86330 254.19502
 254.24774 254.03746 253.41318 252.37689 250.99861 249.17533 247.10005 244.94877
 242.75549 240.57521 238.41092 236.26564 234.14136 232.02408 230.06580 228.23852
 226.53724 225.02495 223.67067 222.45839 221.35611 220.33183 219.45155 218.60827
 217.86598 217.06170 216.17542 215.55514 215.02086 214.83327 214.39011 213.77397
 212.61533 210.39784 210.21318 212.96660 216.67332 221.04262 226.44092 231.16568
 235.17749 239.39336 243.65392 247.77022 251.66373 255.44315 259.14267 262.61328
 265.73233 268.53012 271.08572 273.40857 275.36923 276.93839 278.22415 279.37460
 280.47305 281.43982 282.15979 282.80118 283.67517 284.75229 285.75110 286.28558
 287.01355 287.75320 288.39938 289.22284
 366.78100 356.35035 345.79771 334.67906 323.09742 311.30677 299.19213 287.01048
 274.73783 262.65019 250.67454 239.99090 230.12825 221.24761 213.44496 206.46232
 200.31167 195.26502 191.86238 189.91973 188.97209 189.05144 189.90180 191.22515
 192.96550 195.07586 197.35421 199.72857 202.18892 204.68428 206.78763 208.64499
 210.28634 211.44669 211.69105 211.93440 211.88676 211.60711 211.25547 210.90082
 210.53317 210.25853 210.08188 209.96124 209.90459 210.25095 210.65230 211.05665
 211.86501 213.05836 214.32372 216.12207 218.06543 220.12378 222.23414 224.33249
 226.40784 228.50720 230.61955 232.74091 234.88526 237.07262 239.34397 241.72932
 244.36568 246.63203 248.64939 250.42974 251.86210 253.00045 253.83781 254.16916
 254.22151 254.01087 253.38622 252.34958 250.97093 249.14729 247.07164 244.91999
 242.72635 240.54570 238.38106 236.23541 234.11077 231.99312 230.03447 228.20683
 226.50518 224.99254 223.63789 222.42525 221.32260 220.29796 219.41731 218.57366
 217.83102 217.02637 216.13973 215.51908 214.98444 214.83301 214.47363 213.69078
 212.69397 210.39792 210.10028 212.89542 216.67294 221.04768 226.43115 231.17479
 235.17188 239.39571 243.66008 247.77820 251.66881 255.43886 259.12827 262.59833
 265.71283 268.50409 271.05243 273.36118 275.32147 276.92026 278.23846 279.40372
 280.47543 281.36108 281.94107 282.50806 283.39719 284.46280 285.46057 286.36774
 287.17978 287.91916 288.56506 289.38818
 366.78100 356.35006 345.79713 334.67819 323.09626 311.30532 299.19038 287.00845
 274.73551 262.64758 250.67164 239.98771 230.12477 221.24383 213.44090 206.45796
 200.30703 195.26009 191.85715 189.91422 188.96628 189.04535 189.89541 191.21848
 192.95854 195.06860 197.34667 199.72073 202.18080 204.67586 206.77892 208.63599
 210.27705 211.43712 211.68118 211.92424 211.87631 211.59637 211.24444 210.88950
 210.52157 210.24663 210.06969 209.94876 209.89182 210.23789 210.63895 211.04301
 211.85108 213.04414 214.30921 216.10727 218.05034 220.10840 222.21846 224.31653
 226.39159 228.49066 230.60272 232.72378 234.86785 237.05491 239.32598 241.71104
 244.34710 246.61317 248.63023 250.41030 251.84236 252.98043 253.81749 254.14855
 254.20062 253.98968 253.36475 252.32781 250.94887 249.12494 247.04900 244.89707
 242.70313 240.52220 238.35726 236.21132 234.08639 231.96845 230.00952 228.18158
 226.47964 224.96671 223.61177 222.39884 221.29590 220.27096 219.39003 218.54609
 217.80316 216.99822 216.11129 215.49035 214.95541 214.82980 214.53307 213.65799
 212.74573 210.37572 209.99950 212.84584 216.68561 221.05402 226.43254 231.16675
 235.16798 239.39572 243.66336 247.77977 251.66161 255.42068 259.10489 262.58182
 265.69589 268.48019 271.01199 273.30246 275.26941 276.90686 278.26590 279.44781
 280.48999 281.30032 281.77420 282.23441 283.01523 284.05209 285.03650 285.93521
 286.73373 287.47195 288.11685 288.93869
 366.78100 356.35057 345.79815 334.67972 323.09829 311.30786 299.19344 287.01201
 274.73958 262.65215 250.67673 239.99330 230.13087 221.25045 213.44802 206.46559
 200.31516 195.26874 191.86631 189.92388 188.97645 189.05603 189.90660 191.23017
 192.97075 195.08132 197.35989 199.73446 202.19504 204.69061 206.79418 208.65175
 210.29333 211.45390 211.69847 211.94204 211.89462 211.61519 211.26376 210.90934
 210.54191 210.26748 210.09105 209.97063 209.91420 210.26077 210.66234 211.06692
 211.87549 213.06906 214.33464 216.13321 218.07678 220.13535 222.24593 224.34450
 226.42007 228.51964 230.63222 232.75379 234.89836 237.08594 239.35751 241.74308
 244.37965 246.64623 248.66380 250.44437 251.87694 253.01552 253.85309 254.18466
 254.23724 254.02681 253.40238 252.36595 250.98753 249.16410 247.08867 244.93724
 242.74382 240.56339 238.39896 236.25354 234.12911 232.01168 230.05325 228.22583
 226.52440 225.01197 223.65754 222.44512 221.34269 220.31826 219.43784 218.59441
 217.85198 217.04755 216.16113 215.54070 215.00627 214.86162 214.51984 213.68500
 212.77184 210.39174 209.88931 212.78236 216.67059 221.02803 226.41919 231.12912
 235.14906 239.38004 243.65120 247.76566 251.63905 255.39281 259.08102 262.57446
 265.68948 268.46451 270.97562 273.24707 275.21783 276.88745 278.27686 279.45987
 280.48087 281.22369 281.71078 282.19943 282.87372 283.54587 284.37668 285.28162
 286.13577 286.85739 287.51190 288.34598
 366.78100 356.35122 345.79943 334.68165 323.10087 311.31108 299.19730 287.01652
 274.74473 262.65795 250.68317 240.00038 230.13860 221.25882 213.45703 206.47525
 200.32547 195.27968 191.87790 189.93612 188.98933 189.06955 189.92077 191.24498
 192.98620 195.09742 197.37663 199.75185 202.21307 204.70928 206.81350 208.67172
 210.31393 211.47515 211.72037 211.96458 211.91780 211.63902 211.28823 210.93445
 210.56767 210.29388 210.11810 209.99832 209.94253 210.28975 210.69197 211.09718
 211.90640 213.10062 214.36683 216.16605 218.11026 220.16948 222.28070 224.37991
 226.45613 228.55635 230.66956 232.79178 234.93700 237.12521 239.39743 241.78365
 244.42086 246.68808 248.70630 250.48751 251.92073 253.05995 253.89816 254.23038
 254.28360 254.07381 253.45003 252.41425 251.03646 249.21368 247.13890 244.98811
 242.79533 240.61555 238.45176 236.30698 234.18320 232.06641 230.10863 228.28185
 226.58106 225.06928 223.71550 222.50371 221.40193 220.37815 219.49836 218.65558
 217.91380 217.11001 216.22423 215.60445 215.07066 214.90437 214.51151 213.70094
 212.79482 210.42091 209.83945 212.74524 216.64716 220.99033 226.37624 231.09171
 235.11549 239.35258 243.62984 247.74805 251.62112 255.37390 259.06332 262.56760
 265.68335 268.45190 270.94547 273.18628 275.14993 276.84109 278.25763 279.45029
 280.45471 281.15280 281.60095 282.06577 282.70416 283.42474 284.29099 285.18384
 286.03574 286.76489 287.41867 288.25186
 366.78100 356.35141 345.79982 334.68223 323.10165 311.31206 299.19847 287.01788
 274.74629 262.65970 250.68512 240.00253 230.14094 221.26135 213.45976 206.47817
 200.32859 195.28300 191.88141 189.93982 188.99323 189.07364 189.92506 191.24947
 192.99088 195.10229 197.38170 199.75711 202.21853 204.71494 206.81935 208.67776
 210.32017 211.48158 211.72700 211.97141 211.92482 211.64623 211.29564 210.94205
 210.57547 210.30188 210.12629 210.00670 209.95111 210.29852 210.70094 211.10635
 211.91576 213.11017 214.37658 216.17599 218.12041 220.17982 222.29123 224.39064
 226.46705 228.56746 230.68088 232.80329 234.94870 237.13711 239.40952 241.79593
 244.43335 246.70076 248.71917 250.50058 251.93399 253.07340 253.91181 254.24423
 254.29764 254.08805 253.46446 252.42887 251.05128 249.22870 247.15411 245.00352
 242.81093 240.63134 238.46775 236.32317 234.19958 232.08299 230.12540 228.29881
 226.59822 225.08664 223.73305 222.52146 221.41987 220.39628 219.51669 218.67411
 217.93252 217.12893 216.24334 215.62375 215.09016 214.92523 214.53560 213.69412
 212.78722 210.41391 209.85245 212.73666 216.62622 220.96338 226.33646 231.07819
 235.08670 239.33800 243.62315 247.74751 251.62405 255.37344 259.05463 262.55768
 265.67145 268.42917 270.89929 273.10291 275.05774 276.77155 278.22464 279.44366
 280.43478 281.12189 281.53030 281.93054 282.51410 283.25876 284.19827 285.08826
 285.91501 286.66620 287.32483 288.16422
 366.78100 356.35140 345.79979 334.68219 323.10158 311.31198 299.19838 287.01777
 274.74617 262.65956 250.68496 240.00236 230.14075 221.26115 213.45954 206.47794
 200.32833 195.28273 191.88113 189.93952 188.99292 189.07331 189.92471 191.24911
 192.99050 195.10190 197.38129 199.75669 202.21809 204.71448 206.81888 208.67727
 210.31967 211.48107 211.72646 211.97086 211.92425 211.64565 211.29505 210.94144
 210.57484 210.30123 210.12563 210.00602 209.95042 210.29782 210.70021 211.10561
 211.91500 213.10940 214.37580 216.17519 218.11959 220.17898 222.29038 224.38978
 226.46617 228.56657 230.67996 232.80236 234.94776 237.13615 239.40855 241.79494
 244.43234 246.69974 248.71813 250.49953 251.93292 253.07232 253.91071 254.24311
 254.29651 254.08690 253.46330 252.42769 251.05009 249.22749 247.15288 245.00228
 242.80967 240.63007 238.46647 236.32186 234.19826 232.08165 230.12405 228.29745
 226.59684 225.08524 223.73163 222.52003 221.41843 220.39482 219.51522 218.67261
 217.93101 217.12740 216.24180 215.62220 215.08859 214.93193 214.56183 213.69252
 212.78708 210.40498 209.84161 212.71983 216.59549 220.93129 226.30513 231.06224
 235.06958 239.33218 243.62532 247.75194 251.62398 255.36578 259.04166 262.54813
 265.65646 268.39645 270.83731 273.01123 274.96350 276.69998 278.18332 279.42151
 280.40475 281.06897 281.41684 281.76651 282.34665 283.15176 284.11099 284.99799
 285.81686 286.57703 287.25232 288.11292
 366.78100 356.35139 345.79979 334.68218 323.10157 311.31197 299.19836 287.01775
 274.74614 262.65954 250.68493 240.00232 230.14072 221.26111 213.45950 206.47790
 200.32829 195.28268 191.88107 189.93947 188.99286 189.07325 189.92465 191.24904
 192.99043 195.10183 197.38122 199.75661 202.21800 204.71440 206.81879 208.67718
 210.31958 211.48097 211.72636 211.97076 211.92415 211.64554 211.29493 210.94133
 210.57472 210.30111 210.12551 210.00590 209.95029 210.29769 210.70008 211.10547
 211.91487 213.10926 214.37565 216.17504 218.11944 220.17883 222.29022 224.38962
 226.46601 228.56640 230.67980 232.80219 234.94758 237.13597 239.40837 241.79476
 244.43215 246.69955 248.71794 250.49933 251.93273 253.07212 253.91051 254.24290
 254.29630 254.08669 253.46308 252.42748 251.04987 249.22726 247.15266 245.00205
 242.80944 240.62984 238.46623 236.32162 234.19801 232.08141 230.12380 228.29719
 226.59659 225.08498 223.73137 222.51977 221.41816 220.39455 219.51494 218.67234
 217.93073 217.12712 216.24152 215.62191 215.08830 214.93822 214.58365 213.69183
 212.81136 210.40710 209.82390 212.69620 216.55211 220.89203 226.26910 231.04059
 235.04855 239.32126 243.62056 247.74638 251.61259 255.34854 259.02380 262.53616
 265.64243 268.36853 270.78360 272.92975 274.87372 276.62115 278.12418 279.37192
 280.33994 280.98242 281.31125 281.66727 282.25836 283.06314 284.02191 284.90692
 285.72308 286.48444 287.15607 288.01199
 366.78100 356.35138 345.79977 334.68215 323.10154 311.31192 299.19831 287.01769
 274.74608 262.65946 250.68485 240.00223 230.14062 221.26100 213.45938 206.47777
 200.32815 195.28254 191.88092 189.93931 188.99269 189.07308 189.92446 191.24885
 192.99023 195.10162 197.38100 199.75639 202.21777 204.71415 206.81854 208.67692
 210.31931 211.48069 211.72608 211.97046 211.92385 211.64523 211.29462 210.94100
 210.57439 210.30077 210.12515 210.00554 209.94992 210.29731 210.69969 211.10508
 211.91446 213.10885 214.37523 216.17462 218.11900 220.17839 222.28977 224.38915
 226.46554 228.56592 230.67931 232.80169 234.94708 237.13546 239.40785 241.79423
 244.43162 246.69900 248.71739 250.49877 251.93216 253.07154 253.90992 254.24231
 254.29569 254.08608 253.46246 252.42685 251.04923 249.22662 247.15200 245.00139
 242.80877 240.62916 238.46554 236.32092 234.19731 232.08069 230.12308 228.29646
 226.59585 225.08423 223.73062 222.51900 221.41739 220.39377 219.51416 218.67154
 217.92992 217.12631 216.24069 215.62108 215.08746 214.94420 214.60571 213.68750
 212.83101 210.41412 209.82733 212.67708 216.51091 220.85706 226.23367 231.02319
 235.02510 239.30972 243.61476 247.73933 251.60243 255.33505 259.01129 262.52734
 265.63315 268.34567 270.73358 272.85095 274.78156 276.53372 278.04688 279.29654
 280.24158 280.86490 281.18942 281.57178 282.21985 283.05170 284.01651 284.91406
 285.77676 286.59225 287.30463 288.21246
 366.78100 356.35133 345.79966 334.68198 323.10131 311.31164 299.19797 287.01730
 274.74563 262.65895 250.68428 240.00161 230.13994 221.26027 213.45859 206.47692
 200.32725 195.28158 191.87991 189.93824 188.99156 189.07189 189.92322 191.24755
 192.98888 195.10020 197.37953 199.75486 202.21619 204.71252 206.81685 208.67517
 210.31750 211.47883 211.72416 211.96849 211.92181 211.64314 211.29247 210.93880
 210.57213 210.29846 210.12278 210.00311 209.94744 210.29477 210.69710 211.10242
 211.91175 213.10608 214.37241 216.17174 218.11607 220.17539 222.28672 224.38605
 226.46238 228.56271 230.67603 232.79836 234.94369 237.13202 239.40435 241.79068
 244.42800 246.69533 248.71366 250.49499 251.92832 253.06764 253.90597 254.23830
 254.29163 254.08196 253.45829 252.42261 251.04494 249.22227 247.14760 244.99693
 242.80425 240.62458 238.46091 236.31624 234.19257 232.07589 230.11822 228.29155
 226.59088 225.07921 223.72554 222.51386 221.41219 220.38852 219.50885 218.66618
 217.92450 217.12083 216.23516 215.61549 215.08182 214.94600 214.62514 213.69550
 212.81862 210.41566 209.83525 212.65694 216.47223 220.82407 226.20174 231.00388
 235.00264 239.29842 243.60953 247.73300 251.59270 255.32317 259.00253 262.52429
 265.62802 268.32300 270.67917 272.76697 274.68484 276.44077 277.96255 279.20828
 280.12668 280.72632 281.05139 281.50311 282.18765 283.06583 284.02921 284.92804
 285.79681 286.59470 287.29172 288.17996
 366.78100 356.35123 345.79946 334.68169 323.10092 311.31115 299.19738 287.01661
 274.74484 262.65807 250.68330 240.00053 230.13876 221.25899 213.45722 206.47545
 200.32568 195.27991 191.87814 189.93637 188.98960 189.06982 189.92105 191.24528
 192.98651 195.09774 197.37697 199.75220 202.21343 204.70966 206.81389 208.67212
 210.31435 211.47558 211.72081 211.96504 211.91827 211.63950 211.28873 210.93496
 210.56819 210.29442 210.11865 209.99888 209.94311 210.29034 210.69257 211.09780
 211.90703 213.10126 214.36749 216.16672 218.11095 220.17018 222.28141 224.38064
 226.45687 228.55710 230.67033 232.79256 234.93779 237.12602 239.39824 241.78447
 244.42170 246.68893 248.70716 250.48839 251.92162 253.06085 253.89908 254.23131
 254.28454 254.07477 253.45100 252.41523 251.03746 249.21469 247.13992 244.98915
 242.79638 240.61661 238.45284 236.30807 234.18430 232.06753 230.10976 228.28299
 226.58222 225.07045 223.71668 222.50491 221.40314 220.37937 219.49960 218.65683
 217.91506 217.11129 216.22552 215.60575 215.07198 214.94333 214.63940 213.71227
 212.82507 210.42056 209.83107 212.62825 216.42958 220.78427 226.16779 230.97270
 234.97572 239.28244 243.60106 247.72380 251.58029 255.31169 258.99716 262.52850
 265.62946 268.30212 270.62341 272.68060 274.58401 276.34091 277.86771 279.09894
 279.98407 280.56842 280.93701 281.46133 282.21127 283.12579 284.09390 284.99652
 285.87222 286.67136 287.36945 288.25909
 366.78100 356.35120 345.79940 334.68161 323.10081 311.31101 299.19721 287.01641
 274.74462 262.65782 250.68302 240.00022 230.13842 221.25863 213.45683 206.47503
 200.32523 195.27943 191.87764 189.93584 188.98904 189.06924 189.92044 191.24465
 192.98585 195.09705 197.37625 199.75145 202.21266 204.70886 206.81306 208.67126
 210.31346 211.47467 211.71987 211.96407 211.91727 211.63847 211.28768 210.93388
 210.56708 210.29328 210.11748 209.99769 209.94189 210.28909 210.69129 211.09649
 211.90570 213.09990 214.36610 216.16530 218.10950 220.16871 222.27991 224.37911
 226.45531 228.55551 230.66872 232.79092 234.93612 237.12432 239.39652 241.78273
 244.41993 246.68713 248.70533 250.48653 251.91974 253.05894 253.89714 254.22934
 254.28254 254.07274 253.44895 252.41315 251.03535 249.21255 247.13775 244.98696
 242.79416 240.61436 238.45056 236.30576 234.18197 232.06517 230.10737 228.28057
 226.57977 225.06798 223.71418 222.50238 221.40058 220.37678 219.49699 218.65419
 217.91239 217.10859 216.22279 215.60300 215.06920 214.94319 214.64548 213.72731
 212.85291 210.43828 209.81993 212.59546 216.37846 220.73232 226.12799 230.93422
 234.94420 239.26241 243.59024 247.71431 251.56796 255.30156 258.99545 262.53751
 265.63394 268.28284 270.56967 272.59769 274.48291 276.23401 277.75839 278.96732
 279.83316 280.45148 280.90088 281.48468 282.27591 283.20108 284.16879 285.06976
 285.94540 286.73111 287.41748 288.29221
 366.78100 356.35132 345.79964 334.68196 323.10128 311.31161 299.19793 287.01725
 274.74557 262.65889 250.68421 240.00153 230.13985 221.26018 213.45850 206.47682
 200.32714 195.28146 191.87978 189.93810 188.99142 189.07174 189.92307 191.24739
 192.98871 195.10003 197.37935 199.75467 202.21599 204.71231 206.81663 208.67496
 210.31728 211.47860 211.72392 211.96824 211.92156 211.64288 211.29220 210.93853
 210.57185 210.29817 210.12249 210.00281 209.94713 210.29445 210.69677 211.10209
 211.91142 213.10574 214.37206 216.17138 218.11570 220.17502 222.28634 224.38566
 226.46198 228.56231 230.67563 232.79795 234.94327 237.13159 239.40391 241.79023
 244.42755 246.69488 248.71320 250.49452 251.92784 253.06716 253.90548 254.23780
 254.29112 254.08144 253.45777 252.42209 251.04441 249.22173 247.14705 244.99637
 242.80369 240.62401 238.46033 236.31566 234.19198 232.07530 230.11762 228.29094
 226.59026 225.07858 223.72490 222.51323 221.41155 220.38787 219.50819 218.66551
 217.92383 217.12015 216.23447 215.61479 215.08112 214.95120 214.64429 213.74605
 212.87820 210.45445 209.81555 212.56555 216.33684 220.68951 226.08832 230.89687
 234.91049 239.23903 243.57460 247.69934 251.55209 255.29155 258.99658 262.54788
 265.64423 268.27426 270.52582 272.51639 274.37653 276.11633 277.63394 278.82944
 279.70767 280.38419 280.91003 281.54120 282.35953 283.29425 284.26385 285.16916
 286.04440 286.81735 287.49261 288.35312
 366.78100 356.35150 345.79999 334.68249 323.10199 311.31249 299.19898 287.01848
 274.74698 262.66048 250.68597 240.00347 230.14197 221.26247 213.46096 206.47946
 200.32996 195.28446 191.88295 189.94145 188.99495 189.07545 189.92694 191.25144
 192.99294 195.10443 197.38393 199.75943 202.22093 204.71742 206.82192 208.68042
 210.32292 211.48441 211.72991 211.97441 211.92791 211.64940 211.29890 210.94540
 210.57890 210.30539 210.12989 210.01039 209.95489 210.30238 210.70488 211.11038
 211.91988 213.11437 214.38087 216.18037 218.12486 220.18436 222.29586 224.39536
 226.47185 228.57235 230.68585 232.80835 234.95384 237.14234 239.41484 241.80134
 244.43883 246.70633 248.72483 250.50633 251.93982 253.07932 253.91782 254.25032
 254.30381 254.09431 253.47081 252.43530 251.05780 249.23530 247.16080 245.01029
 242.81779 240.63829 238.47479 236.33028 234.20678 232.09028 230.13278 228.30627
 226.60577 225.09427 223.74077 222.52926 221.42776 220.40426 219.52476 218.68225
 217.94075 217.13725 216.25174 215.63224 215.09874 214.96254 214.64078 213.75575
 212.92635 210.46927 209.80905 212.54405 216.28850 220.63062 226.03975 230.85330
 234.87244 239.21642 243.56458 247.69334 251.54498 255.28897 259.00623 262.56567
 265.65564 268.25912 270.47589 272.43768 274.27600 276.00195 277.50989 278.70126
 279.59964 280.31143 280.88260 281.56201 282.47635 283.50446 284.49045 285.39575
 286.22485 286.96783 287.61688 288.44400
 366.78100 356.35108 345.79915 334.68123 323.10031 311.31039 299.19646 287.01554
 274.74362 262.65669 250.68177 239.99885 230.13692 221.25700 213.45508 206.47316
 200.32323 195.27731 191.87539 189.93346 188.98654 189.06662 189.91769 191.24177
 192.98285 195.09393 197.37300 199.74808 202.20916 204.70523 206.80931 208.66739
 210.30946 211.47054 211.71562 211.95970 211.91277 211.63385 211.28293 210.92900
 210.56208 210.28816 210.11223 209.99231 209.93639 210.28347 210.68554 211.09062
 211.89970 213.09377 214.35985 216.15893 218.10300 220.16208 222.27316 224.37224
 226.44831 228.54839 230.66147 232.78354 234.92862 237.11670 239.38878 241.77485
 244.41193 246.67901 248.69708 250.47816 251.91124 253.05031 253.88839 254.22047
 254.27355 254.06362 253.43970 252.40378 251.02585 249.20293 247.12801 244.97708
 242.78416 240.60424 238.44032 236.29539 234.17147 232.05455 230.09662 228.26970
 226.56878 225.05685 223.70293 222.49101 221.38909 220.36516 219.48524 218.64232
 217.90039 217.09647 216.21055 215.59062 215.05670 214.94528 214.68086 213.71954
 212.98021 210.55884 209.80318 212.44745 216.20061 220.57202 225.99464 230.81816
 234.84499 239.20314 243.56311 247.69807 251.55331 255.29971 259.01779 262.57132
 265.65375 268.23862 270.42636 272.36026 274.17679 275.88724 277.39166 278.59955
 279.52679 280.27347 280.91635 281.65155 282.56818 283.59540 284.58160 285.48016
 286.30420 287.04611 287.69421 288.52017
 366.78100 356.35063 345.79825 334.67988 323.09851 311.30813 299.19376 287.01239
 274.74001 262.65264 250.67727 239.99389 230.13152 221.25115 213.44877 206.46640
 200.31603 195.26965 191.86728 189.92490 188.97753 189.05716 189.90778 191.23141
 192.97204 195.08266 197.36129 199.73592 202.19654 204.69217 206.79580 208.65342
 210.29505 211.45568 211.70030 211.94393 211.89656 211.61718 211.26581 210.91144
 210.54406 210.26969 210.09332 209.97294 209.91657 210.26320 210.66482 211.06945
 211.87808 213.07170 214.33733 216.13596 218.07958 220.13821 222.24884 224.34746
 226.42309 228.52271 230.63534 232.75697 234.90159 237.08922 239.36085 241.74647
 244.38310 246.64973 248.66735 250.44798 251.88061 253.01923 253.85686 254.18849
 254.24111 254.03074 253.40637 252.36999 250.99162 249.16825 247.09287 244.94150
 242.74813 240.56775 238.40338 236.25801 234.13363 232.01626 230.05789 228.23051
 226.52914 225.01677 223.66239 222.45002 221.34765 220.32327 219.44290 218.59952
 217.85715 217.05278 216.16640 215.54603 215.01166 214.92680 214.72113 213.71648
 212.91676 210.66621 209.86650 212.27641 216.13951 220.59445 225.98447 230.80264
 234.81676 239.19177 243.55887 247.67914 251.51573 255.26639 259.01834 262.59665
 265.67917 268.23505 270.37402 272.25409 274.03638 275.74612 277.29092 278.55414
 279.49921 280.26987 280.95703 281.75369 282.75040 283.83630 284.86789 285.77667
 286.54178 287.22147 287.81528 288.57196
 366.78100 356.34987 345.79673 334.67760 323.09547 311.30434 299.18920 287.00707
 274.73394 262.64581 250.66967 239.98554 230.12241 221.24128 213.43814 206.45501
 200.30388 195.25675 191.85361 189.91048 188.96235 189.04122 189.89108 191.21395
 192.95382 195.06369 197.34155 199.71542 202.17529 204.67016 206.77302 208.62989
 210.27076 211.43063 211.67449 211.91736 211.86923 211.58910 211.23696 210.88183
 210.51370 210.23857 210.06143 209.94030 209.88317 210.22904 210.62990 211.03377
 211.84164 213.03451 214.29937 216.09724 218.04011 220.09797 222.20784 224.30571
 226.38058 228.47944 230.59131 232.71218 234.85605 237.04291 239.31378 241.69865
 244.33452 246.60038 248.61725 250.39712 251.82899 252.96685 253.80372 254.13459
 254.18646 253.97532 253.35019 252.31306 250.93393 249.10979 247.03366 244.88153
 242.68740 240.50626 238.34113 236.19500 234.06987 231.95173 229.99260 228.16447
 226.46234 224.94920 223.59407 222.38094 221.27781 220.25267 219.37154 218.52741
 217.78428 216.97914 216.09201 215.47088 214.93575 214.86621 214.69244 213.74739
 212.87396 210.73964 209.95030 212.13380 216.11031 220.63972 225.97974 230.78030
 234.78043 239.17683 243.55315 247.65504 251.47160 255.23087 259.02362 262.62561
 265.70667 268.23453 270.33157 272.16589 273.92102 275.62589 277.20285 278.52124
 279.44629 280.23712 280.97961 281.82480 282.90973 284.01718 285.06509 285.95004
 286.66428 287.30029 287.85593 288.56400
 366.78100 356.34893 345.79486 334.67480 323.09173 311.29966 299.18359 287.00053
 274.72646 262.63739 250.66032 239.97526 230.11119 221.22912 213.42505 206.44099
 200.28892 195.24085 191.83678 189.89272 188.94365 189.02158 189.87051 191.19245
 192.93138 195.04031 197.31724 199.69017 202.14911 204.64304 206.74497 208.60090
 210.24084 211.39977 211.64270 211.88463 211.83557 211.55450 211.20143 210.84536
 210.47630 210.20023 210.02216 209.90009 209.84203 210.18696 210.58689 210.98982
 211.79675 212.98869 214.25262 216.04955 217.99148 220.04842 222.15735 224.25428
 226.32821 228.42615 230.53708 232.65701 234.79994 236.98588 239.25581 241.63974
 244.27467 246.53961 248.55554 250.33447 251.76540 252.90234 253.73827 254.06820
 254.11913 253.90706 253.28100 252.24293 250.86286 249.03779 246.96073 244.80766
 242.61259 240.43052 238.26446 236.11739 233.99132 231.87225 229.91219 228.08312
 226.38005 224.86598 223.50992 222.29585 221.19178 220.16571 219.28365 218.43858
 217.69451 216.88844 216.00037 215.37831 214.84224 214.78374 214.63446 213.78122
 212.88962 210.79460 210.00696 212.05078 216.08539 220.65115 225.96025 230.74648
 234.74594 239.16466 243.55280 247.64377 251.44724 255.21477 259.03433 262.64816
 265.72766 268.23727 270.30569 272.10925 273.83868 275.52765 277.11859 278.46570
 279.37967 280.19534 280.99997 281.93106 283.06213 284.18240 285.22067 285.78934
 285.99997 286.18750 286.35135 286.56015
 366.78100 356.34792 345.79284 334.67175 323.08767 311.29459 299.17751 286.99342
 274.71834 262.62826 250.65018 239.96410 230.09901 221.21593 213.41085 206.42577
 200.27269 195.22360 191.81852 189.87344 188.92336 189.00027 189.84819 191.16911
 192.90703 195.01495 197.29086 199.66278 202.12070 204.61362 206.71454 208.56945
 210.20837 211.36629 211.60821 211.84912 211.79904 211.51696 211.16288 210.80580
 210.43571 210.15863 209.97955 209.85647 209.79738 210.14130 210.54022 210.94214
 211.74806 212.93897 214.20189 215.99781 217.93873 219.99465 222.10256 224.19848
 226.27140 228.36832 230.47823 232.59715 234.73907 236.92399 239.19291 241.57582
 244.20974 246.47366 248.48858 250.26650 251.69641 252.83233 253.66725 253.99617
 254.04608 253.83300 253.20592 252.16684 250.78576 248.95967 246.88159 244.72751
 242.53143 240.34834 238.18126 236.03318 233.90610 231.78602 229.82493 227.99485
 226.29077 224.77569 223.41861 222.20352 221.09844 220.07136 219.18828 218.34219
 217.59711 216.79003 215.90095 215.27787 214.74078 214.68903 214.55624 213.84213
 212.99353 210.87650 210.06076 212.04974 216.10469 220.67154 225.95158 230.72354
 234.72072 239.16426 243.56223 247.63974 251.43062 255.20766 259.05014 262.67090
 265.74710 268.24136 270.28839 272.06918 273.77313 275.43823 277.03174 278.38388
 279.30457 280.14508 281.01941 282.04230 283.19937 284.37997 285.44247 285.85635
 286.03464 286.19342 286.33209 286.50885
 354.97500 345.04800 334.58700 324.11500 313.32600 302.53700 291.65000 280.76700
 269.93100 259.19300 248.62200 238.61700 229.08700 220.35500 212.54000 205.53500
 199.46400 194.49300 191.14300 189.19000 188.08900 188.01400 188.72400 189.90600
 191.46900 193.38200 195.40300 197.55600 199.80700 202.06000 204.28800 206.47900
 208.55200 210.37800 212.02500 213.65900 214.99800 216.11800 217.17200 218.25900
 219.49400 220.64500 221.67900 222.61400 223.54500 224.98200 226.57100 228.19000
 229.79700 231.81100 233.86500 235.97200 238.24200 240.55300 242.89900 245.25300
 247.48800 249.53500 251.36600 252.84800 254.09800 255.16700 256.02700 256.25300
 256.09500 255.54300 253.93500 252.56600 251.38400 250.24500 249.05200 247.70100
 246.01600 243.99600 241.78400 239.39300 236.81300 234.22300 231.65800 229.14400
 226.74000 224.47300 222.33500 220.32500 218.44000 216.67700 214.96200 213.47200
 212.20000 211.10800 210.26000 209.63900 209.24400 209.03100 209.05800 209.33300
 209.78400 210.62600 211.33100 212.39100 213.62500 214.84668 217.72949 219.47640
 220.32566 220.86828 220.88710 220.27371 219.43733 218.84250 219.04934 220.86203
 222.60583 225.72206 229.03064 232.61777 236.12270 239.51333 242.70767 245.68587
 248.41061 250.90679 253.19353 254.91714 256.48655 257.94920 259.39966 260.69384
 261.81714 262.77997 263.71679 264.54570 265.26305 265.89772 266.47676 267.00133
 267.47312 267.89325 268.26027 268.72800
