|-------------------------------------------------------------------------|
|   File Name : in_temp.dat
|   Subject   : temperature profiles used for initial guess atmosphere
|   File Type : input of gmtr
|   Data Type : atmospherical data
|   Author/s  : WRF-Chem
|   Date      : Fri Jul 26 15:39:24 2024
|-------------------------------------------------------------------------|

 WRF-Chem temperature
#
 values of T (K)    (8f10.5)
#
 354.97500 345.04800 334.58700 324.11500 313.32600 302.53700 291.65000 280.76700
 269.93100 259.19300 248.62200 238.61700 229.08700 220.35500 212.54000 205.53500
 199.46400 194.49300 191.14300 189.19000 188.08900 188.01400 188.72400 189.90600
 191.46900 193.38200 195.40300 197.55600 199.80700 202.06000 204.28800 206.47900
 208.55200 210.37800 212.02500 213.65900 214.99800 216.11800 217.17200 218.25900
 219.49400 220.64500 221.67900 222.61400 223.54500 224.98200 226.57100 228.19000
 229.79700 231.81100 233.86500 235.97200 238.24200 240.55300 242.89900 245.25300
 247.48800 249.53500 251.36600 252.84800 254.09800 255.16700 256.02700 256.25300
 256.09500 255.54300 253.93500 252.56600 251.38400 250.24500 249.05200 247.70100
 246.01600 243.99600 241.78400 239.39300 236.81300 234.22300 231.65800 229.14400
 226.74000 224.47300 222.33500 220.32500 218.44000 216.67700 214.96200 213.47200
 212.20000 211.10800 210.26000 209.63900 209.24400 209.03100 209.05800 209.33300
 209.78400 210.62600 211.33100 212.39100 213.62500 214.84668 217.72949 219.47640
 220.32566 220.86828 220.88710 220.27371 219.43733 218.84250 219.04934 220.86203
 222.60583 225.72206 229.03064 232.61777 236.12270 239.51333 242.70767 245.68587
 248.41061 250.90679 253.19353 254.91714 256.48655 257.94920 259.39966 260.69384
 261.81714 262.77997 263.71679 264.54570 265.26305 265.89772 266.47676 267.00133
 267.47312 267.89325 268.26027 268.72800
 366.78100 356.33500 345.76700 334.63300 323.03600 311.23000 299.10000 286.90300
 274.61500 262.51200 250.52100 239.82200 229.94400 221.04800 213.23000 206.23200
 200.06600 195.00400 191.58600 189.62800 188.66500 188.72900 189.56400 190.87200
 192.59700 194.69200 196.95500 199.31400 201.75900 204.23900 206.32700 208.16900
 209.79500 210.94000 211.16900 211.39700 211.33400 211.03900 210.67200 210.30200
 209.91900 209.62900 209.43700 209.30100 209.22900 209.56000 209.94600 210.33500
 211.12800 212.30600 213.55600 215.33900 217.26700 219.31000 221.40500 223.48800
 225.54800 227.63200 229.72900 231.83500 233.96400 236.13600 238.39200 240.76200
 243.38300 245.63400 247.63600 249.40100 250.81800 251.94100 252.76300 253.07900
 253.11600 252.89000 252.25000 251.19800 249.80400 247.96500 245.87400 243.70700
 241.49800 239.30200 237.12200 234.96100 232.82100 230.68800 228.71400 226.87100
 225.15400 223.62600 222.25600 221.02800 219.91000 218.87000 217.97400 217.11500
 216.35700 215.53700 214.63500 213.99900 213.44900 212.85855 212.01316 212.61654
 214.26826 216.08686 218.14273 220.53346 223.40855 226.78828 231.49734 235.90155
 239.42278 243.28576 247.23140 251.11907 254.80144 258.23331 261.38913 264.27520
 266.89312 269.26852 271.44504 273.08845 274.58484 275.98591 277.39845 278.65879
 279.75272 280.69038 281.56708 282.34086 283.01050 283.60295 284.14348 284.63317
 285.07358 285.46577 285.80838 286.24500
 381.81900 372.39900 361.20600 349.77600 337.62200 324.85300 311.81000 298.35300
 284.86000 271.32400 258.56100 246.30400 236.08700 226.79600 218.44800 211.29000
 205.52200 200.89400 197.38100 194.84800 193.01500 192.31500 192.25000 192.43100
 192.91200 193.53700 194.13600 194.71200 195.26200 195.83100 196.39300 196.97600
 197.60400 198.14900 198.58400 199.05700 199.69500 200.37800 201.05400 201.70800
 202.31300 202.85700 203.35500 203.86200 204.56900 205.29700 206.02600 206.98700
 208.19300 209.44100 210.96900 212.57600 214.46200 216.51300 218.63000 220.85300
 223.34100 225.96200 228.73900 231.69700 234.70600 237.70600 240.69200 243.65700
 246.73700 249.69900 252.52100 255.06300 257.29000 259.23300 260.63300 261.68000
 262.46100 262.79800 262.69100 262.22400 261.06900 259.52500 257.70700 255.50700
 253.00100 250.30200 247.39800 244.45200 241.65400 239.05400 236.73300 234.59000
 232.59500 230.72500 228.83400 226.82600 224.66600 222.38700 220.10400 217.71500
 215.45900 213.06600 210.54600 208.09300 205.35400 202.08130 196.05959 200.71215
 209.01611 216.90438 223.84126 229.78593 235.00632 240.20838 245.98943 250.68668
 254.32982 257.93487 261.55666 264.96801 268.15192 271.06452 273.76717 276.25691
 278.57680 280.74479 282.77456 284.60533 286.27232 287.81705 289.31715 290.65561
 291.81734 292.81312 293.70701 294.49387 295.17482 295.77730 296.32696 296.82492
 297.27278 297.67160 298.02000 298.46400
 399.33000 389.90700 379.81300 368.66800 357.52200 345.30100 333.07400 320.22700
 307.21600 293.84800 280.37600 267.29600 254.61000 242.98700 232.15100 221.97700
 212.67200 204.28600 197.66900 192.82100 189.48600 187.45200 186.81400 187.08900
 187.78100 189.05400 190.64800 192.54200 194.63000 196.75200 198.67100 200.15800
 201.53500 202.48700 202.97500 203.34000 203.53900 203.49700 203.38500 203.24700
 203.00500 202.78600 202.60300 202.43700 202.42600 202.88800 203.42000 203.95100
 204.89500 205.99200 207.30100 208.95800 210.73800 213.10000 215.56400 218.18000
 220.96600 223.91800 226.96100 230.09200 233.29300 236.55700 239.95500 243.53700
 246.84500 249.39000 251.54200 253.47400 255.19500 256.48400 257.43100 258.05900
 258.21200 258.04000 257.58200 256.64300 255.23900 253.50700 251.40800 249.05600
 246.57600 243.99400 241.38900 238.83000 236.34400 233.98600 231.96900 230.11800
 228.42300 226.89900 225.54800 224.29700 223.10500 221.96500 220.95800 220.11300
 219.49000 218.92000 218.32500 217.88100 217.42300 216.96366 216.35568 216.80261
 217.73415 218.28582 218.64258 219.10077 220.44626 222.53987 226.38451 230.35736
 233.59734 237.39164 241.29814 245.22796 248.98002 252.51130 255.78595 258.80109
 261.54781 264.05210 266.34239 268.04198 269.58951 271.01303 272.35754 273.55718
 274.59842 275.49092 276.28989 276.99307 277.60161 278.14001 278.63122 279.07623
 279.47646 279.83287 280.14422 280.54100
 399.73800 389.78500 379.66200 368.15100 356.64100 344.35000 331.79200 318.88800
 305.72600 292.49300 279.20900 266.73800 254.69600 244.21100 234.45700 225.43300
 217.56900 210.45100 204.30000 199.30600 195.45800 192.57600 191.02700 190.38600
 190.23900 190.53400 191.16600 191.92500 192.79500 193.76600 194.73200 195.31200
 195.80000 196.05200 196.11500 196.11500 196.03900 195.72300 195.34000 194.98900
 194.75100 194.79200 195.13300 195.59800 196.50600 198.13600 199.85800 201.56600
 204.17900 206.82300 209.89300 213.28400 216.82800 220.60500 224.38700 228.20900
 232.03200 235.82500 239.56000 243.25800 246.84500 250.20100 253.70900 257.46800
 261.53000 264.22100 266.60100 268.68100 270.32900 271.74100 272.83600 273.47400
 273.89800 274.00200 273.75700 273.28800 272.37100 271.10000 269.58900 267.77900
 265.81600 263.72100 261.39300 258.91600 256.29800 253.42300 250.33100 247.11400
 243.83700 240.52900 237.24900 233.99900 230.72800 227.51500 224.25400 220.95200
 217.62700 213.65600 210.12100 206.78900 204.01000 201.99491 199.07309 198.76551
 199.40006 200.48994 201.46112 202.31912 203.45100 204.96110 207.47502 210.85391
 213.70530 217.29629 220.99574 224.72316 228.28753 231.64854 234.68024 237.40893
 239.70644 241.60899 243.46854 245.67368 247.68154 249.52395 251.24767 252.78566
 254.12057 255.26479 256.23740 257.09036 257.82852 258.48160 259.07744 259.61723
 260.10271 260.53504 260.91270 261.39400
 399.73800 389.78500 379.66200 368.15100 356.64100 344.35000 331.79200 318.88800
 305.72600 292.49300 279.20900 266.73800 254.69600 244.21100 234.45700 225.43300
 217.56900 210.45100 204.30000 199.30600 195.45800 192.57600 191.02700 190.38600
 190.23900 190.53400 191.16600 191.92500 192.79500 193.76600 194.73200 195.31200
 195.80000 196.05200 196.11500 196.11500 196.03900 195.72300 195.34000 194.98900
 194.75100 194.79200 195.13300 195.59800 196.50600 198.13600 199.85800 201.56600
 204.17900 206.82300 209.89300 213.28400 216.82800 220.60500 224.38700 228.20900
 232.03200 235.82500 239.56000 243.25800 246.84500 250.20100 253.70900 257.46800
 261.53000 264.22100 266.60100 268.68100 270.32900 271.74100 272.83600 273.47400
 273.89800 274.00200 273.75700 273.28800 272.37100 271.10000 269.58900 267.77900
 265.81600 263.72100 261.39300 258.91600 256.29800 253.42300 250.33100 247.11400
 243.83700 240.52900 237.24900 233.99900 230.72800 227.51500 224.25400 220.95200
 217.62700 213.65600 210.12100 206.78900 204.01000 201.99491 199.07309 198.76551
 199.40006 200.48994 201.46112 202.31912 203.45100 204.96110 207.47502 210.85391
 213.70530 217.29629 220.99574 224.72316 228.28753 231.64854 234.68024 237.40893
 239.70644 241.60899 243.46854 245.67368 247.68154 249.52395 251.24767 252.78566
 254.12057 255.26479 256.23740 257.09036 257.82852 258.48160 259.07744 259.61723
 260.10271 260.53504 260.91270 261.39400
 399.33000 389.90700 379.81300 368.66800 357.52200 345.30100 333.07400 320.22700
 307.21600 293.84800 280.37600 267.29600 254.61000 242.98700 232.15100 221.97700
 212.67200 204.28600 197.66900 192.82100 189.48600 187.45200 186.81400 187.08900
 187.78100 189.05400 190.64800 192.54200 194.63000 196.75200 198.67100 200.15800
 201.53500 202.48700 202.97500 203.34000 203.53900 203.49700 203.38500 203.24700
 203.00500 202.78600 202.60300 202.43700 202.42600 202.88800 203.42000 203.95100
 204.89500 205.99200 207.30100 208.95800 210.73800 213.10000 215.56400 218.18000
 220.96600 223.91800 226.96100 230.09200 233.29300 236.55700 239.95500 243.53700
 246.84500 249.39000 251.54200 253.47400 255.19500 256.48400 257.43100 258.05900
 258.21200 258.04000 257.58200 256.64300 255.23900 253.50700 251.40800 249.05600
 246.57600 243.99400 241.38900 238.83000 236.34400 233.98600 231.96900 230.11800
 228.42300 226.89900 225.54800 224.29700 223.10500 221.96500 220.95800 220.11300
 219.49000 218.92000 218.32500 217.88100 217.42300 216.96366 216.35568 216.80261
 217.73415 218.28582 218.64258 219.10077 220.44626 222.53987 226.38451 230.35736
 233.59734 237.39164 241.29814 245.22796 248.98002 252.51130 255.78595 258.80109
 261.54781 264.05210 266.34239 268.04198 269.58951 271.01303 272.35754 273.55718
 274.59842 275.49092 276.28989 276.99307 277.60161 278.14001 278.63122 279.07623
 279.47646 279.83287 280.14422 280.54100
 381.81900 372.39900 361.20600 349.77600 337.62200 324.85300 311.81000 298.35300
 284.86000 271.32400 258.56100 246.30400 236.08700 226.79600 218.44800 211.29000
 205.52200 200.89400 197.38100 194.84800 193.01500 192.31500 192.25000 192.43100
 192.91200 193.53700 194.13600 194.71200 195.26200 195.83100 196.39300 196.97600
 197.60400 198.14900 198.58400 199.05700 199.69500 200.37800 201.05400 201.70800
 202.31300 202.85700 203.35500 203.86200 204.56900 205.29700 206.02600 206.98700
 208.19300 209.44100 210.96900 212.57600 214.46200 216.51300 218.63000 220.85300
 223.34100 225.96200 228.73900 231.69700 234.70600 237.70600 240.69200 243.65700
 246.73700 249.69900 252.52100 255.06300 257.29000 259.23300 260.63300 261.68000
 262.46100 262.79800 262.69100 262.22400 261.06900 259.52500 257.70700 255.50700
 253.00100 250.30200 247.39800 244.45200 241.65400 239.05400 236.73300 234.59000
 232.59500 230.72500 228.83400 226.82600 224.66600 222.38700 220.10400 217.71500
 215.45900 213.06600 210.54600 208.09300 205.35400 202.08130 196.05959 200.71215
 209.01611 216.90438 223.84126 229.78593 235.00632 240.20838 245.98943 250.68668
 254.32982 257.93487 261.55666 264.96801 268.15192 271.06452 273.76717 276.25691
 278.57680 280.74479 282.77456 284.60533 286.27232 287.81705 289.31715 290.65561
 291.81734 292.81312 293.70701 294.49387 295.17482 295.77730 296.32696 296.82492
 297.27278 297.67160 298.02000 298.46400
 366.78100 356.33268 345.76236 334.62603 323.02671 311.21839 299.08607 286.88675
 274.59642 262.49110 250.49778 239.79646 229.91614 221.01781 213.19749 206.19717
 200.02885 194.96453 191.54420 189.58388 188.61856 188.68024 189.51292 190.81859
 192.54127 194.63395 196.89463 199.25131 201.69398 204.17166 206.25734 208.09702
 209.72069 210.86337 211.09005 211.31573 211.25041 210.95308 210.58376 210.21144
 209.82612 209.53380 209.33947 209.20115 209.12683 209.45551 209.83919 210.22586
 211.01654 212.19222 213.43990 215.22058 217.14625 219.18693 221.27961 223.36029
 225.41797 227.49964 229.59432 231.69800 233.82468 235.99436 238.24803 240.61571
 243.23439 245.48307 247.48275 249.24542 250.66010 251.78078 252.60046 252.91414
 252.94881 252.72049 252.07817 251.02385 249.62753 247.78620 245.69288 243.52356
 241.31224 239.11392 236.93159 234.76827 232.62595 230.49063 228.51431 226.66898
 224.94966 223.41934 222.04702 220.81670 219.69637 218.65405 217.75573 216.89441
 216.13408 215.31176 214.40744 213.76912 213.21680 212.83362 211.93102 211.87852
 212.70805 214.61063 216.27576 217.00229 218.64276 222.71039 228.73259 233.70143
 237.51006 241.24240 244.99239 248.79454 252.59789 255.75217 258.33344 260.82819
 263.59296 266.25366 268.63776 270.72385 272.65555 274.49716 276.15018 277.78064
 279.45505 281.08597 282.58438 283.94012 285.12152 286.16910 287.12756 288.00043
 288.79086 289.49881 290.12424 290.95724
 366.78100 356.33079 345.75857 334.62036 323.01915 311.20893 299.07472 286.87350
 274.58129 262.47408 250.47886 239.77565 229.89344 220.99322 213.17101 206.16880
 199.99858 194.93237 191.51015 189.54794 188.58073 188.64051 189.47130 190.77509
 192.49587 194.58666 196.84544 199.20023 201.64102 204.11680 206.20059 208.03838
 209.66016 210.80095 211.02574 211.24952 211.18231 210.88309 210.51188 210.13767
 209.75045 209.45624 209.26003 209.11981 209.04360 209.37039 209.75217 210.13696
 210.92574 212.09953 213.34532 215.12410 217.04789 219.08668 221.17746 223.25625
 225.31203 227.39182 229.48461 231.58639 233.71118 235.87897 238.13075 240.49654
 243.11333 245.36011 247.35790 249.11868 250.53147 251.65026 252.46804 252.77983
 252.81262 252.58240 251.93819 250.88198 249.48376 247.64055 245.54533 243.37412
 241.16091 238.96069 236.77648 234.61127 232.46705 230.32984 228.35162 226.50441
 224.78320 223.25098 221.87677 220.64456 219.52234 218.47813 217.57792 216.71470
 215.95249 215.12827 214.22206 213.58185 213.02763 212.73964 212.06097 212.02608
 212.81114 214.67223 216.28575 217.07007 218.58832 222.64006 228.68852 233.62202
 237.42201 241.16989 244.94739 248.75113 252.51050 255.63472 258.20938 260.71265
 263.43512 266.09763 268.52505 270.61920 272.53577 274.36075 276.01147 277.64594
 279.32578 280.96948 282.47418 283.83075 285.01248 286.06003 287.02121 287.89346
 288.68411 289.39255 290.01797 290.84915
 366.78100 356.32909 345.75517 334.61526 323.01234 311.20043 299.06451 286.86160
 274.56768 262.45877 250.46185 239.75694 229.87302 220.97111 213.14719 206.14328
 199.97136 194.90345 191.47953 189.51562 188.54670 188.60479 189.43387 190.73596
 192.45504 194.54413 196.80121 199.15430 201.59338 204.06747 206.14955 207.98564
 209.60572 210.74481 210.96789 211.18998 211.12106 210.82015 210.44724 210.07132
 209.68241 209.38649 209.18858 209.04666 208.96875 209.29383 209.67392 210.05700
 210.84409 212.01617 213.26026 215.03734 216.95943 218.99651 221.08560 223.16268
 225.21677 227.29485 229.38594 231.48602 233.60911 235.77519 238.02528 240.38936
 243.00445 245.24953 247.24562 249.00470 250.41579 251.53287 252.34896 252.65904
 252.69013 252.45821 251.81230 250.75439 249.35447 247.50956 245.41264 243.23973
 241.02481 238.82290 236.63698 234.47007 232.32415 230.18524 228.20532 226.35641
 224.63349 223.09958 221.72366 220.48975 219.36583 218.31992 217.41800 216.55309
 215.78917 214.96326 214.05534 213.41343 212.85751 212.65451 212.17603 212.17595
 212.90720 214.74039 216.30344 217.13905 218.54669 222.59840 228.64212 233.54211
 237.33267 241.09406 244.89650 248.70137 252.41278 255.51164 258.08951 260.60715
 263.28296 265.94061 268.40793 270.50842 272.41092 274.22198 275.87433 277.51294
 279.20596 280.85602 282.36838 283.72638 284.90811 285.95682 286.91702 287.79099
 288.58185 289.29123 289.91809 290.75150
 366.78100 356.32743 345.75187 334.61030 323.00573 311.19217 299.05460 286.85003
 274.55447 262.44390 250.44534 239.73877 229.85320 220.94964 213.12407 206.11850
 199.94494 194.87537 191.44980 189.48424 188.51367 188.57010 189.39754 190.69797
 192.41540 194.50284 196.75827 199.10971 201.54714 204.01957 206.10001 207.93444
 209.55287 210.69031 210.91174 211.13217 211.06161 210.75904 210.38447 210.00691
 209.61634 209.31877 209.11921 208.97564 208.89608 209.21951 209.59794 209.97938
 210.76481 211.93524 213.17768 214.95311 216.87354 218.90898 220.99641 223.07184
 225.12428 227.20071 229.29014 231.38858 233.51001 235.67444 237.92288 240.28531
 242.89875 245.14218 247.13661 248.89405 250.30348 251.41891 252.23335 252.54178
 252.57121 252.33765 251.69008 250.63051 249.22895 247.38238 245.28381 243.10925
 240.89268 238.68912 236.50155 234.33298 232.18542 230.04485 228.06328 226.21272
 224.48815 222.95258 221.57502 220.33945 219.21388 218.16632 217.26275 216.39618
 215.63062 214.80305 213.89349 213.24992 212.69235 212.57118 212.28558 212.32133
 213.00352 214.80972 216.33881 217.19742 218.51550 222.57863 228.58893 233.46123
 237.24332 241.01646 244.84196 248.64624 252.30611 255.38269 257.97272 260.50818
 263.13449 265.78036 268.28027 270.38879 272.28241 274.08578 275.74081 277.38867
 279.09494 280.74850 282.26889 283.62857 284.81030 285.85831 286.82016 287.69476
 288.48611 289.19617 289.82175 290.66092
 366.78100 356.32585 345.74870 334.60555 322.99940 311.18425 299.04510 286.83895
 274.54180 262.42965 250.42950 239.72135 229.83421 220.92906 213.10191 206.09476
 199.91961 194.84846 191.42131 189.45416 188.48201 188.53686 189.36271 190.66156
 192.37741 194.46326 196.71711 199.06696 201.50281 203.97366 206.05251 207.88536
 209.50221 210.63806 210.85791 211.07676 211.00462 210.70047 210.32432 209.94517
 209.55302 209.25387 209.05272 208.90757 208.82642 209.14827 209.52512 209.90497
 210.68882 211.85767 213.09852 214.87237 216.79122 218.82507 220.91092 222.98477
 225.03562 227.11047 229.19832 231.29517 233.41503 235.57788 237.82473 240.18558
 242.79743 245.03928 247.03213 248.78798 250.19583 251.30968 252.12253 252.42938
 252.45723 252.22208 251.57293 250.51178 249.10863 247.26048 245.16033 242.98418
 240.76603 238.56088 236.37173 234.20159 232.05244 229.91029 227.92714 226.07499
 224.34884 222.81169 221.43254 220.19539 219.06824 218.01909 217.11394 216.24579
 215.47864 214.64949 213.73834 213.09319 212.53404 212.49091 212.38933 212.46254
 213.10559 214.88083 216.38593 217.23576 218.51445 222.57910 228.53238 233.38171
 237.15668 240.94025 244.78545 248.58691 252.19107 255.24706 257.85486 260.41028
 262.98676 265.61279 268.14084 270.26041 272.15500 273.95728 275.61624 277.27515
 278.98856 280.65051 282.17554 283.53513 284.71930 285.76721 286.72928 287.60562
 288.39551 289.10828 289.73331 290.57230
 366.78100 356.32447 345.74594 334.60141 322.99388 311.17735 299.03682 286.82929
 274.53076 262.41723 250.41570 239.70617 229.81764 220.91111 213.08258 206.07405
 199.89752 194.82499 191.39646 189.42793 188.45440 188.50787 189.33234 190.62981
 192.34428 194.42875 196.68122 199.02969 201.46416 203.93363 206.01110 207.84257
 209.45804 210.59251 210.81098 211.02845 210.95492 210.64939 210.27186 209.89133
 209.49780 209.19727 208.99474 208.84821 208.76568 209.08616 209.46163 209.84010
 210.62257 211.79004 213.02951 214.80198 216.71945 218.75192 220.83639 222.90886
 224.95833 227.03180 229.11827 231.21374 233.33221 235.49368 237.73915 240.09862
 242.70909 244.94956 246.94103 248.69550 250.10197 251.21444 252.02591 252.33138
 252.35785 252.12132 251.47079 250.40826 249.00373 247.15420 245.05267 242.87514
 240.65561 238.44908 236.25855 234.08702 231.93649 229.79296 227.80843 225.95490
 224.22737 222.68884 221.30831 220.06978 218.94125 217.89072 216.98419 216.11466
 215.34613 214.51560 213.60307 212.95654 212.39601 212.42076 212.47939 212.60222
 213.21671 214.95547 216.43332 217.25540 218.54889 222.59128 228.48010 233.30507
 237.07338 240.86571 244.72701 248.52338 252.06773 255.10283 257.73373 260.31146
 262.83936 265.44009 267.98730 270.11908 272.02402 273.83801 275.50674 277.17407
 278.89032 280.56100 282.08871 283.44925 284.63217 285.68280 286.64249 287.51849
 288.31122 289.02347 289.64859 290.48987
 366.78100 356.32332 345.74365 334.59797 322.98930 311.17162 299.02995 286.82127
 274.52160 262.40692 250.40424 239.69357 229.80389 220.89622 213.06654 206.05687
 199.87919 194.80552 191.37584 189.40617 188.43149 188.48381 189.30714 190.60346
 192.31679 194.40011 196.65144 198.99876 201.43209 203.90041 205.97673 207.80706
 209.42138 210.55471 210.77203 210.98836 210.91368 210.60701 210.22833 209.84665
 209.45198 209.15030 208.94663 208.79895 208.71528 209.03460 209.40893 209.78625
 210.56758 211.73390 212.97222 214.74355 216.65987 218.69120 220.77452 222.84585
 224.89417 226.96650 229.05182 231.14614 233.26347 235.42379 237.66812 240.02644
 242.63577 244.87509 246.86542 248.61874 250.02406 251.13539 251.94571 252.25004
 252.27536 252.03769 251.38601 250.32234 248.91666 247.06599 244.96331 242.78463
 240.56396 238.35628 236.16461 233.99193 231.84026 229.69558 227.70991 225.85523
 224.12655 222.58688 221.20520 219.96553 218.83585 217.78418 216.87650 216.00583
 215.23615 214.40447 213.49080 212.84312 212.28145 212.36267 212.55463 212.74063
 213.33502 215.03468 216.47644 217.27150 218.60493 222.60753 228.43654 233.23311
 236.99210 240.79268 244.66650 248.45660 251.93723 254.95108 257.60870 260.21054
 262.69312 265.26328 267.82013 269.95959 271.88098 273.71548 275.40628 277.09464
 278.81485 280.48456 282.01199 283.37408 284.55695 285.60684 286.56955 287.44485
 288.23773 288.94934 289.57797 290.42001
 366.78100 356.32240 345.74180 334.59519 322.98559 311.16699 299.02439 286.81479
 274.51418 262.39858 250.39498 239.68338 229.79278 220.88418 213.05357 206.04297
 199.86437 194.78977 191.35917 189.38856 188.41296 188.46436 189.28676 190.58216
 192.29455 194.37695 196.62735 198.97375 201.40615 203.87355 205.94894 207.77834
 209.39174 210.52414 210.74054 210.95593 210.88033 210.57273 210.19313 209.81053
 209.41492 209.11232 208.90772 208.75912 208.67452 208.99292 209.36631 209.74271
 210.52311 211.68851 212.92591 214.69630 216.61170 218.64210 220.72450 222.79490
 224.84229 226.91369 228.99809 231.09149 233.20789 235.36729 237.61068 239.96808
 242.57648 244.81488 246.80428 248.55667 249.96107 251.07147 251.88087 252.18427
 252.20866 251.97006 251.31746 250.25286 248.84626 246.99466 244.89105 242.71145
 240.48985 238.28125 236.08865 233.91504 231.76244 229.61684 227.63024 225.77464
 224.04503 222.50443 221.12183 219.88123 218.75063 217.69803 216.78942 215.91782
 215.14722 214.31462 213.40002 212.75141 212.18881 212.31651 212.61821 212.87689
 213.46370 215.11574 216.51863 217.29420 218.67502 222.62440 228.40126 233.16734
 236.91313 240.72099 244.60590 248.38689 251.80009 254.78951 257.47723 260.10458
 262.54984 265.08713 267.64450 269.79187 271.73331 273.58713 275.29596 277.00439
 278.74008 280.42145 281.95737 283.32022 284.50305 285.55420 286.51685 287.39374
 288.18591 288.89984 289.52939 290.37390
 366.78100 356.32169 345.74039 334.59308 322.98278 311.16347 299.02017 286.80986
 274.50856 262.39225 250.38794 239.67564 229.78433 220.87503 213.04372 206.03242
 199.85311 194.77780 191.34650 189.37519 188.39889 188.44958 189.27128 190.56597
 192.27767 194.35936 196.60905 198.95475 201.38644 203.85314 205.92783 207.75653
 209.36922 210.50091 210.71661 210.93130 210.85500 210.54669 210.16639 209.78308
 209.38678 209.08347 208.87816 208.72886 208.64355 208.96125 209.33394 209.70964
 210.48933 211.65402 212.89072 214.66041 216.57511 218.60480 220.68650 222.75619
 224.80289 226.87358 228.95727 231.04997 233.16566 235.32436 237.56705 239.92375
 242.53144 244.76914 246.75783 248.50952 249.91322 251.02291 251.83161 252.13430
 252.15800 251.91869 251.26538 250.20008 248.79277 246.94047 244.83616 242.65586
 240.43355 238.22425 236.03094 233.85663 231.70333 229.55702 227.56972 225.71341
 223.98311 222.44180 221.05849 219.81719 218.68588 217.63258 216.72327 215.85097
 215.07966 214.24636 213.33105 212.68174 212.11844 212.28278 212.67105 213.00896
 213.59633 215.20648 216.56276 217.32141 218.75685 222.64600 228.36922 233.10161
 236.83318 240.64900 244.54504 248.31343 251.65477 254.61606 257.33481 259.99057
 262.40927 264.91284 267.46313 269.62216 271.59097 273.46558 275.18350 276.90326
 278.65805 280.37411 281.91776 283.28369 284.46735 285.51923 286.48160 287.35846
 288.15439 288.86658 289.49426 290.34476
 366.78100 356.32123 345.73946 334.59169 322.98093 311.16116 299.01739 286.80662
 274.50485 262.38808 250.38331 239.67055 229.77878 220.86901 213.03724 206.02547
 199.84570 194.76993 191.33817 189.36640 188.38963 188.43986 189.26109 190.55532
 192.26655 194.34779 196.59702 198.94225 201.37348 203.83971 205.91394 207.74217
 209.35441 210.48564 210.70087 210.91510 210.83833 210.52956 210.14879 209.76503
 209.36826 209.06449 208.85872 208.70895 208.62318 208.94041 209.31265 209.68788
 210.46711 211.63134 212.86757 214.63680 216.55103 218.58027 220.66150 222.73073
 224.77696 226.84719 228.93042 231.02265 233.13789 235.29612 237.53835 239.89458
 242.50181 244.73904 246.72727 248.47851 249.88174 250.99097 251.79920 252.10143
 252.12466 251.88489 251.23113 250.16536 248.75759 246.90482 244.80005 242.61928
 240.39651 238.18675 235.99298 233.81821 231.66444 229.51767 227.52990 225.67313
 223.94237 222.40060 221.01683 219.77506 218.64329 217.58952 216.67975 215.80699
 215.03522 214.20145 213.28568 212.63591 212.07214 212.26276 212.71312 213.13834
 213.73203 215.29552 216.62634 217.36189 218.83519 222.67345 228.34183 233.03391
 236.75180 240.57672 244.48439 248.23538 251.50102 254.42938 257.17834 259.86386
 262.26566 264.73694 267.27585 269.44891 271.45529 273.36026 275.08975 276.81583
 278.58792 280.33545 281.88440 283.25070 284.43600 285.48856 286.45416 287.33347
 288.12982 288.84399 289.47476 290.32877
 366.78100 356.32065 345.73830 334.58994 322.97859 311.15824 299.01389 286.80254
 274.50018 262.38283 250.37748 239.66413 229.77178 220.86142 213.02907 206.01672
 199.83637 194.76001 191.32766 189.35531 188.37796 188.42761 189.24825 190.54190
 192.25255 194.33320 196.58185 198.92649 201.35714 203.82279 205.89644 207.72409
 209.33573 210.46638 210.68103 210.89468 210.81733 210.50797 210.12662 209.74227
 209.34492 209.04057 208.83421 208.68386 208.59751 208.91416 209.28581 209.66045
 210.43910 211.60275 212.83840 214.60704 216.52069 218.54934 220.62999 222.69864
 224.74428 226.81393 228.89658 230.98823 233.10288 235.26052 237.50217 239.85782
 242.46447 244.70112 246.68876 248.43941 249.84206 250.95071 251.75836 252.06000
 252.08265 251.84230 251.18795 250.12160 248.71324 246.85989 244.75454 242.57319
 240.34984 238.13948 235.94513 233.76978 231.61543 229.46807 227.47972 225.62237
 223.89102 222.34867 220.96431 219.72196 218.58961 217.53526 216.62491 215.75155
 214.97920 214.14485 213.22850 212.57815 212.01379 212.23811 212.76810 213.25128
 213.86183 215.40340 216.68922 217.41208 218.94792 222.70888 228.30325 232.96268
 236.67128 240.50652 244.42188 248.14777 251.33315 254.22609 257.00482 259.72232
 262.11862 264.56436 267.08966 269.28485 271.33783 273.28223 275.02393 276.74896
 278.53384 280.29095 281.84143 283.20828 284.39435 285.44775 286.41537 287.29459
 288.09348 288.80899 289.44275 290.29602
 366.78100 356.32038 345.73776 334.58914 322.97752 311.15690 299.01228 286.80066
 274.49804 262.38042 250.37480 239.66118 229.76856 220.85794 213.02532 206.01270
 199.83208 194.75546 191.32284 189.35022 188.37260 188.42198 189.24236 190.53574
 192.24612 194.32650 196.57488 198.91926 201.34964 203.81502 205.88840 207.71578
 209.32716 210.45754 210.67193 210.88531 210.80769 210.49807 210.11645 209.73183
 209.33421 209.02959 208.82297 208.67235 208.58573 208.90211 209.27349 209.64787
 210.42625 211.58963 212.82501 214.59339 216.50677 218.53515 220.61553 222.68391
 224.72929 226.79867 228.88105 230.97243 233.08681 235.24419 237.48557 239.84095
 242.44733 244.68371 246.67109 248.42147 249.82385 250.93223 251.73961 252.04099
 252.06337 251.82275 251.16813 250.10151 248.69289 246.83927 244.73365 242.55203
 240.32841 238.11779 235.92317 233.74755 231.59293 229.44531 227.45669 225.59907
 223.86745 222.32483 220.94021 219.69759 218.56497 217.51035 216.59973 215.72611
 214.95349 214.11887 213.20225 212.55163 211.98701 212.23088 212.80704 213.37514
 213.97177 215.52107 216.83101 217.45538 219.00652 222.74319 228.27994 232.88974
 236.58253 240.42561 244.34511 248.04189 251.14656 254.00812 256.82025 259.57397
 261.97678 264.40323 266.91434 269.13480 271.23755 273.22574 274.98071 276.70181
 278.48752 280.24789 281.80017 283.16785 284.35489 285.41196 286.38013 287.26559
 288.07394 288.79758 289.43390 290.28781
 366.78100 356.32078 345.73856 334.59034 322.97913 311.15891 299.01469 286.80347
 274.50125 262.38403 250.37881 239.66559 229.77338 220.86316 213.03094 206.01872
 199.83850 194.76228 191.33006 189.35784 188.38063 188.43041 189.25119 190.54497
 192.25575 194.33653 196.58531 198.93010 201.36088 203.82666 205.90044 207.72822
 209.34000 210.47078 210.68556 210.89935 210.82213 210.51291 210.13169 209.74747
 209.35025 209.04603 208.83981 208.68960 208.60338 208.92016 209.29194 209.66672
 210.44550 211.60928 212.84507 214.61385 216.52763 218.55641 220.63719 222.70597
 224.75175 226.82153 228.90432 230.99610 233.11088 235.26866 237.51044 239.86622
 242.47300 244.70978 246.69757 248.44835 249.85113 250.95991 251.76769 252.06947
 252.09225 251.85203 251.19782 250.13160 248.72338 246.87016 244.76494 242.58372
 240.36050 238.15029 235.95607 233.78085 231.62663 229.47941 227.49119 225.63397
 223.90275 222.36054 220.97632 219.73410 218.60188 217.54766 216.63744 215.76422
 214.99200 214.15779 213.24157 212.59135 212.02713 212.26054 212.81200 213.50450
 214.10490 215.57918 217.01221 217.60802 219.09729 222.73199 228.22386 232.78523
 236.46875 240.33012 244.26041 247.93117 250.96100 253.79396 256.64005 259.42990
 261.84705 264.25363 266.74396 268.98718 271.13809 273.17178 274.94241 276.66324
 278.44098 280.20389 281.75720 283.12656 284.31418 285.37057 286.34024 287.22705
 288.03461 288.76202 289.39877 290.25357
 366.78100 356.32133 345.73967 334.59200 322.98133 311.16167 299.01800 286.80733
 274.50567 262.38900 250.38433 239.67167 229.78000 220.87033 213.03866 206.02700
 199.84733 194.77166 191.34000 189.36833 188.39166 188.44200 189.26333 190.55766
 192.26900 194.35033 196.59966 198.94500 201.37633 203.84266 205.91700 207.74533
 209.35766 210.48900 210.70433 210.91866 210.84200 210.53333 210.15266 209.76900
 209.37233 209.06866 208.86299 208.71333 208.62766 208.94499 209.31733 209.69266
 210.47199 211.63633 212.87266 214.64199 216.55633 218.58566 220.66699 222.73633
 224.78266 226.85299 228.93633 231.02866 233.14399 235.30233 237.54466 239.90099
 242.50833 244.74566 246.73399 248.48533 249.88866 250.99799 251.80632 252.10866
 252.13199 251.89232 251.23866 250.17299 248.76532 246.91266 244.80799 242.62732
 240.40466 238.19499 236.00132 233.82666 231.67299 229.52632 227.53866 225.68199
 223.95132 222.40966 221.02599 219.78432 218.65266 217.59899 216.68932 215.81666
 215.04499 214.21132 213.29565 212.64599 212.08232 212.30223 212.82178 213.59700
 214.26700 215.64076 217.14651 217.77435 219.19843 222.71582 228.16461 232.69699
 236.37868 240.25854 244.19406 247.83385 250.78658 253.58243 256.45505 259.27606
 261.71014 264.09915 266.56601 268.83316 271.03436 273.11591 274.90607 276.63644
 278.39972 280.16238 281.71494 283.08307 284.27139 285.32812 286.29773 287.18402
 287.99637 288.72263 289.36035 290.21964
 366.78100 356.32189 345.74078 334.59367 322.98356 311.16445 299.02134 286.81123
 274.51012 262.39401 250.38990 239.67779 229.78667 220.87756 213.04645 206.03534
 199.85623 194.78112 191.35001 189.37890 188.40279 188.45368 189.27557 190.57046
 192.28235 194.36424 196.61413 198.96002 201.39191 203.85880 205.93369 207.76258
 209.37547 210.50736 210.72324 210.93813 210.86202 210.55391 210.17380 209.79069
 209.39458 209.09147 208.88636 208.73725 208.65214 208.97003 209.34292 209.71881
 210.49870 211.66359 212.90048 214.67037 216.58526 218.61515 220.69704 222.76693
 224.81381 226.88470 228.96859 231.06148 233.17737 235.33626 237.57915 239.93604
 242.54393 244.78182 246.77071 248.52260 249.92649 251.03638 251.84527 252.14816
 252.17205 251.93294 251.27983 250.21472 248.80761 246.95550 244.85138 242.67127
 240.44916 238.24005 236.04694 233.87283 231.71972 229.57361 227.58650 225.73039
 224.00028 222.45917 221.07606 219.83495 218.70384 217.65073 216.74162 215.86951
 215.09840 214.26529 213.35018 212.70107 212.13795 212.34822 212.84500 213.65379
 214.43961 215.74121 217.21040 217.92934 219.33722 222.72644 228.12857 232.63905
 236.30946 240.19887 244.12766 247.72632 250.59773 253.35422 256.25079 259.09918
 261.55499 263.93634 266.38419 268.68439 270.94113 273.07394 274.88510 276.61786
 278.36047 280.12122 281.67334 283.04230 284.22992 285.28723 286.25711 287.14468
 287.95453 288.68503 289.32239 290.18265
 366.78100 356.32249 345.74198 334.59548 322.98597 311.16746 299.02495 286.81544
 274.51494 262.39943 250.39592 239.68441 229.79391 220.88540 213.05489 206.04438
 199.86587 194.79137 191.36086 189.39035 188.41484 188.46633 189.28883 190.58432
 192.29681 194.37930 196.62980 198.97629 201.40878 203.87627 205.95176 207.78126
 209.39475 210.52724 210.74373 210.95922 210.88372 210.57621 210.19670 209.81419
 209.41868 209.11618 208.91167 208.76316 208.67865 208.99715 209.37064 209.74713
 210.52762 211.69311 212.93061 214.70110 216.61659 218.64708 220.72957 222.80007
 224.84756 226.91905 229.00354 231.09703 233.21353 235.37302 237.61651 239.97400
 242.58250 244.82099 246.81048 248.56297 249.96746 251.07796 251.88745 252.19094
 252.21543 251.97692 251.32442 250.25991 248.85340 247.00189 244.89839 242.71888
 240.49737 238.28886 236.09635 233.92285 231.77034 229.62483 227.63832 225.78281
 224.05331 222.51280 221.13029 219.88978 218.75927 217.70677 216.79826 215.92675
 215.15624 214.32374 213.40923 212.76072 212.19821 212.39877 212.87262 213.70805
 214.61194 215.86571 217.23265 218.06660 219.51389 222.75145 228.11319 232.58522
 236.23154 240.12292 244.03787 247.59009 250.38516 253.10991 256.03314 258.91019
 261.39886 263.78311 266.21982 268.55847 270.87158 273.05624 274.89395 276.62674
 278.35590 280.07935 281.62582 282.99335 284.18051 285.23840 286.20746 287.09402
 287.90601 288.63486 289.27408 290.13596
 366.78100 356.32284 345.74267 334.59651 322.98734 311.16918 299.02702 286.81785
 274.51769 262.40252 250.39936 239.68819 229.79803 220.88987 213.05970 206.04954
 199.87137 194.79721 191.36705 189.39688 188.42172 188.47355 189.29639 190.59223
 192.30506 194.38790 196.63873 198.98557 201.41841 203.88624 205.96208 207.79191
 209.40575 210.53858 210.75542 210.97126 210.89609 210.58893 210.20976 209.82760
 209.43244 209.13027 208.92611 208.77794 208.69378 209.01262 209.38645 209.76329
 210.54412 211.70996 212.94779 214.71863 216.63447 218.66530 220.74814 222.81897
 224.86681 226.93865 229.02348 231.11732 233.23415 235.39399 237.63783 239.99566
 242.60450 244.84333 246.83317 248.58601 249.99084 251.10168 251.91151 252.21535
 252.24018 252.00202 251.34986 250.28569 248.87953 247.02836 244.92520 242.74604
 240.52487 238.31671 236.12454 233.95138 231.79922 229.65405 227.66789 225.81272
 224.08356 222.54339 221.16123 219.92107 218.79090 217.73874 216.83057 215.95941
 215.18925 214.35708 213.44292 212.79475 212.23259 212.43636 212.91776 213.77823
 214.76674 215.97897 217.24171 218.19942 219.71037 222.78253 228.10507 232.52196
 236.14114 240.03378 243.93134 247.43417 250.16013 252.86124 255.81248 258.72171
 261.25235 263.64777 266.07889 268.45810 270.81967 273.04993 274.91653 276.65326
 278.40060 280.03372 281.57336 282.94165 284.13089 285.18655 286.15759 287.04590
 287.85748 288.58710 289.22754 290.09076
 366.78100 356.32271 345.74242 334.59613 322.98683 311.16854 299.02625 286.81696
 274.51667 262.40138 250.39809 239.68680 229.79650 220.88821 213.05792 206.04763
 199.86934 194.79505 191.36476 189.39446 188.41917 188.47088 189.29359 190.58930
 192.30201 194.38472 196.63542 198.98213 201.41484 203.88255 205.95826 207.78797
 209.40168 210.53439 210.75109 210.96680 210.89151 210.58422 210.20493 209.82264
 209.42735 209.12505 208.92076 208.77247 208.68818 209.00689 209.38060 209.75731
 210.53801 211.70372 212.94143 214.71214 216.62785 218.65856 220.74127 222.81198
 224.85968 226.93139 229.01610 231.10981 233.22652 235.38623 237.62994 239.98764
 242.59635 244.83506 246.82477 248.57748 249.98219 251.09290 251.90260 252.20631
 252.23102 251.99273 251.34044 250.27615 248.86986 247.01857 244.91527 242.73598
 240.51469 238.30640 236.11411 233.94082 231.78853 229.64323 227.65694 225.80165
 224.07236 222.53207 221.14978 219.90949 218.77919 217.72690 216.81861 215.94732
 215.17703 214.34474 213.43045 212.78216 212.21986 212.44983 212.99316 213.86365
 214.88927 216.04906 217.25293 218.35130 219.91609 222.83467 228.09315 232.45938
 236.05644 239.95122 243.82678 247.27669 249.93987 252.62206 255.59636 258.53659
 261.11346 263.52548 265.95502 268.36685 270.76672 273.03073 274.92041 276.66425
 278.42346 280.00031 281.53638 282.90359 284.09241 285.14795 286.11725 287.00595
 287.81769 288.54767 289.18839 290.05234
 366.78100 356.32248 345.74196 334.59545 322.98593 311.16741 299.02489 286.81538
 274.51486 262.39934 250.39582 239.68430 229.79379 220.88527 213.05475 206.04423
 199.86572 194.79120 191.36068 189.39016 188.41464 188.46613 189.28861 190.58409
 192.29657 194.37905 196.62954 198.97602 201.40850 203.87598 205.95147 207.78095
 209.39443 210.52691 210.74339 210.95888 210.88336 210.57584 210.19632 209.81381
 209.41829 209.11577 208.91125 208.76273 208.67822 208.99670 209.37018 209.74666
 210.52715 211.69263 212.93011 214.70059 216.61607 218.64656 220.72904 222.79952
 224.84700 226.91849 229.00297 231.09645 233.21293 235.37241 237.61590 239.97338
 242.58186 244.82034 246.80983 248.56231 249.96679 251.07727 251.88675 252.19024
 252.21472 251.97620 251.32368 250.25916 248.85265 247.00113 244.89761 242.71809
 240.49658 238.28806 236.09554 233.92202 231.76950 229.62399 227.63747 225.78195
 224.05243 222.51192 221.12940 219.88888 218.75836 217.70584 216.79733 215.92581
 215.15529 214.32277 213.40826 212.75974 212.19722 212.45877 213.07671 213.95238
 214.98080 216.10565 217.30582 218.51842 220.10925 222.90843 228.06973 232.40331
 235.97733 239.87296 243.71797 247.10887 249.72076 252.38832 255.38278 258.35077
 260.97308 263.40738 265.83862 268.28046 270.71313 273.00000 274.90375 276.65485
 278.42368 279.98013 281.50903 282.87482 284.06009 285.11441 286.08301 286.97061
 287.78064 288.50961 289.15140 290.00977
 366.78100 356.32280 345.74261 334.59641 322.98722 311.16902 299.02683 286.81763
 274.51744 262.40224 250.39905 239.68785 229.79766 220.88946 213.05926 206.04907
 199.87087 194.79668 191.36648 189.39629 188.42109 188.47290 189.29570 190.59151
 192.30431 194.38712 196.63792 198.98472 201.41753 203.88533 205.96114 207.79094
 209.40475 210.53755 210.75436 210.97016 210.89497 210.58777 210.20858 209.82638
 209.43118 209.12899 208.92479 208.77660 208.69240 209.01121 209.38501 209.76182
 210.54262 211.70843 212.94623 214.71704 216.63284 218.66364 220.74645 222.81725
 224.86506 226.93686 229.02167 231.11547 233.23228 235.39208 237.63589 239.99369
 242.60250 244.84130 246.83110 248.58391 249.98871 251.09952 251.90932 252.21313
 252.23793 251.99974 251.34754 250.28335 248.87715 247.02596 244.92276 242.74356
 240.52237 238.31417 236.12198 233.94878 231.79659 229.65139 227.66520 225.81000
 224.08081 222.54061 221.15842 219.91822 218.78802 217.73583 216.82763 215.95644
 215.18624 214.35405 213.43985 212.79166 212.22946 212.49724 213.12990 214.03703
 215.06989 216.19965 217.41977 218.67328 220.27274 222.99959 228.03734 232.35043
 235.89954 239.78560 243.58572 246.90656 249.48232 252.14247 255.15637 258.15039
 260.81967 263.28860 265.73807 268.21811 270.67789 272.97925 274.89725 276.65048
 278.42126 279.98068 281.48508 282.84244 284.02530 285.07803 286.04614 286.93326
 287.74652 288.47739 289.12097 289.97903
 366.78100 356.32401 345.74503 334.60004 322.99206 311.17507 299.03409 286.82610
 274.52712 262.41313 250.41115 239.70116 229.81218 220.90519 213.07620 206.06722
 199.89023 194.81725 191.38826 189.41928 188.44529 188.49831 189.32232 190.61934
 192.33335 194.41737 196.66938 199.01740 201.45141 203.92042 205.99744 207.82845
 209.44347 210.57748 210.79550 211.01251 210.93853 210.63254 210.25456 209.87357
 209.47959 209.17860 208.97561 208.82863 208.74564 209.06566 209.44067 209.81869
 210.60070 211.76772 213.00673 214.77875 216.69576 218.72778 220.81179 222.88381
 224.93282 227.00583 229.09185 231.18686 233.30488 235.46589 237.71091 240.06992
 242.67994 244.91995 246.91097 248.66498 250.07100 251.18301 251.99402 252.29904
 252.32505 252.08807 251.43708 250.37410 248.96911 247.11913 245.01714 242.83916
 240.61917 238.41219 236.22120 234.04922 231.89823 229.75424 227.76926 225.91527
 224.18729 222.64830 221.26732 220.02833 218.89935 217.84836 216.94138 216.07139
 215.30241 214.47142 213.55843 212.91145 212.35046 212.58211 213.12935 214.13293
 215.16812 216.31711 217.56546 218.81943 220.42859 223.10095 228.01059 232.30469
 235.82932 239.69009 243.42599 246.66203 249.21213 251.87180 254.90753 257.93185
 260.65805 263.18127 265.66879 268.18677 270.66330 272.97391 274.91006 276.66492
 278.42804 280.01495 281.43839 282.79279 283.97928 285.03433 286.00201 286.89145
 287.70816 288.43991 289.08368 289.93808
 366.78100 356.32568 345.74836 334.60504 322.99872 311.18340 299.04407 286.83775
 274.54043 262.42811 250.42779 239.71947 229.83215 220.92683 213.09951 206.09219
 199.91687 194.84554 191.41822 189.45090 188.47858 188.53326 189.35894 190.65762
 192.37330 194.45898 196.71266 199.06233 201.49801 203.96869 206.04737 207.88005
 209.49673 210.63241 210.85209 211.07077 210.99845 210.69413 210.31780 209.93848
 209.54616 209.24684 209.04552 208.90020 208.81888 209.14056 209.51724 209.89692
 210.68060 211.84927 213.08995 214.86363 216.78231 218.81599 220.90167 222.97535
 225.02603 227.10071 229.18839 231.28506 233.40474 235.56742 237.81410 240.17478
 242.78646 245.02814 247.02082 248.77650 250.18418 251.29786 252.11053 252.41721
 252.44489 252.20957 251.56025 250.49893 249.09561 247.24729 245.14697 242.97065
 240.75233 238.54700 236.35768 234.18736 232.03804 229.89572 227.91240 226.06008
 224.33376 222.79644 221.41712 220.17980 219.05247 218.00315 217.09783 216.22951
 215.46219 214.63287 213.72155 213.07623 212.51691 212.69238 213.10696 214.22351
 215.27597 216.43658 217.70486 218.97781 220.61581 223.20885 227.99904 232.26268
 235.76648 239.58736 243.24406 246.38795 248.91808 251.58418 254.64342 257.70700
 260.50351 263.09192 265.62250 268.16684 270.65500 272.97116 274.92160 276.68027
 278.43283 280.02078 281.39996 282.74960 283.93454 284.98737 285.95334 286.84012
 287.65408 288.38477 289.00986 289.84848
 366.78100 356.32748 345.75195 334.61043 323.00590 311.19238 299.05485 286.85033
 274.55480 262.44428 250.44575 239.73923 229.85370 220.95018 213.12465 206.11913
 199.94560 194.87608 191.45055 189.48503 188.51450 188.57098 189.39845 190.69893
 192.41640 194.50388 196.75935 199.11083 201.54831 204.02078 206.10126 207.93573
 209.55421 210.69168 210.91316 211.13363 211.06311 210.76058 210.38606 210.00853
 209.61801 209.32048 209.12096 208.97743 208.89791 209.22138 209.59986 209.98133
 210.76681 211.93728 213.17976 214.95523 216.87571 218.91118 220.99866 223.07413
 225.12661 227.20309 229.29256 231.39104 233.51251 235.67699 237.92546 240.28794
 242.90141 245.14489 247.13936 248.89684 250.30631 251.42179 252.23626 252.54474
 252.57421 252.34069 251.69316 250.63364 249.23211 247.38559 245.28706 243.11254
 240.89601 238.69249 236.50496 234.33644 232.18892 230.04839 228.06687 226.21634
 224.49182 222.95629 221.57877 220.34324 219.21772 218.17019 217.26667 216.40014
 215.63462 214.80709 213.89757 213.25404 212.69652 212.81241 213.08618 214.28307
 215.39497 216.58052 217.84001 219.14171 220.81894 223.32698 227.99918 232.21922
 235.70746 239.47958 243.04637 246.09270 248.60353 251.28468 254.37160 257.48004
 260.35043 263.00681 265.57886 268.14850 270.64951 272.97021 274.93167 276.69626
 278.44299 280.03738 281.38028 282.71298 283.89255 284.94046 285.90140 286.78589
 287.60007 288.33191 288.95175 289.78433
 366.78100 356.32912 345.75524 334.61536 323.01249 311.20061 299.06473 286.86185
 274.56797 262.45909 250.46222 239.75734 229.87346 220.97158 213.14770 206.14382
 199.97195 194.90407 191.48019 189.51631 188.54743 188.60555 189.43468 190.73680
 192.45592 194.54504 196.80216 199.15528 201.59440 204.06853 206.15065 207.98677
 209.60689 210.74601 210.96913 211.19126 211.12238 210.82150 210.44862 210.07274
 209.68386 209.38799 209.19011 209.04823 208.97035 209.29547 209.67559 210.05872
 210.84584 212.01796 213.26208 215.03920 216.96132 218.99844 221.08757 223.16469
 225.21881 227.29693 229.38805 231.48817 233.61130 235.77742 238.02754 240.39166
 243.00678 245.25190 247.24803 249.00715 250.41827 251.53539 252.35151 252.66163
 252.69276 252.46088 251.81500 250.75712 249.35724 247.51236 245.41549 243.24261
 241.02773 238.82585 236.63997 234.47309 232.32721 230.18834 228.20846 226.35958
 224.63670 223.10282 221.72694 220.49307 219.36919 218.32331 217.42143 216.55655
 215.79267 214.96680 214.05892 213.41704 212.86116 212.92755 213.08437 214.29843
 215.52686 216.75998 217.98596 219.29269 221.02061 223.44719 228.01585 232.18909
 235.65308 239.36598 242.82896 245.77113 248.26472 250.97157 254.09091 257.24542
 260.18738 262.91299 265.53210 268.13705 270.65366 272.97849 274.95645 276.73175
 278.47107 280.06113 281.44412 282.66415 283.83243 284.88165 285.84302 286.72928
 287.54745 288.28094 288.89951 289.73007
 366.78100 356.33013 345.75726 334.61839 323.01652 311.20565 299.07078 286.86891
 274.57604 262.46817 250.47230 239.76843 229.88556 220.98469 213.16182 206.15895
 199.98808 194.92121 191.49834 189.53547 188.56760 188.62672 189.45685 190.75998
 192.48011 194.57024 196.82837 199.18250 201.62263 204.09776 206.18089 208.01802
 209.63915 210.77928 211.00341 211.22654 211.15867 210.85880 210.48693 210.11206
 209.72419 209.42932 209.23245 209.09158 209.01471 209.34084 209.72197 210.10610
 210.89423 212.06736 213.31249 215.09062 217.01375 219.05188 221.14201 223.22014
 225.27527 227.35440 229.44653 231.54766 233.67179 235.83891 238.09004 240.45517
 243.07130 245.31743 247.31456 249.07469 250.48682 251.60495 252.42208 252.73321
 252.76534 252.53447 251.88960 250.83273 249.43386 247.58999 245.49412 243.32225
 241.10838 238.90751 236.72264 234.55677 232.41190 230.27403 228.29516 226.44729
 224.72542 223.19255 221.81768 220.58481 219.46194 218.41707 217.51620 216.65233
 215.88946 215.06459 214.15772 213.51685 212.96198 213.00984 213.12296 214.29433
 215.64500 216.93739 218.14246 219.44478 221.19240 223.56967 228.03494 232.16896
 235.60915 239.26404 242.61719 245.44902 247.92316 250.65993 253.81438 257.01212
 260.01904 262.81409 265.49051 268.13876 270.66489 272.98621 274.97308 276.75790
 278.49490 280.07712 281.46750 282.64172 283.80756 284.85608 285.81491 286.70087
 287.52060 288.24265 288.85977 289.68457
 366.78100 356.33089 345.75877 334.62066 323.01955 311.20944 299.07532 286.87421
 274.58210 262.47499 250.47987 239.77676 229.89465 220.99454 213.17242 206.17031
 200.00020 194.93408 191.51197 189.54986 188.58275 188.64263 189.47352 190.77741
 192.49830 194.58918 196.84807 199.20296 201.64385 204.11973 206.20362 208.04151
 209.66340 210.80428 211.02917 211.25306 211.18594 210.88683 210.51572 210.14161
 209.75449 209.46038 209.26427 209.12416 209.04804 209.37493 209.75682 210.14171
 210.93059 212.10448 213.35037 215.12925 217.05314 219.09203 221.18292 223.26180
 225.31769 227.39758 229.49047 231.59235 233.71724 235.88513 238.13702 240.50290
 243.11979 245.36668 247.36457 249.12545 250.53834 251.65723 252.47511 252.78700
 252.81989 252.58978 251.94566 250.88955 249.49144 247.64833 245.55321 243.38210
 241.16899 238.96888 236.78476 234.61965 232.47554 230.33842 228.36031 226.51320
 224.79209 223.25997 221.88586 220.65375 219.53164 218.48752 217.58741 216.72430
 215.96219 215.13807 214.23196 213.59185 213.03773 213.07797 213.17302 214.29991
 215.77907 217.07602 218.19011 219.56895 221.41522 223.68906 228.09108 232.21548
 235.60236 239.18967 242.42386 245.13359 247.57970 250.34531 253.53505 256.77420
 259.84552 262.71799 265.46054 268.14841 270.67389 272.98071 274.96927 276.76892
 278.51184 280.09354 281.48923 282.68805 283.75671 284.79153 285.74692 286.63147
 287.45718 288.16989 288.78558 289.61060
 366.78100 356.33192 345.76083 334.62375 323.02367 311.21458 299.08150 286.88141
 274.59033 262.48425 250.49016 239.78808 229.90700 221.00791 213.18683 206.18575
 200.01666 194.95158 191.53050 189.56941 188.60333 188.66424 189.49616 190.80108
 192.52299 194.61491 196.87483 199.23074 201.67266 204.14958 206.23449 208.07341
 209.69632 210.83824 211.06416 211.28907 211.22299 210.92491 210.55482 210.18174
 209.79566 209.50257 209.30749 209.16841 209.09332 209.42124 209.80415 210.19007
 210.97999 212.15490 213.40182 215.18174 217.10665 219.14657 221.23849 223.31840
 225.37532 227.45623 229.55015 231.65307 233.77898 235.94790 238.20082 240.56773
 243.18565 245.43357 247.43248 249.19440 250.60832 251.72823 252.54715 252.86006
 252.89398 252.66490 252.02181 250.96673 249.56965 247.72756 245.63348 243.46340
 241.25131 239.05223 236.86915 234.70506 232.56198 230.42589 228.44881 226.60273
 224.88264 223.35156 221.97848 220.74739 219.62631 218.58323 217.68414 216.82206
 216.06097 215.23789 214.33281 213.69372 213.14064 213.15935 213.20351 214.34563
 215.84013 217.16603 218.29669 219.67859 221.61865 223.94914 228.17300 232.25883
 235.59875 239.10800 242.20697 244.78923 247.21426 250.01967 253.25226 256.53986
 259.68362 262.63849 265.44278 268.15366 270.66867 272.95300 274.94116 276.75311
 278.50464 280.08640 281.47540 282.67908 283.73944 284.77496 285.72723 286.61353
 287.43900 288.14172 288.75446 289.57855
 366.78100 356.33320 345.76341 334.62761 323.02881 311.22102 299.08922 286.89042
 274.60063 262.49583 250.50303 239.80224 229.92244 221.02465 213.20485 206.20505
 200.03726 194.97346 191.55366 189.59387 188.62907 188.69127 189.52448 190.83068
 192.55388 194.64709 196.90829 199.26549 201.70870 204.18690 206.27310 208.11331
 209.73751 210.88071 211.10792 211.33412 211.26933 210.97253 210.60373 210.23194
 209.84714 209.55534 209.36155 209.22375 209.14995 209.47916 209.86336 210.25056
 211.04177 212.21797 213.46617 215.24738 217.17358 219.21478 221.30799 223.38919
 225.44739 227.52960 229.62480 231.72901 233.85621 236.02641 238.28062 240.64882
 243.26802 245.51723 247.51743 249.28063 250.69584 251.81704 252.63724 252.95145
 252.98665 252.75885 252.11706 251.06326 249.66746 247.82667 245.73387 243.56508
 241.35428 239.15648 236.97469 234.81189 232.67009 230.53530 228.55950 226.71470
 224.99591 223.46611 222.09431 220.86452 219.74472 218.70292 217.80513 216.94433
 216.18453 215.36274 214.45894 213.82114 213.26935 213.25317 213.21495 214.41400
 215.89963 217.20023 218.45816 219.87117 221.79640 224.17664 228.23012 232.27873
 235.58421 239.01271 241.96712 244.42442 246.84842 249.70903 252.99268 256.32806
 259.54056 262.56876 265.42075 268.14468 270.64832 272.91397 274.90231 276.72675
 278.48395 280.06299 281.44962 282.60910 283.75616 284.80310 285.77328 286.65060
 287.43484 288.12485 288.73349 289.55444
 366.78100 356.33440 345.76579 334.63119 323.03359 311.22698 299.09638 286.89877
 274.61017 262.50657 250.51496 239.81536 229.93676 221.04015 213.22155 206.22295
 200.05634 194.99374 191.57514 189.61653 188.65293 188.71632 189.55072 190.85812
 192.58251 194.67691 196.93931 199.29770 201.74210 204.22150 206.30889 208.15029
 209.77569 210.92008 211.14848 211.37587 211.31227 211.01667 210.64906 210.27846
 209.89486 209.60425 209.41165 209.27505 209.20244 209.53284 209.91824 210.30663
 211.09903 212.27642 213.52582 215.30822 217.23561 219.27801 221.37241 223.45480
 225.51420 227.59760 229.69399 231.79939 233.92778 236.09918 238.35458 240.72397
 243.34437 245.59477 247.59616 249.36056 250.77696 251.89935 252.72075 253.03615
 253.07254 252.84594 252.20533 251.15273 249.75813 247.91852 245.82692 243.65932
 241.44971 239.25311 237.07251 234.91090 232.77030 230.63670 228.66209 226.81849
 225.10088 223.57228 222.20168 220.97307 219.85447 218.81387 217.91726 217.05766
 216.29906 215.47845 214.57585 213.93924 213.38864 213.34050 213.22673 214.47603
 215.98764 217.23061 218.59709 220.07423 221.95055 224.35658 228.28250 232.28932
 235.56583 238.90872 241.73111 244.08215 246.51657 249.42935 252.75304 256.12820
 259.40610 262.49966 265.39563 268.13416 270.62442 272.86703 274.85312 276.68683
 278.44656 280.02618 281.42081 282.63492 283.69479 284.73813 285.71301 286.58871
 287.35641 288.04132 288.64703 289.47900
 366.78100 356.33495 345.76691 334.63286 323.03581 311.22977 299.09972 286.90267
 274.61462 262.51158 250.52053 239.82148 229.94344 221.04739 213.22934 206.23130
 200.06525 195.00320 191.58515 189.62711 188.66406 188.72801 189.56297 190.87092
 192.59587 194.69083 196.95378 199.31273 201.75769 204.23764 206.32559 208.16754
 209.79350 210.93845 211.16740 211.39536 211.33231 211.03726 210.67022 210.30017
 209.91712 209.62708 209.43503 209.29898 209.22693 209.55789 209.94384 210.33279
 211.12575 212.30370 213.55365 215.33661 217.26456 219.30751 221.40246 223.48542
 225.54537 227.62932 229.72628 231.83223 233.96118 236.13314 238.38909 240.75904
 243.38000 245.63095 247.63290 249.39785 250.81481 251.93776 252.75971 253.07567
 253.11262 252.88657 252.24653 251.19448 249.80043 247.96139 245.87034 243.70329
 241.49424 239.29820 237.11815 234.95710 232.81706 230.68401 228.70996 226.86692
 225.14987 223.62182 222.25177 221.02373 219.90568 218.86563 217.96959 217.11054
 216.35249 215.53245 214.63040 213.99435 213.44431 213.39281 213.27113 214.53494
 216.05748 217.28613 218.71835 220.22911 222.07921 224.52171 228.36818 232.33936
 235.55290 238.80505 241.50926 243.76033 246.19194 249.14418 252.50290 255.92654
 259.27441 262.43433 265.36829 268.11548 270.59058 272.81381 274.80356 276.64688
 278.40469 279.98068 281.37750 282.61337 283.64896 284.69324 285.66705 286.53006
 287.16586 287.84613 288.45825 289.31506
 366.78100 356.33557 345.76814 334.63471 323.03828 311.23285 299.10342 286.90700
 274.61957 262.51714 250.52671 239.82828 229.95085 221.05542 213.23799 206.24056
 200.07513 195.01370 191.59627 189.63884 188.67641 188.74099 189.57656 190.88513
 192.61070 194.70627 196.96984 199.32941 201.77498 204.25555 206.34412 208.18669
 209.81326 210.95883 211.18840 211.41698 211.35455 211.06012 210.69369 210.32426
 209.94183 209.65240 209.46097 209.32554 209.25411 209.58568 209.97225 210.36182
 211.15540 212.33397 213.58454 215.36811 217.29668 219.34025 221.43582 223.51939
 225.57996 227.66453 229.76210 231.86867 233.99824 236.17081 238.42739 240.79796
 243.41953 245.67110 247.67367 249.43924 250.85681 251.98038 252.80295 253.11952
 253.15709 252.93166 252.29223 251.24080 249.84738 248.00895 245.91852 243.75209
 241.54366 239.34823 237.16880 235.00837 232.86894 230.73651 228.76308 226.92065
 225.20422 223.67679 222.30737 221.07994 219.96251 218.92308 218.02765 217.16922
 216.41179 215.59236 214.69093 214.05550 213.50607 213.44768 213.30974 214.59146
 216.14838 217.38222 218.84813 220.36009 222.17929 224.66235 228.47571 232.39569
 235.53552 238.68097 241.25301 243.41516 245.86716 248.85983 252.25317 255.73141
 259.15143 262.36795 265.33597 268.09946 270.57172 272.78940 274.78204 276.61536
 278.35181 279.90887 281.29895 282.52499 283.58990 284.63705 285.61880 286.48221
 287.01489 287.69107 288.30179 289.16507
 366.78100 356.33599 345.76898 334.63597 323.03996 311.23495 299.10593 286.90992
 274.62291 262.52090 250.53089 239.83288 229.95587 221.06086 213.24385 206.24684
 200.08183 195.02082 191.60380 189.64679 188.68478 188.74977 189.58576 190.89475
 192.62074 194.71673 196.98072 199.34071 201.78670 204.26768 206.35667 208.19966
 209.82665 210.97264 211.20263 211.43162 211.36961 211.07560 210.70959 210.34058
 209.95857 209.66955 209.47854 209.34353 209.27252 209.60451 209.99150 210.38149
 211.17548 212.35447 213.60546 215.38945 217.31843 219.36242 221.45841 223.54240
 225.60339 227.68838 229.78637 231.89336 234.02335 236.19634 238.45333 240.82431
 243.44630 245.69829 247.70128 249.46727 250.88526 252.00925 252.83224 253.14923
 253.18722 252.96221 252.32320 251.27218 249.87917 248.04116 245.95115 243.78514
 241.57713 239.38212 237.20311 235.04310 232.90409 230.77208 228.79906 226.95705
 225.24104 223.71403 222.34502 221.11801 220.00100 218.96199 218.06698 217.20897
 216.45196 215.63295 214.73193 214.09692 213.54791 213.50050 213.40752 214.58884
 216.21483 217.37735 218.86650 220.46196 222.25990 224.72481 228.48158 232.43173
 235.50478 238.63440 241.08434 243.06137 245.46606 248.54774 252.03873 255.59944
 259.07745 262.33179 265.31461 268.07776 270.55673 272.75928 274.74841 276.57993
 278.27994 279.82803 281.21521 282.40988 283.51843 284.57312 285.55115 286.41980
 287.20200 287.95059 288.60510 289.43918
 366.78100 356.33745 345.77190 334.64034 323.04579 311.24224 299.11469 286.92014
 274.63458 262.53403 250.54548 239.84893 229.97338 221.07982 213.26427 206.26872
 200.10517 195.04562 191.63006 189.67451 188.71396 188.78041 189.61786 190.92830
 192.65575 194.75320 197.01865 199.38010 201.82754 204.30999 206.40044 208.24489
 209.87334 211.02078 211.25223 211.48268 211.42213 211.12958 210.76502 210.39747
 210.01692 209.72937 209.53982 209.40626 209.33671 209.67016 210.05861 210.45006
 211.24550 212.42595 213.67840 215.46385 217.39430 219.43974 221.53719 223.62264
 225.68509 227.77154 229.87099 231.97943 234.11088 236.28533 238.54378 240.91623
 243.53967 245.79312 247.79757 249.56502 250.98447 252.10991 252.93436 253.25281
 253.29226 253.06871 252.43115 251.38160 249.99005 248.15350 246.06495 243.90039
 241.69384 239.50029 237.32274 235.16419 233.02663 230.89608 228.92453 227.08398
 225.36943 223.84387 222.47632 221.25077 220.13522 219.09767 218.20411 217.34756
 216.59201 215.77446 214.87491 214.24135 213.69380 213.62187 213.55902 214.62531
 216.17494 217.38065 218.98813 220.73181 222.57680 224.98357 228.67711 232.43279
 235.40732 238.37840 240.81096 242.92554 245.36269 248.40987 251.89476 255.50470
 259.01779 262.28897 265.28662 268.02393 270.47498 272.65619 274.61722 276.42068
 278.12225 279.78516 281.35150 282.76526 284.07196 285.25314 286.33078 287.30704
 288.18509 288.96698 289.65005 290.52051
 366.78100 356.34135 345.77970 334.65204 323.06139 311.26174 299.13809 286.94744
 274.66579 262.56913 250.58448 239.89183 230.02018 221.13053 213.31888 206.32722
 200.16757 195.11192 191.70027 189.74862 188.79197 188.86231 189.70366 191.01801
 192.74936 194.85071 197.12006 199.48540 201.93675 204.42310 206.51745 208.36580
 209.99815 211.14949 211.38484 211.61919 211.56254 211.27389 210.91324 210.54958
 210.17293 209.88928 209.70363 209.57398 209.50833 209.84567 210.23802 210.63337
 211.43272 212.61707 213.87342 215.66276 217.59711 219.64646 221.74781 223.83716
 225.90351 227.99385 230.09720 232.20955 234.34490 236.52325 238.78560 241.16194
 243.78929 246.04664 248.05499 249.82634 251.24969 252.37903 253.20738 253.52973
 253.57308 253.35343 252.71978 251.67412 250.28647 248.45382 246.36917 244.20852
 242.00587 239.81621 237.64256 235.48791 233.35426 231.22761 229.25996 227.42330
 225.71265 224.19100 222.82735 221.60570 220.49405 219.46039 218.57074 217.71809
 216.96644 216.15279 215.25714 214.62748 214.08383 213.87679 213.59358 214.66479
 216.31369 217.73264 219.35239 221.00952 222.71216 224.86064 228.82834 232.32219
 235.24664 238.10718 240.47714 242.59970 245.12653 248.28238 251.82039 255.46735
 258.99557 262.27051 265.23801 267.93515 270.31854 272.46942 274.38681 276.52979
 278.74368 280.94247 282.84940 284.52383 285.97290 287.25494 288.42462 289.48428
 290.43732 291.28601 292.02740 292.97220
 366.78100 356.34532 345.78764 334.66396 323.07728 311.28160 299.16192 286.97524
 274.69756 262.60488 250.62420 239.93552 230.06784 221.18216 213.37448 206.38680
 200.23112 195.17944 191.77176 189.82408 188.87140 188.94572 189.79104 191.10936
 192.84468 194.95000 197.22332 199.59264 202.04796 204.53828 206.63660 208.48892
 210.12524 211.28056 211.51988 211.75820 211.70552 211.42084 211.06416 210.70448
 210.33180 210.05212 209.87044 209.74476 209.68308 210.02440 210.42072 210.82004
 211.62336 212.81168 214.07200 215.86532 217.80364 219.85696 221.96228 224.05560
 226.12592 228.22024 230.32756 232.44388 234.58320 236.76552 239.03184 241.41216
 244.04348 246.30480 248.31712 250.09244 251.51976 252.65308 253.48540 253.81172
 253.85904 253.64336 253.01368 251.97200 250.58832 248.75964 246.67896 244.52228
 242.32360 240.13792 237.96824 235.81756 233.68788 231.56520 229.60152 227.76884
 226.06216 224.54448 223.18480 221.96712 220.85944 219.82976 218.94408 218.09540
 217.34772 216.53804 215.64636 215.02068 214.48100 214.12453 213.56931 214.63756
 216.38063 217.96506 219.64949 221.29907 222.86740 224.90451 228.78618 232.20500
 235.08112 237.88095 240.17123 242.21381 244.59607 248.06903 251.76573 255.46719
 259.00336 262.20883 265.15158 267.84305 270.15546 272.10751 274.32709 276.92044
 279.60257 281.90158 283.89099 285.63785 287.14960 288.48712 289.70740 290.81287
 291.80713 292.69254 293.46600 294.45169
 366.78100 356.34674 345.79048 334.66822 323.08296 311.28870 299.17044 286.98518
 274.70892 262.61766 250.63840 239.95115 230.08489 221.20063 213.39437 206.40811
 200.25385 195.20359 191.79733 189.85107 188.89981 188.97555 189.82229 191.14203
 192.87877 194.98551 197.26025 199.63099 202.08773 204.57947 206.67921 208.53295
 210.17069 211.32744 211.56818 211.80792 211.75666 211.47340 211.11814 210.75988
 210.38862 210.11036 209.93010 209.80584 209.74558 210.08832 210.48606 210.88680
 211.69154 212.88128 214.14302 215.93776 217.87750 219.93224 222.03899 224.13373
 226.20547 228.30121 230.40995 232.52769 234.66843 236.85217 239.11991 241.50165
 244.13439 246.39713 248.41087 250.18761 251.61635 252.75109 253.58483 253.91257
 253.96131 253.74705 253.11879 252.07854 250.69628 248.86902 246.78976 244.63450
 242.43724 240.25298 238.08472 235.93546 233.80720 231.68594 229.72368 227.89242
 226.18716 224.67090 223.31264 222.09638 220.99012 219.96186 219.07760 218.23034
 217.48408 216.67583 215.78557 215.16131 214.62305 214.20728 213.51030 214.68463
 216.47325 218.14226 219.86942 221.42375 222.97884 225.18991 228.81061 232.16064
 234.99760 237.69029 239.90549 241.94292 244.55981 248.03828 251.77078 255.43051
 258.90607 262.06964 264.95868 267.62457 269.93518 271.98386 273.90820 275.58948
 277.63947 279.60892 281.45963 283.08469 284.49103 285.73529 286.87048 287.89890
 288.82382 289.64749 290.36703 291.28400
 366.78100 356.34263 345.78227 334.65590 323.06654 311.26817 299.14581 286.95644
 274.67608 262.58071 250.59735 239.90598 230.03562 221.14725 213.33688 206.34652
 200.18815 195.13379 191.72342 189.77306 188.81769 188.88933 189.73196 191.04760
 192.78023 194.88287 197.15350 199.52014 201.97277 204.46040 206.55604 208.40567
 210.03931 211.19194 211.42858 211.66421 211.60885 211.32148 210.96212 210.59975
 210.22439 209.94202 209.75765 209.62929 209.56492 209.90356 210.29719 210.69383
 211.49446 212.68010 213.93773 215.72837 217.66400 219.71464 221.81727 223.90790
 225.97554 228.06717 230.17181 232.28544 234.42208 236.60171 238.86535 241.24298
 243.87162 246.13025 248.13989 249.91252 251.33716 252.46779 253.29742 253.62106
 253.66569 253.44733 252.81496 251.77060 250.38423 248.55287 246.46950 244.31014
 242.10877 239.92041 237.74804 235.59467 233.46231 231.33694 229.37058 227.53521
 225.82585 224.30548 222.94312 221.72275 220.61239 219.58002 218.69166 217.84029
 217.08992 216.27756 215.38319 214.75483 214.21246 213.98900 213.55052 214.82198
 216.49521 217.67619 219.62503 221.37289 223.02934 225.25970 228.73915 232.14725
 234.88177 237.47855 239.64926 241.73462 244.37817 247.82367 251.60786 255.27220
 258.75235 261.95569 264.88223 267.53430 269.84021 271.89154 273.78192 275.54022
 277.15860 278.68030 280.09952 281.45587 282.65302 283.73764 284.78293 285.75168
 286.62292 287.39880 288.07660 288.94034
 366.78100 356.34071 345.77842 334.65013 323.05885 311.25856 299.13427 286.94298
 274.66069 262.56340 250.57811 239.88482 230.01254 221.12225 213.30996 206.31767
 200.15738 195.10109 191.68880 189.73651 188.77923 188.84894 189.68965 191.00336
 192.73407 194.83478 197.10349 199.46820 201.91892 204.40463 206.49834 208.34605
 209.97776 211.12847 211.36318 211.59689 211.53961 211.25032 210.88903 210.52474
 210.14745 209.86316 209.67687 209.54658 209.48030 209.81701 210.20872 210.60343
 211.40214 212.58585 213.84156 215.63027 217.56399 219.61270 221.71341 223.80212
 225.86783 227.95754 230.06025 232.17196 234.30668 236.48439 238.74610 241.12181
 243.74852 246.00523 248.01294 249.78365 251.20637 252.33508 253.16279 253.48450
 253.52721 253.30692 252.67263 251.62634 250.23806 248.40477 246.31948 244.15819
 241.95490 239.76461 237.59032 235.43503 233.30075 231.17346 229.20517 227.36788
 225.65659 224.13430 222.77001 221.54772 220.43544 219.40115 218.51086 217.65757
 216.90528 216.09099 215.19470 214.56442 214.02013 213.88828 213.57678 214.95679
 217.03085 217.88016 219.66820 221.39978 223.08386 225.26352 228.74197 232.05246
 234.86137 237.32539 239.28612 241.23207 243.95444 247.58752 251.45427 255.18173
 258.74188 261.98273 264.85941 267.51291 269.78473 271.74039 273.55658 275.32947
 277.02026 278.55869 280.02048 281.37589 282.55579 283.61011 284.58084 285.45663
 286.23148 286.91620 287.53253 288.32053
 366.78100 356.34020 345.77740 334.64860 323.05680 311.25600 299.13121 286.93941
 274.65661 262.55881 250.57301 239.87921 230.00641 221.11561 213.30281 206.31001
 200.14921 195.09241 191.67962 189.72682 188.76902 188.83822 189.67842 190.99162
 192.72182 194.82202 197.09022 199.45442 201.90462 204.38982 206.48303 208.33023
 209.96143 211.11163 211.34583 211.57903 211.52123 211.23143 210.86963 210.50483
 210.12703 209.84224 209.65544 209.52464 209.45784 209.79404 210.18524 210.57944
 211.37764 212.56084 213.81604 215.60424 217.53744 219.58565 221.68585 223.77405
 225.83925 227.92845 230.03065 232.14185 234.27605 236.45325 238.71445 241.08965
 243.71585 245.97206 247.97926 249.74946 251.17166 252.29986 253.12706 253.44826
 253.49046 253.26966 252.63486 251.58806 250.19927 248.36547 246.27967 244.11787
 241.91407 239.72327 237.54847 235.39267 233.25787 231.13007 229.16127 227.32347
 225.61168 224.08888 222.72408 221.50128 220.38848 219.35368 218.46288 217.60908
 216.85628 216.04148 215.14468 214.51388 213.96909 213.88156 213.67477 215.00865
 217.19489 217.97124 219.75197 221.56738 223.25702 225.39218 228.76241 232.06361
 234.76033 237.09239 238.93924 240.88643 243.71153 247.43214 251.32295 255.11313
 258.69348 261.92914 264.80112 267.43338 269.67493 271.64774 273.47803 275.23721
 276.89868 278.45190 279.90695 281.24969 282.41525 283.45120 284.39185 285.26831
 286.07050 286.76984 287.37885 288.16861
 366.78100 356.33907 345.77513 334.64520 323.05227 311.25033 299.12440 286.93147
 274.64753 262.54860 250.56167 239.86674 229.99280 221.10087 213.28694 206.29300
 200.13107 195.07314 191.65920 189.70527 188.74634 188.81440 189.65347 190.96554
 192.69460 194.79367 197.06074 199.42380 201.87287 204.35694 206.44900 208.29507
 209.92514 211.07421 211.30727 211.53934 211.48041 211.18947 210.82654 210.46061
 210.08167 209.79574 209.60781 209.47587 209.40794 209.74301 210.13307 210.52614
 211.32321 212.50527 213.75934 215.54641 217.47847 219.52554 221.62461 223.71168
 225.77574 227.86381 229.96488 232.07494 234.20801 236.38408 238.64414 241.01821
 243.64328 245.89834 247.90441 249.67348 251.09454 252.22161 253.04768 253.36774
 253.40881 253.18688 252.55094 251.50301 250.11308 248.27815 246.19121 244.02828
 241.82335 239.63141 237.45548 235.29855 233.16261 231.03368 229.06375 227.22481
 225.51188 223.98795 222.62201 221.39808 220.28415 219.24821 218.35628 217.50135
 216.74742 215.93148 215.03355 214.40162 213.85568 213.84900 213.83322 215.05295
 217.15494 218.15762 219.89095 221.72609 223.40932 225.50116 228.75626 232.07953
 234.62662 236.80217 238.57117 240.55417 243.51967 247.20985 251.14052 254.98697
 258.59689 261.84744 264.73337 267.39594 269.67319 271.64493 273.44391 275.15854
 276.80679 278.33954 279.78503 281.13260 282.30957 283.35352 284.31125 285.19980
 286.02347 286.72922 287.34854 288.13797
 366.78100 356.33890 345.77480 334.64470 323.05159 311.24949 299.12339 286.93029
 274.64619 262.54709 250.55999 239.86489 229.99078 221.09868 213.28458 206.29048
 200.12838 195.07028 191.65618 189.70207 188.74297 188.81087 189.64977 190.96167
 192.69057 194.78947 197.05637 199.41926 201.86816 204.35206 206.44396 208.28986
 209.91976 211.06866 211.30155 211.53345 211.47435 211.18325 210.82015 210.45405
 210.07495 209.78885 209.60074 209.46864 209.40054 209.73544 210.12534 210.51824
 211.31514 212.49703 213.75093 215.53783 217.46973 219.51663 221.61553 223.70243
 225.76633 227.85422 229.95512 232.06502 234.19792 236.37382 238.63372 241.00762
 243.63252 245.88741 247.89331 249.66221 251.08311 252.21001 253.03591 253.35581
 253.39670 253.17460 252.53850 251.49040 250.10030 248.26520 246.17810 244.01500
 241.80989 239.61779 237.44169 235.28459 233.14849 231.01939 229.04929 227.21018
 225.49708 223.97298 222.60688 221.38278 220.26868 219.23258 218.34048 217.48537
 216.73127 215.91517 215.01707 214.38497 213.83887 213.88087 214.01091 215.05890
 216.98849 218.29341 220.01877 221.85550 223.53258 225.54279 228.63129 232.05678
 234.39221 236.42024 238.13928 240.24342 243.31808 247.10817 251.07286 254.92014
 258.51163 261.75195 264.67255 267.31882 269.61197 271.58167 273.35123 275.01968
 276.60440 278.13699 279.61316 280.97690 282.16791 283.23334 284.22198 285.14175
 285.98648 286.73874 287.39590 288.23337
 366.78100 356.33838 345.77376 334.64315 323.04953 311.24691 299.12029 286.92667
 274.64205 262.54244 250.55482 239.85920 229.98458 221.09196 213.27735 206.28273
 200.12011 195.06149 191.64687 189.69226 188.73264 188.80002 189.63840 190.94978
 192.67816 194.77655 197.04293 199.40531 201.85369 204.33707 206.42846 208.27384
 209.90322 211.05160 211.28398 211.51536 211.45575 211.16413 210.80051 210.43389
 210.05427 209.76766 209.57904 209.44642 209.37780 209.71218 210.10157 210.49395
 211.29033 212.47171 213.72509 215.51147 217.44286 219.48924 221.58762 223.67400
 225.73738 227.82477 229.92515 232.03453 234.16691 236.34229 238.60168 240.97506
 243.59944 245.85382 247.85920 249.62758 251.04797 252.17435 252.99973 253.31911
 253.35949 253.13688 252.50026 251.45164 250.06102 248.22540 246.13778 243.97417
 241.76855 239.57593 237.39931 235.24169 233.10508 230.97546 229.00484 227.16522
 225.45160 223.92699 222.56037 221.33575 220.22113 219.18451 218.29189 217.43628
 216.68166 215.86504 214.96642 214.33380 213.78719 213.88506 214.13731 215.07657
 216.89934 218.39912 220.21594 222.03102 223.67860 225.68251 228.69983 232.09177
 234.29950 236.16045 237.80002 239.95329 243.13071 247.04343 251.03360 254.89037
 258.48141 261.70807 264.60010 267.22787 269.48114 271.38641 273.10168 274.75650
 276.37024 277.96457 279.46860 280.83334 282.02267 283.08783 284.07248 284.97809
 285.82352 286.57639 287.23407 288.07220
 366.78100 356.33739 345.77178 334.64017 323.04557 311.24196 299.11435 286.91974
 274.63413 262.53352 250.54492 239.84831 229.97270 221.07909 213.26348 206.26787
 200.10426 195.04466 191.62905 189.67344 188.71283 188.77922 189.61661 190.92701
 192.65440 194.75179 197.01718 199.37857 201.82596 204.30836 206.39875 208.24314
 209.87153 211.01892 211.25031 211.48070 211.42010 211.12749 210.76288 210.39527
 210.01466 209.72705 209.53745 209.40384 209.33423 209.66762 210.05601 210.44740
 211.24279 212.42319 213.67558 215.46097 217.39136 219.43675 221.53414 223.61954
 225.68193 227.76832 229.86771 231.97610 234.10749 236.28189 238.54028 240.91267
 243.53606 245.78945 247.79384 249.56123 250.98063 252.10602 252.93041 253.24880
 253.28819 253.06458 252.42698 251.37737 249.98576 248.14915 246.06054 243.89593
 241.68932 239.49572 237.31811 235.15950 233.02189 230.89128 228.91967 227.07907
 225.36446 223.83885 222.47124 221.24563 220.13002 219.09242 218.19881 217.34220
 216.58659 215.76898 214.86937 214.23576 213.68816 213.84970 214.23135 215.22401
 216.92734 218.52084 220.42639 222.18520 223.81676 225.88605 228.92537 232.03372
 234.19138 235.90065 237.52280 239.75746 243.02283 246.92348 250.94427 254.82721
 258.42593 261.63190 264.48087 267.13815 269.37711 271.24884 272.93549 274.59668
 276.26553 277.88373 279.42401 280.79172 281.97992 283.03256 283.99716 284.88135
 285.68924 286.41290 287.04269 287.84479
 366.78100 356.33660 345.77021 334.63781 323.04242 311.23802 299.10963 286.91423
 274.62783 262.52644 250.53704 239.83965 229.96325 221.06886 213.25246 206.25607
 200.09167 195.03127 191.61488 189.65848 188.69709 188.76269 189.59930 190.90890
 192.63550 194.73211 196.99671 199.35732 201.80392 204.28553 206.37513 208.21874
 209.84634 210.99294 211.22355 211.45315 211.39176 211.09836 210.73297 210.36457
 209.98317 209.69478 209.50438 209.36999 209.29959 209.63220 210.01980 210.41040
 211.20501 212.38461 213.63622 215.42082 217.35043 219.39503 221.49164 223.57624
 225.63784 227.72345 229.82205 231.92966 234.06026 236.23387 238.49147 240.86307
 243.48568 245.73828 247.74189 249.50849 250.92710 252.05170 252.87531 253.19291
 253.23151 253.00712 252.36872 251.31833 249.92593 248.08854 245.99914 243.83374
 241.62635 239.43195 237.25356 235.09416 232.95577 230.82437 228.85197 227.01058
 225.29518 223.76879 222.40039 221.17400 220.05760 219.01921 218.12481 217.26741
 216.51102 215.69262 214.79223 214.15783 213.60944 213.83243 214.35927 215.36812
 216.95749 218.58047 220.57475 222.31625 223.92827 226.00359 229.00244 231.95787
 233.99492 235.55771 237.15118 239.50871 242.90385 246.85277 250.89189 254.77719
 258.35992 261.54037 264.39166 267.03546 269.26163 271.13644 272.84882 274.52478
 276.19424 277.80084 279.32782 280.69287 281.87878 282.93048 283.89142 284.76999
 285.57269 286.28778 286.90344 287.69739
 366.78100 356.33591 345.76882 334.63573 323.03964 311.23455 299.10546 286.90937
 274.62228 262.52019 250.53010 239.83201 229.95492 221.05984 213.24275 206.24566
 200.08057 195.01948 191.60239 189.64530 188.68321 188.74812 189.58403 190.89294
 192.61885 194.71476 196.97867 199.33858 201.78449 204.26540 206.35431 208.19722
 209.82413 210.97004 211.19995 211.42886 211.36677 211.07268 210.70659 210.33751
 209.95542 209.66633 209.47524 209.34015 209.26906 209.60097 209.98788 210.37779
 211.17170 212.35061 213.60152 215.38543 217.31434 219.35825 221.45416 223.53807
 225.59898 227.68389 229.78180 231.88871 234.01862 236.19153 238.44844 240.81935
 243.44127 245.69318 247.69609 249.46200 250.87991 252.00382 252.82673 253.14364
 253.18155 252.95646 252.31737 251.26628 249.87319 248.03510 245.94501 243.77892
 241.57083 239.37574 237.19665 235.03656 232.89747 230.76538 228.79229 226.95020
 225.23411 223.70702 222.33794 221.11085 219.99376 218.95467 218.05958 217.20149
 216.44440 215.62531 214.72422 214.08913 213.54004 213.82295 214.49138 215.47299
 216.95206 218.60098 220.69481 222.45596 224.05208 226.11356 229.06584 231.90840
 233.80545 235.23477 236.83072 239.31799 242.80833 246.79700 250.85056 254.73933
 258.31216 261.47900 264.31326 266.92639 269.12201 270.98950 272.70142 274.39087
 276.08914 277.71454 279.24301 280.60947 281.79425 282.84573 283.80734 284.68515
 285.48334 286.19824 286.81772 287.61301
 366.78100 356.33511 345.76722 334.63333 323.03645 311.23056 299.10067 286.90378
 274.61589 262.51300 250.52211 239.82322 229.94534 221.04945 213.23156 206.23367
 200.06778 195.00589 191.58800 189.63011 188.66723 188.73134 189.56645 190.87456
 192.59967 194.69478 196.95789 199.31700 201.76212 204.24223 206.33034 208.17245
 209.79856 210.94367 211.17278 211.40090 211.33801 211.04312 210.67623 210.30634
 209.92345 209.63356 209.44167 209.30579 209.23390 209.56501 209.95112 210.34023
 211.13334 212.31145 213.56156 215.34468 217.27279 219.31590 221.41101 223.49412
 225.55423 227.63834 229.73545 231.84157 233.97068 236.14279 238.39890 240.76901
 243.39012 245.64123 247.64334 249.40846 250.82557 251.94868 252.77079 253.08690
 253.12401 252.89812 252.25824 251.20635 249.81246 247.97357 245.88268 243.71579
 241.50690 239.31101 237.13113 234.97024 232.83035 230.69746 228.72357 226.88068
 225.16379 223.63590 222.26602 221.03813 219.92024 218.88035 217.98446 217.12557
 216.36768 215.54779 214.64591 214.01002 213.46013 213.80666 214.62534 215.58478
 216.95183 218.61923 220.78693 222.58067 224.16167 226.18678 229.10246 231.85223
 233.61765 234.92842 236.53853 239.14888 242.72089 246.74210 250.80969 254.70221
 258.26660 261.41977 264.23590 266.84045 269.02933 270.83975 272.43124 274.31708
 276.02167 277.64221 279.16901 280.53378 281.71902 282.77014 283.73218 284.60931
 285.40640 286.11865 286.74268 287.55945
 366.78100 356.33393 345.76485 334.62978 323.03170 311.22463 299.09356 286.89548
 274.60641 262.50233 250.51026 239.81019 229.93111 221.03404 213.21496 206.21589
 200.04882 194.98574 191.56667 189.60759 188.64352 188.70645 189.54037 190.84730
 192.57122 194.66515 196.92708 199.28500 201.72893 204.20785 206.29478 208.13571
 209.76063 210.90456 211.13248 211.35941 211.29534 210.99926 210.63119 210.26011
 209.87604 209.58497 209.39189 209.25482 209.18174 209.51167 209.89660 210.28452
 211.07645 212.25337 213.50230 215.28423 217.21115 219.25308 221.34700 223.42893
 225.48786 227.57078 229.66671 231.77163 233.89956 236.07049 238.32541 240.69434
 243.31426 245.56419 247.56512 249.32904 250.74497 251.86689 252.68782 253.00274
 253.03867 252.81160 252.17052 251.11745 249.72237 247.88230 245.79023 243.62215
 241.41208 239.21500 237.03393 234.87186 232.73078 230.59671 228.62163 226.77756
 225.05949 223.53041 222.15934 220.93026 219.81119 218.77012 217.87304 217.01297
 216.25389 215.43282 214.52975 213.89267 213.34160 213.76692 214.77177 215.70581
 216.95312 218.62408 220.85434 222.69180 224.26672 226.23874 229.11754 231.79756
 233.44548 234.65129 236.27708 238.99687 242.64226 246.70113 250.78285 254.67545
 258.22946 261.36954 264.17731 266.76428 268.89029 270.62399 272.21860 274.22244
 275.98404 277.57639 279.08783 280.44882 281.63028 282.67899 283.63940 284.51248
 285.30740 286.02200 286.64093 287.43912
 366.78100 356.33281 345.76261 334.62642 323.02723 311.21903 299.08684 286.88765
 274.59745 262.49226 250.49907 239.79787 229.91768 221.01949 213.19929 206.19910
 200.03091 194.96671 191.54652 189.58633 188.62114 188.68294 189.51575 190.82156
 192.54436 194.63717 196.89798 199.25478 201.69759 204.17540 206.26120 208.10101
 209.72482 210.86762 211.09443 211.32024 211.25504 210.95785 210.58866 210.21646
 209.83127 209.53908 209.34488 209.20669 209.13250 209.46130 209.84511 210.23192
 211.02272 212.19853 213.44634 215.22714 217.15295 219.19376 221.28656 223.36737
 225.42518 227.50698 229.60179 231.70560 233.83241 236.00221 238.25602 240.62383
 243.24263 245.49144 247.49125 249.25405 250.66886 251.78967 252.60947 252.92328
 252.95809 252.72989 252.08770 251.03351 249.63731 247.79612 245.70293 243.53373
 241.32254 239.12435 236.94215 234.77896 232.63677 230.50157 228.52538 226.68019
 224.96099 223.43080 222.05861 220.82841 219.70822 218.66603 217.76783 216.90664
 216.14645 215.32426 214.42006 213.78187 213.22968 213.72617 214.89915 215.85912
 216.98770 218.61093 220.90555 222.78365 224.35934 226.28050 229.11447 231.73120
 233.27875 234.39590 236.04341 238.86444 242.56923 246.66608 250.76193 254.64632
 258.18109 261.31058 264.11963 266.68561 268.74823 270.45676 272.09213 274.18665
 275.96353 277.52731 279.01190 280.36157 281.53778 282.58136 283.53812 284.41342
 285.21390 285.93149 286.54272 287.33966
 366.78100 356.33200 345.76100 334.62400 323.02399 311.21499 299.08199 286.88199
 274.59099 262.48499 250.49098 239.78898 229.90798 221.00898 213.18798 206.18698
 200.01798 194.95297 191.53197 189.57097 188.60497 188.66597 189.49797 190.80297
 192.52496 194.61696 196.87696 199.23296 201.67496 204.15196 206.23695 208.07595
 209.69895 210.84095 211.06695 211.29195 211.22595 210.92794 210.55794 210.18494
 209.79894 209.50594 209.31094 209.17194 209.09693 209.42493 209.80793 210.19393
 210.98393 212.15893 213.40592 215.18592 217.11092 219.15092 221.24292 223.32292
 225.37992 227.46091 229.55491 231.65791 233.78391 235.95291 238.20591 240.57291
 243.19090 245.43890 247.43790 249.19990 250.61390 251.73390 252.55289 252.86589
 252.89989 252.67089 252.02789 250.97289 249.57589 247.73388 245.63988 243.46988
 241.25788 239.05888 236.87588 234.71188 232.56887 230.43287 228.45587 226.60987
 224.88987 223.35887 221.98586 220.75486 219.63386 218.59086 217.69186 216.82986
 216.06886 215.24585 214.34085 213.70185 213.14885 213.69855 214.99727 216.01160
 217.07523 218.63594 220.95779 222.85750 224.43889 226.31248 229.09583 231.61845
 233.05786 234.11070 235.81232 238.75037 242.52402 246.63518 250.73589 254.61955
 258.13770 261.24649 264.04544 266.60333 268.64166 270.33923 272.10547 274.14276
 275.93387 277.50809 278.96854 280.28925 281.43250 282.46609 283.41507 284.28827
 285.10382 285.81482 286.42203 287.22305
 366.78100 356.33147 345.75993 334.62240 323.02186 311.21233 299.07879 286.87826
 274.58672 262.48019 250.48565 239.78312 229.90158 221.00205 213.18051 206.17898
 200.00944 194.94391 191.52237 189.56084 188.59430 188.65477 189.48623 190.79070
 192.51216 194.60363 196.86309 199.21856 201.66002 204.13649 206.22095 208.05942
 209.68188 210.82335 211.04881 211.27328 211.20674 210.90821 210.53767 210.16414
 209.77760 209.48407 209.28853 209.14900 209.07346 209.40093 209.78339 210.16886
 210.95832 212.13279 213.37925 215.15872 217.08318 219.12265 221.21411 223.29358
 225.35004 227.43051 229.52397 231.62644 233.75190 235.92037 238.17283 240.53930
 243.15676 245.40423 247.40269 249.16416 250.57762 251.69709 252.51555 252.82802
 252.86148 252.63195 251.98841 250.93288 249.53534 247.69281 245.59827 243.42774
 241.21520 239.01567 236.83213 234.66760 232.52406 230.38753 228.40999 226.56346
 224.84292 223.31139 221.93785 220.70632 219.58478 218.54125 217.64171 216.77918
 216.01764 215.19411 214.28857 213.64904 213.09550 213.68735 215.08566 216.14909
 217.16374 218.68921 221.03659 222.93295 224.50456 226.33882 229.06831 231.49002
 232.82515 233.82428 235.58365 238.63838 242.49937 246.62450 250.71881 254.60136
 258.11160 261.21112 264.00467 266.55893 268.58643 270.23297 272.16049 274.02148
 275.85300 277.45480 278.94156 280.28555 281.46045 282.50897 283.48251 284.36411
 285.14835 285.83487 286.43710 287.23093
 366.78100 356.33096 345.75893 334.62089 323.01986 311.20982 299.07578 286.87475
 274.58271 262.47567 250.48064 239.77760 229.89557 220.99553 213.17349 206.17146
 200.00142 194.93538 191.51335 189.55131 188.58428 188.64424 189.47520 190.77917
 192.50013 194.59109 196.85006 199.20502 201.64599 204.12195 206.20591 208.04388
 209.66584 210.80681 211.03177 211.25573 211.18870 210.88966 210.51862 210.14459
 209.75755 209.46352 209.26748 209.12744 209.05141 209.37837 209.76033 210.14530
 210.93426 212.10823 213.35419 215.13315 217.05712 219.09608 221.18705 223.26601
 225.32197 227.40194 229.49490 231.59686 233.72183 235.88979 238.14176 240.50772
 243.12468 245.37165 247.36961 249.13057 250.54354 251.66250 252.48047 252.79243
 252.82539 252.59536 251.95132 250.89528 249.49725 247.65421 245.55918 243.38814
 241.17510 238.97507 236.79103 234.62600 232.48196 230.34492 228.36689 226.51985
 224.79881 223.26678 221.89274 220.66071 219.53867 218.49463 217.59460 216.73156
 215.96952 215.14549 214.23945 213.59942 213.04538 213.67458 215.16113 216.29042
 217.26225 218.74873 221.14456 223.00043 224.52122 226.33110 229.01604 231.36244
 232.60094 233.56076 235.38229 238.54970 242.47198 246.62369 250.72502 254.60699
 258.11514 261.21326 263.99924 266.55457 268.61566 270.28082 272.07681 273.91913
 275.72299 277.38553 278.89200 280.24429 281.42383 282.47491 283.45334 284.33588
 285.10992 285.79443 286.39417 287.18750
 366.78100 356.33116 345.75932 334.62148 323.02064 311.21080 299.07696 286.87612
 274.58428 262.47743 250.48259 239.77975 229.89791 220.99807 213.17623 206.17439
 200.00455 194.93871 191.51687 189.55503 188.58819 188.64835 189.47951 190.78367
 192.50483 194.59599 196.85514 199.21030 201.65146 204.12762 206.21178 208.04994
 209.67210 210.81326 211.03842 211.26258 211.19574 210.89690 210.52606 210.15222
 209.76538 209.47154 209.27570 209.13585 209.06001 209.38717 209.76933 210.15449
 210.94365 212.11781 213.36397 215.14313 217.06729 219.10645 221.19761 223.27677
 225.33293 227.41309 229.50625 231.60841 233.73356 235.90172 238.15388 240.52004
 243.13720 245.38436 247.38252 249.14368 250.55684 251.67600 252.49416 252.80632
 252.83948 252.60964 251.96580 250.90996 249.51212 247.66927 245.57443 243.40359
 241.19075 238.99091 236.80707 234.64223 232.49839 230.36155 228.38371 226.53687
 224.81603 223.28419 221.91035 220.67851 219.55667 218.51283 217.61298 216.75014
 215.98830 215.16446 214.25862 213.61878 213.06494 213.70399 215.21382 216.43901
 217.37277 218.80849 221.23273 223.02588 224.48689 226.24759 228.87617 231.18549
 232.29645 233.25702 235.15773 238.44041 242.44739 246.64671 250.76614 254.65518
 258.16208 261.25876 264.03882 266.61597 268.71719 270.25482 272.04843 273.96918
 275.57687 277.27560 278.81039 280.17050 281.35608 282.42258 283.39944 284.24277
 285.00250 285.69873 286.32916 287.13382
 366.78100 356.33162 345.76025 334.62287 323.02250 311.21312 299.07975 286.87937
 274.58799 262.48162 250.48724 239.78487 229.90349 221.00411 213.18274 206.18136
 200.01199 194.94661 191.52524 189.56386 188.59748 188.65811 189.48973 190.79436
 192.51598 194.60760 196.86723 199.22285 201.66448 204.14110 206.22573 208.06435
 209.68697 210.82860 211.05422 211.27885 211.21247 210.91410 210.54372 210.17034
 209.78397 209.49059 209.29522 209.15584 209.08046 209.40809 209.79071 210.17634
 210.96596 212.14059 213.38721 215.16683 217.09146 219.13108 221.22271 223.30233
 225.35896 227.43958 229.53320 231.63583 233.76145 235.93008 238.18270 240.54932
 243.16695 245.41457 247.41320 249.17482 250.58845 251.70807 252.52669 252.83932
 252.87294 252.64357 252.00019 250.94481 249.54744 247.70506 245.61069 243.44031
 241.22794 239.02856 236.84518 234.68081 232.53743 230.40106 228.42368 226.57731
 224.85693 223.32555 221.95218 220.72080 219.59943 218.55605 217.65667 216.79430
 216.03292 215.20955 214.30417 213.66480 213.11142 213.74489 215.24545 216.50880
 217.54633 218.80147 221.23502 223.02119 224.43440 226.10880 228.64787 231.05516
 231.91365 232.89374 234.89128 238.28218 242.42345 246.70660 250.84767 254.72534
 258.22009 261.32639 264.14435 266.70132 268.73605 270.45844 272.16812 273.89771
 275.53186 277.15829 278.58337 279.67697 280.70044 281.74319 282.71793 283.60205
 284.42856 285.16455 285.80753 286.62689
 366.78100 356.33045 345.75789 334.61934 323.01779 311.20723 299.07268 286.87113
 274.57858 262.47102 250.47547 239.77192 229.88936 220.98881 213.16626 206.16370
 199.99315 194.92660 191.50405 189.54149 188.57394 188.63339 189.46383 190.76728
 192.48773 194.57817 196.83662 199.19107 201.63152 204.10696 206.19041 208.02786
 209.64930 210.78975 211.01420 211.23764 211.17009 210.87054 210.49899 210.12443
 209.73688 209.44233 209.24577 209.10522 209.02867 209.35511 209.73656 210.12101
 210.90946 212.08290 213.32835 215.10680 217.03024 219.06869 221.15914 223.23758
 225.29303 227.37248 229.46492 231.56637 233.69082 235.85827 238.10971 240.47516
 243.09161 245.33805 247.33550 249.09595 250.50839 251.62684 252.44429 252.75574
 252.78818 252.55763 251.91308 250.85652 249.45797 247.61442 245.51886 243.34731
 241.13376 238.93321 236.74865 234.58310 232.43855 230.30099 228.32244 226.47489
 224.75333 223.22078 221.84623 220.61368 219.49112 218.44657 217.54602 216.68246
 215.91991 215.09536 214.18880 213.54825 212.99370 213.70726 215.38531 216.50072
 217.61340 219.01730 221.20126 222.97525 224.43333 226.08244 228.49883 230.69722
 231.59804 232.90257 235.10446 238.47597 242.53322 246.77879 250.92180 254.77420
 258.23312 261.32196 264.16513 266.69577 268.66049 270.37079 272.11209 274.00266
 275.57678 276.98782 278.24207 279.42645 280.57407 281.64722 282.65506 283.56812
 284.38931 285.12057 285.75940 286.57349
 366.78100 356.32924 345.75549 334.61573 323.01298 311.20122 299.06546 286.86271
 274.56895 262.46019 250.46344 239.75868 229.87493 220.97317 213.14941 206.14566
 199.97390 194.90615 191.48239 189.51863 188.54988 188.60812 189.43736 190.73961
 192.45885 194.54810 196.80534 199.15858 201.59783 204.07207 206.15431 207.99056
 209.61080 210.75005 210.97329 211.19553 211.12678 210.82602 210.45327 210.07751
 209.68875 209.39300 209.19524 209.05348 208.97573 209.30097 209.68122 210.06446
 210.85170 212.02395 213.26819 215.04544 216.96768 219.00492 221.09417 223.17141
 225.22565 227.30390 229.39514 231.49539 233.61863 235.78487 238.03512 240.39936
 243.01460 245.25985 247.25609 249.01534 250.42658 251.54382 252.36007 252.67031
 252.70156 252.46980 251.82404 250.76629 249.36653 247.52177 245.42502 243.25226
 241.03751 238.83575 236.64999 234.48324 232.33748 230.19873 228.21897 226.37021
 224.64746 223.11370 221.73794 220.50419 219.38043 218.33468 217.43292 216.56816
 215.80441 214.97865 214.07089 213.42914 212.87338 213.66841 215.51280 216.61234
 217.75821 219.30318 221.30467 223.04199 224.52089 226.11696 228.49803 230.36317
 231.34668 232.82892 235.18196 238.56996 242.61142 246.84872 250.98512 254.80750
 258.22668 261.29462 264.11743 266.61603 268.58957 270.33249 272.05463 274.02231
 275.52661 276.77325 278.13190 279.56311 280.89844 282.07990 283.15778 284.13428
 285.01251 285.79459 286.47781 287.34848
 366.78100 356.32964 345.75627 334.61691 323.01454 311.20318 299.06781 286.86545
 274.57208 262.46372 250.46735 239.76299 229.87962 220.97826 213.15489 206.15153
 199.98016 194.91280 191.48943 189.52607 188.55770 188.61634 189.44597 190.74861
 192.46824 194.55788 196.81551 199.16915 201.60878 204.08342 206.16605 208.00269
 209.62332 210.76296 210.98659 211.20923 211.14086 210.84050 210.46813 210.09277
 209.70440 209.40904 209.21167 209.07031 208.99294 209.31858 209.69921 210.08285
 210.87048 212.04312 213.28775 215.06539 216.98802 219.02566 221.11529 223.19293
 225.24756 227.32620 229.41783 231.51847 233.64210 235.80874 238.05937 240.42401
 243.03964 245.28528 247.28191 249.04155 250.45318 251.57082 252.38745 252.69809
 252.72972 252.49836 251.85299 250.79563 249.39626 247.55190 245.45553 243.28317
 241.06880 238.86744 236.68208 234.51571 232.37035 230.23198 228.25262 226.40425
 224.68189 223.14852 221.77316 220.53979 219.41643 218.37106 217.46970 216.60533
 215.84197 215.01660 214.10924 213.46787 212.91251 213.70560 215.56056 216.80455
 217.93613 219.44760 221.38486 223.14000 224.59305 226.05949 228.47537 230.03366
 231.05399 232.62149 235.06711 238.52336 242.62708 246.85783 250.97583 254.78442
 258.19275 261.26120 264.06284 266.51917 268.51978 270.33484 272.08740 273.95108
 275.56146 276.80377 278.45145 280.05914 281.45050 282.68149 283.80457 284.82199
 285.73706 286.55194 287.26379 288.17099
 366.78100 356.33061 345.75822 334.61983 323.01844 311.20805 299.07367 286.87228
 274.57989 262.47250 250.47711 239.77372 229.89133 220.99094 213.16855 206.16616
 199.99577 194.92938 191.50700 189.54461 188.57722 188.63683 189.46744 190.77105
 192.49166 194.58227 196.84088 199.19549 201.63610 204.11171 206.19533 208.03294
 209.65455 210.79516 211.01977 211.24338 211.17599 210.87660 210.50521 210.13082
 209.74343 209.44905 209.25266 209.11227 209.03588 209.36249 209.74410 210.12871
 210.91732 212.09093 213.33654 215.11515 217.03876 219.07738 221.16799 223.24660
 225.30221 227.38182 229.47443 231.57604 233.70065 235.86826 238.11987 240.48548
 243.10210 245.34871 247.34632 249.10693 250.51954 251.63815 252.45576 252.76737
 252.79998 252.56959 251.92520 250.86881 249.47043 247.62704 245.53165 243.36026
 241.14687 238.94648 236.76209 234.59670 232.45231 230.31492 228.33653 226.48914
 224.76776 223.23537 221.86098 220.62859 219.50620 218.46181 217.56142 216.69803
 215.93564 215.11125 214.20486 213.56448 213.01009 213.76077 215.54329 216.91550
 218.15259 219.60112 221.45050 223.17566 224.61214 226.02650 228.32256 229.73550
 230.74042 232.37299 234.96629 238.53922 242.64868 246.87650 250.98294 254.78261
 258.17532 261.22476 264.01944 266.45395 268.45404 270.29224 272.01239 273.92267
 275.56448 276.77954 278.41940 279.99133 281.35172 282.55530 283.65338 284.64819
 285.54291 286.33963 287.03564 287.92264
 366.78100 356.33221 345.76142 334.62463 323.02484 311.21605 299.08326 286.88347
 274.59268 262.48690 250.49311 239.79132 229.91053 221.01174 213.19095 206.19016
 200.02137 194.95658 191.53579 189.57500 188.60921 188.67042 189.50263 190.80784
 192.53005 194.62226 196.88248 199.23869 201.68090 204.15811 206.24332 208.08253
 209.70574 210.84795 211.07416 211.29937 211.23358 210.93579 210.56600 210.19321
 209.80742 209.51463 209.31984 209.18106 209.10627 209.43448 209.81769 210.20390
 210.99411 212.16932 213.41653 215.19674 217.12195 219.16216 221.25437 223.33458
 225.39179 227.47300 229.56721 231.67042 233.79664 235.96585 238.21906 240.58627
 243.20448 245.45269 247.45190 249.21411 250.62832 251.74853 252.56774 252.88095
 252.91516 252.68637 252.04358 250.98879 249.59200 247.75022 245.65643 243.48664
 241.27485 239.07606 236.89327 234.72948 232.58669 230.45090 228.47411 226.62832
 224.90853 223.37774 222.00495 220.77416 219.65337 218.61059 217.71180 216.85001
 216.08922 215.26643 214.36164 213.72285 213.17006 213.84700 215.48740 216.97256
 218.33247 219.75557 221.52263 223.16698 224.59148 226.01627 228.21156 229.59320
 230.52219 232.17659 234.88013 238.52757 242.67349 246.94917 251.07494 254.87477
 258.24664 261.26273 264.05823 266.55270 268.50763 270.21713 272.13684 273.95776
 275.40701 276.74503 278.15701 279.70731 281.04892 282.23590 283.31888 284.29996
 285.18231 285.96808 286.65451 287.52927
 366.78100 356.33218 345.76136 334.62455 323.02473 311.21591 299.08309 286.88327
 274.59246 262.48664 250.49282 239.79100 229.91018 221.01137 213.19055 206.18973
 200.02091 194.95609 191.53528 189.57446 188.60864 188.66982 189.50201 190.80719
 192.52937 194.62155 196.88173 199.23792 201.68010 204.15728 206.24246 208.08164
 209.70483 210.84701 211.07319 211.29837 211.23255 210.93474 210.56492 210.19210
 209.80628 209.51346 209.31865 209.17983 209.10501 209.43319 209.81637 210.20256
 210.99274 212.16792 213.41510 215.19528 217.12047 219.16065 221.25283 223.33301
 225.39020 227.47138 229.56556 231.66874 233.79492 235.96411 238.21729 240.58447
 243.20265 245.45083 247.45002 249.21220 250.62638 251.74656 252.56574 252.87893
 252.91311 252.68429 252.04147 250.98665 249.58984 247.74802 245.65420 243.48438
 241.27256 239.07375 236.89093 234.72711 232.58429 230.44847 228.47166 226.62584
 224.90602 223.37520 222.00239 220.77157 219.65075 218.60793 217.70911 216.84730
 216.08648 215.26366 214.35884 213.72002 213.16721 213.85071 215.50310 217.01418
 218.39278 219.89435 221.66484 223.21278 224.59991 226.06020 228.05498 229.45111
 230.25977 231.93968 234.73283 238.48108 242.68982 246.98320 251.14122 254.94795
 258.31113 261.32913 264.14484 266.66800 268.78204 270.34592 272.21707 274.02332
 275.49573 276.80289 278.11234 279.53876 280.83548 281.98273 283.02942 283.97763
 284.83044 285.58990 286.25336 287.09882
 366.78100 356.32964 345.75629 334.61693 323.01457 311.20321 299.06786 286.86550
 274.57214 262.46379 250.46743 239.76307 229.87972 220.97836 213.15500 206.15164
 199.98029 194.91293 191.48957 189.52622 188.55786 188.61650 189.44615 190.74879
 192.46843 194.55807 196.81572 199.16936 201.60900 204.08365 206.16629 208.00293
 209.62358 210.76322 210.98686 211.20950 211.14115 210.84079 210.46843 210.09308
 209.70472 209.40936 209.21201 209.07065 208.99329 209.31893 209.69958 210.08322
 210.87086 212.04351 213.28815 215.06579 216.98844 219.02608 221.11572 223.19336
 225.24801 227.32665 229.41829 231.51894 233.64258 235.80922 238.05987 240.42451
 243.04015 245.28579 247.28244 249.04208 250.45372 251.57137 252.38801 252.69865
 252.73030 252.49894 251.85358 250.79622 249.39687 247.55251 245.45615 243.28380
 241.06944 238.86808 236.68273 234.51637 232.37101 230.23265 228.25330 226.40494
 224.68258 223.14923 221.77387 220.54051 219.41716 218.37180 217.47044 216.60608
 215.84273 215.01737 214.11001 213.46866 212.91330 213.72485 215.65083 217.10757
 218.36783 219.96613 221.80371 223.32437 224.67696 226.11974 228.01765 229.28999
 229.95483 231.61113 234.50136 238.37624 242.67448 247.01639 251.15985 254.96327
 258.32635 261.33963 264.14362 266.68509 268.79825 270.33151 272.16507 273.92896
 275.42224 276.71555 278.22275 279.63934 280.91757 282.04849 283.08026 284.01498
 284.85565 285.60428 286.25827 287.09171
 366.78100 356.32943 345.75586 334.61629 323.01372 311.20215 299.06657 286.86400
 274.57043 262.46186 250.46529 239.76072 229.87715 220.97558 213.15201 206.14844
 199.97687 194.90929 191.48572 189.52215 188.55358 188.61201 189.44144 190.74387
 192.46330 194.55273 196.81016 199.16358 201.60301 204.07744 206.15987 207.99630
 209.61673 210.75616 210.97959 211.20202 211.13345 210.83288 210.46030 210.08473
 209.69616 209.40059 209.20302 209.06145 208.98388 209.30931 209.68974 210.07317
 210.86060 212.03302 213.27745 215.05488 216.97731 219.01474 221.10417 223.18160
 225.23603 227.31446 229.40589 231.50631 233.62974 235.79617 238.04660 240.41103
 243.02646 245.27189 247.26832 249.02775 250.43918 251.55661 252.37303 252.68346
 252.71489 252.48332 251.83775 250.78018 249.38061 247.53604 245.43947 243.26690
 241.05233 238.85075 236.66518 234.49861 232.35304 230.21447 228.23490 226.38633
 224.66376 223.13019 221.75462 220.52105 219.39747 218.35190 217.45033 216.58576
 215.82219 214.99662 214.08905 213.44748 212.89191 213.71971 215.69798 217.24379
 218.55479 220.14522 221.92014 223.37984 224.69269 225.99873 228.04594 228.97505
 229.63954 231.35033 234.35776 238.34230 242.72049 247.07532 251.22641 255.03387
 258.34061 261.40543 264.19339 266.72601 268.72021 270.09290 272.24637 274.09625
 275.55161 277.01828 278.67816 280.16623 281.45404 282.59338 283.63290 284.57462
 285.42157 286.17581 286.83469 287.67438
 366.78100 356.33342 345.76384 334.62826 323.02968 311.22209 299.09051 286.89193
 274.60235 262.49777 250.50519 239.80461 229.92503 221.02745 213.20787 206.20828
 200.04070 194.97712 191.55754 189.59796 188.63338 188.69580 189.52922 190.83564
 192.55905 194.65247 196.91389 199.27131 201.71473 204.19315 206.27957 208.11999
 209.74441 210.88782 211.11524 211.34166 211.27708 210.98050 210.61192 210.24034
 209.85576 209.56418 209.37060 209.23301 209.15943 209.48885 209.87327 210.26069
 211.05211 212.22853 213.47695 215.25837 217.18478 219.22620 221.31962 223.40104
 225.45946 227.54188 229.63730 231.74172 233.86914 236.03956 238.29397 240.66239
 243.28181 245.53123 247.53165 249.29507 250.71049 251.83191 252.65233 252.96674
 253.00216 252.77458 252.13300 251.07942 249.68384 247.84326 245.75068 243.58210
 241.37151 239.17393 236.99235 234.82977 232.68819 230.55361 228.57803 226.73345
 225.01487 223.48529 222.11370 220.88412 219.76454 218.72296 217.82538 216.96480
 216.20522 215.38364 214.48006 213.84247 213.29089 213.92110 215.54794 217.38541
 218.90907 220.39983 222.02632 223.36705 224.58545 225.78516 227.96802 228.60010
 229.24911 231.09978 234.31242 238.40129 242.81889 247.20726 251.40492 255.27325
 258.66492 261.68991 264.39688 266.96585 268.83572 270.21725 272.25793 273.98944
 275.57486 277.61789 279.47134 281.09882 282.50726 283.75339 284.89026 285.92020
 286.84653 287.67142 288.39203 289.31033
 366.78100 356.33520 345.76741 334.63361 323.03681 311.23101 299.10122 286.90442
 274.61662 262.51382 250.52303 239.82423 229.94643 221.05063 213.23284 206.23504
 200.06924 195.00745 191.58965 189.63185 188.66905 188.73326 189.56846 190.87666
 192.60186 194.69707 196.96027 199.31947 201.76468 204.24488 206.33308 208.17528
 209.80149 210.94669 211.17589 211.40409 211.34130 211.04650 210.67970 210.30990
 209.92711 209.63731 209.44551 209.30972 209.23792 209.56912 209.95532 210.34453
 211.13773 212.31593 213.56613 215.34934 217.27754 219.32074 221.41595 223.49915
 225.55935 227.64355 229.74076 231.84696 233.97616 236.14836 238.40457 240.77477
 243.39597 245.64717 247.64938 249.41458 250.83178 251.95499 252.77719 253.09339
 253.13059 252.90480 252.26500 251.21320 249.81940 247.98061 245.88981 243.72301
 241.51422 239.31842 237.13862 234.97782 232.83803 230.70523 228.73143 226.88863
 225.17184 223.64404 222.27424 221.04644 219.92865 218.88885 217.99305 217.13426
 216.37646 215.55666 214.65486 214.01907 213.46927 214.01436 215.45236 217.40224
 219.19109 220.71324 222.23854 223.45041 224.51323 225.81865 227.47769 228.23177
 228.80699 230.68306 234.02832 238.27008 242.74844 247.15065 251.35516 255.22961
 258.67020 261.73544 264.47327 267.04346 269.28952 270.64474 272.12149 274.07358
 275.96851 277.83136 279.74438 281.46088 282.94635 284.26062 285.45969 286.54596
 287.52292 288.39294 289.15295 290.12152
 366.78100 356.33439 345.76578 334.63116 323.03355 311.22694 299.09633 286.89871
 274.61010 262.50649 250.51488 239.81526 229.93665 221.04004 213.22143 206.22281
 200.05620 194.99359 191.57498 189.61636 188.65275 188.71614 189.55053 190.85791
 192.58230 194.67669 196.93908 199.29746 201.74185 204.22124 206.30863 208.15001
 209.77540 210.91979 211.14818 211.37556 211.31195 211.01634 210.64873 210.27811
 209.89450 209.60389 209.41128 209.27467 209.20205 209.53244 209.91783 210.30622
 211.09860 212.27599 213.52538 215.30777 217.23515 219.27754 221.37193 223.45432
 225.51370 227.59709 229.69348 231.79887 233.92725 236.09864 238.35403 240.72342
 243.34380 245.59419 247.59558 249.35997 250.77635 251.89874 252.72013 253.03552
 253.07190 252.84529 252.20468 251.15207 249.75745 247.91784 245.82623 243.65862
 241.44901 239.25239 237.07178 234.91017 232.76956 230.63594 228.66133 226.81772
 225.10011 223.57149 222.20088 220.97227 219.85366 218.81304 217.91643 217.05682
 216.29821 215.47759 214.57498 213.93837 213.38776 213.97412 215.47218 217.40976
 219.25345 220.83205 222.42706 223.63196 224.59320 225.84933 227.34048 228.05383
 228.61595 230.49423 233.92416 238.18188 242.66335 247.06030 251.22707 255.05237
 258.46423 261.50006 264.27142 266.86700 269.10648 270.82043 272.12643 274.01022
 275.94528 277.73959 279.36426 280.99203 282.42200 283.68716 284.84143 285.88715
 286.82761 287.66513 288.39676 289.32913
 366.78100 356.33559 345.76818 334.63477 323.03836 311.23295 299.10354 286.90712
 274.61971 262.51730 250.52689 239.82848 229.95107 221.05566 213.23825 206.24084
 200.07543 195.01402 191.59661 189.63919 188.67678 188.74137 189.57696 190.88555
 192.61114 194.70673 196.97032 199.32991 201.77550 204.25609 206.34468 208.18726
 209.81385 210.95944 211.18903 211.41762 211.35521 211.06080 210.69439 210.32498
 209.94257 209.65316 209.46175 209.32634 209.25492 209.58651 209.97310 210.36269
 211.15628 212.33487 213.58546 215.36905 217.29764 219.34123 221.43682 223.52041
 225.58099 227.66558 229.76317 231.86976 233.99935 236.17194 238.42853 240.79912
 243.42071 245.67230 247.67489 249.44048 250.85807 251.98165 252.80424 253.12083
 253.15842 252.93301 252.29360 251.24219 249.84878 248.01037 245.91996 243.75355
 241.54514 239.34972 237.17031 235.00990 232.87049 230.73808 228.76467 226.92226
 225.20585 223.67844 222.30903 221.08162 219.96421 218.92479 218.02938 217.17097
 216.41356 215.59415 214.69274 214.05733 213.50792 214.04607 215.46402 217.43340
 219.39331 221.04134 222.62968 223.73637 224.66075 225.80754 227.31207 227.85574
 228.26367 230.24986 233.81808 238.16267 242.67877 247.09816 251.27780 255.10535
 258.45242 261.50891 264.27390 266.85785 269.09003 270.80411 272.15543 273.96875
 275.99170 277.84613 279.76178 281.48114 282.96912 284.28558 285.48663 286.57474
 287.55334 288.42480 289.18610 290.15628
 366.78100 356.33802 345.77303 334.64205 323.04807 311.24508 299.11810 286.92412
 274.63913 262.53915 250.55117 239.85519 229.98020 221.08722 213.27224 206.27725
 200.11427 195.05529 191.64030 189.68532 188.72534 188.79235 189.63037 190.94139
 192.66940 194.76742 197.03344 199.39546 201.84347 204.32649 206.41751 208.26252
 209.89154 211.03956 211.27157 211.50259 211.44261 211.15062 210.78664 210.41966
 210.03967 209.75269 209.56371 209.43073 209.36174 209.69576 210.08478 210.47679
 211.27281 212.45383 213.70684 215.49286 217.42388 219.46989 221.56791 223.65393
 225.71694 227.80396 229.90398 232.01300 234.14501 236.32003 238.57905 240.95206
 243.57608 245.83010 247.83511 249.60313 251.02315 252.14916 252.97418 253.29320
 253.33321 253.11023 252.47325 251.42426 250.03328 248.19730 246.10932 243.94533
 241.73935 239.54637 237.36938 235.21140 233.07442 230.94443 228.97345 227.13347
 225.41948 223.89450 222.52752 221.30253 220.18755 219.15057 218.25759 217.40160
 216.64662 215.82964 214.93065 214.29767 213.75069 214.18295 215.39023 217.42590
 219.59691 221.34180 222.81776 223.78050 224.63287 225.76210 227.20610 227.55740
 227.84671 229.90947 233.72623 238.13614 242.69119 247.14180 251.36104 255.22517
 258.62152 261.68436 264.45349 266.99640 269.23422 271.07242 272.33417 274.05035
 276.16766 278.18008 280.19962 281.97287 283.50748 284.86523 286.10397 287.22617
 288.23547 289.13425 289.91940 290.92001
 366.78100 356.33888 345.77476 334.64464 323.05152 311.24940 299.12329 286.93017
 274.64605 262.54693 250.55981 239.86469 229.99057 221.09845 213.28433 206.29021
 200.12810 195.06998 191.65586 189.70174 188.74262 188.81050 189.64938 190.96126
 192.69014 194.78902 197.05591 199.41879 201.86767 204.35155 206.44343 208.28931
 209.91919 211.06807 211.30095 211.53283 211.47371 211.18260 210.81948 210.45336
 210.07424 209.78812 209.60000 209.46788 209.39976 209.73464 210.12452 210.51741
 211.31429 212.49617 213.75005 215.53693 217.46881 219.51569 221.61457 223.70145
 225.76533 227.85322 229.95410 232.06398 234.19686 236.37274 238.63262 241.00650
 243.63138 245.88626 247.89214 249.66103 251.08191 252.20879 253.03467 253.35455
 253.39543 253.17331 252.53719 251.48907 250.09895 248.26383 246.17672 244.01360
 241.80848 239.61636 237.44024 235.28312 233.14700 231.01788 229.04776 227.20864
 225.49553 223.97141 222.60529 221.38117 220.26705 219.23093 218.33881 217.48369
 216.72957 215.91345 215.01534 214.38322 213.83710 214.23961 215.35019 217.37152
 219.73909 221.58151 222.98636 223.88762 224.68164 225.80185 226.90880 227.19940
 227.66200 229.79953 233.59132 238.03412 242.61232 247.07631 251.29639 255.15752
 258.59854 261.66583 264.46658 267.00702 269.30380 271.28088 272.86346 274.26617
 276.24738 278.09802 279.86710 281.58224 283.06656 284.37979 285.57791 286.66333
 287.63956 288.50888 289.26831 290.23608
 366.78100 356.33856 345.77413 334.64369 323.05025 311.24781 299.12138 286.92794
 274.64350 262.54406 250.55663 239.86119 229.98675 221.09431 213.27988 206.28544
 200.12300 195.06456 191.65013 189.69569 188.73625 188.80381 189.64238 190.95394
 192.68250 194.78106 197.04763 199.41019 201.85875 204.34231 206.43388 208.27944
 209.90900 211.05756 211.29013 211.52169 211.46225 211.17081 210.80738 210.44094
 210.06150 209.77506 209.58663 209.45419 209.38575 209.72031 210.10988 210.50244
 211.29900 212.48056 213.73413 215.52069 217.45225 219.49881 221.59738 223.68394
 225.74750 227.83506 229.93563 232.04519 234.17775 236.35331 238.61288 240.98644
 243.61100 245.86556 247.87113 249.63969 251.06025 252.18681 253.01238 253.33194
 253.37250 253.15006 252.51363 251.46519 250.07475 248.23931 246.15188 243.98844
 241.78300 239.59056 237.41413 235.25669 233.12025 230.99081 229.02038 227.18094
 225.46750 223.94306 222.57663 221.35219 220.23775 219.20131 218.30888 217.45344
 216.69900 215.88256 214.98413 214.35169 213.80525 214.24083 215.39240 217.30908
 219.76556 221.76248 223.16371 224.02365 224.79398 225.86476 226.79175 226.92546
 227.44405 229.62331 233.46667 237.95107 242.54413 247.02730 251.25307 255.11888
 258.56680 261.63785 264.41174 266.94339 269.24176 271.23132 272.94241 274.44897
 276.40463 278.23837 279.89093 281.52817 282.97263 284.25058 285.41650 286.47278
 287.42276 288.26874 289.00775 289.94955
 366.78100 356.33777 345.77253 334.64130 323.04707 311.24384 299.11660 286.92237
 274.63714 262.53691 250.54867 239.85244 229.97721 221.08398 213.26874 206.27351
 200.11028 195.05105 191.63581 189.68058 188.72035 188.78712 189.62488 190.93565
 192.66342 194.76118 197.02695 199.38872 201.83649 204.31925 206.41002 208.25479
 209.88356 211.03132 211.26309 211.49386 211.43363 211.14139 210.77716 210.40993
 210.02970 209.74246 209.55323 209.42000 209.35076 209.68453 210.07330 210.46507
 211.26083 212.44160 213.69437 215.48014 217.41090 219.45667 221.55444 223.64021
 225.70297 227.78974 229.88951 231.99828 234.13004 236.30481 238.56358 240.93635
 243.56011 245.81388 247.81865 249.58641 251.00618 252.13195 252.95672 253.27548
 253.31525 253.09202 252.45479 251.40555 250.01432 248.17809 246.08986 243.92562
 241.71939 239.52616 237.34893 235.19069 233.05346 230.92323 228.95200 227.11176
 225.39753 223.87230 222.50506 221.27983 220.16460 219.12737 218.23413 217.37790
 216.62267 215.80544 214.90620 214.27297 213.72574 214.21841 215.46776 217.24377
 219.69933 221.91731 223.37570 224.19299 224.93372 225.93855 226.70494 226.63686
 227.20523 229.43124 233.34325 237.87144 242.48813 246.98988 251.23091 255.11855
 258.58917 261.67615 264.44403 266.94992 269.23987 271.21600 272.96854 274.62793
 276.57019 278.38855 280.00558 281.54080 282.96255 284.22046 285.36810 286.40778
 287.34286 288.17557 288.90298 289.83002
 366.78100 356.33639 345.76977 334.63716 323.04155 311.23694 299.10832 286.91271
 274.62610 262.52448 250.53487 239.83726 229.96064 221.06603 213.24942 206.25281
 200.08819 195.02758 191.61097 189.65435 188.69274 188.75813 189.59452 190.90390
 192.63029 194.72668 196.99106 199.35145 201.79784 204.27923 206.36861 208.21200
 209.83939 210.98577 211.21616 211.44555 211.38393 211.09032 210.72471 210.35610
 209.97448 209.68587 209.49526 209.36064 209.29003 209.62242 210.00981 210.40019
 211.19458 212.37397 213.62535 215.40974 217.33913 219.38351 221.47990 223.56429
 225.62568 227.71106 229.80945 231.91684 234.04722 236.22061 238.47800 240.84939
 243.47177 245.72416 247.72755 249.49393 250.91232 252.03671 252.86010 253.17748
 253.21587 252.99126 252.35264 251.30203 249.90942 248.07180 245.98219 243.81658
 241.60897 239.41435 237.23574 235.07613 232.93751 230.80590 228.83329 226.99168
 225.27606 223.74945 222.38084 221.15422 220.03761 218.99900 218.10439 217.24677
 216.49016 215.67155 214.77093 214.13632 213.58771 214.16151 215.56207 217.19579
 219.55861 221.94565 223.53258 224.38245 225.09370 226.03287 226.76285 226.33076
 227.00226 229.21033 233.19452 237.76279 242.39186 246.89253 251.13628 255.03941
 258.53949 261.64322 264.42401 266.94235 269.21875 271.23282 273.04385 274.77881
 276.63373 278.42975 280.00339 281.41000 282.70499 283.92908 285.04584 286.05759
 286.96753 287.77783 288.48572 289.38779
 366.78100 356.33489 345.76678 334.63267 323.03556 311.22945 299.09933 286.90222
 274.61411 262.51100 250.51989 239.82078 229.94267 221.04656 213.22845 206.23034
 200.06423 195.00212 191.58400 189.62589 188.66278 188.72667 189.56156 190.86945
 192.59434 194.68923 196.95212 199.31101 201.75590 204.23578 206.32367 208.16556
 209.79145 210.93634 211.16523 211.39312 211.33001 211.03490 210.66779 210.29768
 209.91456 209.62445 209.43234 209.29623 209.22412 209.55501 209.94090 210.32979
 211.12268 212.30057 213.55046 215.33335 217.26123 219.30412 221.39901 223.48190
 225.54179 227.62568 229.72257 231.82846 233.95735 236.12924 238.38513 240.75501
 243.37590 245.62679 247.62868 249.39357 250.81046 251.93335 252.75524 253.07113
 253.10802 252.88191 252.24179 251.18968 249.79557 247.95646 245.86535 243.69824
 241.48913 239.29302 237.11291 234.95180 232.81169 230.67858 228.70446 226.86135
 225.14424 223.61613 222.24602 221.01791 219.89980 218.85969 217.96358 217.10447
 216.34636 215.52624 214.62413 213.98802 213.43791 214.09393 215.66975 217.25278
 219.45715 221.82388 223.51987 224.49048 225.23495 226.16730 226.93356 226.20251
 226.81709 229.01721 233.07181 237.65445 242.29033 246.78230 251.01472 254.90688
 258.40808 261.53900 264.33588 266.88510 269.17706 271.21307 273.04935 274.80618
 276.65134 278.42706 279.99158 281.38141 282.62094 283.79453 284.89545 285.89282
 286.78983 287.58862 288.28644 289.17572
 366.78100 356.33392 345.76483 334.62975 323.03166 311.22458 299.09349 286.89541
 274.60632 262.50224 250.51015 239.81007 229.93098 221.03390 213.21481 206.21573
 200.04864 194.98556 191.56647 189.60739 188.64330 188.70622 189.54013 190.84705
 192.57096 194.66488 196.92679 199.28471 201.72862 204.20754 206.29445 208.13537
 209.76028 210.90420 211.13212 211.35903 211.29495 210.99886 210.63078 210.25969
 209.87561 209.58452 209.39144 209.25435 209.18127 209.51118 209.89610 210.28401
 211.07593 212.25284 213.50176 215.28367 217.21059 219.25250 221.34642 223.42833
 225.48725 227.57016 229.66608 231.77099 233.89891 236.06982 238.32474 240.69365
 243.31357 245.56348 247.56440 249.32832 250.74423 251.86615 252.68706 253.00198
 253.03789 252.81081 252.16972 251.11664 249.72155 247.88147 245.78938 243.62130
 241.41121 239.21413 237.03304 234.87096 232.72987 230.59579 228.62070 226.77662
 225.05853 223.52945 222.15836 220.92928 219.81019 218.76911 217.87202 217.01194
 216.25285 215.43177 214.52868 213.89160 213.34052 214.05107 215.75171 217.35971
 219.44110 221.72316 223.40793 224.44949 225.27303 226.26097 227.08553 226.31023
 226.77480 228.95287 233.01448 237.58418 242.21872 246.70035 250.92030 254.80775
 258.31616 261.46136 264.27823 266.84213 269.17307 271.23846 273.08591 274.82755
 276.67377 278.44983 280.01398 281.40466 282.64285 283.82965 284.96271 285.98920
 286.91238 287.73453 288.45270 289.36795
 366.78100 356.33421 345.76542 334.63063 323.03284 311.22606 299.09527 286.89748
 274.60869 262.50490 250.51311 239.81332 229.93453 221.03774 213.21895 206.22017
 200.05338 194.99059 191.57180 189.61301 188.64922 188.71243 189.54664 190.85385
 192.57806 194.67228 196.93449 199.29270 201.73691 204.21612 206.30333 208.14454
 209.76975 210.91396 211.14217 211.36939 211.30560 211.00981 210.64202 210.27123
 209.88744 209.59665 209.40386 209.26707 209.19428 209.52450 209.90971 210.29792
 211.09013 212.26734 213.51655 215.29876 217.22597 219.26818 221.36240 223.44461
 225.50382 227.58703 229.68324 231.78845 233.91666 236.08787 238.34308 240.71229
 243.33251 245.58272 247.58393 249.34814 250.76435 251.88656 252.70777 253.02298
 253.05919 252.83240 252.19162 251.13883 249.74404 247.90425 245.81246 243.64467
 241.43488 239.23809 237.05730 234.89551 232.75473 230.62094 228.64615 226.80236
 225.08457 223.55578 222.18499 220.95620 219.83741 218.79662 217.89984 217.04005
 216.28126 215.46047 214.55768 213.92089 213.37010 214.06937 215.75018 217.50098
 219.43227 221.58949 223.29416 224.37590 225.25529 226.30811 227.27570 226.30400
 226.69870 228.86717 232.96503 237.52597 242.16551 246.64243 250.85461 254.74402
 258.26605 261.42389 264.25839 266.83044 269.20023 271.32947 273.22168 274.94559
 276.69373 278.45786 280.01764 281.39972 282.61874 283.73019 284.84586 285.86490
 286.78143 287.59760 288.31058 289.21918
 366.78100 356.33541 345.76782 334.63422 323.03763 311.23204 299.10245 286.90585
 274.61826 262.51567 250.52508 239.82648 229.94889 221.05330 213.23571 206.23811
 200.07252 195.01093 191.59334 189.63574 188.67315 188.73756 189.57297 190.88138
 192.60678 194.70219 196.96560 199.32501 201.77041 204.25082 206.33923 208.18164
 209.80804 210.95345 211.18286 211.41127 211.34867 211.05408 210.68749 210.31790
 209.93530 209.64571 209.45412 209.31853 209.24693 209.57834 209.96475 210.35416
 211.14757 212.32597 213.57638 215.35979 217.28820 219.33160 221.42701 223.51042
 225.57083 227.65523 229.75264 231.85905 233.98846 236.16086 238.41727 240.78768
 243.40909 245.66049 247.66290 249.42831 250.84572 251.96913 252.79153 253.10794
 253.14535 252.91976 252.28016 251.22857 249.83498 247.99639 245.90579 243.73920
 241.53061 239.33502 237.15542 234.99483 232.85524 230.72265 228.74905 226.90646
 225.18987 223.66228 222.29269 221.06509 219.94750 218.90791 218.01232 217.15372
 216.39613 215.57654 214.67495 214.03935 213.48976 214.13643 215.69356 217.62411
 219.56013 221.58441 223.28035 224.36142 225.25130 226.31836 227.33560 226.13298
 226.48668 228.72810 232.90262 237.46677 242.12201 246.60333 250.81599 254.71860
 258.25980 261.42545 264.25845 266.83292 269.20303 271.36987 273.29965 275.06131
 276.75409 278.44846 280.00104 281.37555 282.57675 283.67142 284.69501 285.69244
 286.59250 287.39401 288.09418 288.98648
 366.78100 356.33606 345.76912 334.63617 323.04023 311.23529 299.10635 286.91040
 274.62346 262.52152 250.53158 239.83364 229.95669 221.06175 213.24481 206.24787
 200.08292 195.02198 191.60504 189.64810 188.68616 188.75121 189.58727 190.89633
 192.62239 194.71844 196.98250 199.34256 201.78862 204.26968 206.35873 208.20179
 209.82885 210.97491 211.20496 211.43402 211.37208 211.07814 210.71220 210.34325
 209.96131 209.67237 209.48143 209.34648 209.27554 209.60760 209.99466 210.38472
 211.17877 212.35783 213.60889 215.39295 217.32201 219.36606 221.46212 223.54618
 225.60724 227.69229 229.79035 231.89741 234.02747 236.20053 238.45758 240.82864
 243.45070 245.70276 247.70581 249.47187 250.88993 252.01399 252.83705 253.15410
 253.19216 252.96722 252.32828 251.27733 249.88439 248.04645 245.95651 243.79057
 241.58262 239.38768 237.20874 235.04880 232.90985 230.77791 228.80497 226.96303
 225.24709 223.72014 222.35120 221.12426 220.00732 218.96837 218.07343 217.21549
 216.45855 215.63961 214.73866 214.10372 213.55478 214.18161 215.67888 217.64827
 219.73624 221.70161 223.27914 224.35976 225.27715 226.30849 227.21205 226.09085
 226.43010 228.71710 232.85205 237.42038 242.09146 246.57634 250.79335 254.71703
 258.28650 261.47003 264.29160 266.85760 269.22989 271.40201 273.34094 275.10526
 276.77032 278.42194 279.96463 281.33307 282.52676 283.60214 284.60629 285.51160
 286.38565 287.16650 287.84860 288.71790
 366.78100 356.33642 345.76985 334.63727 323.04169 311.23712 299.10854 286.91296
 274.62639 262.52481 250.53524 239.83766 229.96108 221.06651 213.24993 206.25335
 200.08878 195.02820 191.61162 189.65505 188.69347 188.75889 189.59532 190.90474
 192.63117 194.72759 196.99201 199.35244 201.79886 204.28028 206.36971 208.21313
 209.84055 210.98698 211.21740 211.44682 211.38525 211.09167 210.72609 210.35752
 209.97594 209.68737 209.49679 209.36221 209.29164 209.62406 210.01148 210.40191
 211.19633 212.37575 213.62718 215.41160 217.34102 219.38545 221.48187 223.56629
 225.62772 227.71314 229.81157 231.91899 234.04941 236.22284 238.48026 240.85168
 243.47411 245.72653 247.72995 249.49638 250.91480 252.03922 252.86265 253.18007
 253.21850 252.99392 252.35534 251.30477 249.91219 248.07461 245.98504 243.81946
 241.61188 239.41731 237.23873 235.07915 232.94058 230.80900 228.83642 226.99485
 225.27927 223.75270 222.38412 221.15754 220.04097 219.00239 218.10781 217.25024
 216.49366 215.67508 214.77451 214.13993 213.59135 214.21257 215.68182 217.67554
 219.85480 221.79909 223.28275 224.38200 225.32961 226.33545 227.10500 226.06386
 226.35229 228.73810 232.82025 237.38478 242.04184 246.52417 250.74977 254.69661
 258.29907 261.51279 264.33566 266.90027 269.28531 271.47687 273.42047 275.16721
 276.82639 278.41479 279.91449 281.27484 282.46252 283.52878 284.51413 285.39722
 286.18683 286.94843 287.61688 288.46872
 366.78100 356.33735 345.77169 334.64004 323.04539 311.24174 299.11408 286.91943
 274.63378 262.53313 250.54447 239.84782 229.97217 221.07852 213.26286 206.26721
 200.10356 195.04391 191.62825 189.67260 188.71195 188.77830 189.61564 190.92599
 192.65334 194.75069 197.01603 199.37738 201.82473 204.30708 206.39742 208.24177
 209.87012 211.01747 211.24881 211.47916 211.41851 211.12586 210.76120 210.39355
 210.01290 209.72525 209.53559 209.40194 209.33229 209.66564 210.05398 210.44533
 211.24068 212.42103 213.67337 215.45872 217.38907 219.43442 221.53176 223.61711
 225.67946 227.76581 229.86515 231.97350 234.10485 236.27920 238.53754 240.90989
 243.53324 245.78659 247.79093 249.55828 250.97763 252.10297 252.92732 253.24567
 253.28502 253.06136 252.42371 251.37406 249.98241 248.14575 246.05710 243.89245
 241.68580 239.49214 237.31449 235.15584 233.01819 230.88753 228.91588 227.07523
 225.36058 223.83492 222.46727 221.24162 220.12597 219.08831 218.19466 217.33801
 216.58236 215.76470 214.86505 214.23140 213.68375 214.27237 215.66304 217.75386
 219.90952 221.82845 223.31985 224.42441 225.39020 226.39218 227.07861 226.06392
 226.25728 228.68996 232.75636 237.32063 241.95416 246.42050 250.65227 254.61372
 258.24701 261.49396 264.33710 266.91769 269.32755 271.55701 273.51721 275.24164
 276.87424 278.43146 279.87967 281.22186 282.40527 283.46204 284.44144 285.31491
 286.08713 286.79999 287.45599 288.29199
 366.78100 356.33807 345.77314 334.64220 323.04827 311.24534 299.11841 286.92447
 274.63954 262.53961 250.55168 239.85574 229.98081 221.08788 213.27295 206.27801
 200.11508 195.05615 191.64122 189.68628 188.72635 188.79342 189.63149 190.94255
 192.67062 194.76869 197.03476 199.39682 201.84489 204.32796 206.41903 208.26409
 209.89316 211.04123 211.27330 211.50436 211.44443 211.15250 210.78857 210.42163
 210.04170 209.75477 209.56584 209.43290 209.36397 209.69804 210.08711 210.47917
 211.27524 212.45631 213.70938 215.49544 217.42651 219.47258 221.57065 223.65671
 225.71978 227.80685 229.90692 232.01598 234.14805 236.32312 238.58219 240.95525
 243.57932 245.83339 247.83846 249.60652 251.02659 252.15266 252.97773 253.29679
 253.33686 253.11393 252.47700 251.42806 250.03713 248.20120 246.11327 243.94933
 241.74340 239.55047 237.37354 235.21560 233.07867 230.94874 228.97781 227.13787
 225.42394 223.89901 222.53208 221.30714 220.19221 219.15528 218.26235 217.40641
 216.65148 215.83455 214.93562 214.30269 213.75575 214.32243 215.66129 217.83165
 219.94931 221.81419 223.34201 224.44713 225.43242 226.44600 227.10866 226.14828
 226.22168 228.64795 232.70100 237.25259 241.84837 246.29579 250.53101 254.50322
 258.15100 261.41733 264.29642 266.90137 269.33203 271.58923 273.57117 275.29596
 276.91522 278.46075 279.87433 281.18686 282.36938 283.42389 284.39526 285.25839
 286.01501 286.70377 287.33481 288.15887
 366.78100 356.33807 345.77315 334.64222 323.04829 311.24537 299.11844 286.92451
 274.63958 262.53966 250.55173 239.85580 229.98088 221.08795 213.27302 206.27810
 200.11517 195.05624 191.64131 189.68639 188.72646 188.79353 189.63161 190.94268
 192.67075 194.76883 197.03490 199.39697 201.84504 204.32812 206.41919 208.26426
 209.89334 211.04141 211.27348 211.50456 211.44463 211.15270 210.78877 210.42185
 210.04192 209.75499 209.56607 209.43314 209.36421 209.69829 210.08736 210.47943
 211.27550 212.45658 213.70965 215.49572 217.42680 219.47287 221.57094 223.65702
 225.72009 227.80716 229.90724 232.01631 234.14838 236.32345 238.58253 240.95560
 243.57967 245.83375 247.83882 249.60689 251.02697 252.15304 252.97811 253.29718
 253.33726 253.11433 252.47740 251.42848 250.03755 248.20162 246.11370 243.94977
 241.74384 239.55091 237.37399 235.21606 233.07913 230.94921 228.97828 227.13835
 225.42443 223.89950 222.53257 221.30764 220.19272 219.15579 218.26286 217.40694
 216.65201 215.83508 214.93616 214.30323 213.75630 214.33487 215.70180 217.89134
 219.99696 221.77690 223.28278 224.43137 225.47569 226.52452 227.17984 226.25427
 226.21695 228.61160 232.65021 237.17944 241.74307 246.17958 250.42209 254.40878
 258.07541 261.36121 264.26556 266.88885 269.33032 271.58881 273.55420 275.29221
 276.94110 278.48438 279.87106 281.16330 282.34042 283.39325 284.36914 285.23798
 285.91751 286.58563 287.18610 287.97702
 366.78100 356.33861 345.77422 334.64384 323.05045 311.24806 299.12167 286.92829
 274.64390 262.54451 250.55712 239.86173 229.98735 221.09496 213.28057 206.28618
 200.12380 195.06541 191.65102 189.69663 188.73725 188.80486 189.64347 190.95508
 192.68369 194.78231 197.04892 199.41153 201.86014 204.34376 206.43537 208.28098
 209.91059 211.05920 211.29182 211.52343 211.46404 211.17265 210.80927 210.44288
 210.06349 209.77710 209.58872 209.45633 209.38794 209.72255 210.11216 210.50478
 211.30139 212.48300 213.73661 215.52323 217.45484 219.50145 221.60006 223.68667
 225.75029 227.83790 229.93851 232.04812 234.18074 236.35635 238.61596 240.98957
 243.61418 245.86880 247.87441 249.64302 251.06363 252.19025 253.01586 253.33547
 253.37608 253.15370 252.51731 251.46892 250.07853 248.24314 246.15576 243.99237
 241.78698 239.59459 237.41821 235.26082 233.12443 230.99504 229.02465 227.18527
 225.47188 223.94749 222.58110 221.35672 220.24233 219.20594 218.31355 217.45817
 216.70378 215.88739 214.98900 214.35661 213.81023 214.37495 215.70921 217.95322
 220.07779 221.73459 223.15254 224.34406 225.47461 226.57642 227.26663 226.41614
 226.28848 228.58525 232.61853 237.13216 241.66116 246.07727 250.31697 254.30743
 257.98108 261.28195 264.21564 266.87335 269.33997 271.61584 273.58109 275.30487
 276.94403 278.48401 279.86749 281.15311 282.32431 283.37808 284.35907 285.22971
 285.82990 286.48566 287.09192 287.90042
 366.78100 356.33957 345.77614 334.64672 323.05429 311.25286 299.12743 286.93501
 274.65158 262.55315 250.56672 239.87230 229.99887 221.10744 213.29401 206.30059
 200.13916 195.08173 191.66830 189.71487 188.75645 188.82502 189.66459 190.97716
 192.70674 194.80631 197.07388 199.43745 201.88703 204.37160 206.46417 208.31074
 209.94132 211.09089 211.32446 211.55703 211.49860 211.20818 210.84575 210.48032
 210.10189 209.81647 209.62904 209.49761 209.43018 209.76576 210.15633 210.54990
 211.34747 212.53005 213.78462 215.57219 217.50476 219.55233 221.65191 223.73948
 225.80405 227.89262 229.99420 232.10477 234.23834 236.41491 238.67549 241.05006
 243.67563 245.93120 247.93777 249.70735 251.12892 252.25649 253.08306 253.40364
 253.44521 253.22378 252.58835 251.54093 250.15150 248.31707 246.23064 244.06822
 241.86379 239.67236 237.49693 235.34050 233.20508 231.07665 229.10722 227.26879
 225.55637 224.03294 222.66751 221.44408 220.33066 219.29523 218.40380 217.54937
 216.79595 215.98052 215.08309 214.45166 213.90623 214.43869 215.69667 217.98483
 220.19211 221.77916 223.03935 224.15131 225.32999 226.56825 227.37027 226.59210
 226.42610 228.62579 232.60953 237.08916 241.58667 245.98555 250.22626 254.22804
 257.91537 261.22513 264.16632 266.83609 269.33066 271.62317 273.55637 275.27704
 276.95770 278.49786 279.85187 281.12787 282.29913 283.35077 284.32050 285.19244
 285.86118 286.47296 287.07004 287.86337
 366.78100 356.34012 345.77724 334.64835 323.05647 311.25559 299.13071 286.93883
 274.65595 262.55806 250.57218 239.87830 230.00542 221.11454 213.30166 206.30877
 200.14789 195.09101 191.67813 189.72525 188.76737 188.83648 189.67660 190.98972
 192.71984 194.81996 197.08808 199.45219 201.90231 204.38743 206.48055 208.32767
 209.95879 211.10890 211.34302 211.57614 211.51826 211.22838 210.86650 210.50161
 210.12373 209.83885 209.65197 209.52109 209.45421 209.79032 210.18144 210.57556
 211.37368 212.55680 213.81192 215.60003 217.53315 219.58127 221.68139 223.76951
 225.83463 227.92374 230.02586 232.13698 234.27110 236.44822 238.70934 241.08445
 243.71057 245.96669 247.97381 249.74393 251.16604 252.29416 253.12128 253.44240
 253.48452 253.26364 252.62875 251.58187 250.19299 248.35911 246.27323 244.11135
 241.90746 239.71658 237.54170 235.38582 233.25094 231.12306 229.15417 227.31629
 225.60441 224.08153 222.71665 221.49377 220.38088 219.34600 218.45512 217.60124
 216.84836 216.03348 215.13659 214.50571 213.96083 214.48476 215.72258 217.94301
 220.29803 221.86581 222.95538 223.98888 225.17314 226.51561 227.41475 226.78275
 226.51248 228.55484 232.57840 237.07912 241.55135 245.93887 250.19237 254.22203
 257.95529 261.31052 264.25833 266.88098 269.30557 271.56656 273.45865 275.10312
 276.78299 278.39688 279.81189 281.09698 282.26822 283.31604 284.27710 285.14120
 285.90002 286.56891 287.17218 287.95657
 366.78100 356.33949 345.77599 334.64648 323.05397 311.25247 299.12696 286.93445
 274.65094 262.55244 250.56593 239.87142 229.99792 221.10641 213.29290 206.29940
 200.13789 195.08038 191.66687 189.71337 188.75486 188.82335 189.66285 190.97534
 192.70483 194.80433 197.07182 199.43531 201.88480 204.36930 206.46179 208.30828
 209.93878 211.08827 211.32176 211.55426 211.49575 211.20524 210.84273 210.47723
 210.09872 209.81321 209.62571 209.49420 209.42669 209.76219 210.15268 210.54617
 211.34366 212.52616 213.78065 215.56814 217.50064 219.54813 221.64762 223.73512
 225.79961 227.88810 229.98959 232.10009 234.23358 236.41007 238.67057 241.04506
 243.67055 245.92605 247.93254 249.70203 251.12352 252.25102 253.07751 253.39800
 253.43950 253.21799 252.58248 251.53498 250.14547 248.31096 246.22445 244.06195
 241.85744 239.66593 237.49043 235.33392 233.19841 231.06991 229.10040 227.26189
 225.54938 224.02588 222.66037 221.43686 220.32336 219.28785 218.39634 217.54184
 216.78833 215.97282 215.07531 214.44381 213.89830 214.48108 215.89438 217.84024
 220.17143 221.50798 222.89790 224.10413 225.23804 226.51958 227.24106 226.88281
 226.19057 228.40460 232.52040 237.07852 241.57202 245.97662 250.26640 254.33333
 258.09500 261.48367 264.46808 267.08746 269.45343 271.56357 273.32846 274.94156
 276.54642 278.10062 279.60544 280.97141 282.15991 283.21930 284.20825 285.13531
 285.96912 286.71164 287.36029 288.18689
 366.78100 356.33953 345.77605 334.64658 323.05411 311.25264 299.12716 286.93469
 274.65122 262.55274 250.56627 239.87180 229.99832 221.10685 213.29338 206.29991
 200.13843 195.08096 191.66749 189.71401 188.75554 188.82407 189.66359 190.97612
 192.70565 194.80518 197.07270 199.43623 201.88576 204.37028 206.46281 208.30934
 209.93986 211.08939 211.32292 211.55545 211.49697 211.20650 210.84403 210.47855
 210.10008 209.81461 209.62714 209.49566 209.42819 209.76372 210.15424 210.54777
 211.34530 212.52782 213.78235 215.56988 217.50241 219.54993 221.64946 223.73699
 225.80151 227.89004 229.99157 232.10209 234.23562 236.41215 238.67268 241.04720
 243.67273 245.92826 247.93478 249.70431 251.12584 252.25336 253.07989 253.40042
 253.44195 253.22047 252.58500 251.53753 250.14805 248.31358 246.22711 244.06464
 241.86016 239.66869 237.49322 235.33674 233.20127 231.07280 229.10332 227.26485
 225.55238 224.02891 222.66343 221.43996 220.32649 219.29101 218.39954 217.54507
 216.79159 215.97612 215.07865 214.44718 213.90170 214.51273 216.02008 217.83661
 220.01685 221.81322 223.24664 224.22195 225.26685 226.36363 227.04680 226.80441
 226.41290 228.51147 232.51587 237.07390 241.56972 245.97728 250.28830 254.40295
 258.23029 261.69324 264.74832 267.41510 269.77179 271.84158 273.55923 275.07584
 276.59418 278.15784 279.68750 281.11380 282.50470 283.75168 284.88934 285.92001
 286.84695 287.67242 288.39352 289.31250
 366.78100 356.34063 345.77825 334.64988 323.05851 311.25813 299.13376 286.94239
 274.66002 262.56264 250.57727 239.88390 230.01152 221.12115 213.30878 206.31640
 200.15603 195.09966 191.68728 189.73491 188.77754 188.84716 189.68779 191.00142
 192.73205 194.83267 197.10130 199.46593 201.91655 204.40218 206.49581 208.34343
 209.97506 211.12569 211.36031 211.59394 211.53657 211.24719 210.88582 210.52145
 210.14408 209.85970 209.67333 209.54296 209.47658 209.81321 210.20484 210.59946
 211.39809 212.58172 213.83734 215.62597 217.55960 219.60822 221.70885 223.79748
 225.86311 227.95273 230.05536 232.16699 234.30161 236.47924 238.74087 241.11649
 243.74312 245.99975 248.00737 249.77800 251.20063 252.32925 253.15688 253.47851
 253.52114 253.30076 252.66639 251.62002 250.23164 248.39827 246.31290 244.15152
 241.94815 239.75778 237.58340 235.42803 233.29366 231.16628 229.19791 227.36054
 225.64917 224.12679 222.76242 221.54005 220.42767 219.39330 218.50293 217.64955
 216.89718 216.08281 215.18643 214.55606 214.01169 214.56689 215.95447 218.01651
 219.75780 221.69482 223.26414 224.12312 225.14349 226.39896 227.38565 227.00365
 226.44785 228.37717 232.42068 236.98325 241.39078 245.73790 250.03284 254.13438
 257.96811 261.50595 264.71640 267.58759 270.17859 272.51138 274.43210 275.90457
 277.17422 278.42355 279.83383 281.20517 282.44977 283.65479 284.78613 285.81107
 286.73288 287.55374 288.27084 289.18472
 366.78100 356.34095 345.77890 334.65085 323.05981 311.25976 299.13571 286.94466
 274.66261 262.56556 250.58051 239.88746 230.01542 221.12537 213.31332 206.32127
 200.16122 195.10517 191.69312 189.74107 188.78403 188.85398 189.69493 191.00888
 192.73983 194.84078 197.10973 199.47468 201.92564 204.41159 206.50554 208.35349
 209.98544 211.13639 211.37134 211.60529 211.54825 211.25920 210.89815 210.53410
 210.15705 209.87300 209.68695 209.55691 209.49086 209.82781 210.21976 210.61471
 211.41366 212.59761 213.85356 215.64252 217.57647 219.62542 221.72637 223.81532
 225.88127 227.97122 230.07417 232.18613 234.32108 236.49903 238.76098 241.13693
 243.76388 246.02083 248.02878 249.79974 251.22269 252.35164 253.17959 253.50154
 253.54449 253.32444 252.69040 251.64435 250.25630 248.42325 246.33820 244.17715
 241.97410 239.78405 237.61001 235.45496 233.32091 231.19386 229.22581 227.38876
 225.67771 224.15566 222.79162 221.56957 220.45752 219.42347 218.53342 217.68037
 216.92832 216.11427 215.21823 214.58818 214.04413 214.57237 215.82039 218.24394
 219.99097 221.57137 223.14458 224.06929 225.05338 226.30989 227.56966 227.03745
 226.79709 228.49004 232.38609 236.94360 241.26517 245.51488 249.77263 253.82137
 257.58844 261.06805 264.27078 267.20657 269.89493 272.32642 274.44754 276.23834
 277.73730 279.01706 280.17099 281.29553 282.42273 283.45990 284.41623 285.29062
 286.08566 286.82910 287.48087 288.31146
 366.78100 356.34092 345.77884 334.65076 323.05967 311.25959 299.13551 286.94443
 274.66235 262.56527 250.58018 239.88710 230.01502 221.12494 213.31286 206.32078
 200.16070 195.10461 191.69253 189.74045 188.78337 188.85329 189.69421 191.00812
 192.73904 194.83996 197.10888 199.47380 201.92472 204.41064 206.50455 208.35247
 209.98439 211.13531 211.37023 211.60415 211.54707 211.25798 210.89690 210.53282
 210.15574 209.87166 209.68558 209.55549 209.48941 209.82633 210.21825 210.61317
 211.41209 212.59601 213.85192 215.64084 217.57476 219.62368 221.72460 223.81352
 225.87943 227.96935 230.07227 232.18419 234.31911 236.49703 238.75895 241.13486
 243.76178 246.01870 248.02662 249.79754 251.22046 252.34937 253.17729 253.49921
 253.54213 253.32205 252.68797 251.64189 250.25380 248.42072 246.33564 244.17456
 241.97148 239.78140 237.60732 235.45223 233.31815 231.19107 229.22299 227.38591
 225.67483 224.15274 222.78866 221.56658 220.45450 219.42042 218.53034 217.67726
 216.92517 216.11109 215.21501 214.58493 214.04085 214.57530 215.83801 218.20044
 220.30243 221.70659 222.97404 223.92325 224.91063 226.18236 227.50876 227.15425
 226.89334 228.58391 232.40039 236.99684 241.34515 245.55688 249.78799 253.83066
 257.58078 261.00940 264.12485 266.96951 269.59677 271.96021 273.98886 275.78946
 277.42880 278.86536 280.12933 281.29297 282.39340 283.42285 284.36740 285.23230
 286.01987 286.72275 287.33047 288.12405
 366.78100 356.34147 345.77993 334.65240 323.06187 311.26233 299.13880 286.94827
 274.66673 262.57020 250.58567 239.89313 230.02160 221.13207 213.32053 206.32900
 200.16947 195.11393 191.70240 189.75087 188.79433 188.86480 189.70627 191.02073
 192.75220 194.85367 197.12313 199.48860 201.94007 204.42654 206.52100 208.36947
 210.00194 211.15340 211.38887 211.62334 211.56680 211.27827 210.91774 210.55420
 210.17767 209.89414 209.70860 209.57907 209.51354 209.85100 210.24347 210.63894
 211.43840 212.62287 213.87934 215.66880 217.60327 219.65274 221.75420 223.84367
 225.91014 228.00060 230.10407 232.21654 234.35200 236.53047 238.79294 241.16940
 243.79687 246.05434 248.06280 249.83427 251.25774 252.38720 253.21567 253.53814
 253.58160 253.36207 252.72854 251.68300 250.29547 248.46294 246.37840 244.21787
 242.01534 239.82580 237.65227 235.49774 233.36420 231.23767 229.27014 227.43361
 225.72307 224.20154 222.83801 221.61647 220.50494 219.47141 218.58187 217.72934
 216.97781 216.16427 215.26874 214.63921 214.09567 214.61783 215.85152 218.10588
 220.42963 221.86115 222.90184 223.75363 224.70868 226.01138 227.40897 227.18437
 226.94656 228.60533 232.43188 237.07664 241.47411 245.68015 249.88364 253.93036
 257.68811 261.10455 264.18143 266.96680 269.55255 271.87332 273.77945 275.48785
 277.15057 278.65228 279.97928 281.18719 282.32812 283.36707 284.31781 285.19138
 285.98755 286.70651 287.31729 288.12164
 366.78100 356.34216 345.78133 334.65449 323.06466 311.26582 299.14298 286.95315
 274.67231 262.57648 250.59264 239.90080 230.02997 221.14113 213.33030 206.33946
 200.18062 195.12579 191.71495 189.76412 188.80828 188.87945 189.72161 191.03677
 192.76894 194.87110 197.14127 199.50743 201.95959 204.44676 206.54192 208.39109
 210.02425 211.17641 211.41258 211.64774 211.59191 211.30407 210.94423 210.58140
 210.20556 209.92273 209.73789 209.60905 209.54422 209.88238 210.27555 210.67171
 211.47187 212.65704 213.91420 215.70437 217.63953 219.68969 221.79186 223.88202
 225.94919 228.04035 230.14452 232.25768 234.39384 236.57301 238.83617 241.21334
 243.84150 246.09966 248.10883 249.88099 251.30516 252.43532 253.26448 253.58765
 253.63181 253.41298 252.78014 251.73530 250.34847 248.51663 246.43280 244.27296
 242.07112 239.88229 237.70945 235.55562 233.42278 231.29694 229.33011 227.49427
 225.78444 224.26360 222.90076 221.67993 220.56909 219.53626 218.64742 217.79559
 217.04475 216.23191 215.33708 214.70824 214.16541 214.66805 215.85558 218.07233
 220.45691 221.97945 222.94635 223.68877 224.54510 225.82472 227.27341 227.16574
 226.97015 228.61928 232.46111 237.14203 241.56998 245.74805 249.92653 253.96892
 257.71835 261.12238 264.18930 266.96826 269.56027 271.89096 273.74442 275.38153
 277.03217 278.55713 279.90497 281.13245 282.29153 283.33563 284.29245 285.16916
 285.97125 286.69266 287.31161 288.11853
 366.78100 356.34245 345.78189 334.65534 323.06578 311.26723 299.14467 286.95512
 274.67456 262.57901 250.59545 239.90390 230.03335 221.14479 213.33424 206.34368
 200.18513 195.13057 191.72002 189.76946 188.81391 188.88535 189.72780 191.04324
 192.77569 194.87814 197.14858 199.51503 201.96747 204.45492 206.55036 208.39981
 210.03325 211.18570 211.42214 211.65759 211.60204 211.31448 210.95493 210.59237
 210.21682 209.93426 209.74971 209.62115 209.55660 209.89504 210.28849 210.68493
 211.48538 212.67083 213.92827 215.71872 217.65416 219.70461 221.80705 223.89750
 225.96494 228.05639 230.16083 232.27428 234.41073 236.59017 238.85362 241.23106
 243.85951 246.11795 248.12740 249.89984 251.32429 252.45473 253.28418 253.60763
 253.65207 253.43352 252.80096 251.75641 250.36985 248.53830 246.45474 244.29519
 242.09363 239.90508 237.73252 235.57897 233.44642 231.32086 229.35431 227.51875
 225.80920 224.28864 222.92609 221.70553 220.59498 219.56242 218.67387 217.82232
 217.07176 216.25921 215.36465 214.73610 214.19354 214.69417 215.87694 218.07126
 220.43599 222.02866 223.00500 223.67143 224.43602 225.66911 227.14864 227.16319
 227.01280 228.63612 232.48466 237.19568 241.63965 245.78860 249.94771 253.97522
 257.70343 261.08838 264.14850 266.93466 269.54623 271.89355 273.72943 275.32889
 276.96738 278.50037 279.85721 281.10767 282.27435 283.32260 284.28131 285.16141
 285.96350 286.68857 287.30795 288.12863
 366.78100 356.34257 345.78215 334.65572 323.06629 311.26786 299.14544 286.95601
 274.67558 262.58016 250.59673 239.90530 230.03488 221.14645 213.33602 206.34559
 200.18717 195.13274 191.72231 189.77189 188.81646 188.88803 189.73061 191.04618
 192.77875 194.88132 197.15190 199.51847 201.97104 204.45862 206.55419 208.40376
 210.03734 211.18991 211.42648 211.66205 211.60663 211.31920 210.95977 210.59735
 210.22192 209.93949 209.75507 209.62664 209.56221 209.90078 210.29436 210.69093
 211.49150 212.67708 213.93465 215.72522 217.66080 219.71137 221.81394 223.90451
 225.97209 228.06366 230.16823 232.28181 234.41838 236.59795 238.86153 241.23910
 243.86767 246.12624 248.13582 249.90839 251.33296 252.46354 253.29311 253.61668
 253.66126 253.44283 252.81040 251.76597 250.37955 248.54812 246.46469 244.30527
 242.10384 239.91541 237.74299 235.58956 233.45713 231.33170 229.36528 227.52985
 225.82042 224.30000 222.93757 221.71714 220.60671 219.57429 218.68586 217.83443
 217.08401 216.27158 215.37715 214.74873 214.20630 214.71149 215.90508 218.07596
 220.41493 222.04971 223.04797 223.64447 224.30708 225.50127 227.03328 227.18796
 227.08122 228.66936 232.51938 237.25432 241.71365 245.85097 249.98874 253.99210
 257.69550 261.06091 264.11209 266.90060 269.52527 271.88165 273.70847 275.28931
 276.92108 278.45755 279.81967 281.09866 282.27121 283.31927 284.28043 285.16193
 285.96616 286.69415 287.31741 288.13626
 366.78100 356.34289 345.78278 334.65666 323.06755 311.26944 299.14733 286.95822
 274.67810 262.58299 250.59988 239.90877 230.03866 221.15054 213.34043 206.35032
 200.19221 195.13809 191.72798 189.77787 188.82276 188.89465 189.73753 191.05342
 192.78631 194.88920 197.16009 199.52697 201.97986 204.46775 206.56364 208.41353
 210.04741 211.20030 211.43719 211.67308 211.61797 211.33085 210.97174 210.60963
 210.23452 209.95241 209.76829 209.64018 209.57607 209.91496 210.30884 210.70573
 211.50662 212.69251 213.95040 215.74128 217.67717 219.72806 221.83095 223.92184
 225.98972 228.08161 230.18650 232.30039 234.43728 236.61716 238.88105 241.25894
 243.88783 246.14672 248.15660 249.92949 251.35438 252.48527 253.31516 253.63904
 253.68393 253.46582 252.83371 251.78959 250.40348 248.57237 246.48926 244.33015
 242.12903 239.94092 237.76881 235.61570 233.48359 231.35847 229.39236 227.55725
 225.84814 224.32803 222.96591 221.74580 220.63569 219.60358 218.71547 217.86435
 217.11424 216.30213 215.40802 214.77991 214.23779 214.74001 215.92654 218.06818
 220.41245 222.07994 223.08351 223.61676 224.18489 225.29665 226.86319 227.19884
 227.17793 228.73311 232.56430 237.31815 241.79361 245.92456 250.03954 254.02425
 257.70190 261.04584 264.08368 266.87051 269.50189 271.86093 273.67868 275.25040
 276.88116 278.42081 279.78336 281.09814 282.27637 283.32709 284.28900 285.17130
 285.97681 286.70663 287.33334 288.15964
 366.78100 356.34330 345.78360 334.65790 323.06920 311.27150 299.14980 286.96110
 274.68141 262.58671 250.60401 239.91331 230.04361 221.15591 213.34621 206.35651
 200.19881 195.14511 191.73541 189.78571 188.83101 188.90331 189.74661 191.06292
 192.79622 194.89952 197.17082 199.53812 201.99142 204.47972 206.57602 208.42632
 210.06062 211.21392 211.45122 211.68752 211.63282 211.34613 210.98743 210.62573
 210.25103 209.96933 209.78563 209.65793 209.59423 209.93353 210.32783 210.72513
 211.52643 212.71273 213.97103 215.76233 217.69864 219.74994 221.85324 223.94454
 226.01284 228.10514 230.21044 232.32474 234.46204 236.64234 238.90664 241.28494
 243.91424 246.17354 248.18384 249.95715 251.38245 252.51375 253.34405 253.66835
 253.71365 253.49595 252.86425 251.82055 250.43485 248.60415 246.52145 244.36275
 242.16205 239.97436 237.80266 235.64996 233.51826 231.39356 229.42786 227.59316
 225.88446 224.36476 223.00306 221.78336 220.67366 219.64196 218.75426 217.90356
 217.15387 216.34217 215.44847 214.82077 214.27907 214.77530 215.94769 218.04501
 220.41116 222.12698 223.13055 223.57181 224.02550 225.09433 226.70137 227.19609
 227.24496 228.77396 232.61348 237.38933 241.88327 246.03098 250.12515 254.07324
 257.71808 261.03317 264.05328 266.83606 269.47104 271.82541 273.63321 275.20404
 276.83954 278.38245 279.76169 281.10291 282.28540 283.33920 284.30365 285.18716
 285.99570 286.72705 287.36157 288.19086
 366.78100 356.34364 345.78427 334.65891 323.07054 311.27318 299.15181 286.96345
 274.68408 262.58972 250.60735 239.91699 230.04762 221.16026 213.35089 206.36153
 200.20416 195.15079 191.74143 189.79206 188.83770 188.91034 189.75397 191.07061
 192.80424 194.90787 197.17951 199.54715 202.00078 204.48942 206.58605 208.43669
 210.07132 211.22495 211.46259 211.69922 211.64486 211.35849 211.00013 210.63876
 210.26440 209.98303 209.79967 209.67230 209.60894 209.94858 210.34321 210.74085
 211.54248 212.72912 213.98775 215.77938 217.71602 219.76765 221.87129 223.96292
 226.03156 228.12419 230.22983 232.34447 234.48210 236.66273 238.92737 241.30600
 243.93564 246.19527 248.20591 249.97955 251.40518 252.53681 253.36745 253.69208
 253.73772 253.52035 252.88899 251.84562 250.46026 248.62990 246.54753 244.38916
 242.18880 240.00143 237.83007 235.67771 233.54634 231.42197 229.45661 227.62224
 225.91388 224.39451 223.03315 221.81378 220.70442 219.67306 218.78569 217.93533
 217.18596 216.37459 215.48123 214.85386 214.31250 214.80765 215.97751 218.01657
 220.39017 222.17487 223.19670 223.56636 223.88892 224.79160 226.44920 227.16475
 227.35683 228.91788 232.70619 237.47571 241.99707 246.15318 250.21521 254.12563
 257.73264 261.01334 264.01190 266.79132 269.42914 271.77371 273.57111 275.14774
 276.79434 278.34198 279.75720 281.10776 282.29538 283.35016 284.31787 285.20486
 286.01599 286.74823 287.38605 288.22025
 366.78100 356.34386 345.78472 334.65958 323.07144 311.27430 299.15316 286.96502
 274.68588 262.59174 250.60961 239.91947 230.05033 221.16319 213.35405 206.36491
 200.20777 195.15463 191.74549 189.79635 188.84221 188.91507 189.75893 191.07579
 192.80965 194.91351 197.18537 199.55323 202.00709 204.49596 206.59282 208.44368
 210.07854 211.23240 211.47026 211.70712 211.65298 211.36684 211.00870 210.64756
 210.27342 209.99228 209.80914 209.68200 209.61886 209.95872 210.35358 210.75144
 211.55331 212.74017 213.99903 215.79089 217.72775 219.77961 221.88347 223.97533
 226.04419 228.13705 230.24291 232.35777 234.49563 236.67649 238.94135 241.32021
 243.95007 246.20993 248.22079 249.99466 251.42052 252.55238 253.38324 253.70810
 253.75396 253.53682 252.90568 251.86254 250.47740 248.64726 246.56512 244.40698
 242.20684 240.01970 237.84856 235.69642 233.56528 231.44114 229.47601 227.64187
 225.93373 224.41459 223.05345 221.83431 220.72517 219.69403 218.80689 217.95675
 217.20761 216.39647 215.50333 214.87619 214.33505 214.83440 216.01414 217.99220
 220.34793 222.20526 223.26903 223.58760 223.78342 224.49759 226.16884 227.08682
 227.45525 229.08350 232.80766 237.56232 242.11845 246.28320 250.31404 254.18477
 257.74936 260.99182 263.96860 266.74548 269.38321 271.71545 273.50427 275.09021
 276.74973 278.30658 279.76071 281.11832 282.30685 283.36481 284.33582 285.22372
 286.03461 286.76892 287.40787 288.24826
 366.78100 356.34398 345.78495 334.65993 323.07190 311.27488 299.15386 286.96583
 274.68681 262.59278 250.61076 239.92074 230.05171 221.16469 213.35566 206.36664
 200.20962 195.15659 191.74757 189.79854 188.84452 188.91750 189.76147 191.07845
 192.81242 194.91640 197.18838 199.55635 202.01033 204.49930 206.59628 208.44726
 210.08223 211.23621 211.47419 211.71116 211.65714 211.37111 211.01309 210.65207
 210.27804 209.99702 209.81399 209.68697 209.62395 209.96392 210.35890 210.75687
 211.55885 212.74583 214.00480 215.79678 217.73375 219.78573 221.88971 223.98168
 226.05066 228.14363 230.24961 232.36459 234.50256 236.68354 238.94851 241.32749
 243.95747 246.21744 248.22842 250.00239 251.42837 252.56035 253.39132 253.71630
 253.76227 253.54525 252.91423 251.87120 250.48618 248.65615 246.57413 244.41611
 242.21608 240.02906 237.85803 235.70601 233.57499 231.45096 229.48594 227.65191
 225.94389 224.42487 223.06384 221.84482 220.73580 219.70477 218.81775 217.96772
 217.21870 216.40768 215.51465 214.88763 214.34660 214.85495 216.05600 217.97408
 220.29425 222.21519 223.33464 223.61792 223.69893 224.24306 225.89006 226.96593
 227.52194 229.24898 232.92032 237.64905 242.23674 246.42030 250.42622 254.25229
 257.77124 260.97461 263.92917 266.70102 269.33627 271.65472 273.43689 275.03357
 276.70779 278.25681 279.77185 281.13593 282.32333 283.38019 284.35144 285.23926
 286.04807 286.78192 287.42267 288.26523
 366.78100 356.34398 345.78497 334.65995 323.07193 311.27492 299.15390 286.96588
 274.68687 262.59285 250.61083 239.92082 230.05180 221.16478 213.35577 206.36675
 200.20973 195.15672 191.74770 189.79868 188.84467 188.91765 189.76163 191.07862
 192.81260 194.91658 197.18857 199.55655 202.01053 204.49952 206.59650 208.44748
 210.08247 211.23645 211.47443 211.71142 211.65740 211.37138 211.01337 210.65235
 210.27833 209.99732 209.81430 209.68728 209.62427 209.96425 210.35923 210.75722
 211.55920 212.74618 214.00517 215.79715 217.73413 219.78612 221.89010 223.98208
 226.05107 228.14405 230.25003 232.36502 234.50300 236.68398 238.94897 241.32795
 243.95793 246.21792 248.22890 250.00288 251.42887 252.56085 253.39184 253.71682
 253.76280 253.54579 252.91477 251.87175 250.48674 248.65672 246.57470 244.41669
 242.21667 240.02965 237.85864 235.70662 233.57560 231.45159 229.48657 227.65255
 225.94454 224.42552 223.06450 221.84549 220.73647 219.70545 218.81844 217.96842
 217.21940 216.40839 215.51537 214.88835 214.34734 214.86923 216.10228 217.96240
 220.23465 222.20810 223.38843 223.64859 223.62950 224.02942 225.62151 226.80518
 227.54784 229.39958 233.04048 237.75079 242.36220 246.56482 250.54477 254.32419
 257.79648 260.96106 263.89377 266.65997 269.29016 271.59634 273.37363 274.98230
 276.66937 278.23535 279.76846 281.14087 282.33414 283.39423 284.36713 285.25674
 286.06674 286.80020 287.44150 288.29971
 366.78100 356.34400 345.78500 334.66000 323.07200 311.27500 299.15400 286.96600
 274.68700 262.59299 250.61099 239.92099 230.05199 221.16499 213.35599 206.36699
 200.20999 195.15699 191.74799 189.79899 188.84499 188.91799 189.76199 191.07899
 192.81299 194.91698 197.18898 199.55698 202.01098 204.49998 206.59698 208.44798
 210.08298 211.23698 211.47498 211.71198 211.65798 211.37198 211.01398 210.65298
 210.27898 209.99797 209.81497 209.68797 209.62497 209.96497 210.35997 210.75797
 211.55997 212.74697 214.00597 215.79797 217.73497 219.78697 221.89097 223.98297
 226.05197 228.14496 230.25096 232.36596 234.50396 236.68496 238.94996 241.32896
 243.95896 246.21896 248.22996 250.00396 251.42996 252.56196 253.39296 253.71796
 253.76396 253.54695 252.91595 251.87295 250.48795 248.65795 246.57595 244.41795
 242.21795 240.03095 237.85995 235.70795 233.57695 231.45295 229.48795 227.65395
 225.94595 224.42694 223.06594 221.84694 220.73794 219.70694 218.81994 217.96994
 217.22094 216.40994 215.51694 214.88994 214.34894 214.88353 216.14656 217.95645
 220.17607 222.18581 223.42273 223.66644 223.56540 223.85356 225.37466 226.63028
 227.55167 229.53586 233.15948 237.85361 242.48889 246.71162 250.66621 254.39859
 257.82291 260.95099 263.86105 266.62146 269.24368 271.53522 273.31168 274.93518
 276.63419 278.22827 279.76764 281.14413 282.34097 283.40286 284.37833 285.26855
 286.07782 286.80939 287.44962 288.30975
 366.78100 356.34414 345.78528 334.66041 323.07255 311.27569 299.15483 286.96697
 274.68811 262.59424 250.61238 239.92252 230.05366 221.16680 213.35794 206.36907
 200.21221 195.15935 191.75049 189.80163 188.84776 188.92090 189.76504 191.08218
 192.81632 194.92046 197.19259 199.56073 202.01487 204.50401 206.60115 208.45229
 210.08742 211.24156 211.47970 211.71684 211.66298 211.37711 211.01925 210.65839
 210.28453 210.00367 209.82081 209.69394 209.63108 209.97122 210.36636 210.76450
 211.56664 212.75377 214.01291 215.80505 217.74219 219.79433 221.89846 223.99060
 226.05974 228.15288 230.25902 232.37416 234.51229 236.69343 238.95857 241.33771
 243.96785 246.22799 248.23912 250.01326 251.43940 252.57154 253.40268 253.72781
 253.77395 253.55709 252.92623 251.88337 250.49851 248.66864 246.58678 244.42892
 242.22906 240.04220 237.87134 235.71947 233.58861 231.46475 229.49989 227.66603
 225.95816 224.43930 223.07844 221.85958 220.75072 219.71986 218.83299 217.98313
 217.23427 216.42341 215.53055 214.90369 214.36282 214.90518 216.18660 217.94907
 220.12488 222.15912 223.43867 223.66249 223.49084 223.69557 225.14163 226.44685
 227.54785 229.67513 233.29242 237.96930 242.62254 246.86041 250.78883 254.47383
 257.85074 260.94028 263.82867 266.58084 269.19061 271.46320 273.23981 274.88165
 276.59512 278.22614 279.77063 281.14880 282.34592 283.41092 284.38623 285.27542
 286.08325 286.81009 287.45087 288.30511
 366.78100 356.34430 345.78559 334.66089 323.07318 311.27648 299.15577 286.96807
 274.68936 262.59566 250.61396 239.92425 230.05555 221.16884 213.36014 206.37143
 200.21473 195.16202 191.75332 189.80462 188.85091 188.92421 189.76850 191.08580
 192.82009 194.92439 197.19668 199.56498 202.01928 204.50857 206.60587 208.45716
 210.09246 211.24675 211.48505 211.72234 211.66864 211.38294 211.02523 210.66453
 210.29082 210.01012 209.82741 209.70071 209.63800 209.97830 210.37360 210.77189
 211.57419 212.76148 214.02078 215.81307 217.75037 219.80266 221.90696 223.99926
 226.06855 228.16185 230.26814 232.38344 234.52173 236.70303 238.96832 241.34762
 243.97792 246.23821 248.24951 250.02380 251.45010 252.58239 253.41369 253.73898
 253.78528 253.56858 252.93787 251.89517 250.51046 248.68076 246.59905 244.44135
 242.24164 240.05494 237.88424 235.73253 233.60183 231.47812 229.51342 227.67971
 225.97201 224.45330 223.09260 221.87390 220.76519 219.73449 218.84778 217.99808
 217.24937 216.43867 215.54596 214.91926 214.37856 214.92969 216.23181 217.93619
 220.05798 222.11687 223.43900 223.64185 223.41580 223.56015 224.91754 226.24272
 227.51717 229.79811 233.42781 238.09750 242.76256 247.01501 250.92590 254.56940
 257.90277 260.95453 263.81332 266.54858 269.14297 271.39780 273.15573 274.80521
 276.54120 278.21634 279.77509 281.15237 282.35056 283.41522 284.38931 285.27817
 286.08420 286.80893 287.45490 288.31375
 366.78100 356.34421 345.78541 334.66062 323.07283 311.27604 299.15524 286.96745
 274.68866 262.59487 250.61307 239.92328 230.05449 221.16770 213.35890 206.37011
 200.21332 195.16053 191.75173 189.80294 188.84915 188.92235 189.76656 191.08377
 192.81798 194.92218 197.19439 199.56260 202.01681 204.50601 206.60322 208.45443
 210.08964 211.24384 211.48205 211.71926 211.66546 211.37967 211.02188 210.66109
 210.28729 210.00650 209.82371 209.69692 209.63412 209.97433 210.36954 210.76775
 211.56995 212.75716 214.01637 215.80858 217.74578 219.79799 221.90220 223.99440
 226.06361 228.15682 230.26303 232.37823 234.51644 236.69765 238.96286 241.34206
 243.97227 246.23248 248.24369 250.01789 251.44410 252.57631 253.40752 253.73272
 253.77893 253.56214 252.93134 251.88855 250.50376 248.67397 246.59217 244.43438
 242.23459 240.04780 237.87700 235.72521 233.59442 231.47063 229.50583 227.67204
 225.96425 224.44545 223.08466 221.86587 220.75708 219.72628 218.83949 217.98970
 217.24091 216.43011 215.53732 214.91053 214.36974 214.94054 216.28914 217.93584
 219.96555 222.02946 223.41869 223.62877 223.37227 223.47890 224.73122 226.01790
 227.44659 229.88631 233.55084 238.21869 242.89149 247.15536 251.05649 254.67293
 257.97766 261.00000 263.83432 266.55109 269.12979 271.37619 273.11743 274.76920
 276.51004 278.21817 279.77896 281.15567 282.35355 283.41760 284.39230 285.28098
 286.08804 286.81650 287.47818 288.33701
 366.78100 356.34431 345.78561 334.66092 323.07322 311.27653 299.15583 286.96814
 274.68944 262.59575 250.61405 239.92436 230.05567 221.16897 213.36028 206.37158
 200.21489 195.16219 191.75350 189.80480 188.85111 188.92441 189.76872 191.08603
 192.82033 194.92464 197.19694 199.56525 202.01955 204.50886 206.60616 208.45747
 210.09278 211.24708 211.48539 211.72269 211.66900 211.38330 211.02561 210.66491
 210.29122 210.01052 209.82783 209.70114 209.63844 209.97875 210.37405 210.77236
 211.57466 212.76197 214.02127 215.81358 217.75088 219.80319 221.90750 223.99980
 226.06911 228.16241 230.26872 232.38402 234.52233 236.70363 238.96894 241.34824
 243.97855 246.23886 248.25016 250.02447 251.45077 252.58308 253.41438 253.73969
 253.78599 253.56930 252.93860 251.89591 250.51122 248.68152 246.59983 244.44213
 242.24244 240.05574 237.88505 235.73335 233.60266 231.47897 229.51427 227.68058
 225.97288 224.45419 223.09349 221.87480 220.76610 219.73541 218.84871 217.99902
 217.25033 216.43963 215.54694 214.92024 214.37955 214.95834 216.32581 217.95665
 219.91394 221.95245 223.37367 223.60966 223.34758 223.44164 224.58524 225.80496
 227.35439 229.97433 233.67989 238.33165 242.99661 247.25737 251.14998 254.74399
 258.02609 261.03305 263.85785 266.56577 269.12308 271.35382 273.12805 274.78256
 276.47568 278.23767 279.79193 281.16458 282.35614 283.41708 284.38794 285.27396
 286.07901 286.80771 287.45502 288.31552
 366.78100 356.34483 345.78665 334.66248 323.07530 311.27913 299.15895 286.97178
 274.69360 262.60043 250.61925 239.93008 230.06190 221.17573 213.36755 206.37938
 200.22321 195.17103 191.76286 189.81468 188.86151 188.93533 189.78016 191.09798
 192.83281 194.93763 197.21046 199.57928 202.03411 204.52393 206.62176 208.47359
 210.10941 211.26424 211.50306 211.74089 211.68771 211.40254 211.04536 210.68519
 210.31201 210.03184 209.84966 209.72349 209.66131 210.00214 210.39797 210.79679
 211.59962 212.78744 214.04727 215.84009 217.77792 219.83074 221.93557 224.02839
 226.09822 228.19204 230.29887 232.41469 234.55352 236.73535 239.00117 241.38100
 244.01182 246.27265 248.28447 250.05930 251.48612 252.61895 253.45077 253.77660
 253.82342 253.60725 252.97708 251.93490 250.55073 248.72155 246.64038 244.48320
 242.28403 240.09785 237.92768 235.77650 233.64633 231.52315 229.55898 227.72580
 226.01863 224.50046 223.14028 221.92211 220.81393 219.78376 218.89758 218.04841
 217.30023 216.49006 215.59788 214.97171 214.43153 214.99992 216.34282 217.95688
 219.89149 221.90404 223.31818 223.54338 223.26585 223.37320 224.45351 225.63748
 227.28433 230.05969 233.80827 238.44479 243.09738 247.35637 251.24352 254.81573
 258.07172 261.05502 263.86395 266.55725 269.08582 271.28940 273.07907 274.75500
 276.47644 278.23569 279.79688 281.17120 282.36465 283.42435 284.39365 285.27756
 286.08240 286.81259 287.44977 288.29028
 366.78100 356.34530 345.78760 334.66390 323.07720 311.28150 299.16180 286.97510
 274.69740 262.60470 250.62400 239.93531 230.06761 221.18191 213.37421 206.38651
 200.23081 195.17911 191.77141 189.82371 188.87101 188.94531 189.79061 191.10891
 192.84421 194.94951 197.22281 199.59211 202.04741 204.53771 206.63601 208.48832
 210.12462 211.27992 211.51922 211.75752 211.70482 211.42012 211.06342 210.70372
 210.33102 210.05132 209.86962 209.74392 209.68222 210.02352 210.41982 210.81912
 211.62242 212.81072 214.07102 215.86433 217.80263 219.85593 221.96123 224.05453
 226.12483 228.21913 230.32643 232.44273 234.58203 236.76433 239.03063 241.41093
 244.04223 246.30353 248.31583 250.09113 251.51843 252.65173 253.48403 253.81034
 253.85764 253.64194 253.01224 251.97054 250.58684 248.75814 246.67744 244.52074
 242.32204 240.13634 237.96664 235.81594 233.68624 231.56354 229.59984 227.76714
 226.06044 224.54274 223.18304 221.96535 220.85765 219.82795 218.94225 218.09355
 217.34585 216.53615 215.64445 215.01875 214.47905 215.04002 216.36540 217.94768
 219.85060 221.85796 223.26654 223.45282 223.14769 223.28168 224.32153 225.49452
 227.24277 230.13669 233.93309 238.56583 243.21078 247.47697 251.37088 254.92972
 258.15836 261.11240 263.88898 266.55655 269.05038 271.22229 273.01285 274.71228
 276.46658 278.23157 279.79587 281.17151 282.36636 283.42627 284.39233 285.27505
 286.07977 286.80789 287.43909 288.27530
 366.78100 356.34576 345.78853 334.66529 323.07906 311.28382 299.16458 286.97835
 274.70111 262.60888 250.62864 239.94040 230.07317 221.18793 213.38069 206.39346
 200.23822 195.18699 191.77975 189.83251 188.88028 188.95504 189.80081 191.11957
 192.85533 194.96110 197.23486 199.60463 202.06039 204.55115 206.64992 208.50268
 210.13944 211.29521 211.53497 211.77374 211.72150 211.43726 211.08103 210.72179
 210.34956 210.07032 209.88908 209.76385 209.70261 210.04438 210.44114 210.84090
 211.64467 212.83343 214.09420 215.88796 217.82672 219.88049 221.98625 224.08001
 226.15078 228.24554 230.35331 232.47007 234.60983 236.79260 239.05936 241.44013
 244.07189 246.33365 248.34642 250.12218 251.54995 252.68371 253.51647 253.84324
 253.89100 253.67577 253.04653 252.00529 250.62206 248.79382 246.71358 244.55735
 242.35911 240.17388 238.00464 235.85440 233.72517 231.60293 229.63970 227.80746
 226.10122 224.58399 223.22475 222.00752 220.90028 219.87104 218.98581 218.13757
 217.39033 216.58110 215.68986 215.06463 214.52539 215.07812 216.38402 217.95650
 219.80338 221.78728 223.20132 223.36006 223.03131 223.20322 224.20717 225.36137
 227.19394 230.19597 234.04575 238.68102 243.31308 247.59003 251.49120 255.04045
 258.25250 261.18228 263.93033 266.57004 269.02441 271.16000 272.94855 274.66608
 276.46677 278.23935 279.80475 281.18289 282.37823 283.43613 284.40018 285.28146
 286.08801 286.82025 287.44482 288.27649
 366.78100 356.34642 345.78983 334.66725 323.08167 311.28709 299.16850 286.98292
 274.70634 262.61475 250.63517 239.94759 230.08101 221.19642 213.38984 206.40326
 200.24867 195.19809 191.79151 189.84493 188.89334 188.96876 189.81518 191.13459
 192.87101 194.97743 197.25185 199.62226 202.07868 204.57010 206.66951 208.52293
 210.16035 211.31677 211.55718 211.79660 211.74502 211.46143 211.10585 210.74727
 210.37569 210.09710 209.91652 209.79194 209.73135 210.07377 210.47119 210.87161
 211.67602 212.86544 214.12686 215.92127 217.86069 219.91511 222.02153 224.11594
 226.18736 228.28278 230.39119 232.50861 234.64903 236.83245 239.09986 241.48128
 244.11370 246.37611 248.38953 250.16595 251.59437 252.72878 253.56220 253.88962
 253.93803 253.72345 253.09487 252.05429 250.67170 248.84412 246.76454 244.60895
 242.41137 240.22679 238.05821 235.90862 233.78004 231.65846 229.69587 227.86429
 226.15871 224.64213 223.28354 222.06696 220.96038 219.93179 219.04721 218.19963
 217.45304 216.64446 215.75388 215.12930 214.59071 215.12575 216.38982 217.94760
 219.80061 221.74614 223.10381 223.20528 222.88007 223.11536 224.09483 225.25934
 227.18350 230.26337 234.16463 238.80389 243.42513 247.69672 251.60965 255.15959
 258.35385 261.25967 263.97223 266.57861 268.98477 271.07751 272.87418 274.64218
 276.45880 278.22977 279.79199 281.16785 282.35733 283.41122 284.36847 285.24536
 286.05240 286.78046 287.39722 288.22986
 366.78100 356.34674 345.79048 334.66821 323.08295 311.28869 299.17043 286.98516
 274.70890 262.61764 250.63838 239.95111 230.08485 221.20059 213.39433 206.40807
 200.25380 195.20354 191.79728 189.85102 188.89975 188.97549 189.82223 191.14197
 192.87871 194.98544 197.26018 199.63092 202.08766 204.57939 206.67913 208.53287
 210.17061 211.32734 211.56808 211.80782 211.75656 211.47330 211.11803 210.75977
 210.38851 210.11025 209.92998 209.80572 209.74546 210.08820 210.48594 210.88667
 211.69141 212.88115 214.14289 215.93762 217.87736 219.93210 222.03884 224.13357
 226.20531 228.30105 230.40979 232.52753 234.66826 236.85200 239.11974 241.50148
 244.13421 246.39695 248.41069 250.18743 251.61617 252.75090 253.58464 253.91238
 253.96112 253.74685 253.11859 252.07833 250.69607 248.86880 246.78954 244.63428
 242.43702 240.25276 238.08449 235.93523 233.80697 231.68571 229.72344 227.89218
 226.18692 224.67066 223.31239 222.09613 220.98987 219.96161 219.07735 218.23008
 217.48382 216.67556 215.78530 215.16103 214.62277 215.16194 216.43581 217.87271
 219.74425 221.71886 223.05241 223.03438 222.64931 222.99197 223.93645 225.11145
 227.15268 230.29332 234.27113 238.93161 243.55119 247.86440 251.79666 255.33945
 258.52966 261.39551 264.05478 266.60938 268.95837 270.99249 272.76505 274.54294
 276.44083 278.24393 279.81076 281.19073 282.38626 283.44788 284.42453 285.31699
 286.12256 286.84180 287.50266 288.34488
 366.78100 356.34623 345.78947 334.66670 323.08093 311.28616 299.16740 286.98163
 274.70486 262.61309 250.63333 239.94556 230.07879 221.19402 213.38726 206.40049
 200.24572 195.19495 191.78819 189.84142 188.88965 188.96488 189.81112 191.13035
 192.86658 194.97281 197.24705 199.61728 202.07351 204.56474 206.66398 208.51721
 210.15444 211.31067 211.55091 211.79014 211.73837 211.45460 211.09884 210.74007
 210.36830 210.08953 209.90877 209.78400 209.72323 210.06546 210.46270 210.86293
 211.66716 212.85639 214.11763 215.91186 217.85109 219.90532 222.01156 224.10579
 226.17702 228.27225 230.38049 232.49772 234.63795 236.82118 239.08842 241.46965
 244.10188 246.36411 248.37735 250.15358 251.58181 252.71604 253.54928 253.87651
 253.92474 253.70997 253.08121 252.04044 250.65767 248.82990 246.75014 244.59437
 242.39660 240.21183 238.04307 235.89330 233.76453 231.64276 229.68000 227.84823
 226.14246 224.62569 223.26693 222.05016 220.94339 219.91462 219.02986 218.18209
 217.43532 216.62655 215.73579 215.11102 214.57225 215.15651 216.53963 217.82007
 219.52487 221.55614 223.03790 223.03307 222.54694 222.78734 223.64305 224.99384
 227.07739 230.28256 234.35545 239.04433 243.65582 247.95201 251.95938 255.55591
 258.73450 261.60657 264.26056 266.74353 268.99579 270.95218 272.70422 274.53418
 276.44305 278.23090 279.79099 281.16690 282.36368 283.42487 284.39459 285.28323
 286.08505 286.79910 287.42285 288.21777
 366.78100 356.34581 345.78862 334.66544 323.07925 311.28406 299.16487 286.97868
 274.70150 262.60931 250.62912 239.94093 230.07375 221.18856 213.38137 206.39418
 200.23899 195.18781 191.78062 189.83343 188.88124 188.95605 189.80187 191.12068
 192.85649 194.96230 197.23612 199.60593 202.06174 204.55255 206.65136 208.50418
 210.14099 211.29680 211.53661 211.77542 211.72324 211.43905 211.08286 210.72367
 210.35148 210.07230 209.89111 209.76592 209.70473 210.04655 210.44336 210.84317
 211.64698 212.83579 214.09661 215.89042 217.82923 219.88304 221.98885 224.08267
 226.15348 228.24829 230.35610 232.47292 234.61273 236.79554 239.06235 241.44316
 244.07498 246.33679 248.34960 250.12541 251.55322 252.68704 253.51985 253.84666
 253.89447 253.67929 253.05010 252.00891 250.62572 248.79753 246.71735 244.56116
 242.36297 240.17778 238.00859 235.85841 233.72922 231.60703 229.64384 227.81165
 226.10547 224.58828 223.22909 222.01190 220.90472 219.87553 218.99034 218.14215
 217.39496 216.58578 215.69459 215.06940 214.53021 215.14365 216.59734 217.86047
 219.36211 221.34227 223.00880 223.13251 222.57758 222.62384 223.41084 224.87744
 226.97182 230.33110 234.49004 239.14522 243.73724 248.03218 252.08980 255.68318
 258.87479 261.78845 264.39969 266.84290 269.04276 270.94339 272.66772 274.51770
 276.44016 278.22940 279.78061 281.14914 282.33499 283.38654 284.35071 285.23358
 286.02774 286.73495 287.35278 288.14011
 366.78100 356.34620 345.78940 334.66660 323.08080 311.28600 299.16719 286.98139
 274.70459 262.61279 250.63299 239.94519 230.07839 221.19359 213.38679 206.39999
 200.24519 195.19438 191.78758 189.84078 188.88898 188.96418 189.81038 191.12958
 192.86578 194.97198 197.24618 199.61638 202.07257 204.56377 206.66297 208.51617
 210.15337 211.30957 211.54977 211.78897 211.73717 211.45337 211.09757 210.73876
 210.36696 210.08816 209.90736 209.78256 209.72176 210.06396 210.46116 210.86136
 211.66556 212.85476 214.11595 215.91015 217.84935 219.90355 222.00975 224.10395
 226.17515 228.27035 230.37855 232.49575 234.63595 236.81914 239.08634 241.46754
 244.09974 246.36194 248.37514 250.15134 251.57954 252.71374 253.54694 253.87414
 253.92233 253.70753 253.07873 252.03793 250.65513 248.82733 246.74753 244.59173
 242.39393 240.20913 238.04033 235.89052 233.76172 231.63992 229.67712 227.84532
 226.13952 224.62272 223.26392 222.04712 220.94032 219.91152 219.02671 218.17891
 217.43211 216.62331 215.73251 215.10771 214.56891 215.16873 216.59146 217.89993
 219.31824 221.18703 222.91794 223.16096 222.60269 222.50789 223.27768 224.77390
 226.88870 230.34340 234.55608 239.20819 243.78078 248.09438 252.16757 255.78136
 258.99084 261.90018 264.50375 266.93066 269.09299 270.94693 272.65515 274.51529
 276.42325 278.15298 279.64062 280.99347 282.16296 283.20032 284.15878 285.04355
 285.84406 286.55692 287.17966 287.97324
 366.78100 356.34658 345.79017 334.66775 323.08234 311.28792 299.16950 286.98409
 274.70767 262.61626 250.63684 239.94942 230.08301 221.19859 213.39217 206.40576
 200.25134 195.20093 191.79451 189.84809 188.89668 188.97226 189.81885 191.13843
 192.87501 194.98160 197.25618 199.62677 202.08335 204.57493 206.67452 208.52810
 210.16569 211.32227 211.56285 211.80244 211.75102 211.46760 211.11219 210.75377
 210.38236 210.10394 209.92352 209.79911 209.73869 210.08128 210.47886 210.87944
 211.68403 212.87361 214.13520 215.92978 217.86936 219.92395 222.03053 224.12512
 226.19670 228.29228 230.40087 232.51845 234.65903 236.84262 239.11020 241.49179
 244.12437 246.38695 248.40054 250.17712 251.60571 252.74029 253.57387 253.90146
 253.95004 253.73563 253.10721 252.06679 250.68438 248.85696 246.77755 244.62213
 242.42471 240.24030 238.07188 235.92246 233.79405 231.67263 229.71022 227.87880
 226.17338 224.65697 223.29855 222.08214 220.97572 219.94730 219.06289 218.21547
 217.46906 216.66064 215.77022 215.14581 214.60739 215.19481 216.58800 217.90025
 219.31894 221.08597 222.78194 223.07440 222.54759 222.42290 223.21118 224.71223
 226.82854 230.36777 234.63463 239.26112 243.83138 248.14801 252.22383 255.86659
 259.10052 262.00757 264.62848 267.06177 269.22134 271.05844 272.71951 274.53568
 276.41687 278.06592 279.46661 280.78366 281.93436 282.95651 283.90115 284.76904
 285.55093 286.24722 286.85550 287.63068
 366.78100 356.34664 345.79029 334.66793 323.08258 311.28822 299.16987 286.98451
 274.70816 262.61680 250.63745 239.95009 230.08374 221.19938 213.39303 206.40667
 200.25232 195.20196 191.79561 189.84925 188.89790 188.97354 189.82019 191.13983
 192.87648 194.98312 197.25776 199.62841 202.08505 204.57670 206.67634 208.52999
 210.16763 211.32428 211.56492 211.80457 211.75321 211.46986 211.11450 210.75615
 210.38479 210.10644 209.92608 209.80173 209.74137 210.08402 210.48166 210.88231
 211.68695 212.87660 214.13824 215.93288 217.87253 219.92717 222.03382 224.12846
 226.20011 228.29575 230.40440 232.52204 234.66269 236.84633 239.11398 241.49562
 244.12827 246.39091 248.40456 250.18120 251.60985 252.74449 253.57814 253.90578
 253.95443 253.74007 253.11171 252.07136 250.68900 248.86165 246.78229 244.62694
 242.42958 240.24523 238.07687 235.92752 233.79916 231.67781 229.71545 227.88410
 226.17874 224.66239 223.30403 222.08768 220.98132 219.95297 219.06861 218.22126
 217.47490 216.66655 215.77619 215.15183 214.61348 215.20367 216.60245 217.87692
 219.32874 221.01283 222.59929 222.93184 222.46724 222.34096 223.13737 224.65466
 226.79955 230.41884 234.75621 239.33170 243.88037 248.19685 252.26956 255.92036
 259.16223 262.08206 264.74280 267.19476 269.36569 271.21512 272.87515 274.62515
 276.44772 278.05847 279.41348 280.66852 281.79892 282.81982 283.76538 284.64194
 285.43930 286.14935 286.76965 287.56012
 366.78100 356.34706 345.79112 334.66918 323.08424 311.29030 299.17236 286.98742
 274.71148 262.62054 250.64160 239.95466 230.08872 221.20478 213.39884 206.41290
 200.25895 195.20901 191.80307 189.85713 188.90619 188.98225 189.82931 191.14937
 192.88643 194.99349 197.26855 199.63961 202.09667 204.58873 206.68879 208.54285
 210.18091 211.33797 211.57903 211.81909 211.76815 211.48521 211.13027 210.77233
 210.40139 210.12345 209.94351 209.81957 209.75963 210.10269 210.50075 210.90181
 211.70686 212.89692 214.15898 215.95404 217.89410 219.94916 222.05622 224.15128
 226.22334 228.31940 230.42846 232.54652 234.68758 236.87164 239.13970 241.52176
 244.15482 246.41788 248.43194 250.20900 251.63806 252.77312 253.60718 253.93524
 253.98430 253.77036 253.14242 252.10248 250.72054 248.89360 246.81466 244.65971
 242.46277 240.27883 238.11089 235.96195 233.83401 231.71307 229.75113 227.92019
 226.21525 224.69931 223.34137 222.12543 221.01949 219.99155 219.10761 218.26067
 217.51473 216.70679 215.81685 215.19291 214.65497 215.22824 216.58829 217.86555
 219.35452 220.91399 222.41930 222.78383 222.32489 222.21162 223.06889 224.60826
 226.82863 230.49498 234.90120 239.43486 243.94261 248.25969 252.32156 255.96053
 259.18930 262.12161 264.80563 267.25537 269.43475 271.30261 272.97742 274.72617
 276.50702 278.10504 279.42957 280.66736 281.82245 282.85196 283.80716 284.70401
 285.51941 286.24554 286.87985 287.68823
 366.78100 356.34703 345.79107 334.66910 323.08413 311.29017 299.17220 286.98723
 274.71127 262.62030 250.64133 239.95436 230.08840 221.20443 213.39846 206.41250
 200.25853 195.20856 191.80260 189.85663 188.90566 188.98170 189.82873 191.14876
 192.88580 194.99283 197.26786 199.63889 202.09593 204.58796 206.68799 208.54203
 210.18006 211.33709 211.57813 211.81816 211.76719 211.48423 211.12926 210.77129
 210.40033 210.12236 209.94239 209.81842 209.75846 210.10149 210.49952 210.90056
 211.70559 212.89562 214.15766 215.95269 217.89272 219.94776 222.05479 224.14982
 226.22186 228.31789 230.42692 232.54495 234.68599 236.87002 239.13805 241.52009
 244.15312 246.41615 248.43019 250.20722 251.63625 252.77129 253.60532 253.93335
 253.98239 253.76842 253.14045 252.10048 250.71852 248.89155 246.81258 244.65762
 242.46065 240.27668 238.10872 235.95975 233.83178 231.71082 229.74885 227.91788
 226.21292 224.69695 223.33898 222.12302 221.01705 219.98908 219.10511 218.25815
 217.51218 216.70421 215.81425 215.19028 214.65231 215.22914 216.59593 217.82974
 219.37796 220.94641 222.27177 222.56915 222.12143 222.04324 223.00110 224.51678
 226.85168 230.58479 235.06358 239.58647 244.04822 248.34721 252.39374 256.02090
 259.24463 262.15460 264.83640 267.29102 269.45163 271.30136 273.01608 274.77127
 276.52402 278.07574 279.39716 280.66061 281.81714 282.83786 283.77496 284.65179
 285.45322 286.16687 286.79031 287.58481
 366.78100 356.34693 345.79087 334.66880 323.08374 311.28967 299.17161 286.98654
 274.71048 262.61941 250.64035 239.95328 230.08721 221.20315 213.39708 206.41102
 200.25695 195.20689 191.80082 189.85476 188.90369 188.97963 189.82656 191.14649
 192.88343 194.99036 197.26530 199.63623 202.09317 204.58510 206.68504 208.53897
 210.17691 211.33384 211.57478 211.81471 211.76364 211.48058 211.12551 210.76745
 210.39638 210.11832 209.93825 209.81419 209.75412 210.09706 210.49499 210.89592
 211.70086 212.89079 214.15273 215.94766 217.88760 219.94253 222.04947 224.14440
 226.21634 228.31227 230.42120 232.53914 234.68007 236.86401 239.13194 241.51388
 244.14681 246.40975 248.42368 250.20062 251.62955 252.76448 253.59842 253.92635
 253.97529 253.76122 253.13316 252.09309 250.71103 248.88396 246.80490 244.64983
 242.45276 240.26870 238.10063 235.95157 233.82350 231.70244 229.74037 227.90931
 226.20424 224.68818 223.33011 222.11405 221.00798 219.97991 219.09585 218.24878
 217.50272 216.69465 215.80459 215.18052 214.64246 215.22713 216.61484 217.83453
 219.32060 220.77486 222.12611 222.56865 222.02602 221.82817 222.79091 224.41768
 226.84891 230.66084 235.20572 239.76344 244.19284 248.47195 252.50470 256.09296
 259.30655 262.31088 264.96619 267.33850 269.43707 271.24396 272.94431 274.71777
 276.45129 277.97198 279.24878 280.51941 281.65009 282.65225 283.60306 284.47791
 285.26474 285.96539 286.57748 287.35754
 366.78100 356.34734 345.79169 334.67003 323.08538 311.29172 299.17407 286.98941
 274.71376 262.62310 250.64445 239.95779 230.09214 221.20848 213.40283 206.41717
 200.26352 195.21386 191.80820 189.86255 188.91189 188.98824 189.83558 191.15593
 192.89327 195.00062 197.27596 199.64731 202.10465 204.59700 206.69734 208.55169
 210.19003 211.34738 211.58872 211.82907 211.77841 211.49575 211.14110 210.78344
 210.41279 210.13513 209.95548 209.83182 209.77217 210.11551 210.51386 210.91520
 211.72055 212.91089 214.17324 215.96858 217.90893 219.96427 222.07161 224.16696
 226.23930 228.33565 230.44499 232.56334 234.70468 236.88903 239.15737 241.53972
 244.17306 246.43641 248.45075 250.22810 251.65744 252.79279 253.62713 253.95547
 254.00482 253.79116 253.16351 252.12385 250.74220 248.91554 246.83689 244.68223
 242.48558 240.30192 238.13427 235.98561 233.85796 231.73730 229.77565 227.94499
 226.24034 224.72468 223.36702 222.15137 221.04571 220.01806 219.13440 218.28775
 217.54209 216.73444 215.84478 215.22113 214.68347 215.25926 216.63344 217.84914
 219.33495 220.83102 222.25461 222.60857 221.98648 221.66743 222.56558 224.36609
 226.88646 230.77742 235.32497 239.92480 244.37560 248.65352 252.68497 256.25711
 259.46069 262.23233 265.02173 267.44760 269.49219 271.25928 272.95081 274.69077
 276.37073 277.72488 279.02359 280.34857 281.60770 282.73798 283.76920 284.70340
 285.54361 286.29184 286.94547 287.77841
 366.78100 356.34788 345.79276 334.67163 323.08751 311.29439 299.17727 286.99314
 274.71802 262.62790 250.64978 239.96365 230.09853 221.21541 213.41029 206.42516
 200.27204 195.22292 191.81780 189.87267 188.92255 188.99943 189.84731 191.16818
 192.90606 195.01394 197.28982 199.66169 202.11957 204.61245 206.71333 208.56820
 210.20708 211.36496 211.60684 211.84771 211.79759 211.51547 211.16135 210.80422
 210.43410 210.15698 209.97786 209.85473 209.79561 210.13949 210.53837 210.94025
 211.74612 212.93700 214.19988 215.99576 217.93663 219.99251 222.10039 224.19627
 226.26914 228.36602 230.47590 232.59478 234.73665 236.92153 239.19041 241.57329
 244.20716 246.47104 248.48592 250.26380 251.69367 252.82955 253.66443 253.99331
 254.04318 253.83006 253.20294 252.16382 250.78269 248.95657 246.87845 244.72433
 242.52820 240.34508 238.17796 236.02984 233.90271 231.78259 229.82147 227.99135
 226.28722 224.77210 223.41498 222.19986 221.09473 220.06761 219.18449 218.33837
 217.59325 216.78612 215.89700 215.27388 214.73676 215.29785 216.64023 217.84221
 219.34012 220.97116 222.39330 222.52545 221.75580 221.43922 222.39505 224.12363
 226.81129 230.82382 235.45663 240.09575 244.56601 248.83748 252.84151 256.46820
 259.58649 262.47076 265.17480 267.51620 269.49866 271.21429 272.90259 274.66782
 276.17825 277.71985 279.39417 280.98517 282.36203 283.58023 284.69165 285.69849
 286.60406 287.41046 288.11493 289.01266
 366.78100 356.34818 345.79337 334.67255 323.08873 311.29591 299.17910 286.99528
 274.72046 262.63064 250.65283 239.96701 230.10219 221.21938 213.41456 206.42974
 200.27692 195.22811 191.82329 189.87847 188.92865 189.00584 189.85402 191.17520
 192.91339 195.02157 197.29775 199.66993 202.12812 204.62130 206.72248 208.57766
 210.21685 211.37503 211.61721 211.85840 211.80858 211.52676 211.17294 210.81613
 210.44631 210.16949 209.99067 209.86786 209.80904 210.15322 210.55241 210.95459
 211.76077 212.95195 214.21514 216.01132 217.95250 220.00868 222.11687 224.21305
 226.28623 228.38342 230.49360 232.61278 234.75496 236.94015 239.20933 241.59251
 244.22669 246.49088 248.50606 250.28424 251.71443 252.85061 253.68579 254.01497
 254.06516 253.85234 253.22552 252.18670 250.80589 248.98007 246.90225 244.74844
 242.55262 240.36980 238.20298 236.05517 233.92835 231.80853 229.84771 228.01790
 226.31408 224.79926 223.44245 222.22763 221.12281 220.09599 219.21318 218.36736
 217.62254 216.81572 215.92691 215.30409 214.76727 215.31262 216.62288 217.82545
 219.32649 221.01204 222.32393 222.30638 221.50049 221.32507 222.24791 224.00616
 226.80634 230.89751 235.58243 240.23221 244.70045 248.94107 252.89439 256.51480
 259.69803 262.58810 265.25812 267.61597 269.61871 271.33615 273.04120 274.81567
 276.33487 278.00665 279.64664 281.16022 282.47009 283.62900 284.68634 285.64420
 286.50568 287.27283 287.94302 288.79709
 366.78100 356.34791 345.79282 334.67174 323.08765 311.29456 299.17747 286.99338
 274.71829 262.62821 250.65012 239.96403 230.09894 221.21585 213.41076 206.42568
 200.27259 195.22350 191.81841 189.87332 188.92323 189.00015 189.84806 191.16897
 192.90688 195.01479 197.29071 199.66262 202.12053 204.61344 206.71435 208.56926
 210.20818 211.36609 211.60800 211.84891 211.79882 211.51673 211.16265 210.80556
 210.43547 210.15838 209.97929 209.85620 209.79712 210.14103 210.53994 210.94185
 211.74776 212.93867 214.20159 215.99750 217.93841 219.99432 222.10223 224.19815
 226.27106 228.36797 230.47788 232.59679 234.73870 236.92362 239.19253 241.57544
 244.20935 246.47326 248.48817 250.26609 251.69600 252.83191 253.66682 253.99573
 254.04564 253.83256 253.20547 252.16638 250.78529 248.95920 246.88112 244.72703
 242.53094 240.34785 238.18076 236.03267 233.90559 231.78550 229.82441 227.99432
 226.29023 224.77514 223.41806 222.20297 221.09788 220.07079 219.18770 218.34161
 217.59653 216.78944 215.90035 215.27726 214.74017 215.29102 216.61211 217.80585
 219.27063 220.99954 222.22751 222.11485 221.27985 221.13911 222.08156 223.96486
 226.88129 231.00258 235.68916 240.35004 244.85634 249.11107 252.98538 256.50137
 259.69699 262.58182 265.22275 267.59601 269.61984 271.37781 273.11331 274.87985
 276.43958 277.95294 279.42987 280.83270 282.06738 283.15976 284.15640 285.05930
 285.87134 286.59445 287.22617 288.03119
 366.78100 356.34750 345.79201 334.67051 323.08601 311.29251 299.17502 286.99052
 274.71502 262.62453 250.64603 239.95953 230.09404 221.21054 213.40504 206.41954
 200.26605 195.21655 191.81105 189.86556 188.91506 188.99156 189.83906 191.15957
 192.89707 195.00457 197.28008 199.65158 202.10908 204.60159 206.70209 208.55659
 210.19509 211.35260 211.59410 211.83460 211.78411 211.50161 211.14711 210.78962
 210.41912 210.14162 209.96212 209.83863 209.77913 210.12263 210.52114 210.92264
 211.72814 212.91864 214.18115 215.97665 217.91715 219.97266 222.08016 224.17566
 226.24817 228.34467 230.45417 232.57267 234.71418 236.89868 239.16718 241.54969
 244.18319 246.44669 248.46119 250.23870 251.66820 252.80370 253.63821 253.96671
 254.01621 253.80272 253.17522 252.13572 250.75422 248.92773 246.84923 244.69473
 242.49824 240.31474 238.14724 235.99874 233.87125 231.75075 229.78925 227.95876
 226.25426 224.73876 223.38127 222.16577 221.06027 220.03277 219.14928 218.30278
 217.55728 216.74979 215.86029 215.23679 214.69930 215.26425 216.61490 217.79651
 219.20352 220.95105 222.21759 222.03658 221.04565 220.89445 221.88004 223.75146
 226.88162 231.08911 235.80777 240.49425 245.00798 249.29070 253.18970 256.65182
 259.79175 262.65518 265.25443 267.59488 269.62250 271.37646 273.13269 274.90817
 276.42694 277.80640 279.05984 280.37750 281.60605 282.69296 283.68463 284.58301
 285.39099 286.11050 286.73907 287.54007
 366.78100 356.34733 345.79166 334.66999 323.08533 311.29166 299.17399 286.98932
 274.71365 262.62298 250.64431 239.95765 230.09198 221.20831 213.40264 206.41697
 200.26330 195.21363 191.80797 189.86230 188.91163 188.98796 189.83529 191.15562
 192.89295 195.00029 197.27562 199.64695 202.10428 204.59661 206.69694 208.55127
 210.18961 211.34694 211.58827 211.82860 211.77793 211.49526 211.14059 210.78293
 210.41226 210.13459 209.95492 209.83125 209.77158 210.11491 210.51325 210.91458
 211.71991 212.91024 214.17257 215.96790 217.90823 219.96357 222.07090 224.16623
 226.23856 228.33489 230.44422 232.56256 234.70389 236.88822 239.15655 241.53888
 244.17221 246.43554 248.44988 250.22721 251.65654 252.79187 253.62620 253.95453
 254.00386 253.79020 253.16253 252.12286 250.74119 248.91452 246.83585 244.68118
 242.48452 240.30085 238.13318 235.98451 233.85684 231.73617 229.77450 227.94384
 226.23917 224.72350 223.36583 222.15016 221.04449 220.01682 219.13316 218.28649
 217.54082 216.73315 215.84348 215.21981 214.68214 215.24968 216.60677 217.79576
 219.16573 220.87578 222.16728 222.01601 220.92778 220.61778 221.60623 223.71202
 226.95763 231.19533 235.93475 240.64235 245.17099 249.44809 253.33769 256.76282
 259.85910 262.71106 265.30582 267.64023 269.67929 271.46442 273.24606 275.00473
 276.49911 277.74582 278.85248 280.15497 281.40298 282.50717 283.51456 284.42722
 285.24802 285.97897 286.61749 287.43124
 366.78100 356.34703 345.79107 334.66910 323.08414 311.29017 299.17221 286.98724
 274.71127 262.62031 250.64134 239.95438 230.08841 221.20444 213.39848 206.41251
 200.25855 195.20858 191.80262 189.85665 188.90568 188.98172 189.82875 191.14879
 192.88582 194.99286 197.26789 199.63892 202.09596 204.58799 206.68803 208.54206
 210.18009 211.33713 211.57816 211.81820 211.76723 211.48427 211.12930 210.77133
 210.40037 210.12240 209.94244 209.81847 209.75850 210.10154 210.49957 210.90061
 211.70564 212.89568 214.15771 215.95274 217.89278 219.94781 222.05485 224.14988
 226.22192 228.31795 230.42698 232.54502 234.68605 236.87009 239.13812 241.52015
 244.15319 246.41622 248.43026 250.20729 251.63633 252.77136 253.60539 253.93343
 253.98246 253.76850 253.14053 252.10057 250.71860 248.89163 246.81267 244.65770
 242.46074 240.27677 238.10880 235.95984 233.83187 231.71091 229.74894 227.91798
 226.21301 224.69704 223.33908 222.12311 221.01715 219.98918 219.10521 218.25825
 217.51228 216.70432 215.81435 215.19039 214.65242 215.22903 216.60593 217.79335
 219.14555 220.82233 222.15205 221.99644 220.77809 220.31291 221.32240 223.70250
 227.02576 231.29184 236.05559 240.78596 245.33282 249.60175 253.48064 256.87979
 259.90964 262.72507 265.31876 267.64178 269.67746 271.49182 273.31619 275.06644
 276.47641 277.57477 278.58463 279.87256 281.12781 282.23840 283.25165 284.16959
 284.99518 285.73035 286.37259 287.19104
 366.78100 356.34650 345.79000 334.66750 323.08201 311.28751 299.16901 286.98351
 274.70701 262.61551 250.63602 239.94852 230.08202 221.19752 213.39102 206.40452
 200.25002 195.19953 191.79303 189.84653 188.89503 188.97053 189.81703 191.13653
 192.87304 194.97954 197.25404 199.62454 202.08104 204.57254 206.67205 208.52555
 210.16305 211.31955 211.56005 211.79955 211.74805 211.46456 211.10906 210.75056
 210.37906 210.10056 209.92006 209.79557 209.73507 210.07757 210.47507 210.87557
 211.68007 212.86957 214.13108 215.92558 217.86508 219.91958 222.02608 224.12058
 226.19208 228.28759 230.39609 232.51359 234.65409 236.83759 239.10509 241.48660
 244.11910 246.38160 248.39510 250.17160 251.60010 252.73460 253.56811 253.89561
 253.94411 253.72961 253.10111 252.06061 250.67812 248.85062 246.77112 244.61562
 242.41812 240.23362 238.06512 235.91563 233.78713 231.66563 229.70313 227.87163
 226.16613 224.64963 223.29114 222.07464 220.96814 219.93964 219.05514 218.20764
 217.46115 216.65265 215.76215 215.13765 214.59915 215.20273 216.63365 217.77806
 219.15228 220.81393 222.19640 222.00565 220.65453 220.01791 220.95392 223.65596
 227.01990 231.37933 236.18381 240.94188 245.51740 249.78175 253.64294 257.05292
 260.06073 262.81635 265.37415 267.66364 269.66653 271.49814 273.32693 275.02118
 276.34790 277.38104 278.54312 279.98380 281.25394 282.37769 283.40295 284.33176
 285.16711 285.91101 286.56085 287.38901
 366.78100 356.34591 345.78881 334.66572 323.07962 311.28453 299.16543 286.97934
 274.70224 262.61015 250.63006 239.94196 230.07487 221.18977 213.38268 206.39558
 200.24049 195.18939 191.78230 189.83520 188.88311 188.95802 189.80392 191.12283
 192.85873 194.96464 197.23854 199.60845 202.06435 204.55526 206.65417 208.50707
 210.14398 211.29988 211.53979 211.77869 211.72660 211.44250 211.08641 210.72731
 210.35522 210.07613 209.89503 209.76994 209.70884 210.05075 210.44765 210.84756
 211.65146 212.84037 214.10128 215.89518 217.83409 219.88799 221.99390 224.08780
 226.15871 228.25361 230.36152 232.47842 234.61833 236.80124 239.06814 241.44905
 244.08095 246.34286 248.35576 250.13167 251.55957 252.69348 253.52639 253.85329
 253.90120 253.68610 253.05701 252.01591 250.63282 248.80472 246.72463 244.56854
 242.37044 240.18535 238.01625 235.86616 233.73706 231.61497 229.65187 227.81978
 226.11368 224.59659 223.23750 222.02040 220.91331 219.88421 218.99912 218.15102
 217.40393 216.59483 215.70374 215.07865 214.53955 215.16827 216.64862 217.75708
 219.14474 220.78607 222.03169 221.81319 220.52061 219.85994 220.77779 223.61888
 227.07890 231.49605 236.31609 241.08945 245.67253 249.92697 253.77672 257.19263
 260.20383 262.93451 265.47009 267.75278 269.75925 271.59290 273.45734 275.17102
 276.32089 276.96338 278.00119 279.44458 280.70972 281.82904 282.85025 283.77539
 284.60745 285.34842 285.99570 286.82059
 366.78100 356.34530 345.78761 334.66391 323.07722 311.28152 299.16183 286.97513
 274.69744 262.60474 250.62405 239.93535 230.06766 221.18196 213.37427 206.38657
 200.23088 195.17918 191.77149 189.82379 188.87110 188.94540 189.79071 191.10901
 192.84432 194.94962 197.22293 199.59223 202.04754 204.53784 206.63615 208.48845
 210.12476 211.28006 211.51937 211.75767 211.70498 211.42028 211.06359 210.70389
 210.33120 210.05150 209.86981 209.74411 209.68242 210.02372 210.42003 210.81933
 211.62264 212.81094 214.07125 215.86455 217.80286 219.85616 221.96147 224.05477
 226.12508 228.21938 230.32669 232.44299 234.58230 236.76460 239.03091 241.41121
 244.04252 246.30382 248.31612 250.09143 251.51873 252.65204 253.48434 253.81065
 253.85795 253.64226 253.01256 251.97087 250.58717 248.75848 246.67778 244.52109
 242.32239 240.13670 237.96700 235.81631 233.68661 231.56392 229.60022 227.76753
 226.06083 224.54314 223.18344 221.96575 220.85805 219.82836 218.94266 218.09397
 217.34627 216.53658 215.64488 215.01919 214.47949 215.11781 216.62827 217.77629
 219.02017 220.69862 221.75861 221.40247 220.23592 219.66782 220.81612 223.56219
 227.24072 231.61073 236.42242 241.20445 245.77585 250.02991 253.88014 257.30258
 260.32043 263.01309 265.48056 267.76279 269.83771 271.75610 273.61328 275.25684
 276.40906 276.93542 277.12509 277.73038 278.63074 279.74423 280.76010 281.68042
 282.50815 283.24524 283.88913 284.70972
 366.78100 356.34489 345.78678 334.66268 323.07557 311.27946 299.15935 286.97224
 274.69413 262.60103 250.61992 239.93081 230.06270 221.17659 213.36849 206.38038
 200.22427 195.17216 191.76405 189.81595 188.86284 188.93673 189.78162 191.09951
 192.83440 194.93930 197.21219 199.58108 202.03597 204.52586 206.62376 208.47565
 210.11154 211.26643 211.50532 211.74322 211.69011 211.40500 211.04789 210.68778
 210.31467 210.03457 209.85246 209.72635 209.66424 210.00513 210.40103 210.79992
 211.60281 212.79070 214.05059 215.84349 217.78138 219.83427 221.93916 224.03205
 226.10194 228.19584 230.30273 232.41862 234.55751 236.73940 239.00530 241.38519
 244.01608 246.27697 248.28886 250.06376 251.49065 252.62354 253.45543 253.78132
 253.82821 253.61211 252.98200 251.93989 250.55578 248.72667 246.64557 244.48846
 242.28935 240.10324 237.93313 235.78202 233.65192 231.52881 229.56470 227.73159
 226.02448 224.50638 223.14627 221.92816 220.82005 219.78994 218.90384 218.05473
 217.30662 216.49651 215.60440 214.97829 214.43819 215.07780 216.59299 217.84409
 218.91089 220.60106 221.75487 221.17320 219.86732 219.24124 220.64484 223.34557
 227.33678 231.69933 236.53740 241.33928 245.91551 250.16457 254.01254 257.44113
 260.47556 263.16907 265.56168 267.72009 269.76096 271.73608 273.61859 275.24048
 276.37567 276.99707 277.23950 277.47668 278.15176 278.82889 279.74692 280.67258
 281.50510 282.24646 282.89410 283.71945
 354.97500 345.04800 334.58700 324.11500 313.32600 302.53700 291.65000 280.76700
 269.93100 259.19300 248.62200 238.61700 229.08700 220.35500 212.54000 205.53500
 199.46400 194.49300 191.14300 189.19000 188.08900 188.01400 188.72400 189.90600
 191.46900 193.38200 195.40300 197.55600 199.80700 202.06000 204.28800 206.47900
 208.55200 210.37800 212.02500 213.65900 214.99800 216.11800 217.17200 218.25900
 219.49400 220.64500 221.67900 222.61400 223.54500 224.98200 226.57100 228.19000
 229.79700 231.81100 233.86500 235.97200 238.24200 240.55300 242.89900 245.25300
 247.48800 249.53500 251.36600 252.84800 254.09800 255.16700 256.02700 256.25300
 256.09500 255.54300 253.93500 252.56600 251.38400 250.24500 249.05200 247.70100
 246.01600 243.99600 241.78400 239.39300 236.81300 234.22300 231.65800 229.14400
 226.74000 224.47300 222.33500 220.32500 218.44000 216.67700 214.96200 213.47200
 212.20000 211.10800 210.26000 209.63900 209.24400 209.03100 209.05800 209.33300
 209.78400 210.62600 211.33100 212.39100 213.62500 214.84668 217.72949 219.47640
 220.32566 220.86828 220.88710 220.27371 219.43733 218.84250 219.04934 220.86203
 222.60583 225.72206 229.03064 232.61777 236.12270 239.51333 242.70767 245.68587
 248.41061 250.90679 253.19353 254.91714 256.48655 257.94920 259.39966 260.69384
 261.81714 262.77997 263.71679 264.54570 265.26305 265.89772 266.47676 267.00133
 267.47312 267.89325 268.26027 268.72800
