|-------------------------------------------------------------------------|
|   File Name : in_temp.dat
|   Subject   : temperature profiles used for initial guess atmosphere
|   File Type : input of gmtr
|   Data Type : atmospherical data
|   Author/s  : WRF-Chem
|   Date      : Fri Jul 26 15:39:24 2024
|-------------------------------------------------------------------------|

 WRF-Chem temperature
#
 values of T (K)    (8f10.5)
#
 354.97500 345.04800 334.58700 324.11500 313.32600 302.53700 291.65000 280.76700
 269.93100 259.19300 248.62200 238.61700 229.08700 220.35500 212.54000 205.53500
 199.46400 194.49300 191.14300 189.19000 188.08900 188.01400 188.72400 189.90600
 191.46900 193.38200 195.40300 197.55600 199.80700 202.06000 204.28800 206.47900
 208.55200 210.37800 212.02500 213.65900 214.99800 216.11800 217.17200 218.25900
 219.49400 220.64500 221.67900 222.61400 223.54500 224.98200 226.57100 228.19000
 229.79700 231.81100 233.86500 235.97200 238.24200 240.55300 242.89900 245.25300
 247.48800 249.53500 251.36600 252.84800 254.09800 255.16700 256.02700 256.25300
 256.09500 255.54300 253.93500 252.56600 251.38400 250.24500 249.05200 247.70100
 246.01600 243.99600 241.78400 239.39300 236.81300 234.22300 231.65800 229.14400
 226.74000 224.47300 222.33500 220.32500 218.44000 216.67700 214.96200 213.47200
 212.20000 211.10800 210.26000 209.63900 209.24400 209.03100 209.05800 209.33300
 209.78400 210.62600 211.33100 212.39100 213.62500 214.84668 217.72949 219.47640
 220.32566 220.86828 220.88710 220.27371 219.43733 218.84250 219.04934 220.86203
 222.60583 225.72206 229.03064 232.61777 236.12270 239.51333 242.70767 245.68587
 248.41061 250.90679 253.19353 254.91714 256.48655 257.94920 259.39966 260.69384
 261.81714 262.77997 263.71679 264.54570 265.26305 265.89772 266.47676 267.00133
 267.47312 267.89325 268.26027 268.72800
 366.78100 356.33500 345.76700 334.63300 323.03600 311.23000 299.10000 286.90300
 274.61500 262.51200 250.52100 239.82200 229.94400 221.04800 213.23000 206.23200
 200.06600 195.00400 191.58600 189.62800 188.66500 188.72900 189.56400 190.87200
 192.59700 194.69200 196.95500 199.31400 201.75900 204.23900 206.32700 208.16900
 209.79500 210.94000 211.16900 211.39700 211.33400 211.03900 210.67200 210.30200
 209.91900 209.62900 209.43700 209.30100 209.22900 209.56000 209.94600 210.33500
 211.12800 212.30600 213.55600 215.33900 217.26700 219.31000 221.40500 223.48800
 225.54800 227.63200 229.72900 231.83500 233.96400 236.13600 238.39200 240.76200
 243.38300 245.63400 247.63600 249.40100 250.81800 251.94100 252.76300 253.07900
 253.11600 252.89000 252.25000 251.19800 249.80400 247.96500 245.87400 243.70700
 241.49800 239.30200 237.12200 234.96100 232.82100 230.68800 228.71400 226.87100
 225.15400 223.62600 222.25600 221.02800 219.91000 218.87000 217.97400 217.11500
 216.35700 215.53700 214.63500 213.99900 213.44900 212.85855 212.01316 212.61654
 214.26826 216.08686 218.14273 220.53346 223.40855 226.78828 231.49734 235.90155
 239.42278 243.28576 247.23140 251.11907 254.80144 258.23331 261.38913 264.27520
 266.89312 269.26852 271.44504 273.08845 274.58484 275.98591 277.39845 278.65879
 279.75272 280.69038 281.56708 282.34086 283.01050 283.60295 284.14348 284.63317
 285.07358 285.46577 285.80838 286.24500
 381.81900 372.39900 361.20600 349.77600 337.62200 324.85300 311.81000 298.35300
 284.86000 271.32400 258.56100 246.30400 236.08700 226.79600 218.44800 211.29000
 205.52200 200.89400 197.38100 194.84800 193.01500 192.31500 192.25000 192.43100
 192.91200 193.53700 194.13600 194.71200 195.26200 195.83100 196.39300 196.97600
 197.60400 198.14900 198.58400 199.05700 199.69500 200.37800 201.05400 201.70800
 202.31300 202.85700 203.35500 203.86200 204.56900 205.29700 206.02600 206.98700
 208.19300 209.44100 210.96900 212.57600 214.46200 216.51300 218.63000 220.85300
 223.34100 225.96200 228.73900 231.69700 234.70600 237.70600 240.69200 243.65700
 246.73700 249.69900 252.52100 255.06300 257.29000 259.23300 260.63300 261.68000
 262.46100 262.79800 262.69100 262.22400 261.06900 259.52500 257.70700 255.50700
 253.00100 250.30200 247.39800 244.45200 241.65400 239.05400 236.73300 234.59000
 232.59500 230.72500 228.83400 226.82600 224.66600 222.38700 220.10400 217.71500
 215.45900 213.06600 210.54600 208.09300 205.35400 202.08130 196.05959 200.71215
 209.01611 216.90438 223.84126 229.78593 235.00632 240.20838 245.98943 250.68668
 254.32982 257.93487 261.55666 264.96801 268.15192 271.06452 273.76717 276.25691
 278.57680 280.74479 282.77456 284.60533 286.27232 287.81705 289.31715 290.65561
 291.81734 292.81312 293.70701 294.49387 295.17482 295.77730 296.32696 296.82492
 297.27278 297.67160 298.02000 298.46400
 399.33000 389.90700 379.81300 368.66800 357.52200 345.30100 333.07400 320.22700
 307.21600 293.84800 280.37600 267.29600 254.61000 242.98700 232.15100 221.97700
 212.67200 204.28600 197.66900 192.82100 189.48600 187.45200 186.81400 187.08900
 187.78100 189.05400 190.64800 192.54200 194.63000 196.75200 198.67100 200.15800
 201.53500 202.48700 202.97500 203.34000 203.53900 203.49700 203.38500 203.24700
 203.00500 202.78600 202.60300 202.43700 202.42600 202.88800 203.42000 203.95100
 204.89500 205.99200 207.30100 208.95800 210.73800 213.10000 215.56400 218.18000
 220.96600 223.91800 226.96100 230.09200 233.29300 236.55700 239.95500 243.53700
 246.84500 249.39000 251.54200 253.47400 255.19500 256.48400 257.43100 258.05900
 258.21200 258.04000 257.58200 256.64300 255.23900 253.50700 251.40800 249.05600
 246.57600 243.99400 241.38900 238.83000 236.34400 233.98600 231.96900 230.11800
 228.42300 226.89900 225.54800 224.29700 223.10500 221.96500 220.95800 220.11300
 219.49000 218.92000 218.32500 217.88100 217.42300 216.96366 216.35568 216.80261
 217.73415 218.28582 218.64258 219.10077 220.44626 222.53987 226.38451 230.35736
 233.59734 237.39164 241.29814 245.22796 248.98002 252.51130 255.78595 258.80109
 261.54781 264.05210 266.34239 268.04198 269.58951 271.01303 272.35754 273.55718
 274.59842 275.49092 276.28989 276.99307 277.60161 278.14001 278.63122 279.07623
 279.47646 279.83287 280.14422 280.54100
 399.73800 389.78500 379.66200 368.15100 356.64100 344.35000 331.79200 318.88800
 305.72600 292.49300 279.20900 266.73800 254.69600 244.21100 234.45700 225.43300
 217.56900 210.45100 204.30000 199.30600 195.45800 192.57600 191.02700 190.38600
 190.23900 190.53400 191.16600 191.92500 192.79500 193.76600 194.73200 195.31200
 195.80000 196.05200 196.11500 196.11500 196.03900 195.72300 195.34000 194.98900
 194.75100 194.79200 195.13300 195.59800 196.50600 198.13600 199.85800 201.56600
 204.17900 206.82300 209.89300 213.28400 216.82800 220.60500 224.38700 228.20900
 232.03200 235.82500 239.56000 243.25800 246.84500 250.20100 253.70900 257.46800
 261.53000 264.22100 266.60100 268.68100 270.32900 271.74100 272.83600 273.47400
 273.89800 274.00200 273.75700 273.28800 272.37100 271.10000 269.58900 267.77900
 265.81600 263.72100 261.39300 258.91600 256.29800 253.42300 250.33100 247.11400
 243.83700 240.52900 237.24900 233.99900 230.72800 227.51500 224.25400 220.95200
 217.62700 213.65600 210.12100 206.78900 204.01000 201.99491 199.07309 198.76551
 199.40006 200.48994 201.46112 202.31912 203.45100 204.96110 207.47502 210.85391
 213.70530 217.29629 220.99574 224.72316 228.28753 231.64854 234.68024 237.40893
 239.70644 241.60899 243.46854 245.67368 247.68154 249.52395 251.24767 252.78566
 254.12057 255.26479 256.23740 257.09036 257.82852 258.48160 259.07744 259.61723
 260.10271 260.53504 260.91270 261.39400
 399.73800 389.78500 379.66200 368.15100 356.64100 344.35000 331.79200 318.88800
 305.72600 292.49300 279.20900 266.73800 254.69600 244.21100 234.45700 225.43300
 217.56900 210.45100 204.30000 199.30600 195.45800 192.57600 191.02700 190.38600
 190.23900 190.53400 191.16600 191.92500 192.79500 193.76600 194.73200 195.31200
 195.80000 196.05200 196.11500 196.11500 196.03900 195.72300 195.34000 194.98900
 194.75100 194.79200 195.13300 195.59800 196.50600 198.13600 199.85800 201.56600
 204.17900 206.82300 209.89300 213.28400 216.82800 220.60500 224.38700 228.20900
 232.03200 235.82500 239.56000 243.25800 246.84500 250.20100 253.70900 257.46800
 261.53000 264.22100 266.60100 268.68100 270.32900 271.74100 272.83600 273.47400
 273.89800 274.00200 273.75700 273.28800 272.37100 271.10000 269.58900 267.77900
 265.81600 263.72100 261.39300 258.91600 256.29800 253.42300 250.33100 247.11400
 243.83700 240.52900 237.24900 233.99900 230.72800 227.51500 224.25400 220.95200
 217.62700 213.65600 210.12100 206.78900 204.01000 201.99491 199.07309 198.76551
 199.40006 200.48994 201.46112 202.31912 203.45100 204.96110 207.47502 210.85391
 213.70530 217.29629 220.99574 224.72316 228.28753 231.64854 234.68024 237.40893
 239.70644 241.60899 243.46854 245.67368 247.68154 249.52395 251.24767 252.78566
 254.12057 255.26479 256.23740 257.09036 257.82852 258.48160 259.07744 259.61723
 260.10271 260.53504 260.91270 261.39400
 399.33000 389.90700 379.81300 368.66800 357.52200 345.30100 333.07400 320.22700
 307.21600 293.84800 280.37600 267.29600 254.61000 242.98700 232.15100 221.97700
 212.67200 204.28600 197.66900 192.82100 189.48600 187.45200 186.81400 187.08900
 187.78100 189.05400 190.64800 192.54200 194.63000 196.75200 198.67100 200.15800
 201.53500 202.48700 202.97500 203.34000 203.53900 203.49700 203.38500 203.24700
 203.00500 202.78600 202.60300 202.43700 202.42600 202.88800 203.42000 203.95100
 204.89500 205.99200 207.30100 208.95800 210.73800 213.10000 215.56400 218.18000
 220.96600 223.91800 226.96100 230.09200 233.29300 236.55700 239.95500 243.53700
 246.84500 249.39000 251.54200 253.47400 255.19500 256.48400 257.43100 258.05900
 258.21200 258.04000 257.58200 256.64300 255.23900 253.50700 251.40800 249.05600
 246.57600 243.99400 241.38900 238.83000 236.34400 233.98600 231.96900 230.11800
 228.42300 226.89900 225.54800 224.29700 223.10500 221.96500 220.95800 220.11300
 219.49000 218.92000 218.32500 217.88100 217.42300 216.96366 216.35568 216.80261
 217.73415 218.28582 218.64258 219.10077 220.44626 222.53987 226.38451 230.35736
 233.59734 237.39164 241.29814 245.22796 248.98002 252.51130 255.78595 258.80109
 261.54781 264.05210 266.34239 268.04198 269.58951 271.01303 272.35754 273.55718
 274.59842 275.49092 276.28989 276.99307 277.60161 278.14001 278.63122 279.07623
 279.47646 279.83287 280.14422 280.54100
 381.81900 372.39900 361.20600 349.77600 337.62200 324.85300 311.81000 298.35300
 284.86000 271.32400 258.56100 246.30400 236.08700 226.79600 218.44800 211.29000
 205.52200 200.89400 197.38100 194.84800 193.01500 192.31500 192.25000 192.43100
 192.91200 193.53700 194.13600 194.71200 195.26200 195.83100 196.39300 196.97600
 197.60400 198.14900 198.58400 199.05700 199.69500 200.37800 201.05400 201.70800
 202.31300 202.85700 203.35500 203.86200 204.56900 205.29700 206.02600 206.98700
 208.19300 209.44100 210.96900 212.57600 214.46200 216.51300 218.63000 220.85300
 223.34100 225.96200 228.73900 231.69700 234.70600 237.70600 240.69200 243.65700
 246.73700 249.69900 252.52100 255.06300 257.29000 259.23300 260.63300 261.68000
 262.46100 262.79800 262.69100 262.22400 261.06900 259.52500 257.70700 255.50700
 253.00100 250.30200 247.39800 244.45200 241.65400 239.05400 236.73300 234.59000
 232.59500 230.72500 228.83400 226.82600 224.66600 222.38700 220.10400 217.71500
 215.45900 213.06600 210.54600 208.09300 205.35400 202.08130 196.05959 200.71215
 209.01611 216.90438 223.84126 229.78593 235.00632 240.20838 245.98943 250.68668
 254.32982 257.93487 261.55666 264.96801 268.15192 271.06452 273.76717 276.25691
 278.57680 280.74479 282.77456 284.60533 286.27232 287.81705 289.31715 290.65561
 291.81734 292.81312 293.70701 294.49387 295.17482 295.77730 296.32696 296.82492
 297.27278 297.67160 298.02000 298.46400
 366.78100 356.34045 345.77789 334.64934 323.05778 311.25723 299.13267 286.94112
 274.65857 262.56101 250.57546 239.88190 230.00935 221.11879 213.30624 206.31369
 200.15313 195.09658 191.68402 189.73147 188.77392 188.84336 189.68381 190.99725
 192.72770 194.82814 197.09659 199.46104 201.91148 204.39693 206.49037 208.33782
 209.96926 211.11971 211.35416 211.58760 211.53005 211.24049 210.87894 210.51438
 210.13683 209.85228 209.66572 209.53517 209.46861 209.80506 210.19650 210.59095
 211.38940 212.57284 213.82829 215.61673 217.55018 219.59863 221.69907 223.78752
 225.85296 227.94241 230.04485 232.15630 234.29075 236.46819 238.72964 241.10508
 243.73153 245.98797 247.99542 249.76587 251.18831 252.31676 253.14420 253.46565
 253.50809 253.28754 252.65299 251.60643 250.21788 248.38432 246.29877 244.13722
 241.93366 239.74311 237.56855 235.41300 233.27844 231.15089 229.18234 227.34478
 225.63323 224.11067 222.74612 221.52356 220.41101 219.37646 218.48590 217.63235
 216.87979 216.06524 215.16868 214.53813 213.99358 213.07587 210.91414 209.98509
 210.29764 210.69792 212.00816 215.12741 219.42780 224.17769 229.86684 234.90836
 238.78186 242.78413 247.02737 251.20456 255.00734 258.69772 261.55975 263.60547
 266.29080 269.00818 271.52655 273.88309 275.90714 277.61560 279.06827 280.61545
 282.38519 284.09171 285.63022 286.98965 288.16895 289.21048 290.16464 291.02664
 291.80203 292.49411 293.09970 293.88397
 366.78100 356.34029 345.77757 334.64886 323.05715 311.25643 299.13172 286.94001
 274.65729 262.55958 250.57386 239.88015 230.00744 221.11672 213.30401 206.31130
 200.15058 195.09387 191.68116 189.72844 188.77073 188.84002 189.68030 190.99359
 192.72388 194.82416 197.09245 199.45673 201.90702 204.39231 206.48559 208.33288
 209.96417 211.11445 211.34874 211.58203 211.52431 211.23460 210.87289 210.50817
 210.13046 209.84574 209.65903 209.52832 209.46160 209.79789 210.18918 210.58346
 211.38175 212.56504 213.82032 215.60861 217.54190 219.59018 221.69047 223.77876
 225.84404 227.93333 230.03561 232.14690 234.28119 236.45847 238.71976 241.09505
 243.72133 245.97762 247.98491 249.75519 251.17748 252.30577 253.13305 253.45434
 253.49663 253.27591 252.64120 251.59448 250.20577 248.37206 246.28634 244.12463
 241.92092 239.73020 237.55549 235.39978 233.26506 231.13735 229.16864 227.33092
 225.61921 224.09649 222.73178 221.50907 220.39635 219.36164 218.47093 217.61721
 216.86450 216.04979 215.15307 214.52236 213.97765 213.09470 211.01422 210.09244
 210.29836 210.74808 212.05894 215.07101 219.33574 224.10498 229.77988 234.81664
 238.68523 242.68353 246.94025 251.13278 254.94136 258.65237 261.53580 263.59427
 266.28979 269.00089 271.49179 273.80826 275.84442 277.58994 279.03470 280.55988
 282.31519 283.99619 285.52740 286.88666 288.06601 289.10977 290.06259 290.92474
 291.70248 292.39551 293.00247 293.79037
 366.78100 356.34001 345.77702 334.64803 323.05603 311.25504 299.13005 286.93806
 274.65507 262.55708 250.57109 239.87710 230.00410 221.11311 213.30012 206.30713
 200.14614 195.08915 191.67616 189.72317 188.76517 188.83418 189.67419 190.98720
 192.71721 194.81722 197.08523 199.44924 201.89924 204.38425 206.47726 208.32427
 209.95528 211.10529 211.33930 211.57231 211.51431 211.22432 210.86233 210.49734
 210.11935 209.83436 209.64737 209.51638 209.44938 209.78539 210.17640 210.57041
 211.36842 212.55143 213.80644 215.59445 217.52745 219.57546 221.67547 223.76348
 225.82849 227.91750 230.01951 232.13052 234.26452 236.44153 238.70254 241.07755
 243.70356 245.95957 247.96658 249.73659 251.15859 252.28660 253.11361 253.43462
 253.47663 253.25564 252.62065 251.57366 250.18466 248.35067 246.26468 244.10269
 241.89870 239.70771 237.53272 235.37673 233.24173 231.11374 229.14475 227.30676
 225.59477 224.07178 222.70679 221.48380 220.37080 219.33581 218.44482 217.59083
 216.83784 216.02285 215.12586 214.49487 213.94987 213.10655 211.11871 210.19116
 210.31725 210.79459 212.10316 215.02898 219.23024 224.01927 229.70018 234.73328
 238.59492 242.58800 246.85431 251.06000 254.87386 258.60291 261.50470 263.57764
 266.28491 268.99146 271.45682 273.73511 275.78430 277.56857 279.00641 280.50903
 282.24725 283.90543 285.42838 286.78751 287.96573 289.01169 289.96432 290.82724
 291.60672 292.29984 292.90735 293.69980
 366.78100 356.33971 345.77642 334.64712 323.05483 311.25354 299.12825 286.93596
 274.65267 262.55437 250.56808 239.87379 230.00050 221.10921 213.29592 206.30262
 200.14133 195.08404 191.67075 189.71746 188.75917 188.82787 189.66758 190.98029
 192.71000 194.80971 197.07742 199.44112 201.89083 204.37554 206.46825 208.31496
 209.94567 211.09537 211.32908 211.56179 211.50350 211.21321 210.85092 210.48562
 210.10733 209.82204 209.63475 209.50346 209.43617 209.77187 210.16258 210.55629
 211.35400 212.53671 213.79142 215.57912 217.51183 219.55954 221.65925 223.74696
 225.81166 227.90037 230.00208 232.11279 234.24650 236.42321 238.68391 241.05862
 243.68433 245.94004 247.94675 249.71646 251.13816 252.26587 253.09258 253.41329
 253.45500 253.23371 252.59841 251.55112 250.16183 248.32754 246.24125 244.07896
 241.87466 239.68337 237.50808 235.35179 233.21650 231.08821 229.11891 227.28062
 225.56833 224.04504 222.67975 221.45646 220.34316 219.30787 218.41658 217.56229
 216.80900 215.99371 215.09641 214.46512 213.91983 213.11589 211.22018 210.28883
 210.34941 210.84000 212.13483 214.99768 219.12602 223.92836 229.62502 234.65268
 238.50533 242.49232 246.76781 250.98598 254.80663 258.55228 261.47052 263.55768
 266.27649 268.97934 271.42093 273.66284 275.72699 277.55048 278.98306 280.46411
 282.18387 283.82013 285.33463 286.69171 287.87201 288.91714 289.87051 290.73499
 291.51166 292.20718 292.81699 293.61267
 366.78100 356.33949 345.77597 334.64646 323.05394 311.25243 299.12692 286.93440
 274.65089 262.55237 250.56586 239.87135 229.99783 221.10632 213.29280 206.29929
 200.13778 195.08026 191.66675 189.71323 188.75472 188.82321 189.66269 190.97518
 192.70466 194.80415 197.07164 199.43512 201.88461 204.36909 206.46158 208.30807
 209.93855 211.08804 211.32152 211.55401 211.49550 211.20498 210.84247 210.47695
 210.09844 209.81293 209.62541 209.49390 209.42638 209.76187 210.15236 210.54584
 211.34333 212.52581 213.78030 215.56779 217.50027 219.54776 221.64724 223.73473
 225.79922 227.88770 229.98919 232.09967 234.23316 236.40964 238.67013 241.04462
 243.67010 245.92559 247.93207 249.70156 251.12305 252.25053 253.07702 253.39750
 253.43899 253.21748 252.58196 251.53445 250.14493 248.31042 246.22391 244.06139
 241.85688 239.66536 237.48985 235.33334 233.19782 231.06931 229.09979 227.26128
 225.54877 224.02525 222.65974 221.43622 220.32271 219.28720 218.39568 217.54117
 216.78765 215.97214 215.07463 214.44311 213.89760 213.12816 211.31332 210.39287
 210.39005 210.88254 212.15858 214.97215 219.02791 223.83505 229.55214 234.57036
 238.41284 242.39555 246.68120 250.91307 254.74254 258.50253 261.43399 263.53354
 266.26303 268.96201 271.38354 273.59143 275.66937 277.53125 278.96286 280.42450
 282.12457 283.74106 285.24554 286.60492 287.78412 288.82895 289.78354 290.64862
 291.42682 292.12216 292.73297 293.53052
 366.78100 356.33937 345.77573 334.64610 323.05346 311.25183 299.12620 286.93356
 274.64993 262.55129 250.56466 239.87002 229.99639 221.10476 213.29112 206.29749
 200.13585 195.07822 191.66459 189.71095 188.75232 188.82068 189.66005 190.97242
 192.70178 194.80115 197.06851 199.43188 201.88125 204.36561 206.45798 208.30434
 209.93471 211.08407 211.31744 211.54981 211.49117 211.20054 210.83790 210.47227
 210.09364 209.80800 209.62037 209.48873 209.42110 209.75647 210.14683 210.54020
 211.33756 212.51993 213.77429 215.56166 217.49403 219.54139 221.64076 223.72812
 225.79249 227.88086 229.98222 232.09259 234.22595 236.40232 238.66269 241.03705
 243.66242 245.91778 247.92415 249.69352 251.11488 252.24225 253.06861 253.38898
 253.43034 253.20871 252.57308 251.52544 250.13581 248.30117 246.21454 244.05191
 241.84727 239.65564 237.48000 235.32337 233.18774 231.05910 229.08947 227.25083
 225.53820 224.01456 222.64893 221.42530 220.31166 219.27603 218.38439 217.52976
 216.77613 215.96049 215.06286 214.43122 213.88559 213.14449 211.39626 210.50546
 210.43430 210.92540 212.17953 214.94785 218.93324 223.73912 229.48036 234.48535
 238.32045 242.30081 246.59575 250.84146 254.68202 258.45349 261.39310 263.50348
 266.24329 268.93961 271.34286 273.52179 275.61322 277.51108 278.94629 280.39337
 282.07266 283.67258 285.16589 286.52390 287.70438 288.74847 289.70413 290.57037
 291.34991 292.04486 292.65491 293.45840
 366.78100 356.33934 345.77568 334.64603 323.05337 311.25171 299.12605 286.93340
 274.64974 262.55108 250.56442 239.86977 229.99611 221.10445 213.29079 206.29714
 200.13548 195.07782 191.66416 189.71051 188.75185 188.82019 189.65953 190.97188
 192.70122 194.80056 197.06790 199.43124 201.88059 204.36493 206.45727 208.30361
 209.93396 211.08330 211.31664 211.54898 211.49033 211.19967 210.83701 210.47135
 210.09270 209.80704 209.61938 209.48772 209.42007 209.75541 210.14575 210.53909
 211.33644 212.51878 213.77312 215.56046 217.49280 219.54015 221.63949 223.72683
 225.79117 227.87952 229.98086 232.09120 234.22454 236.40089 238.66123 241.03557
 243.66091 245.91626 247.92260 249.69194 251.11328 252.24063 253.06697 253.38731
 253.42865 253.20700 252.57134 251.52368 250.13402 248.29936 246.21271 244.05005
 241.84539 239.65373 237.47808 235.32142 233.18576 231.05710 229.08745 227.24879
 225.53613 224.01247 222.64682 221.42316 220.30950 219.27384 218.38219 217.52753
 216.77387 215.95821 215.06055 214.42890 213.88324 213.16496 211.47049 210.62344
 210.48967 210.96455 212.19736 214.92455 218.84319 223.63998 229.40950 234.39825
 238.22687 242.20586 246.50941 250.76833 254.62355 258.40485 261.35034 263.46976
 266.21844 268.91315 271.30078 273.45380 275.55817 277.48877 278.93277 280.36780
 282.02750 283.61218 285.09235 286.45151 287.63165 288.67740 289.63257 290.49780
 291.27914 291.97607 292.58673 293.39169
 366.78100 356.33916 345.77532 334.64547 323.05263 311.25079 299.12495 286.93211
 274.64826 262.54942 250.56258 239.86774 229.99390 221.10205 213.28821 206.29437
 200.13253 195.07469 191.66085 189.70700 188.74816 188.81632 189.65548 190.96764
 192.69679 194.79595 197.06311 199.42627 201.87543 204.35958 206.45174 208.29790
 209.92806 211.07722 211.31037 211.54253 211.48369 211.19285 210.83001 210.46416
 210.08532 209.79948 209.61164 209.47980 209.41196 209.74711 210.13727 210.53043
 211.32759 212.50975 213.76390 215.55106 217.48322 219.53038 221.62954 223.71669
 225.78085 227.86901 229.97017 232.08033 234.21348 236.38964 238.64980 241.02396
 243.64912 245.90427 247.91043 249.67959 251.10075 252.22791 253.05406 253.37422
 253.41538 253.19354 252.55770 251.50986 250.12001 248.28517 246.19833 244.03549
 241.83065 239.63880 237.46296 235.30612 233.17028 231.04144 229.07159 227.23275
 225.51991 223.99607 222.63023 221.40638 220.29254 219.25670 218.36486 217.51002
 216.75617 215.94033 215.04249 214.41065 213.86481 213.17603 211.55101 210.74362
 210.54948 211.01016 212.20259 214.89911 218.76125 223.53613 229.33586 234.30827
 238.13217 242.11261 246.42433 250.69627 254.56886 258.35904 261.30649 263.43085
 266.18878 268.88177 271.25632 273.38635 275.50287 277.46512 278.92200 280.34854
 281.98917 283.55750 285.02905 286.38654 287.56696 288.61343 289.56818 290.43478
 291.21384 291.91376 292.52478 293.33148
 366.78100 356.33944 345.77588 334.64633 323.05377 311.25221 299.12665 286.93410
 274.65054 262.55198 250.56542 239.87086 229.99731 221.10575 213.29219 206.29863
 200.13708 195.07952 191.66596 189.71240 188.75384 188.82229 189.66173 190.97417
 192.70361 194.80305 197.07050 199.43394 201.88338 204.36782 206.46027 208.30671
 209.93715 211.08659 211.32003 211.55248 211.49392 211.20336 210.84080 210.47525
 210.09669 209.81113 209.62357 209.49201 209.42446 209.75990 210.15034 210.54378
 211.34123 212.52367 213.77811 215.56555 217.49799 219.54544 221.64488 223.73232
 225.79676 227.88520 229.98665 232.09709 234.23053 236.40697 238.66742 241.04186
 243.66730 245.92274 247.92918 249.69863 251.12007 252.24751 253.07395 253.39440
 253.43584 253.21428 252.57872 251.53116 250.14161 248.30705 246.22049 244.05793
 241.85338 239.66182 237.48626 235.32970 233.19414 231.06559 229.09603 227.25747
 225.54491 224.02135 222.65580 221.43224 220.31868 219.28312 218.39157 217.53701
 216.78345 215.96789 215.07033 214.43878 213.89322 213.20900 211.59508 210.88507
 210.64912 211.02206 212.21179 214.88229 218.66798 223.42986 229.26207 234.21872
 238.03886 242.02003 246.33804 250.62180 254.51488 258.31216 261.25958 263.38818
 266.15408 268.84778 271.21173 273.32278 275.44943 277.44073 278.91519 280.33875
 281.95819 283.51123 284.97012 286.32819 287.50842 288.55536 289.50958 290.37741
 291.15741 291.85532 292.46881 293.27658
 366.78100 356.33938 345.77576 334.64614 323.05352 311.25191 299.12629 286.93367
 274.65005 262.55143 250.56481 239.87019 229.99657 221.10495 213.29133 206.29772
 200.13610 195.07848 191.66486 189.71124 188.75262 188.82100 189.66038 190.97276
 192.70214 194.80153 197.06891 199.43229 201.88167 204.36605 206.45843 208.30481
 209.93519 211.08457 211.31795 211.55034 211.49172 211.20110 210.83848 210.47286
 210.09424 209.80862 209.62100 209.48938 209.42176 209.75715 210.14753 210.54091
 211.33829 212.52067 213.77505 215.56243 217.49481 219.54219 221.64157 223.72896
 225.79334 227.88172 229.98310 232.09348 234.22686 236.40324 238.66362 241.03800
 243.66338 245.91877 247.92515 249.69453 251.11591 252.24329 253.06967 253.39005
 253.43143 253.20981 252.57419 251.52658 250.13696 248.30234 246.21572 244.05310
 241.84848 239.65686 237.48124 235.32462 233.18900 231.06039 229.09077 227.25215
 225.53953 224.01591 222.65029 221.42667 220.31305 219.27743 218.38581 217.53120
 216.77758 215.96196 215.06434 214.43272 213.88710 213.22459 211.66179 210.99510
 210.76794 211.06766 212.19638 214.86270 218.58238 223.31818 229.18443 234.12163
 237.93689 241.92171 246.24687 250.54419 254.46318 258.27081 261.21954 263.35126
 266.12018 268.81284 271.16718 273.26062 275.39389 277.41162 278.90744 280.33160
 281.93155 283.47067 284.91684 286.27576 287.45462 288.50125 289.45694 290.32379
 291.10565 291.80374 292.41684 293.22528
 366.78100 356.33971 345.77642 334.64713 323.05484 311.25356 299.12827 286.93598
 274.65269 262.55440 250.56811 239.87382 230.00053 221.10925 213.29596 206.30267
 200.14138 195.08409 191.67080 189.71751 188.75922 188.82794 189.66765 190.98036
 192.71007 194.80978 197.07749 199.44120 201.89091 204.37562 206.46834 208.31505
 209.94576 211.09547 211.32918 211.56189 211.50360 211.21331 210.85103 210.48574
 210.10745 209.82216 209.63487 209.50358 209.43629 209.77200 210.16272 210.55643
 211.35414 212.53685 213.79156 215.57927 217.51198 219.55969 221.65940 223.74712
 225.81183 227.90054 230.00225 232.11296 234.24667 236.42338 238.68409 241.05881
 243.68452 245.94023 247.94694 249.71665 251.13836 252.26607 253.09278 253.41350
 253.45521 253.23392 252.59863 251.55134 250.16205 248.32776 246.24147 244.07918
 241.87490 239.68361 237.50832 235.35203 233.21674 231.08845 229.11916 227.28087
 225.56859 224.04530 222.68001 221.45672 220.34343 219.30814 218.41685 217.56256
 216.80928 215.99399 215.09670 214.46541 213.92012 213.25903 211.69980 211.12704
 210.88275 211.14229 212.19431 214.81572 218.47742 223.19580 229.09464 234.01534
 237.83217 241.82668 246.16209 250.47708 254.42418 258.24222 261.19135 263.31772
 266.08212 268.77084 271.11389 273.19098 275.33191 277.37296 278.89093 280.32266
 281.90848 283.43317 284.86838 286.22693 287.40695 288.45267 289.40845 290.27591
 291.05807 291.75708 292.37061 293.18292
 366.78100 356.34086 345.77873 334.65059 323.05945 311.25932 299.13518 286.94404
 274.66191 262.56477 250.57963 239.88650 230.01436 221.12422 213.31209 206.31995
 200.15981 195.10368 191.69154 189.73940 188.78226 188.85213 189.69299 191.00685
 192.73772 194.83858 197.10744 199.47231 201.92317 204.40903 206.50290 208.35076
 209.98262 211.13349 211.36835 211.60221 211.54508 211.25594 210.89480 210.53067
 210.15353 209.86939 209.68326 209.55312 209.48698 209.82385 210.21571 210.61057
 211.40944 212.59330 213.84916 215.63803 217.57189 219.62075 221.72162 223.81048
 225.87634 227.96620 230.06907 232.18093 234.31579 236.49366 238.75552 241.13138
 243.75825 246.01511 248.02297 249.79384 251.21670 252.34556 253.17343 253.49529
 253.53815 253.31802 252.68388 251.63774 250.24961 248.41647 246.33133 244.17020
 241.96706 239.77692 237.60279 235.44765 233.31351 231.18638 229.21824 227.38110
 225.66997 224.14783 222.78369 221.56155 220.44942 219.41528 218.52514 217.67201
 216.91987 216.10573 215.20960 214.57946 214.03532 213.33501 211.68372 211.26433
 211.08034 211.21532 212.16788 214.71846 218.30948 223.06419 229.01277 233.93130
 237.75746 241.75809 246.09558 250.42441 254.39449 258.21506 261.15262 263.26859
 266.03027 268.71484 271.05054 273.11566 275.26706 277.33127 278.87531 280.31778
 281.88959 283.39957 284.82452 286.18201 287.36249 288.40845 289.36484 290.23074
 291.01346 291.71417 292.32788 293.14145
 366.78100 356.34140 345.77980 334.65220 323.06160 311.26200 299.13840 286.94780
 274.66620 262.56960 250.58500 239.89240 230.02080 221.13120 213.31960 206.32800
 200.16840 195.11280 191.70120 189.74960 188.79299 188.86339 189.70479 191.01919
 192.75059 194.85199 197.12139 199.48679 201.93819 204.42459 206.51899 208.36739
 209.99979 211.15119 211.38659 211.62099 211.56439 211.27579 210.91519 210.55159
 210.17499 209.89139 209.70579 209.57619 209.51059 209.84799 210.24039 210.63579
 211.43519 212.61959 213.87599 215.66539 217.59979 219.64919 221.75059 223.83999
 225.90639 227.99679 230.10018 232.21258 234.34798 236.52638 238.78878 241.16518
 243.79258 246.04998 248.05838 249.82978 251.25318 252.38258 253.21098 253.53338
 253.57678 253.35718 252.72358 251.67798 250.29038 248.45778 246.37318 244.21258
 242.00998 239.82038 237.64678 235.49218 233.35858 231.23198 229.26438 227.42778
 225.71718 224.19558 222.83198 221.61038 220.49878 219.46518 218.57558 217.72298
 216.97138 216.15777 215.26217 214.63257 214.08897 213.38492 211.72433 211.30286
 211.26193 211.30821 212.16769 214.61984 218.16368 222.95972 228.97237 233.88712
 237.70882 241.70244 246.03119 250.36517 254.35553 258.16986 261.08554 263.19781
 265.96683 268.65353 270.98608 273.04590 275.20947 277.29623 278.87149 280.32446
 281.87891 283.37201 284.78366 286.14188 287.32272 288.36755 289.32300 290.19052
 290.97372 291.67358 292.28860 293.10345
 366.78100 356.34153 345.78006 334.65258 323.06211 311.26264 299.13917 286.94870
 274.66722 262.57075 250.58628 239.89381 230.02234 221.13286 213.32139 206.32992
 200.17045 195.11498 191.70351 189.75203 188.79556 188.86609 189.70762 191.02215
 192.75367 194.85520 197.12473 199.49026 201.94179 204.42831 206.52284 208.37137
 210.00390 211.15543 211.39095 211.62548 211.56901 211.28054 210.92007 210.55659
 210.18012 209.89665 209.71118 209.58171 209.51623 209.85376 210.24629 210.64182
 211.44135 212.62588 213.88240 215.67193 217.60646 219.65599 221.75752 223.84704
 225.91357 228.00410 230.10763 232.22016 234.35568 236.53421 238.79674 241.17327
 243.80080 246.05832 248.06685 249.83838 251.26191 252.39144 253.21996 253.54249
 253.58602 253.36655 252.73308 251.68760 250.30013 248.46766 246.38319 244.22272
 242.02025 239.83077 237.65730 235.50283 233.36936 231.24289 229.27541 227.43894
 225.72847 224.20700 222.84353 221.62205 220.51058 219.47711 218.58764 217.73517
 216.98369 216.17022 215.27475 214.64528 214.10181 213.41399 211.79114 211.32961
 211.40721 211.36797 212.14571 214.58730 218.10318 222.87843 228.94215 233.84125
 237.64696 241.63229 245.95232 250.29066 254.30437 258.11179 261.00800 263.12408
 265.90445 268.59659 270.92953 272.98801 275.15869 277.26660 278.87457 280.33856
 281.87396 283.34958 284.74582 286.10507 287.28391 288.32855 289.28394 290.15286
 290.93610 291.63672 292.25220 293.06638
 366.78100 356.34183 345.78066 334.65349 323.06332 311.26415 299.14098 286.95081
 274.66964 262.57347 250.58930 239.89713 230.02596 221.13679 213.32562 206.33445
 200.17528 195.12011 191.70894 189.75777 188.80160 188.87243 189.71426 191.02909
 192.76092 194.86275 197.13258 199.49841 201.95024 204.43707 206.53190 208.38073
 210.01356 211.16539 211.40122 211.63605 211.57988 211.29171 210.93154 210.56837
 210.19220 209.90903 209.72386 209.59469 209.52951 209.86734 210.26017 210.65600
 211.45583 212.64066 213.89749 215.68732 217.62215 219.67198 221.77381 223.86364
 225.93047 228.02130 230.12513 232.23796 234.37379 236.55262 238.81545 241.19228
 243.82011 246.07794 248.08677 249.85860 251.28243 252.41226 253.24109 253.56392
 253.60775 253.38858 252.75541 251.71024 250.32307 248.49090 246.40673 244.24656
 242.04439 239.85522 237.68205 235.52788 233.39471 231.26854 229.30137 227.46520
 225.75503 224.23386 222.87069 221.64952 220.53835 219.50518 218.61601 217.76384
 217.01267 216.19950 215.30433 214.67516 214.13199 213.45020 211.84122 211.38673
 211.52177 211.42352 212.15073 214.58144 218.05446 222.81073 228.89545 233.77374
 237.56537 241.54745 245.86450 250.21138 254.25252 258.05396 260.93652 263.05746
 265.84628 268.54227 270.87637 272.93051 275.10852 277.23303 278.87369 280.35086
 281.86996 283.32721 284.71011 286.06906 287.24957 288.29379 289.25058 290.11755
 290.90045 291.60260 292.21741 293.03668
 366.78100 356.34228 345.78157 334.65485 323.06513 311.26642 299.14370 286.95398
 274.67327 262.57755 250.59384 239.90212 230.03140 221.14269 213.33197 206.34125
 200.18254 195.12782 191.71710 189.76639 188.81067 188.88195 189.72424 191.03952
 192.77180 194.87409 197.14437 199.51066 201.96294 204.45022 206.54551 208.39479
 210.02807 211.18036 211.41664 211.65192 211.59621 211.30849 210.94877 210.58606
 210.21034 209.92762 209.74291 209.61419 209.54948 209.88776 210.28104 210.67733
 211.47761 212.66289 213.92018 215.71046 217.64574 219.69603 221.79831 223.88859
 225.95588 228.04716 230.15144 232.26473 234.40101 236.58030 238.84358 241.22086
 243.84915 246.10743 248.11671 249.88900 251.31328 252.44356 253.27285 253.59613
 253.64041 253.42170 252.78898 251.74426 250.35755 248.52583 246.44212 244.28240
 242.08068 239.89197 237.71925 235.56553 233.43282 231.30710 229.34038 227.50467
 225.79495 224.27423 222.91152 221.69080 220.58008 219.54737 218.65865 217.80694
 217.05622 216.24350 215.34879 214.72007 214.17735 213.49344 211.87914 211.45470
 211.62032 211.48615 212.18704 214.57558 217.98715 222.75566 228.84140 233.69673
 237.47836 241.46014 245.77742 250.13445 254.20436 257.99960 260.86856 262.99350
 265.78708 268.48471 270.81766 272.87106 275.05542 277.19553 278.86484 280.35898
 281.86359 283.30594 284.67728 286.03592 287.21527 288.26065 289.21677 290.08414
 290.86798 291.56885 292.18555 293.00299
 366.78100 356.34283 345.78265 334.65648 323.06731 311.26913 299.14696 286.95779
 274.67761 262.58244 250.59927 239.90809 230.03792 221.14975 213.33957 206.34940
 200.19123 195.13705 191.72688 189.77671 188.82153 188.89336 189.73619 191.05202
 192.78484 194.88767 197.15850 199.52532 201.97815 204.46598 206.56180 208.41163
 210.04546 211.19828 211.43511 211.67094 211.61576 211.32859 210.96942 210.60724
 210.23207 209.94990 209.76572 209.63755 209.57338 209.91220 210.30603 210.70286
 211.50368 212.68951 213.94734 215.73816 217.67399 219.72482 221.82764 223.91847
 225.98630 228.07812 230.18295 232.29678 234.43360 236.61343 238.87726 241.25508
 243.88391 246.14274 248.15256 249.92539 251.35022 252.48105 253.31087 253.63470
 253.67953 253.46135 252.82918 251.78501 250.39883 248.56766 246.48449 244.32531
 242.12414 239.93597 237.76379 235.61062 233.47845 231.35327 229.38710 227.55193
 225.84275 224.32258 222.96041 221.74023 220.63006 219.59789 218.70971 217.85854
 217.10837 216.29619 215.40202 214.77385 214.23167 213.54062 211.90910 211.52313
 211.70724 211.56140 212.23528 214.56181 217.92058 222.71082 228.78853 233.61781
 237.39098 241.37340 245.69139 250.06058 254.15715 257.94244 260.79623 262.92654
 265.72412 268.42282 270.75436 272.80920 275.00229 277.15659 278.85519 280.36502
 281.85672 283.28351 284.64435 286.00400 287.18356 288.22742 289.18213 290.05112
 290.83542 291.53702 292.15387 292.97266
 366.78100 356.34349 345.78398 334.65847 323.06996 311.27245 299.15094 286.96243
 274.68292 262.58841 250.60590 239.91539 230.04588 221.15836 213.34885 206.35934
 200.20183 195.14832 191.73881 189.78930 188.83479 188.90728 189.75077 191.06726
 192.80075 194.90424 197.17573 199.54322 201.99671 204.48520 206.58169 208.43218
 210.06667 211.22016 211.45765 211.69414 211.63963 211.35311 210.99460 210.63309
 210.25858 209.97707 209.79356 209.66605 209.60254 209.94203 210.33652 210.73401
 211.53550 212.72199 213.98048 215.77197 217.70846 219.75995 221.86344 223.95493
 226.02342 228.11591 230.22140 232.33589 234.47338 236.65386 238.91835 241.29684
 243.92633 246.18582 248.19631 249.96980 251.39529 252.52678 253.35727 253.68176
 253.72725 253.50974 252.87823 251.83472 250.44921 248.61870 246.53619 244.37768
 242.17717 239.98966 237.81815 235.66564 233.53413 231.40961 229.44410 227.60959
 225.90108 224.38157 223.02006 221.80055 220.69104 219.65953 218.77202 217.92151
 217.17200 216.36049 215.46698 214.83947 214.29796 213.59320 211.92902 211.59271
 211.78581 211.65341 212.28932 214.54332 217.86510 222.67036 228.73383 233.53630
 237.30292 241.28806 245.60809 249.98947 254.11040 257.88174 260.71838 262.85684
 265.65866 268.35773 270.68872 272.74719 274.94958 277.11697 278.84366 280.36893
 281.84955 283.26105 284.61292 285.97110 287.15027 288.19412 289.15036 290.01794
 290.80417 291.50531 292.12308 292.94186
 366.78100 356.34426 345.78552 334.66078 323.07304 311.27629 299.15555 286.96781
 274.68907 262.59533 250.61359 239.92385 230.05511 221.16837 213.35963 206.37088
 200.21414 195.16140 191.75266 189.80392 188.85018 188.92344 189.76770 191.08496
 192.81921 194.92347 197.19573 199.56399 202.01825 204.50751 206.60477 208.45603
 210.09129 211.24554 211.48380 211.72106 211.66732 211.38158 211.02384 210.66310
 210.28936 210.00862 209.82588 209.69913 209.63639 209.97665 210.37191 210.77017
 211.57243 212.75969 214.01895 215.81121 217.74846 219.80072 221.90498 223.99724
 226.06650 228.15976 230.26602 232.38128 234.51954 236.70079 238.96605 241.34531
 243.97557 246.23583 248.24709 250.02135 251.44761 252.57987 253.41113 253.73638
 253.78264 253.56590 252.93516 251.89242 250.50768 248.67794 246.59620 244.43846
 242.23871 240.05197 237.88123 235.72949 233.59875 231.47501 229.51027 227.67653
 225.96879 224.45004 223.08930 221.87056 220.76182 219.73108 218.84434 217.99460
 217.24586 216.43512 215.54238 214.91563 214.37489 213.65068 211.94012 211.66022
 211.85733 211.75743 212.35158 214.52428 217.82053 222.62891 228.67693 233.45564
 237.21725 241.20474 245.52652 249.92061 254.06325 257.81549 260.63446 262.78531
 265.59128 268.29007 270.62027 272.68594 274.89630 277.07666 278.82837 280.36810
 281.83859 283.23709 284.57996 285.93881 287.11752 288.16217 289.11618 289.98584
 290.77203 291.47165 292.09186 292.91110
 366.78100 356.34505 345.78711 334.66316 323.07622 311.28027 299.16032 286.97338
 274.69543 262.60249 250.62154 239.93259 230.06465 221.17870 213.37076 206.38281
 200.22687 195.17492 191.76697 189.81903 188.86608 188.94014 189.78519 191.10324
 192.83830 194.94335 197.21641 199.58546 202.04051 204.53057 206.62862 208.48068
 210.11673 211.27178 211.51084 211.74889 211.69595 211.41100 211.05405 210.69411
 210.32116 210.04122 209.85927 209.73332 209.67138 210.01243 210.40849 210.80754
 211.61060 212.79865 214.05870 215.85176 217.78981 219.84287 221.94792 224.04097
 226.11103 228.20508 230.31214 232.42819 234.56724 236.74930 239.01535 241.39541
 244.02646 246.28751 248.29957 250.07462 251.50168 252.63473 253.46678 253.79284
 253.83989 253.62395 252.99400 251.95206 250.56811 248.73916 246.65822 244.50127
 242.30233 240.11638 237.94643 235.79549 233.66554 231.54260 229.57865 227.74570
 226.03876 224.52081 223.16087 221.94292 220.83497 219.80503 218.91908 218.07014
 217.32219 216.51224 215.62030 214.99435 214.45441 213.70866 211.94682 211.72069
 211.93126 211.86128 212.41768 214.51321 217.79207 222.59021 228.61436 233.37329
 237.13167 241.12062 245.44621 249.85332 254.01447 257.74429 260.54642 262.71368
 265.52347 268.22037 270.55060 272.62445 274.84311 277.03561 278.80957 280.36365
 281.82455 283.20889 284.54715 285.90512 287.08417 288.12744 289.08316 289.95157
 290.73642 291.43866 292.05737 292.87595
 366.78100 356.34584 345.78868 334.66551 323.07935 311.28419 299.16503 286.97887
 274.70171 262.60954 250.62938 239.94122 230.07406 221.18890 213.38174 206.39457
 200.23941 195.18825 191.78109 189.83393 188.88176 188.95660 189.80244 191.12128
 192.85712 194.96296 197.23679 199.60663 202.06247 204.55331 206.65215 208.50498
 210.14182 211.29766 211.53750 211.77634 211.72418 211.44001 211.08385 210.72469
 210.35253 210.07337 209.89221 209.76704 209.70588 210.04772 210.44456 210.84440
 211.64823 212.83707 214.09791 215.89175 217.83059 219.88443 221.99026 224.08410
 226.15494 228.24978 230.35762 232.47445 234.61429 236.79713 239.06397 241.44481
 244.07665 246.33848 248.35132 250.12716 251.55500 252.68884 253.52168 253.84851
 253.89635 253.68119 253.05203 252.01087 250.62770 248.79954 246.71938 244.56322
 242.36506 240.17990 238.01073 235.86057 233.73141 231.60925 229.64609 227.81392
 226.10776 224.59060 223.23144 222.01428 220.90712 219.87795 218.99279 218.14463
 217.39747 216.58831 215.69715 215.07198 214.53282 213.76555 211.95279 211.77206
 212.01300 211.96614 212.48495 214.51363 217.77037 222.54437 228.55225 233.29343
 237.04826 241.03783 245.36751 249.78885 253.96492 257.66788 260.45422 262.64243
 265.45599 268.14755 270.47656 272.56030 274.79013 276.99371 278.78946 280.35660
 281.80832 283.18140 284.51178 285.87186 287.04935 288.09381 289.04892 289.91757
 290.70221 291.40555 292.02228 292.84183
 366.78100 356.34669 345.79038 334.66807 323.08275 311.28844 299.17013 286.98482
 274.70851 262.61720 250.63789 239.95058 230.08426 221.19995 213.39364 206.40733
 200.25302 195.20271 191.79640 189.85009 188.89877 188.97446 189.82115 191.14084
 192.87753 194.98422 197.25891 199.62960 202.08628 204.57797 206.67766 208.53135
 210.16904 211.32573 211.56642 211.80611 211.75479 211.47148 211.11617 210.75786
 210.38655 210.10824 209.92793 209.80362 209.74330 210.08599 210.48368 210.88437
 211.68906 212.87875 214.14044 215.93513 217.87481 219.92950 222.03619 224.13088
 226.20257 228.29826 230.40695 232.52464 234.66532 236.84901 239.11670 241.49839
 244.13108 246.39377 248.40746 250.18415 251.61283 252.74752 253.58121 253.90890
 253.95759 253.74328 253.11497 252.07466 250.69234 248.86503 246.78572 244.63041
 242.43310 240.24879 238.08048 235.93117 233.80285 231.68154 229.71923 227.88792
 226.18261 224.66630 223.30799 222.09168 220.98536 219.95705 219.07274 218.22543
 217.47912 216.67081 215.78050 215.15619 214.61787 213.82498 211.95168 211.82047
 212.10187 212.06541 212.56230 214.52367 217.73782 222.49451 228.49562 233.21732
 236.96597 240.95439 245.29054 249.72746 253.91631 257.58911 260.36053 262.57394
 265.38803 268.06982 270.39661 272.49292 274.73468 276.94974 278.76532 280.34692
 281.78986 283.15216 284.47800 285.83768 287.01547 288.06067 289.01428 289.88297
 290.66821 291.37073 291.98889 292.80911
 366.78100 356.34733 345.79167 334.67000 323.08534 311.29167 299.17400 286.98934
 274.71367 262.62301 250.64434 239.95767 230.09201 221.20834 213.40268 206.41701
 200.26334 195.21368 191.80801 189.86235 188.91168 188.98801 189.83535 191.15568
 192.89302 195.00035 197.27568 199.64702 202.10435 204.59669 206.69702 208.55136
 210.18969 211.34702 211.58836 211.82869 211.77803 211.49536 211.14069 210.78303
 210.41236 210.13470 209.95503 209.83136 209.77170 210.11503 210.51337 210.91470
 211.72003 212.91037 214.17270 215.96804 217.90837 219.96370 222.07104 224.16637
 226.23871 228.33504 230.44437 232.56271 234.70404 236.88838 239.15671 241.53904
 244.17238 246.43571 248.45005 250.22738 251.65671 252.79205 253.62638 253.95472
 254.00405 253.79038 253.16272 252.12305 250.74139 248.91472 246.83605 244.68139
 242.48472 240.30106 238.13339 235.98472 233.85706 231.73639 229.77473 227.94406
 226.23940 224.72373 223.36606 222.15040 221.04473 220.01707 219.13340 218.28673
 217.54107 216.73340 215.84374 215.22007 214.68240 213.87325 211.96149 211.85388
 212.19980 212.16689 212.63646 214.53024 217.69901 222.45459 228.44785 233.14516
 236.88313 240.87180 245.21581 249.67032 253.86887 257.50705 260.26358 262.50604
 265.31854 267.98666 270.31042 272.42075 274.67725 276.90381 278.73834 280.33405
 281.76846 283.12054 284.44562 285.80432 286.98227 288.02811 288.98108 289.85184
 290.63605 291.33813 291.95633 292.77771
 366.78100 356.34791 345.79282 334.67173 323.08764 311.29454 299.17745 286.99336
 274.71827 262.62818 250.65009 239.96400 230.09891 221.21582 213.41073 206.42563
 200.27254 195.22345 191.81836 189.87327 188.92318 189.00009 189.84800 191.16891
 192.90682 195.01472 197.29063 199.66254 202.12045 204.61336 206.71427 208.56918
 210.20809 211.36600 211.60791 211.84881 211.79872 211.51663 211.16254 210.80545
 210.43536 210.15827 209.97918 209.85609 209.79700 210.14090 210.53981 210.94172
 211.74763 212.93854 214.20145 215.99736 217.93827 219.99418 222.10209 224.19799
 226.27090 228.36781 230.47772 232.59663 234.73854 236.92345 239.19236 241.57527
 244.20918 246.47308 248.48799 250.26590 251.69581 252.83172 253.66663 253.99554
 254.04545 253.83236 253.20527 252.16617 250.78508 248.95899 246.88090 244.72681
 242.53072 240.34763 238.18054 236.03245 233.90535 231.78526 229.82417 227.99408
 226.28999 224.77490 223.41781 222.20272 221.09763 220.07054 219.18744 218.34135
 217.59626 216.78917 215.90008 215.27699 214.73990 213.91559 211.96809 211.91077
 212.27240 212.25761 212.72475 214.55887 217.68239 222.39995 228.38364 233.06219
 236.79370 240.78661 245.14365 249.61763 253.82332 257.42340 260.16495 262.44003
 265.24936 267.90106 270.22046 272.34811 274.62061 276.85995 278.71313 280.32339
 281.74823 283.09213 284.41406 285.77112 286.95059 287.99460 288.94958 289.81836
 290.60406 291.30832 291.92447 292.74628
 366.78100 356.34891 345.79482 334.67473 323.09165 311.29956 299.18347 287.00038
 274.72629 262.63720 250.66011 239.97502 230.11094 221.22885 213.42476 206.44067
 200.28858 195.24049 191.83640 189.89232 188.94323 189.02114 189.87005 191.19196
 192.93087 195.03978 197.31669 199.68961 202.14852 204.64243 206.74434 208.60025
 210.24016 211.39907 211.64199 211.88390 211.83481 211.55372 211.20063 210.84454
 210.47545 210.19936 210.02128 209.89919 209.84110 210.18601 210.58592 210.98883
 211.79574 212.98766 214.25157 216.04848 217.99039 220.04730 222.15621 224.25312
 226.32703 228.42495 230.53586 232.65577 234.79868 236.98459 239.25450 241.63841
 244.27333 246.53824 248.55415 250.33306 251.76397 252.90088 253.73679 254.06670
 254.11762 253.90553 253.27944 252.24135 250.86126 249.03617 246.95908 244.80600
 242.61091 240.42882 238.26273 236.11564 233.98955 231.87046 229.91037 228.08129
 226.37820 224.86411 223.50802 222.29393 221.18984 220.16375 219.28167 218.43658
 217.69249 216.88640 215.99831 215.37622 214.84013 213.97957 211.94643 211.94838
 212.44913 212.35434 212.70929 214.51335 217.62910 222.38885 228.35986 233.01312
 236.72679 240.71504 245.08031 249.57214 253.78064 257.33578 260.06073 262.37250
 265.17532 267.80606 270.12143 272.26855 274.55969 276.80917 278.68222 280.30386
 281.72037 283.05814 284.38159 285.73993 286.91898 287.96344 288.91943 289.78845
 290.57336 291.27701 291.89471 292.71436
 366.78100 356.34959 345.79618 334.67676 323.09435 311.30294 299.18753 287.00511
 274.73170 262.64329 250.66688 239.98247 230.11905 221.23764 213.43423 206.45082
 200.29940 195.25199 191.84858 189.90517 188.95676 189.03534 189.88493 191.20752
 192.94711 195.05669 197.33428 199.70787 202.16746 204.66205 206.76463 208.62122
 210.26181 211.42140 211.66498 211.90757 211.85916 211.57875 211.22633 210.87092
 210.50251 210.22710 210.04969 209.92827 209.87086 210.21645 210.61704 211.02062
 211.82821 213.02080 214.28539 216.08298 218.02556 220.08315 222.19274 224.29033
 226.36491 228.46350 230.57509 232.69568 234.83927 237.02585 239.29644 241.68103
 244.31662 246.58220 248.59879 250.37838 251.80997 252.94756 253.78414 254.11473
 254.16632 253.95491 253.32949 252.29208 250.91267 249.08826 247.01185 244.85943
 242.66502 240.48361 238.31820 236.17178 234.04637 231.92796 229.96855 228.14014
 226.43772 224.92431 223.56890 222.35549 221.25207 220.22666 219.34525 218.50084
 217.75742 216.95201 216.06460 215.44319 214.90778 214.02913 211.95323 211.93713
 212.50897 212.46971 212.87146 214.64551 217.64165 222.27332 228.30334 232.93079
 236.62686 240.62140 245.00560 249.51999 253.72980 257.23724 259.94543 262.29514
 265.09268 267.70358 270.01416 272.18402 274.49655 276.75861 278.64941 280.28589
 281.69644 283.02817 284.34879 285.70721 286.88638 287.93024 288.88498 289.75528
 290.54022 291.24460 291.86038 292.68045
 366.78100 356.35034 345.79767 334.67901 323.09735 311.30669 299.19202 287.01036
 274.73770 262.65004 250.67437 239.99071 230.12805 221.24739 213.44472 206.46206
 200.31140 195.26474 191.86207 189.91941 188.97175 189.05109 189.90142 191.22476
 192.96510 195.07544 197.35377 199.72811 202.18845 204.68379 206.78712 208.64446
 210.28580 211.44613 211.69047 211.93381 211.88615 211.60648 211.25482 210.90016
 210.53250 210.25783 210.08117 209.96051 209.90385 210.25018 210.65152 211.05586
 211.86420 213.05753 214.32287 216.12121 218.06455 220.12288 222.23322 224.33156
 226.40690 228.50623 230.61857 232.73991 234.88425 237.07158 239.34292 241.72826
 244.36460 246.63093 248.64827 250.42861 251.86094 252.99928 253.83662 254.16796
 254.22029 254.00963 253.38497 252.34831 250.96964 249.14598 247.07032 244.91866
 242.72499 240.54433 238.37967 236.23401 234.10934 231.99168 230.03302 228.20536
 226.50369 224.99103 223.63637 222.42371 221.32104 220.29638 219.41572 218.57206
 217.82939 217.02473 216.13807 215.51740 214.98274 214.08315 211.95776 211.91815
 212.57683 212.61356 212.96991 214.75467 217.71846 222.19781 228.23721 232.84509
 236.53207 240.53210 244.93495 249.46964 253.67484 257.12698 259.81281 262.21707
 265.00577 267.58508 269.89169 272.09006 274.42456 276.69025 278.59644 280.24271
 281.64874 282.98233 284.31979 285.68024 286.85812 287.90283 288.85977 289.72861
 290.51611 291.21780 291.83609 292.65430
 366.78100 356.35082 345.79863 334.68045 323.09927 311.30909 299.19490 287.01372
 274.74154 262.65436 250.67917 239.99599 230.13381 221.25363 213.45144 206.46926
 200.31908 195.27289 191.87071 189.92853 188.98135 189.06116 189.91198 191.23580
 192.97662 195.08743 197.36625 199.74107 202.20188 204.69770 206.80152 208.65934
 210.30115 211.46197 211.70679 211.95061 211.90342 211.62424 211.27306 210.91888
 210.55169 210.27751 210.10133 209.98114 209.92496 210.27178 210.67360 211.07841
 211.88723 213.08105 214.34687 216.14568 218.08950 220.14832 222.25913 224.35795
 226.43377 228.53359 230.64640 232.76822 234.91304 237.10086 239.37267 241.75849
 244.39531 246.66213 248.67994 250.46076 251.89358 253.03239 253.87021 254.20203
 254.25485 254.04466 253.42048 252.38430 251.00612 249.18293 247.10775 244.95657
 242.76338 240.58320 238.41902 236.27384 234.14965 232.03247 230.07429 228.24711
 226.54592 225.03374 223.67956 222.46738 221.36519 220.34101 219.46083 218.61764
 217.87546 217.07128 216.18510 215.56491 215.03073 214.12482 211.98828 211.91043
 212.60698 212.72101 213.00645 214.81273 217.80814 222.17928 228.17726 232.80951
 236.46686 240.47968 244.89029 249.44058 253.64821 257.06772 259.76407 262.17480
 264.89923 267.45276 269.74918 271.96954 274.30936 276.56964 278.48404 280.13223
 281.54724 282.91019 284.28238 285.64362 286.82257 287.86896 288.82486 289.69574
 290.48257 291.18753 291.81921 292.64240
 366.78100 356.35022 345.79744 334.67866 323.09688 311.30610 299.19132 287.00954
 274.73676 262.64898 250.67320 239.98942 230.12664 221.24586 213.44308 206.46030
 200.30952 195.26274 191.85996 189.91718 188.96940 189.04862 189.89884 191.22206
 192.96228 195.07250 197.35072 199.72494 202.18516 204.68038 206.78360 208.64082
 210.28204 211.44226 211.68648 211.92970 211.88192 211.60214 211.25036 210.89558
 210.52780 210.25302 210.07624 209.95546 209.89868 210.24490 210.64612 211.05034
 211.85856 213.05178 214.31700 216.11522 218.05844 220.11666 222.22688 224.32510
 226.40032 228.49954 230.61176 232.73298 234.87720 237.06443 239.33565 241.72087
 244.35709 246.62331 248.64053 250.42075 251.85297 252.99119 253.82841 254.15963
 254.21185 254.00107 253.37629 252.33951 250.96073 249.13695 247.06117 244.90939
 242.71561 240.53483 238.37005 236.22427 234.09949 231.98171 230.02293 228.19515
 226.49337 224.98059 223.62581 222.41303 221.31025 220.28547 219.40469 218.56091
 217.81813 217.01335 216.12657 215.50579 214.97101 214.11386 212.12695 211.92651
 212.50540 212.67963 213.04193 214.84692 217.87042 222.20409 228.07718 232.78316
 236.40128 240.45210 244.86847 249.40541 253.57735 256.98099 259.73889 262.36441
 265.00214 267.49075 269.77899 272.01541 274.30334 276.47473 278.36990 279.95871
 281.34247 282.73911 284.21051 285.56284 286.74051 287.78439 288.74069 289.59692
 290.31912 290.93851 291.47961 292.16916
 366.78100 356.34960 345.79620 334.67680 323.09440 311.30300 299.18760 287.00520
 274.73179 262.64339 250.66699 239.98259 230.11919 221.23779 213.43439 206.45099
 200.29959 195.25219 191.84879 189.90539 188.95699 189.03559 189.88519 191.20779
 192.94738 195.05698 197.33458 199.70818 202.16778 204.66238 206.76498 208.62158
 210.26218 211.42178 211.66538 211.90798 211.85958 211.57918 211.22678 210.87137
 210.50297 210.22757 210.05017 209.92877 209.87137 210.21697 210.61757 211.02117
 211.82877 213.02137 214.28597 216.08357 218.02617 220.08377 222.19337 224.29096
 226.36556 228.46416 230.57576 232.69636 234.83996 237.02656 239.29716 241.68176
 244.31736 246.58296 248.59956 250.37916 251.81076 252.94836 253.78495 254.11555
 254.16715 253.95575 253.33035 252.29295 250.91355 249.08915 247.01275 244.86035
 242.66595 240.48455 238.31915 236.17275 234.04735 231.92895 229.96954 228.14114
 226.43874 224.92534 223.56994 222.35654 221.25314 220.22774 219.34634 218.50194
 217.75854 216.95314 216.06574 215.44434 214.90894 214.08899 212.20337 212.00938
 212.47006 212.66742 213.08720 214.83961 217.84012 222.17773 228.01279 232.71904
 236.32648 240.39680 244.83662 249.39955 253.57263 256.95261 259.77762 262.48343
 265.09851 267.55804 269.84180 272.06665 274.34286 276.51700 278.42007 280.01270
 281.36456 282.73969 284.15295 285.49759 286.67160 287.71207 288.65839 289.49469
 290.23123 290.88712 291.46011 292.19031
 366.78100 356.34982 345.79665 334.67747 323.09530 311.30412 299.18894 287.00677
 274.73359 262.64541 250.66924 239.98506 230.12189 221.24071 213.43753 206.45436
 200.30318 195.25600 191.85283 189.90965 188.96148 189.04030 189.89012 191.21295
 192.95277 195.06260 197.34042 199.71424 202.17407 204.66889 206.77171 208.62854
 210.26936 211.42919 211.67301 211.91583 211.86766 211.58748 211.23530 210.88013
 210.51195 210.23678 210.05960 209.93842 209.88125 210.22707 210.62790 211.03172
 211.83954 213.03237 214.29719 216.09501 218.03784 220.09566 222.20549 224.30331
 226.37813 228.47696 230.58878 232.70960 234.85343 237.04025 239.31108 241.69590
 244.33172 246.59755 248.61437 250.39420 251.82602 252.96384 253.80067 254.13149
 254.18331 253.97214 253.34696 252.30979 250.93061 249.10643 247.03026 244.87808
 242.68390 240.50273 238.33755 236.19138 234.06620 231.94802 229.98885 228.16067
 226.45850 224.94532 223.59014 222.37697 221.27379 220.24861 219.36744 218.52326
 217.78009 216.97491 216.08773 215.46656 214.93138 214.09044 212.13019 212.12999
 212.66591 212.90627 213.25665 214.83707 217.75452 222.07021 227.96941 232.58089
 236.19026 240.25981 244.72525 249.30244 253.44844 256.78113 259.55869 262.27347
 264.94241 267.45120 269.78192 272.06003 274.37302 276.61401 278.58911 280.23468
 281.59390 282.86227 284.18573 285.49146 286.66208 287.70328 288.65671 289.52570
 290.31909 291.08380 291.76474 292.63251
 366.78100 356.35024 345.79748 334.67873 323.09697 311.30621 299.19145 287.00969
 274.73694 262.64918 250.67342 239.98966 230.12690 221.24615 213.44339 206.46063
 200.30987 195.26311 191.86036 189.91760 188.96984 189.04908 189.89933 191.22257
 192.96281 195.07305 197.35129 199.72554 202.18578 204.68102 206.78426 208.64150
 210.28275 211.44299 211.68723 211.93047 211.88271 211.60296 211.25120 210.89644
 210.52868 210.25392 210.07717 209.95641 209.89965 210.24589 210.64713 211.05138
 211.85962 213.05286 214.31810 216.11634 218.05959 220.11783 222.22807 224.32631
 226.40156 228.50080 230.61304 232.73428 234.87852 237.06577 239.33701 241.72225
 244.35849 246.62473 248.64198 250.42222 251.85446 252.99270 253.82994 254.16119
 254.21343 254.00267 253.37791 252.34115 250.96240 249.13864 247.06288 244.91112
 242.71736 240.53661 238.37185 236.22609 234.10133 231.98357 230.02482 228.19706
 226.49530 224.98254 223.62779 222.41503 221.31227 220.28751 219.40675 218.56300
 217.82024 217.01548 216.12872 215.50796 214.97321 214.10751 212.06223 212.18445
 212.84563 213.11563 213.40062 214.86888 217.70465 221.98648 227.97658 232.46576
 236.09499 240.14201 244.63914 249.24901 253.37712 256.59384 259.26468 261.97968
 264.65662 267.13242 269.45868 271.79370 274.17819 276.46240 278.47076 280.17941
 281.60303 282.89706 284.18759 285.46436 286.61862 287.65845 288.60901 289.47183
 290.25128 290.94894 291.56567 292.40182
 366.78100 356.35130 345.79960 334.68191 323.10121 311.31151 299.19781 287.01711
 274.74542 262.65872 250.68402 240.00132 230.13962 221.25993 213.45823 206.47653
 200.32683 195.28113 191.87943 189.93774 188.99104 189.07134 189.92264 191.24694
 192.98825 195.09955 197.37885 199.75415 202.21545 204.71176 206.81606 208.67436
 210.31666 211.47796 211.72327 211.96757 211.92087 211.64217 211.29147 210.93778
 210.57108 210.29738 210.12168 210.00198 209.94628 210.29359 210.69589 211.10119
 211.91049 213.10479 214.37110 216.17040 218.11470 220.17400 222.28530 224.38461
 226.46091 228.56121 230.67451 232.79681 234.94212 237.13042 239.40272 241.78902
 244.42632 246.69363 248.71193 250.49323 251.92653 253.06583 253.90414 254.23644
 254.28974 254.08004 253.45634 252.42064 251.04295 249.22025 247.14555 244.99485
 242.80215 240.62246 238.45876 236.31406 234.19036 232.07366 230.11597 228.28927
 226.58857 225.07687 223.72317 222.51148 221.40978 220.38608 219.50638 218.66368
 217.92199 217.11829 216.23259 215.61289 215.07919 214.17676 212.04671 212.11977
 212.91193 213.22273 213.48491 214.91400 217.69128 221.96490 227.92345 232.44864
 236.03404 240.09320 244.60199 249.24026 253.40942 256.64209 259.36349 262.02170
 264.62424 267.07193 269.39633 271.70447 274.06201 276.34216 278.34769 280.02988
 281.40839 282.72772 284.09000 285.44672 286.62640 287.67120 288.62851 289.50107
 290.29169 290.99878 291.63120 292.45166
 366.78100 356.35204 345.80108 334.68413 323.10417 311.31521 299.20225 287.02230
 274.75134 262.66538 250.69142 240.00947 230.14851 221.26955 213.46859 206.48764
 200.33868 195.29372 191.89276 189.95181 189.00585 189.08689 189.93893 191.26398
 193.00602 195.11806 197.39810 199.77415 202.23619 204.73323 206.83827 208.69732
 210.34036 211.50240 211.74844 211.99349 211.94753 211.66957 211.31961 210.96666
 210.60070 210.32774 210.15278 210.03382 209.97887 210.32691 210.72995 211.13599
 211.94604 213.14108 214.40812 216.20816 218.15321 220.21325 222.32529 224.42533
 226.50238 228.60342 230.71746 232.84050 234.98655 237.17559 239.44863 241.83567
 244.47372 246.74176 248.76080 250.54284 251.97689 253.11693 253.95597 254.28901
 254.34306 254.13410 253.51114 252.47618 251.09923 249.27727 247.20331 245.05335
 242.86140 240.68244 238.51948 236.37552 234.25256 232.13661 230.17965 228.35369
 226.65373 225.14278 223.78982 222.57886 221.47790 220.45495 219.57599 218.73403
 217.99307 217.19012 216.30516 215.68620 215.15324 214.23380 212.09590 212.11378
 212.91792 213.15442 213.52452 215.01587 217.78175 222.02277 227.82298 232.41660
 235.99619 240.07736 244.57785 249.18541 253.33377 256.63940 259.42310 262.13065
 264.74530 267.22711 269.60187 271.92279 274.21890 276.40604 278.34460 279.95975
 281.32898 282.66971 284.06317 285.37354 286.54733 287.59232 288.55258 289.43103
 290.23495 290.98471 291.63968 292.47433
 366.78100 356.35108 345.79916 334.68124 323.10031 311.31039 299.19647 287.01555
 274.74363 262.65671 250.68179 239.99886 230.13694 221.25702 213.45510 206.47318
 200.32326 195.27734 191.87541 189.93349 188.98657 189.06665 189.91773 191.24181
 192.98289 195.09396 197.37304 199.74812 202.20920 204.70528 206.80936 208.66743
 210.30951 211.47059 211.71567 211.95975 211.91283 211.63391 211.28298 210.92906
 210.56214 210.28822 210.11230 209.99238 209.93646 210.28353 210.68561 211.09069
 211.89977 213.09385 214.35993 216.15901 218.10308 220.16216 222.27324 224.37232
 226.44840 228.54848 230.66156 232.78363 234.92871 237.11679 239.38887 241.77495
 244.41203 246.67911 248.69718 250.47826 251.91134 253.05042 253.88850 254.22058
 254.27366 254.06373 253.43981 252.40389 251.02597 249.20305 247.12813 244.97720
 242.78428 240.60436 238.44044 236.29552 234.17160 232.05468 230.09675 228.26983
 226.56891 225.05699 223.70307 222.49115 221.38923 220.36530 219.48538 218.64246
 217.90054 217.09662 216.21070 215.59078 215.05685 214.17947 212.13354 212.22610
 213.01082 213.26753 213.65596 215.05240 217.74858 221.96527 227.72475 232.26649
 235.85628 239.95599 244.48331 249.07715 253.14169 256.36487 259.14883 261.94928
 264.61133 267.16467 269.61365 271.96951 274.26437 276.46033 278.43405 280.11035
 281.50989 282.80170 284.08499 285.30020 286.42294 287.46219 288.41837 289.29355
 290.09381 290.84821 291.51678 292.36880
 366.78100 356.35211 345.80121 334.68432 323.10443 311.31553 299.20264 287.02275
 274.75185 262.66596 250.69207 240.01018 230.14928 221.27039 213.46950 206.48860
 200.33971 195.29482 191.89392 189.95303 189.00714 189.08824 189.94035 191.26546
 193.00756 195.11967 197.39978 199.77588 202.23799 204.73510 206.84020 208.69931
 210.34242 211.50453 211.75063 211.99574 211.94985 211.67195 211.32206 210.96917
 210.60327 210.33038 210.15549 210.03659 209.98170 210.32981 210.73291 211.13902
 211.94913 213.14423 214.41134 216.21145 218.15656 220.21666 222.32877 224.42888
 226.50598 228.60709 230.72120 232.84430 234.99041 237.17952 239.45262 241.83973
 244.47784 246.74594 248.76505 250.54716 251.98126 253.12137 253.96048 254.29359
 254.34769 254.13880 253.51591 252.48101 251.10412 249.28223 247.20833 245.05844
 242.86655 240.68765 238.52476 236.38087 234.25797 232.14208 230.18519 228.35929
 226.65940 225.14851 223.79561 222.58472 221.48383 220.46094 219.58204 218.74015
 217.99926 217.19636 216.31147 215.69258 215.15968 214.22258 212.00896 212.26324
 213.23705 213.58832 213.93858 215.11443 217.67496 221.86287 227.64461 232.07629
 235.68590 239.80286 244.35504 248.91194 252.85628 255.96599 258.74719 261.60687
 264.29102 266.87973 269.37311 271.77979 274.13443 276.39148 278.42874 280.17096
 281.61737 282.88794 284.11414 285.28314 286.35934 287.37747 288.32874 289.19580
 289.98328 290.68866 291.32040 292.13895
 366.78100 356.35399 345.80498 334.68998 323.11197 311.32496 299.21395 287.03595
 274.76694 262.68293 250.71092 240.03092 230.17191 221.29490 213.49589 206.51689
 200.36988 195.32687 191.92786 189.98885 189.04485 189.12784 189.98183 191.30882
 193.05282 195.16681 197.44880 199.82679 202.29079 204.78978 206.89677 208.75776
 210.40276 211.56675 211.81474 212.06173 212.01772 211.74172 211.39371 211.04270
 210.67869 210.40769 210.23468 210.11767 210.06466 210.41466 210.81965 211.22764
 212.03963 213.23663 214.50562 216.30761 218.25460 220.31660 222.43059 224.53258
 226.61157 228.71456 230.83056 232.95555 235.10354 237.29453 239.56953 241.95852
 244.59851 246.86850 248.88950 250.67349 252.10948 253.25147 254.09247 254.42746
 254.48345 254.27644 253.65543 252.62243 251.24742 249.42741 247.35540 245.20740
 243.01739 240.84038 238.67937 236.53737 234.41636 232.30235 230.34734 228.52334
 226.82533 225.31632 223.96531 222.75630 221.65730 220.63629 219.75928 218.91927
 218.18027 217.37926 216.49625 215.87924 215.34824 214.33127 211.92860 212.15027
 213.32318 213.75853 214.21542 215.24878 217.69873 221.84320 227.62222 232.02072
 235.63136 239.75504 244.32057 248.87669 252.78450 255.85974 258.64825 261.49927
 264.15442 266.72858 269.22485 271.64716 274.03250 276.31427 278.37125 280.12741
 281.57202 282.84125 284.06488 285.22827 286.29202 287.31573 288.26401 289.12982
 289.91724 290.62225 291.23947 292.02826
 366.78100 356.35275 345.80250 334.68625 323.10700 311.31875 299.20650 287.02726
 274.75701 262.67176 250.69851 240.01726 230.15701 221.27876 213.47851 206.49826
 200.35001 195.30576 191.90551 189.96526 189.02002 189.10177 189.95452 191.28027
 193.02302 195.13577 197.41652 199.79327 202.25602 204.75377 206.85952 208.71927
 210.36302 211.52577 211.77253 212.01828 211.97303 211.69578 211.34653 210.99428
 210.62903 210.35678 210.18253 210.06428 210.01003 210.35878 210.76253 211.16929
 211.98004 213.17579 214.44354 216.24429 218.19004 220.25079 222.36354 224.46429
 226.54204 228.64379 230.75854 232.88229 235.02905 237.21880 239.49255 241.88030
 244.51905 246.78780 248.80755 250.59030 252.02505 253.16580 254.00555 254.33930
 254.39405 254.18580 253.56356 252.52931 251.15306 249.33181 247.25856 245.10931
 242.91806 240.73981 238.57756 236.43431 234.31206 232.19681 230.24056 228.41532
 226.71607 225.20582 223.85357 222.64332 221.54307 220.52082 219.64257 218.80132
 218.06107 217.25882 216.37457 215.75632 215.22408 214.27243 212.02409 212.14510
 213.31033 213.72269 214.24374 215.29349 217.71217 221.83086 227.62473 232.01082
 235.61810 239.74802 244.32045 248.89822 252.83833 255.91667 258.68573 261.49680
 264.11945 266.67505 269.16193 271.57672 273.96634 276.24585 278.29697 280.04657
 281.48154 282.76175 283.99054 285.16217 286.23975 287.26923 288.21671 289.08136
 289.86957 290.57312 291.18475 291.95139
 366.78100 356.35033 345.79766 334.67899 323.09732 311.30665 299.19198 287.01031
 274.73764 262.64997 250.67429 239.99062 230.12795 221.24728 213.44461 206.46194
 200.31127 195.26460 191.86193 189.91926 188.97159 189.05092 189.90125 191.22458
 192.96491 195.07524 197.35357 199.72790 202.18823 204.68356 206.78688 208.64421
 210.28554 211.44587 211.69020 211.93353 211.88586 211.60619 211.25452 210.89985
 210.53218 210.25751 210.08084 209.96017 209.90350 210.24983 210.65116 211.05549
 211.86382 213.05714 214.32247 216.12080 218.06413 220.12246 222.23279 224.33112
 226.40645 228.50578 230.61811 232.73944 234.88377 237.07110 239.34243 241.72776
 244.36409 246.63042 248.64775 250.42808 251.86041 252.99873 253.83606 254.16739
 254.21972 254.00905 253.38438 252.34771 250.96904 249.14537 247.06970 244.91803
 242.72436 240.54369 238.37902 236.23335 234.10868 231.99101 230.03234 228.20467
 226.50299 224.99032 223.63565 222.42298 221.32031 220.29564 219.41497 218.57130
 217.82863 217.02396 216.13729 215.51662 214.98195 214.14917 212.18159 212.22165
 213.25356 213.69518 214.29971 215.27089 217.67230 221.78136 227.59177 231.95711
 235.56580 239.71426 244.30180 248.89682 252.84254 255.94269 258.69550 261.45566
 264.03195 266.55411 269.02911 271.45456 273.85156 276.13196 278.17426 279.91245
 281.35165 282.64459 283.89465 285.09665 286.20844 287.23929 288.18402 289.04962
 289.83371 290.53528 291.14273 291.90143
 366.78100 356.34968 345.79636 334.67704 323.09472 311.30340 299.18808 287.00576
 274.73245 262.64413 250.66781 239.98349 230.12017 221.23885 213.43553 206.45221
 200.30089 195.25357 191.85025 189.90693 188.95861 189.03729 189.88698 191.20966
 192.94934 195.05902 197.33670 199.71038 202.17006 204.66474 206.76742 208.62410
 210.26478 211.42446 211.66814 211.91082 211.86250 211.58219 211.22987 210.87455
 210.50623 210.23091 210.05359 209.93227 209.87495 210.22063 210.62131 211.02499
 211.83267 213.02535 214.29003 216.08771 218.03040 220.08808 222.19776 224.29544
 226.37012 228.46880 230.58048 232.70116 234.84484 237.03152 239.30220 241.68688
 244.32256 246.58824 248.60493 250.38461 251.81629 252.95397 253.79065 254.12133
 254.17301 253.96169 253.33637 252.29905 250.91973 249.09541 247.01909 244.86677
 242.67245 240.49114 238.32582 236.17950 234.05418 231.93586 229.97654 228.14822
 226.44590 224.93258 223.57726 222.36394 221.26062 220.23530 219.35398 218.50967
 217.76635 216.96103 216.07371 215.45239 214.91707 214.12933 212.26823 212.22208
 213.35159 213.70636 214.31216 215.31488 217.61462 221.71930 227.54601 231.87079
 235.49559 239.66254 244.27444 248.89342 252.88217 255.96399 258.70920 261.42874
 263.97409 266.47949 268.94983 271.35791 273.75031 276.01404 278.02988 279.75183
 281.19363 282.52533 283.81668 285.04492 286.16440 287.18066 288.11728 288.97821
 289.76517 290.46777 291.06128 291.73499
 366.78100 356.34829 345.79358 334.67287 323.08916 311.29645 299.17974 286.99603
 274.72132 262.63160 250.65389 239.96818 230.10347 221.22076 213.41605 206.43134
 200.27863 195.22992 191.82521 189.88050 188.93079 189.00808 189.85637 191.17766
 192.91595 195.02423 197.30052 199.67281 202.13110 204.62439 206.72568 208.58097
 210.22026 211.37855 211.62084 211.86213 211.81242 211.53071 211.17700 210.82029
 210.45058 210.17386 209.99515 209.87244 209.81373 210.15802 210.55731 210.95960
 211.76589 212.95718 214.22047 216.01676 217.95805 220.01434 222.12263 224.21892
 226.29221 228.38950 230.49978 232.61907 234.76136 236.94665 239.21594 241.59923
 244.23352 246.49781 248.51310 250.29139 251.72168 252.85797 253.69326 254.02255
 254.07284 253.86013 253.23341 252.19470 250.81399 248.98828 246.91057 244.75686
 242.56115 240.37844 238.21173 236.06402 233.93731 231.81760 229.85689 228.02718
 226.32347 224.80876 223.45204 222.23733 221.13262 220.10591 219.22320 218.37749
 217.63278 216.82607 215.93736 215.31465 214.77794 214.07561 212.41629 212.19905
 213.47818 213.70959 214.13895 215.34294 217.65074 221.70140 227.46628 231.81302
 235.43269 239.61829 244.24863 248.88005 252.85315 256.00818 258.77478 261.46408
 263.97137 266.45370 268.93146 271.35385 273.72391 275.95422 277.93588 279.64288
 281.09503 282.43967 283.74152 284.98633 286.10666 287.11224 288.04178 288.90451
 289.69128 290.39838 290.99377 291.69153
 366.78100 356.34548 345.78797 334.66445 323.07794 311.28242 299.16291 286.97639
 274.69888 262.60636 250.62585 239.93733 230.06981 221.18430 213.37678 206.38927
 200.23375 195.18224 191.77472 189.82721 188.87469 188.94917 189.79466 191.11314
 192.84863 194.95411 197.22760 199.59708 202.05257 204.54305 206.64154 208.49402
 210.13050 211.28599 211.52547 211.76396 211.71144 211.42693 211.07041 210.71090
 210.33838 210.05887 209.87735 209.75183 209.69032 210.03180 210.42829 210.82777
 211.63126 212.81974 214.08023 215.87371 217.81219 219.86568 221.97116 224.06465
 226.13513 228.22962 230.33710 232.45359 234.59307 236.77556 239.04204 241.42252
 244.05401 246.31549 248.32798 250.10346 251.53095 252.66443 253.49692 253.82340
 253.87089 253.65537 253.02585 251.98434 250.60082 248.77231 246.69179 244.53528
 242.33676 240.15125 237.98173 235.83121 233.70170 231.57918 229.61567 227.78315
 226.07664 224.55912 223.19961 221.98209 220.87458 219.84506 218.95954 218.11103
 217.36351 216.55400 215.66248 215.03697 214.49745 213.93016 212.58986 212.37189
 213.53790 213.69026 213.91437 215.30072 217.71361 221.69475 227.37378 231.73837
 235.36424 239.57935 244.22444 248.86411 252.91292 256.09134 258.85156 261.52078
 264.02969 266.50497 268.95386 271.31812 273.63727 275.82672 277.76718 279.43417
 280.89951 282.33557 283.70013 284.96249 286.07953 287.07196 287.98370 288.82108
 289.56445 290.16681 290.51740 290.76660
 366.78100 356.34429 345.78557 334.66086 323.07314 311.27643 299.15572 286.96800
 274.68929 262.59557 250.61386 239.92415 230.05543 221.16872 213.36001 206.37129
 200.21458 195.16186 191.75315 189.80444 188.85072 188.92401 189.76829 191.08558
 192.81987 194.92415 197.19644 199.56472 202.01901 204.50830 206.60558 208.45687
 210.09215 211.24644 211.48473 211.72201 211.66830 211.38259 211.02487 210.66416
 210.29044 210.00973 209.82702 209.70030 209.63759 209.97787 210.37316 210.77145
 211.57373 212.76102 214.02030 215.81259 217.74988 219.80216 221.90645 223.99874
 226.06802 228.16131 230.26759 232.38288 234.52117 236.70245 238.96774 241.34702
 243.97731 246.23760 248.24888 250.02317 251.44945 252.58174 253.41303 253.73831
 253.78460 253.56788 252.93717 251.89446 250.50974 248.68003 246.59832 244.44060
 242.24089 240.05417 237.88346 235.73175 233.60103 231.47732 229.51260 227.67889
 225.97118 224.45246 223.09175 221.87303 220.76432 219.73361 218.84689 217.99718
 217.24846 216.43775 215.54504 214.91832 214.37761 213.87288 212.69904 212.58897
 213.48080 213.62029 213.87068 215.28372 217.77180 221.65240 227.18230 231.66495
 235.24358 239.48286 244.11205 248.64996 252.61130 256.07086 259.03702 261.70340
 264.20322 266.69681 269.14133 271.42706 273.61813 275.66107 277.50333 279.07999
 280.52377 281.97275 283.34064 284.57693 285.64612 286.59845 287.48505 288.24490
 288.73859 289.09305 289.40271 289.79730
 366.78100 356.34539 345.78777 334.66416 323.07754 311.28193 299.16231 286.97570
 274.69809 262.60547 250.62486 239.93624 230.06863 221.18302 213.37540 206.38779
 200.23217 195.18056 191.77294 189.82533 188.87272 188.94710 189.79249 191.11087
 192.84626 194.95164 197.22503 199.59442 202.04980 204.54019 206.63857 208.49096
 210.12735 211.28273 211.52212 211.76050 211.70789 211.42327 211.06666 210.70705
 210.33443 210.05482 209.87320 209.74759 209.68597 210.02736 210.42375 210.82313
 211.62652 212.81490 214.07529 215.86868 217.80706 219.86045 221.96583 224.05922
 226.12960 228.22399 230.33138 232.44776 234.58715 236.76953 239.03592 241.41630
 244.04769 246.30908 248.32146 250.09685 251.52423 252.65762 253.49001 253.81639
 253.86378 253.64816 253.01855 251.97693 250.59332 248.76471 246.68409 244.52748
 242.32886 240.14325 237.97364 235.82302 233.69341 231.57079 229.60718 227.77456
 226.06795 224.55034 223.19072 221.97311 220.86549 219.83588 218.95026 218.10165
 217.35404 216.54442 215.65281 215.02719 214.48758 213.93912 212.67085 212.61475
 213.54451 213.66095 213.94400 215.35100 217.81540 221.62529 227.13017 231.60713
 235.17966 239.42860 244.05032 248.55554 252.44060 255.83331 258.99377 261.72876
 264.21790 266.73611 269.21829 271.50220 273.65823 275.67712 277.52246 279.14969
 280.53665 281.90604 283.19287 284.37576 285.42294 286.35309 287.20306 287.97522
 288.65738 289.26486 289.79553 290.47183
 366.78100 356.34563 345.78826 334.66490 323.07853 311.28316 299.16379 286.97743
 274.70006 262.60769 250.62732 239.93896 230.07159 221.18622 213.37885 206.39149
 200.23612 195.18475 191.77738 189.83002 188.87765 188.95228 189.79791 191.11654
 192.85218 194.95781 197.23144 199.60107 202.05671 204.54734 206.64597 208.49860
 210.13524 211.29087 211.53050 211.76913 211.71677 211.43240 211.07603 210.71666
 210.34430 210.06493 209.88356 209.75819 209.69682 210.03846 210.43509 210.83472
 211.63835 212.82699 214.08762 215.88125 217.81988 219.87352 221.97915 224.07278
 226.14341 228.23805 230.34568 232.46231 234.60194 236.78457 239.05121 241.43184
 244.06347 246.32510 248.33774 250.11337 251.54100 252.67463 253.50727 253.83390
 253.88153 253.66616 253.03680 251.99543 250.61206 248.78369 246.70333 244.54696
 242.34859 240.16322 237.99385 235.84349 233.71412 231.59175 229.62838 227.79602
 226.08965 224.57228 223.21291 221.99555 220.88818 219.85881 218.97344 218.12508
 217.37771 216.56834 215.67697 215.05161 214.51224 213.95599 212.64821 212.57812
 213.74843 213.85075 214.00063 215.40479 217.81747 221.53970 227.16341 231.51122
 235.11354 239.37666 244.01288 248.52333 252.36090 255.66293 258.89255 261.58377
 264.05688 266.57736 269.09900 271.41837 273.61044 275.68753 277.58575 279.29306
 280.74310 282.02750 283.25824 284.40155 285.42719 286.34296 287.17841 287.96066
 288.68753 289.34103 289.90802 290.63055
 366.78100 356.34580 345.78860 334.66540 323.07921 311.28401 299.16481 286.97861
 274.70141 262.60921 250.62901 239.94082 230.07362 221.18842 213.38122 206.39402
 200.23882 195.18762 191.78043 189.83323 188.88103 188.95583 189.80163 191.12043
 192.85623 194.96204 197.23584 199.60564 202.06144 204.55224 206.65104 208.50384
 210.14065 211.29645 211.53625 211.77505 211.72285 211.43865 211.08245 210.72326
 210.35106 210.07186 209.89066 209.76546 209.70426 210.04606 210.44287 210.84267
 211.64647 212.83527 214.09607 215.88987 217.82868 219.88248 221.98828 224.08208
 226.15288 228.24768 230.35548 232.47229 234.61209 236.79489 239.06169 241.44249
 244.07429 246.33609 248.34890 250.12470 251.55250 252.68630 253.51910 253.84590
 253.89370 253.67851 253.04931 252.00811 250.62491 248.79671 246.71651 244.56031
 242.36212 240.17692 238.00772 235.85752 233.72832 231.60612 229.64292 227.81073
 226.10453 224.58733 223.22813 222.01093 220.90373 219.87453 218.98934 218.14114
 217.39394 216.58474 215.69354 215.06834 214.52914 213.96516 212.63271 212.62383
 213.89474 214.00653 214.07761 215.48283 217.84644 221.49135 227.18060 231.42258
 235.05083 239.32603 243.98351 248.49124 252.28828 255.46835 258.65457 261.23007
 263.70786 266.27524 268.81363 271.14331 273.38574 275.49667 277.42029 279.14429
 280.66370 281.99814 283.26959 284.40845 285.42722 286.33984 287.16656 287.90930
 288.57257 289.14597 289.58942 290.02179
 366.78100 356.34665 345.79031 334.66796 323.08262 311.28827 299.16993 286.98458
 274.70824 262.61689 250.63755 239.95020 230.08385 221.19951 213.39316 206.40682
 200.25247 195.20213 191.79578 189.84944 188.89809 188.97375 189.82040 191.14005
 192.87671 194.98336 197.25802 199.62867 202.08533 204.57698 206.67664 208.53029
 210.16795 211.32460 211.56526 211.80491 211.75356 211.47022 211.11487 210.75653
 210.38518 210.10684 209.92649 209.80215 209.74180 210.08446 210.48211 210.88276
 211.68742 212.87707 214.13873 215.93338 217.87304 219.92769 222.03435 224.12900
 226.20066 228.29631 230.40496 232.52262 234.66327 236.84693 239.11458 241.49624
 244.12889 246.39155 248.40520 250.18186 251.61051 252.74516 253.57882 253.90647
 253.95513 253.74078 253.11244 252.07209 250.68975 248.86240 246.78306 244.62771
 242.43036 240.24602 238.07767 235.92833 233.79998 231.67864 229.71629 227.88495
 226.17960 224.66326 223.30491 222.08857 220.98222 219.95387 219.06953 218.22218
 217.47584 216.66749 215.77715 215.15280 214.61446 214.02229 212.62326 212.60661
 213.96782 214.11487 214.19205 215.56924 217.89386 221.46611 227.12849 231.37964
 235.00790 239.28999 243.95206 248.45789 252.25740 255.41006 258.50058 261.05823
 263.55997 266.14993 268.71133 271.06473 273.29892 275.37616 277.25922 278.98358
 280.54333 281.92300 283.17010 284.32663 285.35980 286.26785 287.06668 287.76205
 288.35672 288.80460 289.10547 289.38437
 366.78100 356.34713 345.79126 334.66939 323.08451 311.29064 299.17277 286.98790
 274.71203 262.62116 250.64229 239.95542 230.08954 221.20567 213.39980 206.41393
 200.26006 195.21019 191.80432 189.85844 188.90757 188.98370 189.83083 191.15096
 192.88809 194.99522 197.27034 199.64147 202.09860 204.59073 206.69086 208.54499
 210.18312 211.34025 211.58137 211.82150 211.77063 211.48776 211.13289 210.77502
 210.40415 210.12627 209.94640 209.82253 209.76266 210.10579 210.50392 210.90505
 211.71018 212.90030 214.16243 215.95756 217.89769 219.95282 222.05995 224.15508
 226.22720 228.32333 230.43246 232.55059 234.69172 236.87585 239.14398 241.52611
 244.15923 246.42236 248.43649 250.21362 251.64275 252.77788 253.61201 253.94013
 253.98926 253.77539 253.14752 252.10765 250.72578 248.89891 246.82003 244.66516
 242.46829 240.28442 238.11655 235.96768 233.83981 231.71894 229.75706 227.92619
 226.22132 224.70545 223.34758 222.13171 221.02584 219.99796 219.11409 218.26722
 217.52135 216.71348 215.82361 215.19974 214.66187 214.06709 212.66185 212.58945
 214.02914 214.19958 214.26675 215.61516 217.90143 221.42798 227.04401 231.27791
 234.93092 239.22881 243.89305 248.37805 252.19135 255.40767 258.52094 261.04593
 263.58725 266.24762 268.83115 271.11539 273.31522 275.34006 277.18423 278.94913
 280.38193 281.81818 283.10968 284.20898 285.16943 286.01355 286.76593 287.40701
 287.88129 288.22198 288.59674 289.20157
 366.78100 356.34730 345.79160 334.66991 323.08521 311.29151 299.17381 286.98911
 274.71341 262.62272 250.64402 239.95732 230.09162 221.20792 213.40222 206.41653
 200.26283 195.21313 191.80743 189.86173 188.91103 188.98734 189.83464 191.15494
 192.89224 194.99954 197.27484 199.64615 202.10345 204.59575 206.69605 208.55035
 210.18865 211.34596 211.58726 211.82756 211.77686 211.49416 211.13946 210.78177
 210.41107 210.13337 209.95367 209.82997 209.77027 210.11358 210.51188 210.91318
 211.71848 212.90878 214.17108 215.96639 217.90669 219.96199 222.06929 224.16459
 226.23689 228.33320 230.44250 232.56080 234.70210 236.88640 239.15470 241.53701
 244.17031 246.43361 248.44791 250.22521 251.65451 252.78982 253.62412 253.95242
 254.00172 253.78802 253.16032 252.12063 250.73893 248.91223 246.83353 244.67883
 242.48213 240.29844 238.13074 235.98204 233.85434 231.73364 229.77195 227.94125
 226.23655 224.72085 223.36315 222.14745 221.04176 220.01406 219.13036 218.28366
 217.53796 216.73026 215.84057 215.21687 214.67917 214.09529 212.72231 212.61160
 214.12195 214.28465 214.31375 215.63342 217.90237 221.41949 226.90207 231.21724
 234.82007 239.12627 243.75569 248.15025 251.88205 255.20015 258.41824 261.19034
 263.80127 266.47244 269.06097 271.33713 273.34576 275.24100 277.14600 278.89771
 280.28394 281.46469 282.64209 283.75369 284.72519 285.56036 286.28479 286.74771
 287.15039 287.63553 288.08310 288.65344
 366.78100 356.34666 345.79033 334.66799 323.08265 311.28832 299.16998 286.98464
 274.70831 262.61697 250.63763 239.95030 230.08396 221.19962 213.39329 206.40695
 200.25261 195.20228 191.79594 189.84960 188.89827 188.97393 189.82060 191.14026
 192.87692 194.98359 197.25825 199.62891 202.08558 204.57724 206.67690 208.53057
 210.16823 211.32489 211.56556 211.80522 211.75388 211.47055 211.11521 210.75687
 210.38554 210.10720 209.92686 209.80253 209.74219 210.08485 210.48252 210.88318
 211.68784 212.87751 214.13917 215.93383 217.87350 219.92816 222.03482 224.12949
 226.20115 228.29681 230.40548 232.52314 234.66380 236.84747 239.11513 241.49679
 244.12946 246.39212 248.40579 250.18245 251.61111 252.74578 253.57944 253.90710
 253.95577 253.74143 253.11309 252.07276 250.69042 248.86308 246.78375 244.62841
 242.43107 240.24674 238.07840 235.92906 233.80073 231.67939 229.71705 227.88572
 226.18038 224.66404 223.30571 222.08937 220.98303 219.95470 219.07036 218.22302
 217.47669 216.66835 215.77801 215.15368 214.61534 214.09644 212.90242 212.68527
 213.88864 214.11349 214.47258 215.81944 218.06219 221.60591 226.76942 231.19128
 234.80806 239.09546 243.64758 247.89842 251.57513 254.95642 258.07196 261.00937
 263.86032 266.66373 269.21823 271.41586 273.31964 275.23651 277.22656 278.87027
 280.19122 281.21011 282.21133 283.20181 284.00385 284.68582 285.42841 286.10110
 286.70615 287.24496 287.71564 288.31546
 366.78100 356.34593 345.78886 334.66579 323.07972 311.28465 299.16559 286.97952
 274.70245 262.61038 250.63031 239.94224 230.07517 221.19010 213.38303 206.39596
 200.24090 195.18983 191.78276 189.83569 188.88362 188.95855 189.80448 191.12341
 192.85934 194.96527 197.23921 199.60914 202.06507 204.55600 206.65493 208.50786
 210.14479 211.30072 211.54065 211.77958 211.72752 211.44345 211.08738 210.72831
 210.35624 210.07717 209.89610 209.77103 209.70996 210.05189 210.44883 210.84876
 211.65269 212.84162 214.10255 215.89648 217.83541 219.88934 221.99527 224.08920
 226.16014 228.25507 230.36300 232.47993 234.61986 236.80279 239.06972 241.45065
 244.08258 246.34451 248.35745 250.13338 251.56131 252.69524 253.52817 253.85510
 253.90303 253.68796 253.05889 252.01782 250.63476 248.80669 246.72662 244.57055
 242.37248 240.18741 238.01834 235.86827 233.73920 231.61713 229.65407 227.82200
 226.11593 224.59886 223.23979 222.02272 220.91565 219.88658 219.00151 218.15344
 217.40638 216.59731 215.70624 215.08117 214.54210 214.10416 213.07088 212.73117
 213.78404 214.28967 214.84999 216.12114 218.20200 221.71654 226.83023 231.16502
 234.78954 239.08760 243.66406 247.87956 251.53366 254.88426 257.96692 260.94489
 263.86725 266.68811 269.23645 271.37714 273.17371 275.37073 277.22733 278.80408
 280.01743 281.05127 281.97385 282.86157 283.63925 284.32733 284.95508 285.52377
 286.03528 286.49075 286.88864 287.39572
 366.78100 356.34531 345.78763 334.66394 323.07725 311.28157 299.16188 286.97519
 274.69751 262.60482 250.62413 239.93545 230.06776 221.18208 213.37439 206.38670
 200.23102 195.17933 191.77164 189.82396 188.87127 188.94558 189.79090 191.10921
 192.84452 194.94984 197.22315 199.59246 202.04778 204.53809 206.63640 208.48872
 210.12503 211.28034 211.51966 211.75797 211.70528 211.42060 211.06391 210.70423
 210.33154 210.05185 209.87017 209.74448 209.68279 210.02411 210.42042 210.81973
 211.62305 212.81136 214.07167 215.86499 217.80330 219.85661 221.96193 224.05524
 226.12555 228.21987 230.32718 232.44349 234.58281 236.76512 239.03143 241.41175
 244.04306 246.30438 248.31669 250.09200 251.51932 252.65263 253.48494 253.81126
 253.85857 253.64288 253.01320 251.97151 250.58782 248.75914 246.67845 244.52176
 242.32308 240.13739 237.96770 235.81702 233.68733 231.56464 229.60096 227.76827
 226.06159 224.54390 223.18421 221.96653 220.85884 219.82915 218.94347 218.09478
 217.34709 216.53741 215.64572 215.02003 214.48035 214.10570 213.18852 212.73701
 213.67653 214.34889 215.00832 216.28670 218.30356 221.73785 226.85304 231.16797
 234.77328 239.06404 243.61642 247.83884 251.52821 254.86983 257.94534 260.89316
 263.83548 266.66098 269.24509 271.28891 273.29941 275.34375 277.13651 278.64627
 279.84912 280.93958 282.01321 283.19003 284.20847 285.10953 285.93161 286.67636
 287.34616 287.94263 288.46371 289.12775
 366.78100 356.34454 345.78607 334.66161 323.07414 311.27768 299.15721 286.96975
 274.69129 262.59782 250.61636 239.92689 230.05843 221.17196 213.36350 206.37504
 200.21857 195.16611 191.75764 189.80918 188.85571 188.92925 189.77379 191.09132
 192.82586 194.93039 197.20293 199.57146 202.02600 204.51554 206.61307 208.46461
 210.10014 211.25468 211.49321 211.73075 211.67729 211.39182 211.03436 210.67389
 210.30043 210.01996 209.83750 209.71104 209.64857 209.98911 210.38464 210.78318
 211.58571 212.77325 214.03279 215.82532 217.76286 219.81539 221.91993 224.01246
 226.08200 228.17554 230.28207 232.39761 234.53614 236.71768 238.98322 241.36275
 243.99329 246.25382 248.26536 250.03989 251.46643 252.59897 253.43050 253.75604
 253.80257 253.58611 252.95564 251.91318 250.52872 248.69925 246.61779 244.46032
 242.26086 240.07439 237.90393 235.75247 233.62200 231.49854 229.53407 227.70061
 225.99314 224.47468 223.11422 221.89575 220.78729 219.75682 218.87036 218.02089
 217.27243 216.46197 215.56950 214.94304 214.40257 214.08229 213.28787 212.75601
 213.55952 214.34116 215.11029 216.41754 218.45485 221.81657 226.77516 231.10303
 234.72946 239.01917 243.54276 247.73347 251.37570 254.67851 257.75687 260.75958
 263.77274 266.67459 269.24863 271.20206 273.26596 275.30243 276.99329 278.45227
 279.74274 280.92380 282.03983 283.24640 284.32092 285.27161 286.13895 286.92468
 287.63138 288.26071 288.81049 289.51108
 366.78100 356.34378 345.78456 334.65934 323.07113 311.27391 299.15269 286.96447
 274.68525 262.59103 250.60881 239.91860 230.04938 221.16216 213.35294 206.36372
 200.20650 195.15329 191.74407 189.79485 188.84063 188.91341 189.75719 191.07397
 192.80776 194.91154 197.18332 199.55110 202.00488 204.49366 206.59044 208.44123
 210.07601 211.22979 211.46757 211.70435 211.65013 211.36391 211.00570 210.64448
 210.27026 209.98904 209.80582 209.67860 209.61539 209.95517 210.34995 210.74773
 211.54951 212.73629 213.99507 215.78686 217.72364 219.77542 221.87920 223.97098
 226.03976 228.13254 230.23833 232.35311 234.49089 236.67167 238.93645 241.31523
 243.94502 246.20480 248.21558 249.98936 251.41514 252.54692 253.37770 253.70249
 253.74827 253.53105 252.89983 251.85661 250.47139 248.64117 246.55896 244.40074
 242.20052 240.01330 237.84208 235.68986 233.55864 231.43443 229.46921 227.63499
 225.92677 224.40755 223.04633 221.82712 220.71790 219.68668 218.79946 217.94924
 217.20002 216.38880 215.49559 214.86837 214.32715 214.05548 213.37152 212.79668
 213.46165 214.33051 215.18657 216.50946 218.52335 221.85545 226.72975 231.07013
 234.71617 238.99452 243.47083 247.62193 251.23904 254.51996 257.61795 260.69162
 263.62628 266.43738 268.93716 271.06335 273.35770 275.24414 276.88080 278.30759
 279.58356 280.83615 281.89413 283.01013 284.06174 284.99213 285.84097 286.60999
 287.30161 287.91751 288.45557 289.14124
 366.78100 356.34378 345.78456 334.65934 323.07112 311.27390 299.15268 286.96446
 274.68524 262.59102 250.60880 239.91858 230.04936 221.16215 213.35293 206.36371
 200.20649 195.15327 191.74405 189.79483 188.84061 188.91339 189.75717 191.07395
 192.80773 194.91151 197.18329 199.55107 202.00485 204.49363 206.59041 208.44119
 210.07597 211.22975 211.46753 211.70431 211.65009 211.36388 211.00566 210.64444
 210.27022 209.98900 209.80578 209.67856 209.61534 209.95512 210.34990 210.74768
 211.54946 212.73624 213.99502 215.78680 217.72358 219.77536 221.87914 223.97092
 226.03970 228.13248 230.23826 232.35304 234.49082 236.67161 238.93639 241.31517
 243.94495 246.20473 248.21551 249.98929 251.41507 252.54685 253.37763 253.70241
 253.74819 253.53097 252.89975 251.85653 250.47131 248.64109 246.55887 244.40065
 242.20043 240.01321 237.84199 235.68977 233.55855 231.43434 229.46912 227.63490
 225.92668 224.40746 223.04624 221.82702 220.71780 219.68658 218.79936 217.94914
 217.19992 216.38870 215.49548 214.86826 214.32704 214.07896 213.42726 212.78081
 213.39948 214.31068 215.28235 216.67365 218.61819 221.89359 226.75307 231.07904
 234.70909 238.96533 243.42184 247.54243 251.14738 254.44394 257.61816 260.66785
 263.58279 266.30750 268.84247 271.14279 273.37985 275.19980 276.78571 278.17599
 279.38974 280.59897 281.73093 282.97742 284.08151 285.05838 285.94958 286.75699
 287.48315 288.12979 288.69470 289.41458
 366.78100 356.34301 345.78302 334.65702 323.06803 311.27004 299.14805 286.95906
 274.67906 262.58407 250.60108 239.91009 230.04010 221.15210 213.34211 206.35212
 200.19413 195.14014 191.73014 189.78015 188.82516 188.89717 189.74018 191.05618
 192.78919 194.89220 197.16321 199.53022 201.98322 204.47123 206.56724 208.41725
 210.05126 211.20426 211.44127 211.67728 211.62229 211.33530 210.97630 210.61431
 210.23932 209.95733 209.77334 209.64534 209.58135 209.92036 210.31437 210.71138
 211.51238 212.69839 213.95640 215.74741 217.68342 219.73442 221.83743 223.92844
 225.99645 228.08846 230.19346 232.30747 234.44448 236.62449 238.88850 241.26651
 243.89551 246.15452 248.16453 249.93754 251.36255 252.49355 253.32356 253.64757
 253.69258 253.47459 252.84259 251.79860 250.41261 248.58162 246.49863 244.33963
 242.13864 239.95065 237.77866 235.62567 233.49367 231.36868 229.40269 227.56770
 225.85871 224.33871 222.97672 221.75673 220.64674 219.61475 218.72675 217.87576
 217.12577 216.31378 215.41979 214.79179 214.24980 214.07335 213.53389 212.73283
 213.28444 214.21088 215.32973 216.86948 218.79854 222.00943 226.84555 231.14697
 234.76944 238.98442 243.38135 247.47679 251.09352 254.44121 257.68872 260.73944
 263.62329 266.35602 268.88617 271.22461 273.36694 275.13751 276.67471 278.04840
 279.28430 280.35181 281.72571 283.06711 284.22797 285.25504 286.19208 287.04095
 287.80444 288.48434 289.07828 289.83517
 366.78100 356.34104 345.77907 334.65111 323.06015 311.26018 299.13622 286.94526
 274.66329 262.56633 250.58137 239.88840 230.01644 221.12648 213.31451 206.32255
 200.16259 195.10662 191.69466 189.74270 188.78573 188.85577 189.69681 191.01084
 192.74188 194.84292 197.11196 199.47699 201.92803 204.41407 206.50810 208.35614
 209.98818 211.13921 211.37425 211.60829 211.55132 211.26236 210.90140 210.53743
 210.16047 209.87651 209.69054 209.56058 209.49462 209.83165 210.22369 210.61873
 211.41776 212.60180 213.85784 215.64687 217.58091 219.62995 221.73098 223.82002
 225.88606 227.97609 230.07913 232.19117 234.32620 236.50424 238.76628 241.14231
 243.76935 246.02639 248.03442 249.80546 251.22850 252.35753 253.18557 253.50761
 253.55064 253.33068 252.69672 251.65076 250.26279 248.42983 246.34487 244.18390
 241.98094 239.79098 237.61701 235.46205 233.32809 231.20112 229.23316 227.39620
 225.68523 224.16327 222.79931 221.57734 220.46538 219.43142 218.54145 217.68849
 216.93653 216.12256 215.22660 214.59664 214.05267 214.00981 213.69522 212.78268
 213.17470 214.05330 215.33357 217.02884 218.91798 222.03557 226.88736 231.17123
 234.79668 238.97565 243.31279 247.37706 250.98953 254.39421 257.69238 260.69269
 263.60944 266.38263 268.88974 271.26831 273.35507 275.05505 276.53641 277.85089
 278.95804 280.18121 281.77982 283.18353 284.39828 285.47305 286.45361 287.34192
 288.14087 288.85233 289.47385 290.26590
 366.78100 356.33845 345.77391 334.64336 323.04981 311.24726 299.12072 286.92717
 274.64262 262.54307 250.55553 239.85998 229.98543 221.09288 213.27834 206.28379
 200.12124 195.06269 191.64815 189.69360 188.73405 188.80150 189.63996 190.95141
 192.67986 194.77831 197.04477 199.40722 201.85567 204.33912 206.43058 208.27603
 209.90548 211.05393 211.28639 211.51784 211.45829 211.16674 210.80320 210.43665
 210.05710 209.77055 209.58201 209.44946 209.38091 209.71536 210.10482 210.49727
 211.29372 212.47517 213.72863 215.51508 217.44653 219.49298 221.59144 223.67789
 225.74134 227.82879 229.92925 232.03870 234.17115 236.34660 238.60606 240.97951
 243.60396 245.85841 247.86387 249.63232 251.05277 252.17922 253.00468 253.32413
 253.36458 253.14203 252.50549 251.45694 250.06639 248.23084 246.14330 243.97975
 241.77420 239.58165 237.40511 235.24756 233.11101 230.98146 229.01092 227.17137
 225.45782 223.93327 222.56673 221.34218 220.22763 219.19108 218.29854 217.44299
 216.68844 215.87189 214.97335 214.34080 213.79425 213.92097 213.85583 212.84615
 213.00597 213.87291 215.26575 217.15439 219.15891 222.09322 226.92351 231.20564
 234.84290 239.00238 243.28647 247.33215 250.94145 254.38219 257.68103 260.68365
 263.62546 266.42767 268.94611 271.32333 273.30579 274.95633 276.37531 277.64206
 278.53610 279.21887 279.80972 280.32852 280.77750 281.17471 281.53711 281.86545
 282.16074 282.42368 282.65338 282.94614
 366.78100 356.34039 345.77779 334.64918 323.05758 311.25697 299.13237 286.94076
 274.65815 262.56055 250.57494 239.88134 230.00873 221.11813 213.30552 206.31292
 200.15231 195.09570 191.68310 189.73049 188.77289 188.84228 189.68268 190.99607
 192.72646 194.82686 197.09525 199.45965 201.91004 204.39544 206.48883 208.33622
 209.96762 211.11801 211.35241 211.58580 211.52820 211.23859 210.87698 210.51238
 210.13477 209.85017 209.66356 209.53296 209.46635 209.80275 210.19414 210.58853
 211.38693 212.57032 213.82572 215.61411 217.54751 219.59590 221.69629 223.78469
 225.85008 227.93948 230.04187 232.15327 234.28766 236.46505 238.72645 241.10184
 243.72824 245.98463 247.99203 249.76242 251.18482 252.31321 253.14060 253.46200
 253.50439 253.28379 252.64918 251.60258 250.21397 248.38036 246.29476 244.13315
 241.92955 239.73894 237.56434 235.40873 233.27412 231.14652 229.17791 227.34031
 225.62870 224.10610 222.74149 221.51888 220.40628 219.37167 218.48107 217.62746
 216.87486 216.06025 215.16365 214.53304 213.98843 214.01488 213.82661 213.01068
 212.93277 213.67400 215.11792 217.03172 219.14339 222.17767 226.95956 231.27594
 234.92450 239.08826 243.37529 247.44469 251.10812 254.56615 257.85803 260.88437
 263.76257 266.44647 269.00427 271.33582 273.31995 274.90546 276.28659 277.40164
 279.56015 281.47110 283.12469 284.57666 285.83325 286.94498 287.95929 288.87814
 289.70459 290.44052 291.08344 291.90274
 366.78100 356.34400 345.78499 334.65999 323.07199 311.27499 299.15398 286.96598
 274.68698 262.59297 250.61097 239.92097 230.05197 221.16496 213.35596 206.36696
 200.20995 195.15695 191.74795 189.79894 188.84494 188.91794 189.76194 191.07893
 192.81293 194.91693 197.18892 199.55692 202.01092 204.49992 206.59691 208.44791
 210.08291 211.23690 211.47490 211.71190 211.65790 211.37189 211.01389 210.65289
 210.27888 209.99788 209.81488 209.68787 209.62487 209.96487 210.35987 210.75786
 211.55986 212.74686 214.00585 215.79785 217.73485 219.78685 221.89084 223.98284
 226.05184 228.14483 230.25083 232.36583 234.50383 236.68482 238.94982 241.32882
 243.95881 246.21881 248.22981 250.00381 251.42980 252.56180 253.39280 253.71779
 253.76379 253.54679 252.91578 251.87278 250.48778 248.65778 246.57577 244.41777
 242.21777 240.03076 237.85976 235.70776 233.57676 231.45275 229.48775 227.65375
 225.94574 224.42674 223.06574 221.84674 220.73773 219.70673 218.81973 217.96972
 217.22072 216.40972 215.51671 214.88971 214.34871 214.18701 213.71313 213.17218
 213.10747 213.71428 215.02136 216.81665 218.93997 222.04373 226.81174 231.18306
 234.85966 239.03328 243.30536 247.34312 251.04248 254.52534 257.84506 260.92520
 263.80753 266.50632 269.06686 271.36459 273.28311 274.81213 276.21252 277.78375
 280.06821 282.02634 283.72076 285.20862 286.49622 287.63541 288.67477 289.61633
 290.46317 291.21729 291.87607 292.71561
 366.78100 356.34430 345.78560 334.66091 323.07321 311.27651 299.15581 286.96812
 274.68942 262.59572 250.61402 239.92433 230.05563 221.16893 213.36023 206.37154
 200.21484 195.16214 191.75344 189.80475 188.85105 188.92435 189.76865 191.08596
 192.82026 194.92456 197.19686 199.56517 202.01947 204.50877 206.60607 208.45738
 210.09268 211.24698 211.48528 211.72258 211.66889 211.38319 211.02549 210.66479
 210.29110 210.01040 209.82770 209.70100 209.63831 209.97861 210.37391 210.77221
 211.57452 212.76182 214.02112 215.81342 217.75073 219.80303 221.90733 223.99963
 226.06894 228.16224 230.26854 232.38384 234.52215 236.70345 238.96875 241.34805
 243.97835 246.23866 248.24996 250.02426 251.45056 252.58287 253.41417 253.73947
 253.78577 253.56908 252.93838 251.89568 250.51098 248.68129 246.59959 244.44189
 242.24219 240.05550 237.88480 235.73310 233.60240 231.47871 229.51401 227.68031
 225.97261 224.45392 223.09322 221.87452 220.76582 219.73513 218.84843 217.99873
 217.25003 216.43933 215.54664 214.91994 214.37924 214.22507 213.73521 213.16154
 213.07204 213.69481 215.10703 216.93497 219.00221 222.07828 226.72046 231.11189
 234.77864 238.93999 243.17363 247.18175 250.87634 254.39265 257.80453 260.95532
 263.89700 266.61972 269.13144 271.43216 273.26379 274.72397 276.12723 278.29797
 280.42618 282.25040 283.82895 285.21503 286.41458 287.47586 288.44412 289.32129
 290.11020 290.81274 291.42648 292.20859
 366.78100 356.34241 345.78182 334.65522 323.06563 311.26704 299.14445 286.95486
 274.67427 262.57867 250.59508 239.90349 230.03290 221.14431 213.33371 206.34312
 200.18453 195.12994 191.71935 189.76876 188.81316 188.88457 189.72698 191.04239
 192.77480 194.87720 197.14761 199.51402 201.96643 204.45384 206.54925 208.39865
 210.03206 211.18447 211.42088 211.65629 211.60069 211.31310 210.95351 210.59092
 210.21533 209.93274 209.74814 209.61955 209.55496 209.89337 210.28678 210.68319
 211.48359 212.66900 213.92641 215.71682 217.65223 219.70263 221.80504 223.89545
 225.96286 228.05427 230.15868 232.27208 234.40849 236.58790 238.85131 241.22872
 243.85712 246.11553 248.12494 249.89735 251.32176 252.45217 253.28157 253.60498
 253.64939 253.43080 252.79821 251.75361 250.36702 248.53543 246.45184 244.29225
 242.09066 239.90206 237.72947 235.57588 233.44329 231.31770 229.35110 227.51551
 225.80592 224.28533 222.92274 221.70215 220.59155 219.55896 218.67037 217.81878
 217.06819 216.25559 215.36100 214.73241 214.18982 214.13651 213.84042 213.17361
 212.99133 213.67624 215.14836 217.07249 219.19421 222.17444 226.78139 231.12756
 234.78098 238.89557 243.10011 247.09973 250.81230 254.36717 257.82111 261.03625
 264.04889 266.80127 269.25253 271.44193 273.24561 274.68411 276.01578 277.99573
 280.24655 282.17584 283.84534 285.31128 286.57990 287.70233 288.72635 289.65408
 290.48843 291.23145 291.88052 292.70770
 366.78100 356.34112 345.77925 334.65137 323.06050 311.26062 299.13674 286.94587
 274.66399 262.56712 250.58224 239.88936 230.01749 221.12761 213.31574 206.32386
 200.16398 195.10811 191.69623 189.74436 188.78748 188.85760 189.69873 191.01285
 192.74398 194.84510 197.11422 199.47935 201.93047 204.41660 206.51072 208.35884
 209.99097 211.14209 211.37722 211.61134 211.55446 211.26559 210.90471 210.54084
 210.16396 209.88008 209.69421 209.56433 209.49846 209.83558 210.22770 210.62283
 211.42195 212.60608 213.86220 215.65132 217.58545 219.63457 221.73570 223.82482
 225.89094 227.98107 230.08419 232.19632 234.33144 236.50956 238.77169 241.14781
 243.77494 246.03206 248.04018 249.81131 251.23443 252.36356 253.19168 253.51380
 253.55693 253.33705 252.70318 251.65730 250.26943 248.43655 246.35167 244.19080
 241.98792 239.79805 237.62417 235.46929 233.33542 231.20854 229.24067 227.40379
 225.69291 224.17104 222.80716 221.58529 220.47341 219.43953 218.54966 217.69678
 216.94491 216.13103 215.23515 214.60528 214.06140 214.07237 213.92377 213.22037
 213.03552 213.69315 215.10620 217.04077 219.18600 222.19116 226.81104 231.13860
 234.75137 238.79776 242.92763 246.89110 250.61613 254.18050 257.66882 260.90625
 263.93509 266.71405 269.18005 271.39029 273.19254 274.64856 275.95700 277.24890
 279.12405 281.05771 282.73096 284.20020 285.47171 286.59665 287.62302 288.55283
 289.38907 290.13376 290.78430 291.61334
 366.78100 356.34098 345.77895 334.65093 323.05990 311.25988 299.13585 286.94483
 274.66280 262.56578 250.58075 239.88773 230.01570 221.12568 213.31365 206.32163
 200.16160 195.10558 191.69355 189.74153 188.78450 188.85448 189.69545 191.00943
 192.74040 194.84138 197.11035 199.47533 201.92630 204.41228 206.50625 208.35423
 209.98620 211.13718 211.37215 211.60613 211.54910 211.26008 210.89905 210.53503
 210.15800 209.87398 209.68795 209.55793 209.49190 209.82888 210.22085 210.61583
 211.41480 212.59878 213.85475 215.64373 217.57770 219.62668 221.72765 223.81663
 225.88260 227.97258 230.07556 232.18753 234.32251 236.50048 238.76246 241.13843
 243.76541 246.02238 248.03036 249.80133 251.22431 252.35328 253.18126 253.50323
 253.54621 253.32618 252.69216 251.64613 250.25811 248.42508 246.34006 244.17903
 241.97601 239.78598 237.61196 235.45693 233.32291 231.19588 229.22786 227.39083
 225.67981 224.15778 222.79376 221.57173 220.45971 219.42568 218.53566 217.68263
 216.93061 216.11658 215.22056 214.59053 214.04651 214.07550 213.97639 213.24460
 212.95850 213.62582 215.03755 217.03970 219.23055 222.21767 226.97029 231.23042
 234.81531 238.82263 242.90546 246.84476 250.54166 254.12898 257.66214 260.93033
 263.97629 266.73062 269.18704 271.34750 273.07608 274.55072 275.86383 276.92514
 278.94019 280.84476 282.49283 283.93997 285.19235 286.30038 287.31131 288.22711
 289.05078 289.78427 290.42502 291.24161
 366.78100 356.34231 345.78162 334.65493 323.06524 311.26655 299.14386 286.95417
 274.67348 262.57779 250.59410 239.90241 230.03172 221.14303 213.33234 206.34165
 200.18296 195.12827 191.71758 189.76689 188.81120 188.88251 189.72482 191.04012
 192.77243 194.87474 197.14505 199.51136 201.96367 204.45098 206.54629 208.39560
 210.02891 211.18122 211.41753 211.65284 211.59715 211.30946 210.94977 210.58708
 210.21139 209.92870 209.74401 209.61532 209.55063 209.88894 210.28225 210.67856
 211.47887 212.66418 213.92149 215.71180 217.64711 219.69742 221.79973 223.89004
 225.95735 228.04866 230.15297 232.26628 234.40259 236.58190 238.84521 241.22252
 243.85083 246.10914 248.11845 249.89075 251.31506 252.44537 253.27468 253.59799
 253.64230 253.42361 252.79092 251.74623 250.35954 248.52785 246.44416 244.28447
 242.08278 239.89409 237.72140 235.56771 233.43502 231.30933 229.34264 227.50695
 225.79726 224.27657 222.91388 221.69319 220.58250 219.54981 218.66112 217.80943
 217.05874 216.24605 215.35136 214.72267 214.17998 214.13383 213.95309 213.37993
 212.95074 213.53477 214.93413 216.80780 219.05424 222.26700 226.97545 231.31410
 234.91231 238.91502 242.99147 246.92293 250.63477 254.22902 257.76944 261.04498
 264.10898 266.86176 269.21698 271.29486 273.03937 274.53674 275.96884 277.03381
 278.69040 280.57718 282.21957 283.66171 284.90976 286.01398 287.02139 287.93405
 288.75488 289.48584 290.12439 290.93814
 366.78100 356.34321 345.78343 334.65764 323.06886 311.27107 299.14929 286.96050
 274.68072 262.58593 250.60315 239.91236 230.04258 221.15479 213.34501 206.35522
 200.19744 195.14365 191.73387 189.78408 188.82930 188.90151 189.74473 191.06094
 192.79415 194.89737 197.16858 199.53580 201.98901 204.47723 206.57344 208.42366
 210.05787 211.21109 211.44830 211.68452 211.62973 211.34295 210.98416 210.62238
 210.24759 209.96581 209.78202 209.65424 209.59045 209.92966 210.32388 210.72109
 211.52231 212.70852 213.96674 215.75795 217.69417 219.74538 221.84860 223.93981
 226.00803 228.10024 230.20546 232.31967 234.45689 236.63710 238.90132 241.27953
 243.90875 246.16796 248.17818 249.95139 251.37660 252.50782 253.33803 253.66225
 253.70746 253.48968 252.85789 251.81411 250.42832 248.59754 246.51475 244.35597
 242.15518 239.96740 237.79561 235.64283 233.51104 231.38626 229.42047 227.58569
 225.87690 224.35711 222.99533 221.77554 220.66576 219.63397 218.74619 217.89540
 217.14562 216.33383 215.44005 214.81226 214.27048 214.17021 213.91402 213.50961
 213.08472 213.62160 214.97491 216.66048 218.89313 222.27831 226.71208 231.20741
 234.81239 238.81508 242.88094 246.80460 250.54999 254.19095 257.73886 261.05817
 264.14334 266.88297 269.19177 271.20218 272.92862 274.42618 275.85779 277.13242
 278.43970 280.10977 281.72406 283.15549 284.39426 285.49023 286.49017 287.39606
 288.21078 288.93631 289.57010 290.37781
 366.78100 356.34277 345.78254 334.65630 323.06707 311.26884 299.14661 286.95738
 274.67715 262.58191 250.59868 239.90745 230.03722 221.14899 213.33876 206.34852
 200.19029 195.13606 191.72583 189.77560 188.82037 188.89213 189.73490 191.05067
 192.78344 194.88621 197.15698 199.52374 201.97651 204.46428 206.56005 208.40982
 210.04359 211.19635 211.43312 211.66889 211.61366 211.32643 210.96720 210.60496
 210.22973 209.94750 209.76327 209.63504 209.57081 209.90957 210.30334 210.70011
 211.50088 212.68665 213.94442 215.73518 217.67095 219.72172 221.82449 223.91526
 225.98302 228.07479 230.17956 232.29333 234.43010 236.60987 238.87363 241.25140
 243.88017 246.13894 248.14871 249.92148 251.34624 252.47701 253.30678 253.63055
 253.67532 253.45709 252.82485 251.78062 250.39439 248.56316 246.47993 244.32070
 242.11946 239.93123 237.75900 235.60577 233.47354 231.34831 229.38207 227.54684
 225.83761 224.31738 222.95515 221.73492 220.62468 219.59245 218.70422 217.85299
 217.10276 216.29053 215.39629 214.76806 214.22583 214.15347 213.95905 213.56929
 213.10448 213.65860 215.10411 216.75323 218.92560 222.27708 226.59314 231.12943
 234.68912 238.67082 242.71741 246.63919 250.40738 254.09315 257.67120 261.00140
 264.11093 266.89340 269.16232 271.11487 272.85678 274.30502 275.78799 277.03226
 278.24271 279.92523 281.50919 282.91837 284.13788 285.21683 286.20123 287.09302
 287.89508 288.60931 289.23325 290.02841
 366.78100 356.34194 345.78088 334.65381 323.06375 311.26469 299.14163 286.95157
 274.67051 262.57444 250.59038 239.89832 230.02726 221.13820 213.32714 206.33607
 200.17701 195.12195 191.71089 189.75983 188.80376 188.87470 189.71664 191.03158
 192.76352 194.86546 197.13539 199.50133 201.95327 204.44021 206.53515 208.38408
 210.01702 211.16896 211.40490 211.63984 211.58378 211.29571 210.93565 210.57259
 210.19653 209.91347 209.72841 209.59934 209.53428 209.87222 210.26516 210.66110
 211.46103 212.64597 213.90291 215.69285 217.62779 219.67773 221.77966 223.86960
 225.93654 228.02748 230.13142 232.24436 234.38029 236.55923 238.82217 241.19911
 243.82705 246.08498 248.09392 249.86586 251.28980 252.41974 253.24868 253.57161
 253.61555 253.39649 252.76343 251.71837 250.33130 248.49924 246.41518 244.25512
 242.05306 239.86400 237.69093 235.53687 233.40381 231.27775 229.31069 227.47463
 225.76456 224.24350 222.88044 221.65938 220.54832 219.51525 218.62619 217.77413
 217.02307 216.21001 215.31495 214.68588 214.14282 214.13593 214.05672 213.56610
 213.03712 213.62558 215.13269 216.80687 218.94066 222.26599 226.72594 231.12044
 234.67644 238.59854 242.60986 246.53618 250.33072 254.07571 257.68561 261.02335
 264.13956 266.91080 269.21658 271.08954 272.76727 274.27701 275.69070 276.96179
 278.49539 280.42950 282.15125 283.66309 284.97144 286.12900 287.18509 288.14185
 289.00235 289.76862 290.43802 291.29111
 366.78100 356.34054 345.77807 334.64961 323.05814 311.25768 299.13321 286.94175
 274.65928 262.56182 250.57635 239.88289 230.01042 221.11996 213.30749 206.31503
 200.15456 195.09810 191.68563 189.73317 188.77570 188.84524 189.68577 190.99931
 192.72984 194.83038 197.09891 199.46345 201.91398 204.39952 206.49305 208.34059
 209.97212 211.12266 211.35719 211.59073 211.53326 211.24380 210.88233 210.51787
 210.14040 209.85594 209.66947 209.53901 209.47254 209.80908 210.20061 210.59515
 211.39368 212.57722 213.83275 215.62129 217.55482 219.60336 221.70389 223.79243
 225.85796 227.94750 230.05003 232.16157 234.29610 236.47364 238.73517 241.11071
 243.73724 245.99378 248.00131 249.77185 251.19438 252.32292 253.15045 253.47199
 253.51452 253.29406 252.65959 251.61313 250.22466 248.39120 246.30573 244.14427
 241.94080 239.75034 237.57587 235.42041 233.28594 231.15848 229.19001 227.35255
 225.64108 224.11862 222.75415 221.53169 220.41922 219.38476 218.49429 217.64083
 216.88836 216.07390 215.17743 214.54697 214.00250 214.08910 214.16611 213.54517
 212.95798 213.57181 215.09779 216.82104 219.00742 222.24089 226.85388 231.19150
 234.72392 238.60291 242.58987 246.51767 250.32933 254.12509 257.74844 261.08591
 264.21933 267.04785 269.36838 271.20975 272.76984 274.23074 275.81281 277.13776
 279.13028 281.21008 283.00983 284.59015 285.95776 287.16776 288.27167 289.27176
 290.17123 290.97223 291.67194 292.56366
 366.78100 356.33909 345.77517 334.64526 323.05235 311.25044 299.12452 286.93161
 274.64770 262.54878 250.56187 239.86696 229.99305 221.10113 213.28722 206.29331
 200.13139 195.07348 191.65957 189.70566 188.74674 188.81483 189.65392 190.96600
 192.69509 194.79418 197.06127 199.42435 201.87344 204.35753 206.44961 208.29570
 209.92579 211.07487 211.30796 211.54005 211.48114 211.19022 210.82731 210.46140
 210.08248 209.79657 209.60866 209.47675 209.40883 209.74392 210.13401 210.52709
 211.32418 212.50627 213.76036 215.54744 217.47953 219.52662 221.62570 223.71279
 225.77688 227.86497 229.96605 232.07614 234.20923 236.38531 238.64540 241.01949
 243.64458 245.89966 247.90575 249.67484 251.09592 252.22301 253.04910 253.36919
 253.41027 253.18836 252.55245 251.50453 250.11462 248.27971 246.19280 244.02988
 241.82497 239.63306 237.45714 235.30023 233.16432 231.03541 229.06549 227.22658
 225.51367 223.98975 222.62384 221.39993 220.28601 219.25010 218.35819 217.50328
 216.74936 215.93345 215.03554 214.40362 213.85771 214.01849 214.27097 213.65669
 212.92947 213.50180 215.02307 216.69696 218.88130 222.26347 226.86427 231.23392
 234.74538 238.58493 242.53944 246.46265 250.30609 254.10898 257.72928 261.06003
 264.20096 267.03839 269.40863 271.23624 272.81677 274.29755 276.23050 277.74496
 279.55261 281.67966 283.60690 285.29919 286.76370 288.05942 289.24155 290.31250
 291.27570 292.13342 292.88272 293.83762
 366.78100 356.33958 345.77616 334.64674 323.05433 311.25291 299.12749 286.93507
 274.65165 262.55323 250.56682 239.87240 229.99898 221.10756 213.29414 206.30072
 200.13930 195.08189 191.66847 189.71505 188.75663 188.82521 189.66479 190.97737
 192.70696 194.80654 197.07412 199.43770 201.88728 204.37186 206.46445 208.31103
 209.94161 211.09119 211.32477 211.55735 211.49893 211.20852 210.84610 210.48068
 210.10226 209.81684 209.62942 209.49800 209.43059 209.76617 210.15675 210.55033
 211.34791 212.53049 213.78508 215.57266 217.50524 219.55282 221.65240 223.73998
 225.80456 227.89315 229.99473 232.10531 234.23889 236.41547 238.67605 241.05063
 243.67622 245.93180 247.93838 249.70796 251.12954 252.25712 253.08371 253.40429
 253.44587 253.22445 252.58903 251.54161 250.15219 248.31778 246.23136 244.06894
 241.86452 239.67310 237.49768 235.34126 233.20585 231.07743 229.10801 227.26959
 225.55717 224.03375 222.66834 221.44492 220.33150 219.29608 218.40466 217.55024
 216.79682 215.98141 215.08399 214.45257 213.90715 214.03716 214.27710 213.85324
 213.02437 213.41980 214.91902 216.61057 218.80266 222.23131 226.82880 231.19919
 234.70428 238.50644 242.42911 246.34557 250.21123 254.02084 257.62170 260.94861
 264.10754 266.91162 269.19644 271.02881 272.77728 274.49066 276.43433 278.17743
 280.08279 282.02567 283.82660 285.40799 286.77652 287.98730 289.09198 290.09274
 290.99283 291.79434 292.49454 293.38684
 366.78100 356.34085 345.77870 334.65055 323.05940 311.25924 299.13509 286.94394
 274.66179 262.56464 250.57949 239.88634 230.01419 221.12404 213.31188 206.31973
 200.15958 195.10343 191.69128 189.73913 188.78198 188.85183 189.69268 191.00652
 192.73737 194.83822 197.10707 199.47192 201.92277 204.40862 206.50247 208.35032
 209.98216 211.13301 211.36786 211.60171 211.54456 211.25541 210.89426 210.53011
 210.15296 209.86880 209.68265 209.55250 209.48635 209.82320 210.21505 210.60990
 211.40875 212.59260 213.84844 215.63729 217.57114 219.61999 221.72084 223.80969
 225.87554 227.96539 230.06824 232.18008 234.31493 236.49278 238.75463 241.13048
 243.75733 246.01418 248.02203 249.79288 251.21573 252.34457 253.17242 253.49427
 253.53712 253.31697 252.68282 251.63667 250.24852 248.41537 246.33021 244.16906
 241.96591 239.77576 237.60161 235.44646 233.31231 231.18516 229.21701 227.37985
 225.66870 224.14655 222.78240 221.56025 220.44810 219.41395 218.52380 217.67065
 216.91849 216.10434 215.20819 214.57804 214.03389 214.11900 214.25629 213.87158
 213.17453 213.46663 214.85425 216.57939 218.80402 222.11986 226.85550 231.14282
 234.63185 238.41824 242.33090 246.24638 250.12735 253.94624 257.54559 260.89362
 264.04651 266.84766 269.11176 270.92422 272.77808 274.72519 276.61969 278.66495
 280.84714 283.00879 284.87936 286.52185 287.94327 289.20087 290.34824 291.38770
 292.32254 293.15506 293.88229 294.80911
 366.78100 356.33973 345.77646 334.64719 323.05491 311.25364 299.12837 286.93610
 274.65283 262.55456 250.56828 239.87401 230.00074 221.10947 213.29620 206.30293
 200.14166 195.08438 191.67111 189.71784 188.75957 188.82830 189.66803 190.98075
 192.71048 194.81021 197.07794 199.44167 201.89140 204.37612 206.46885 208.31558
 209.94631 211.09604 211.32977 211.56250 211.50422 211.21395 210.85168 210.48641
 210.10814 209.82287 209.63559 209.50432 209.43705 209.77278 210.16351 210.55724
 211.35497 212.53769 213.79242 215.58015 217.51288 219.56061 221.66034 223.74806
 225.81279 227.90152 230.00325 232.11398 234.24771 236.42444 238.68516 241.05989
 243.68562 245.94135 247.94808 249.71781 251.13953 252.26726 253.09399 253.41472
 253.45645 253.23518 252.59990 251.55263 250.16336 248.32909 246.24282 244.08055
 241.87628 239.68500 237.50973 235.35346 233.21819 231.08992 229.12065 227.28237
 225.57010 224.04683 222.68156 221.45829 220.34502 219.30975 218.41847 217.56420
 216.81093 215.99566 215.09839 214.46712 213.92184 214.10098 214.33321 213.73390
 213.17233 213.52942 214.83589 216.60916 218.90851 222.19841 226.86618 231.12337
 234.58875 238.36438 242.28723 246.22101 250.12122 253.93605 257.53152 260.89056
 264.03589 266.79721 269.10367 270.95554 272.83630 274.73480 276.80771 279.19714
 281.60019 283.66656 285.45471 287.02481 288.38361 289.58582 290.68262 291.67627
 292.56992 293.36572 294.06094 294.94690
 366.78100 356.33848 345.77397 334.64345 323.04993 311.24742 299.12090 286.92738
 274.64287 262.54335 250.55583 239.86031 229.98580 221.09328 213.27876 206.28425
 200.12173 195.06321 191.64870 189.69418 188.73466 188.80215 189.64063 190.95211
 192.68060 194.77908 197.04556 199.40805 201.85653 204.34001 206.43150 208.27698
 209.90646 211.05494 211.28743 211.51891 211.45939 211.16788 210.80436 210.43784
 210.05833 209.77181 209.58329 209.45078 209.38226 209.71674 210.10623 210.49871
 211.29519 212.47668 213.73016 215.51664 217.44813 219.49461 221.59309 223.67957
 225.74306 227.83054 229.93102 232.04051 234.17299 236.34847 238.60796 240.98144
 243.60592 245.86041 247.86589 249.63437 251.05486 252.18134 253.00682 253.32631
 253.36679 253.14427 252.50775 251.45924 250.06872 248.23320 246.14569 243.98217
 241.77665 239.58414 237.40762 235.25010 233.11359 230.98407 229.01355 227.17404
 225.46052 223.93600 222.56949 221.34497 220.23045 219.19394 218.30142 217.44590
 216.69138 215.87487 214.97635 214.34383 213.79732 214.04953 214.41966 213.69873
 213.10774 213.56396 214.85126 216.60138 218.91090 222.21539 226.90755 231.15353
 234.60223 238.36453 242.29333 246.25874 250.16365 253.96812 257.54233 260.88004
 264.01379 266.79642 268.99768 270.76172 272.65326 274.64359 276.81448 279.08893
 281.25024 283.17636 284.84311 286.30664 287.57318 288.69379 289.71613 290.64230
 291.47531 292.21710 292.86511 293.69095
 366.78100 356.33956 345.77613 334.64669 323.05425 311.25281 299.12738 286.93494
 274.65150 262.55306 250.56663 239.87219 229.99875 221.10731 213.29388 206.30044
 200.13900 195.08156 191.66813 189.71469 188.75625 188.82481 189.66438 190.97694
 192.70650 194.80606 197.07363 199.43719 201.88675 204.37131 206.46388 208.31044
 209.94100 211.09057 211.32413 211.55669 211.49825 211.20782 210.84538 210.47994
 210.10150 209.81607 209.62863 209.49719 209.42975 209.76532 210.15588 210.54944
 211.34700 212.52957 213.78413 215.57169 217.50425 219.55182 221.65138 223.73894
 225.80350 227.89207 229.99363 232.10419 234.23775 236.41432 238.67488 241.04944
 243.67501 245.93057 247.93713 249.70669 251.12826 252.25582 253.08238 253.40294
 253.44451 253.22307 252.58763 251.54019 250.15076 248.31632 246.22988 244.06744
 241.86301 239.67157 237.49613 235.33969 233.20426 231.07582 229.10638 227.26794
 225.55551 224.03207 222.66663 221.44319 220.32976 219.29432 218.40288 217.54845
 216.79501 215.97957 215.08213 214.45070 213.90526 214.09212 214.40697 213.84706
 213.13435 213.52696 214.83400 216.52368 218.79739 222.25539 226.86168 231.12961
 234.56534 238.30101 242.21216 246.19118 250.11775 253.93024 257.52203 260.86246
 263.99329 266.70691 268.84698 270.65918 272.49408 274.40207 276.43552 278.27933
 280.13840 281.99823 283.65390 285.10770 286.36581 287.47894 288.49451 289.41452
 290.24197 290.97885 291.62256 292.44287
 366.78100 356.34060 345.77819 334.64979 323.05838 311.25798 299.13357 286.94217
 274.65976 262.56236 250.57695 239.88355 230.01114 221.12074 213.30833 206.31593
 200.15552 195.09912 191.68671 189.73431 188.77690 188.84650 189.68709 191.00069
 192.73128 194.83188 197.10047 199.46507 201.91566 204.40126 206.49485 208.34245
 209.97404 211.12464 211.35923 211.59283 211.53543 211.24602 210.88462 210.52021
 210.14281 209.85840 209.67200 209.54159 209.47519 209.81178 210.20338 210.59797
 211.39657 212.58016 213.83576 215.62435 217.55795 219.60654 221.70714 223.79573
 225.86133 227.95092 230.05352 232.16511 234.29971 236.47730 238.73890 241.11449
 243.74109 245.99768 248.00528 249.77587 251.19847 252.32706 253.15466 253.47626
 253.51885 253.29845 252.66404 251.61764 250.22923 248.39583 246.31042 244.14902
 241.94561 239.75521 237.58080 235.42540 233.29099 231.16359 229.19518 227.35778
 225.64637 224.12397 222.75956 221.53716 220.42475 219.39035 218.49994 217.64654
 216.89413 216.07973 215.18332 214.55292 214.00851 214.14284 214.38396 213.97095
 213.21831 213.44466 214.73393 216.48390 218.82489 222.30315 226.83366 231.11877
 234.53947 238.23993 242.12036 246.09877 250.05655 253.91267 257.54047 260.90390
 264.05243 266.73743 268.79144 270.56985 272.43579 274.24585 276.27988 277.96497
 279.39191 281.19949 282.89200 284.37814 285.66428 286.80219 287.84033 288.78085
 289.62671 290.37997 291.03802 291.87659
 366.78100 356.34135 345.77970 334.65206 323.06141 311.26176 299.13811 286.94746
 274.66581 262.56917 250.58452 239.89187 230.02022 221.13057 213.31893 206.32728
 200.16763 195.11198 191.70033 189.74868 188.79204 188.86239 189.70374 191.01809
 192.74944 194.85080 197.12015 199.48550 201.93685 204.42320 206.51755 208.36591
 209.99826 211.14961 211.38496 211.61931 211.56267 211.27402 210.91337 210.54972
 210.17307 209.88942 209.70378 209.57413 209.50848 209.84583 210.23818 210.63354
 211.43289 212.61724 213.87359 215.66294 217.59730 219.64665 221.74800 223.83735
 225.90370 227.99405 230.09741 232.20976 234.34511 236.52346 238.78581 241.16217
 243.78952 246.04687 248.05522 249.82657 251.24992 252.37928 253.20763 253.52998
 253.57333 253.35368 252.72004 251.67439 250.28674 248.45409 246.36944 244.20879
 242.00615 239.81650 237.64285 235.48820 233.35455 231.22791 229.26026 227.42361
 225.71296 224.19131 222.82766 221.60602 220.49437 219.46072 218.57107 217.71842
 216.96678 216.15313 215.25748 214.62783 214.08418 214.18217 214.37065 214.08917
 213.33237 213.32768 214.55212 216.38304 218.82745 222.33762 226.81799 231.13353
 234.53769 238.20869 242.06844 246.05922 250.04576 253.92966 257.57251 260.94702
 264.11621 266.84256 268.85275 270.52341 272.36627 274.23959 276.14621 277.77982
 279.06317 280.78287 282.48880 284.00623 285.31940 286.48123 287.54123 288.50153
 289.36520 290.13431 290.80615 291.66238
 366.78100 356.34318 345.78337 334.65755 323.06873 311.27091 299.14910 286.96028
 274.68046 262.58565 250.60283 239.91201 230.04219 221.15438 213.34456 206.35474
 200.19693 195.14311 191.73329 189.78347 188.82866 188.90084 189.74402 191.06021
 192.79339 194.89657 197.16775 199.53494 201.98812 204.47630 206.57249 208.42267
 210.05685 211.21004 211.44722 211.68340 211.62858 211.34177 210.98295 210.62113
 210.24632 209.96450 209.78068 209.65286 209.58905 209.92823 210.32241 210.71960
 211.52078 212.70696 213.96514 215.75633 217.69251 219.74369 221.84688 223.93806
 226.00624 228.09842 230.20361 232.31779 234.45497 236.63516 238.89934 241.27752
 243.90670 246.16589 248.17607 249.94925 251.37444 252.50562 253.33580 253.65998
 253.70517 253.48735 252.85553 251.81172 250.42590 248.59508 246.51226 244.35345
 242.15263 239.96481 237.79300 235.64018 233.50836 231.38354 229.41773 227.58291
 225.87409 224.35428 222.99246 221.77264 220.66283 219.63101 218.74319 217.89237
 217.14256 216.33074 215.43692 214.80911 214.26729 214.28688 214.33078 214.17467
 213.48457 213.32796 214.40961 216.24176 218.71501 222.25455 226.80316 231.06801
 234.45213 238.11465 241.98550 245.99345 250.00595 253.90324 257.55515 260.92923
 264.07654 266.78201 268.83237 270.52399 272.35718 274.25580 276.06018 277.45355
 279.08868 281.00830 282.74722 284.27414 285.59552 286.76465 287.83127 288.79755
 289.66663 290.44055 291.11664 291.97821
 366.78100 356.34353 345.78406 334.65860 323.07013 311.27266 299.15119 286.96272
 274.68326 262.58879 250.60632 239.91585 230.04638 221.15892 213.34945 206.35998
 200.20251 195.14904 191.73958 189.79011 188.83564 188.90817 189.75170 191.06824
 192.80177 194.90530 197.17683 199.54436 201.99790 204.48643 206.58296 208.43349
 210.06802 211.22156 211.45909 211.69562 211.64115 211.35468 210.99622 210.63475
 210.26028 209.97881 209.79534 209.66788 209.60441 209.94394 210.33847 210.73600
 211.53754 212.72407 213.98260 215.77413 217.71066 219.76220 221.86573 223.95726
 226.02579 228.11832 230.22386 232.33839 234.47592 236.65645 238.92098 241.29952
 243.92905 246.18858 248.19911 249.97264 251.39818 252.52971 253.36024 253.68477
 253.73030 253.51284 252.88137 251.83790 250.45243 248.62196 246.53950 244.38103
 242.18056 239.99309 237.82162 235.66916 233.53769 231.41322 229.44775 227.61328
 225.90482 224.38535 223.02388 221.80441 220.69494 219.66348 218.77601 217.92554
 217.17607 216.36460 215.47114 214.84367 214.30220 214.32927 214.36093 214.13638
 213.53244 213.36461 214.35866 216.20259 218.73390 222.19435 226.84195 231.05922
 234.41733 238.06857 241.95882 245.99208 250.02652 253.93376 257.58081 260.95670
 264.10318 266.84058 268.92712 270.61453 272.38727 274.33688 276.00543 277.53036
 279.42267 281.45605 283.21564 284.76068 286.09781 287.28079 288.36008 289.33786
 290.21725 291.00037 291.68448 292.55630
 366.78100 356.34207 345.78115 334.65422 323.06429 311.26537 299.14244 286.95251
 274.67159 262.57566 250.59173 239.89981 230.02888 221.13995 213.32903 206.33810
 200.17917 195.12425 191.71332 189.76239 188.80647 188.87754 189.71961 191.03469
 192.76676 194.86883 197.13890 199.50498 201.95705 204.44412 206.53920 208.38827
 210.02134 211.17342 211.40949 211.64456 211.58864 211.30071 210.94078 210.57786
 210.20193 209.91900 209.73408 209.60515 209.54022 209.87830 210.27137 210.66744
 211.46752 212.65259 213.90966 215.69974 217.63481 219.68488 221.78696 223.87703
 225.94410 228.03518 230.13925 232.25232 234.38840 236.56747 238.83054 241.20762
 243.83569 246.09376 248.10284 249.87491 251.29898 252.42906 253.25813 253.58120
 253.62527 253.40635 252.77342 251.72849 250.34157 248.50964 246.42571 244.26579
 242.06386 239.87493 237.70201 235.54808 233.41515 231.28923 229.32230 227.48637
 225.77645 224.25552 222.89259 221.67167 220.56074 219.52781 218.63889 217.78696
 217.03603 216.22311 215.32818 214.69925 214.15633 214.27211 214.45154 214.10287
 213.58813 213.42842 214.34288 216.11166 218.64180 222.24373 226.81920 231.05490
 234.40152 238.05313 241.95537 246.01044 250.03568 253.91879 257.55948 260.93494
 264.06549 266.78485 268.92972 270.64029 272.46042 274.36444 276.03391 277.47751
 279.15295 281.08939 282.82861 284.35577 285.67740 286.84671 287.91351 288.87997
 289.74921 290.52325 291.19943 292.06119
 366.78100 356.34097 345.77894 334.65091 323.05988 311.25985 299.13582 286.94480
 274.66277 262.56574 250.58071 239.88768 230.01565 221.12562 213.31359 206.32156
 200.16153 195.10550 191.69347 189.74145 188.78442 188.85439 189.69536 191.00933
 192.74030 194.84127 197.11024 199.47521 201.92618 204.41215 206.50612 208.35410
 209.98607 211.13704 211.37201 211.60598 211.54895 211.25992 210.89889 210.53486
 210.15783 209.87380 209.68777 209.55775 209.49172 209.82869 210.22066 210.61563
 211.41460 212.59857 213.85454 215.64351 217.57748 219.62645 221.72742 223.81639
 225.88237 227.97234 230.07531 232.18728 234.32225 236.50022 238.76219 241.13816
 243.76513 246.02210 248.03007 249.80104 251.22402 252.35299 253.18096 253.50293
 253.54590 253.32587 252.69184 251.64581 250.25778 248.42475 246.33972 244.17869
 241.97567 239.78564 237.61161 235.45658 233.32255 231.19552 229.22749 227.39046
 225.67943 224.15740 222.79337 221.57134 220.45932 219.42529 218.53526 217.68223
 216.93020 216.11617 215.22014 214.59011 214.04608 214.22760 214.53712 214.10245
 213.61395 213.49518 214.34117 216.04601 218.60301 222.24765 226.78105 231.02223
 234.35571 237.99901 241.90677 245.98080 250.00566 253.87743 257.51636 260.89587
 263.99701 266.62753 268.73514 270.52866 272.43649 274.39050 276.07001 277.39233
 278.87518 280.65881 282.40503 283.93832 285.26529 286.43930 287.51038 288.48074
 289.35345 290.13062 290.80951 291.67471
 366.78100 356.34066 345.77832 334.64998 323.05864 311.25830 299.13396 286.94261
 274.66027 262.56293 250.57759 239.88425 230.01191 221.12157 213.30923 206.31689
 200.15655 195.10021 191.68787 189.73553 188.77818 188.84784 189.68850 191.00216
 192.73282 194.83348 197.10214 199.46680 201.91746 204.40312 206.49678 208.34444
 209.97610 211.12675 211.36141 211.59507 211.53773 211.24839 210.88705 210.52271
 210.14537 209.86103 209.67469 209.54435 209.47801 209.81467 210.20632 210.60098
 211.39964 212.58330 213.83896 215.62762 217.56128 219.60994 221.71060 223.79926
 225.86492 227.95458 230.05724 232.16889 234.30355 236.48121 238.74287 241.11853
 243.74519 246.00185 248.00951 249.78017 251.20283 252.33149 253.15915 253.48081
 253.52346 253.30312 252.66878 251.62244 250.23410 248.40076 246.31542 244.15408
 241.95074 239.76040 237.58606 235.43072 233.29638 231.16903 229.20069 227.36335
 225.65201 224.12967 222.76533 221.54299 220.43065 219.39631 218.50597 217.65263
 216.90029 216.08595 215.18960 214.55926 214.01492 214.21904 214.59706 214.16957
 213.54689 213.43611 214.26300 215.96753 218.58411 222.26935 226.84685 231.06343
 234.37918 238.01053 241.91975 246.01009 250.04085 253.92053 257.58057 260.96970
 264.03833 266.62329 268.67639 270.52432 272.41562 274.29886 276.03638 277.39832
 278.64767 280.23596 281.91003 283.41898 284.72482 285.88016 286.93423 287.88916
 288.74802 289.51282 290.18094 291.03238
 366.78100 356.34121 345.77942 334.65163 323.06084 311.26105 299.13726 286.94647
 274.66468 262.56789 250.58310 239.89031 230.01852 221.12873 213.31694 206.32515
 200.16536 195.10957 191.69778 189.74599 188.78920 188.85941 189.70061 191.01482
 192.74603 194.84724 197.11645 199.48166 201.93287 204.41908 206.51329 208.36150
 209.99371 211.14492 211.38013 211.61434 211.55755 211.26876 210.90797 210.54418
 210.16739 209.88360 209.69781 209.56802 209.50223 209.83944 210.23165 210.62686
 211.42607 212.61028 213.86649 215.65570 217.58991 219.63912 221.74033 223.82954
 225.89575 227.98596 230.08917 232.20138 234.33659 236.51480 238.77701 241.15322
 243.78043 246.03763 248.04584 249.81705 251.24026 252.36947 253.19768 253.51989
 253.56310 253.34331 252.70952 251.66373 250.27594 248.44315 246.35836 244.19757
 241.99478 239.80499 237.63120 235.47641 233.34262 231.21583 229.24804 227.41125
 225.70046 224.17867 222.81488 221.59309 220.48130 219.44751 218.55772 217.70493
 216.95314 216.13935 215.24356 214.61377 214.06998 214.26031 214.62225 214.25999
 213.56628 213.38438 214.10677 215.77887 218.45880 222.21240 226.88376 231.05980
 234.37448 238.00400 241.92337 246.02486 250.06792 253.96382 257.64081 261.03802
 264.11026 266.65262 268.71735 270.63882 272.54791 274.39441 276.02679 277.43686
 278.70392 280.37363 282.15320 283.72910 285.09290 286.29950 287.40033 288.39764
 289.29459 290.09332 290.79108 291.68030
 366.78100 356.34175 345.78050 334.65325 323.06301 311.26376 299.14051 286.95026
 274.66901 262.57276 250.58851 239.89627 230.02502 221.13577 213.32452 206.33327
 200.17402 195.11877 191.70753 189.75628 188.80003 188.87078 189.71253 191.02728
 192.75903 194.86079 197.13054 199.49629 201.94804 204.43479 206.52954 208.37830
 210.01105 211.16280 211.39855 211.63330 211.57705 211.28880 210.92856 210.56531
 210.18906 209.90581 209.72056 209.59131 209.52606 209.86382 210.25657 210.65232
 211.45207 212.63682 213.89357 215.68332 217.61808 219.66783 221.76958 223.85933
 225.92608 228.01683 230.12058 232.23334 234.36909 236.54784 238.81059 241.18734
 243.81509 246.07284 248.08160 249.85335 251.27710 252.40685 253.23560 253.55835
 253.60210 253.38286 252.74961 251.70436 250.31711 248.48486 246.40061 244.24036
 242.03812 239.84887 237.67562 235.52137 233.38812 231.26187 229.29463 227.45838
 225.74813 224.22688 222.86363 221.64238 220.53113 219.49789 218.60864 217.75639
 217.00514 216.19189 215.29664 214.66739 214.12415 214.31087 214.64375 214.23718
 213.60393 213.43938 214.03418 215.61169 218.29617 222.10594 226.85925 230.99017
 234.30179 237.94360 241.89268 246.01862 250.08002 253.99788 257.69888 261.09723
 264.12573 266.65451 268.73190 270.73581 272.71881 274.69580 276.12527 277.45831
 279.13110 281.10165 282.90768 284.49356 285.86597 287.08020 288.18799 289.19159
 290.09424 290.89801 291.60019 292.49503
 366.78100 356.34225 345.78149 334.65474 323.06498 311.26623 299.14348 286.95372
 274.67297 262.57721 250.59346 239.90170 230.03095 221.14220 213.33144 206.34069
 200.18193 195.12718 191.71643 189.76567 188.80992 188.88116 189.72341 191.03865
 192.77090 194.87315 197.14339 199.50964 201.96188 204.44913 206.54438 208.39362
 210.02687 211.17911 211.41536 211.65060 211.59485 211.30710 210.94734 210.58459
 210.20883 209.92608 209.74133 209.61257 209.54782 209.88606 210.27931 210.67555
 211.47580 212.66105 213.91829 215.70854 217.64378 219.69403 221.79628 223.88652
 225.95377 228.04501 230.14926 232.26250 234.39875 236.57800 238.84124 241.21849
 243.84673 246.10498 248.11423 249.88647 251.31072 252.44096 253.27021 253.59345
 253.63770 253.41895 252.78619 251.74144 250.35468 248.52293 246.43918 244.27942
 242.07767 239.88891 237.71616 235.56240 233.42965 231.30390 229.33714 227.50139
 225.79163 224.27088 222.90813 221.68737 220.57662 219.54386 218.65511 217.80335
 217.05260 216.23985 215.34509 214.71634 214.17358 214.34735 214.65924 214.23672
 213.57368 213.46960 214.07375 215.59229 218.27878 222.11147 226.79010 230.93063
 234.22588 237.86586 241.83124 245.98373 250.06496 253.99232 257.69293 261.10080
 264.12939 266.61642 268.67789 270.67770 272.61453 274.47580 276.03387 277.70554
 279.54193 281.41806 283.19812 284.76114 286.11383 287.31058 288.40244 289.39160
 290.28125 291.07346 291.76553 292.64749
 366.78100 356.34325 345.78350 334.65776 323.06901 311.27126 299.14951 286.96076
 274.68101 262.58627 250.60352 239.91277 230.04302 221.15527 213.34552 206.35578
 200.19803 195.14428 191.73453 189.78478 188.83003 188.90229 189.74554 191.06179
 192.79504 194.89829 197.16954 199.53680 201.99005 204.47830 206.57455 208.42480
 210.05905 211.21231 211.44956 211.68581 211.63106 211.34431 210.98556 210.62382
 210.24907 209.96732 209.78357 209.65582 209.59207 209.93133 210.32558 210.72283
 211.52408 212.71033 213.96858 215.75984 217.69609 219.74734 221.85059 223.94184
 226.01010 228.10235 230.20760 232.32185 234.45910 236.63935 238.90361 241.28186
 243.91111 246.17036 248.18061 249.95386 251.37912 252.51037 253.34062 253.66487
 253.71012 253.49237 252.86063 251.81688 250.43113 248.60038 246.51763 244.35888
 242.15814 239.97039 237.79864 235.64589 233.51414 231.38939 229.42365 227.58890
 225.88015 224.36040 222.99865 221.77890 220.66916 219.63741 218.74966 217.89891
 217.14916 216.33741 215.44367 214.81592 214.27417 214.39545 214.63745 214.34702
 213.58534 213.41748 214.05389 215.58156 218.29279 222.13148 226.74615 230.89656
 234.17180 237.79765 241.77762 245.95833 250.03246 253.92728 257.60098 260.97693
 263.94968 266.42007 268.50851 270.59521 272.58536 274.42514 276.09583 277.53320
 279.11746 280.66412 282.18311 283.63303 284.89081 286.00360 287.01889 287.93866
 288.76587 289.50253 290.14606 290.96616
 366.78100 356.34299 345.78298 334.65697 323.06796 311.26994 299.14793 286.95892
 274.67891 262.58390 250.60089 239.90988 230.03987 221.15186 213.34185 206.35183
 200.19382 195.13981 191.72980 189.77979 188.82478 188.89677 189.73976 191.05575
 192.78873 194.89172 197.16271 199.52970 201.98269 204.47068 206.56667 208.41666
 210.05065 211.20364 211.44062 211.67661 211.62160 211.33459 210.97558 210.61357
 210.23856 209.95655 209.77254 209.64452 209.58051 209.91950 210.31349 210.71048
 211.51147 212.69746 213.95545 215.74644 217.68243 219.73341 221.83640 223.92739
 225.99538 228.08737 230.19236 232.30635 234.44334 236.62333 238.88731 241.26530
 243.89429 246.15328 248.16327 249.93626 251.36125 252.49224 253.32223 253.64621
 253.69120 253.47319 252.84118 251.79717 250.41116 248.58015 246.49714 244.33813
 242.13712 239.94910 237.77709 235.62408 233.49207 231.36706 229.40105 227.56604
 225.85703 224.33702 222.97500 221.75499 220.64498 219.61297 218.72496 217.87395
 217.12394 216.31193 215.41792 214.78991 214.24789 214.38480 214.67387 214.41507
 213.62450 213.25223 213.90955 215.50160 218.26268 222.10262 226.75272 230.85774
 234.15892 237.81479 241.79849 245.94911 250.00047 253.87476 257.52930 260.88992
 263.83884 266.32587 268.49130 270.60565 272.60574 274.39890 276.04248 277.38519
 278.83926 280.14304 281.27316 282.53961 283.75290 284.86542 285.88043 286.79993
 287.62695 288.36340 289.00677 289.82663
 366.78100 356.34143 345.77985 334.65228 323.06171 311.26214 299.13856 286.94799
 274.66642 262.56984 250.58527 239.89270 230.02112 221.13155 213.31998 206.32841
 200.16883 195.11326 191.70169 189.75011 188.79354 188.86397 189.70540 191.01982
 192.75125 194.85268 197.12210 199.48753 201.93896 204.42538 206.51981 208.36824
 210.00067 211.15209 211.38752 211.62195 211.56537 211.27680 210.91623 210.55266
 210.17608 209.89251 209.70694 209.57736 209.51179 209.84922 210.24164 210.63707
 211.43650 212.62093 213.87735 215.66678 217.60121 219.65063 221.75206 223.84149
 225.90791 227.99834 230.10177 232.21420 234.34962 236.52805 238.79048 241.16690
 243.79433 246.05176 248.06019 249.83161 251.25504 252.38447 253.21289 253.53532
 253.57875 253.35917 252.72560 251.68003 250.29246 248.45988 246.37531 244.21474
 242.01216 239.82259 237.64902 235.49445 233.36087 231.23430 229.26673 227.43015
 225.71958 224.19801 222.83443 221.61286 220.50129 219.46772 218.57814 217.72557
 216.97400 216.16042 215.26485 214.63528 214.09171 214.32172 214.80513 214.42459
 213.59113 213.04547 213.76099 215.50792 218.31578 222.16838 226.85974 230.91069
 234.19579 237.85315 241.84177 245.99374 250.02913 253.87347 257.50812 260.85410
 263.77399 266.24356 268.42853 270.59259 272.58923 274.30127 275.91205 277.26596
 278.50156 279.83112 280.92447 282.13879 283.34048 284.43921 285.44162 286.34973
 287.16650 287.89380 288.52917 289.33890
 366.78100 356.34205 345.78111 334.65416 323.06422 311.26527 299.14233 286.95238
 274.67144 262.57549 250.59155 239.89960 230.02866 221.13971 213.32877 206.33782
 200.17888 195.12393 191.71299 189.76204 188.80610 188.87715 189.71921 191.03426
 192.76632 194.86837 197.13842 199.50448 201.95653 204.44359 206.53864 208.38770
 210.02075 211.17281 211.40886 211.64392 211.58797 211.30003 210.94008 210.57714
 210.20119 209.91825 209.73330 209.60436 209.53941 209.87747 210.27052 210.66658
 211.46663 212.65169 213.90874 215.69879 217.63385 219.68390 221.78596 223.87601
 225.94307 228.03412 230.13818 232.25123 234.38729 236.56634 238.82940 241.20645
 243.83451 246.09256 248.10162 249.87367 251.29773 252.42778 253.25684 253.57989
 253.62395 253.40500 252.77206 251.72711 250.34016 248.50822 246.42427 244.26433
 242.06238 239.87344 237.70049 235.54655 233.41360 231.28766 229.32071 227.48477
 225.77482 224.25388 222.89093 221.66999 220.55904 219.52610 218.63715 217.78521
 217.03426 216.22132 215.32637 214.69743 214.15448 214.37332 214.82504 214.51285
 213.53448 212.87529 213.56157 215.45369 218.33269 222.20238 226.98180 231.02946
 234.31592 237.98410 241.98868 246.15411 250.18889 254.02942 257.65634 260.97824
 263.88318 266.35986 268.55829 270.63507 272.54520 274.23596 275.81049 277.16183
 278.38596 279.62604 280.95447 282.37170 283.61777 284.72025 285.72607 286.63727
 287.45682 288.18658 288.82413 289.63660
 366.78100 356.34388 345.78476 334.65963 323.07151 311.27439 299.15327 286.96514
 274.68602 262.59190 250.60978 239.91965 230.05053 221.16341 213.35429 206.36516
 200.20804 195.15492 191.74580 189.79667 188.84255 188.91543 189.75931 191.07619
 192.81006 194.91394 197.18582 199.55370 202.00757 204.49645 206.59333 208.44421
 210.07908 211.23296 211.47084 211.70772 211.65359 211.36747 211.00935 210.64823
 210.27410 209.99298 209.80986 209.68274 209.61962 209.95949 210.35437 210.75225
 211.55413 212.74100 213.99988 215.79176 217.72864 219.78051 221.88439 223.97627
 226.04515 228.13802 230.24390 232.35878 234.49666 236.67753 238.94241 241.32129
 243.95117 246.21104 248.22192 249.99580 251.42168 252.55356 253.38443 253.70931
 253.75519 253.53807 252.90694 251.86382 250.47870 248.64858 246.56645 244.40833
 242.20821 240.02109 237.84996 235.69784 233.56672 231.44260 229.47747 227.64335
 225.93523 224.41611 223.05499 221.83586 220.72674 219.69562 218.80850 217.95837
 217.20925 216.39813 215.50501 214.87788 214.33676 214.47433 214.77368 214.62733
 213.67503 212.85414 213.27654 215.09399 218.01823 222.03580 226.90245 231.00710
 234.32195 238.03383 242.09798 246.31180 250.38177 254.25491 257.90350 261.24817
 264.17468 266.64642 268.79086 270.88107 272.75281 274.49289 275.94791 277.16690
 278.39560 279.86398 281.40045 282.96976 284.33026 285.53394 286.63214 287.62701
 288.52182 289.31863 290.01471 290.90176
 366.78100 356.34310 345.78319 334.65729 323.06838 311.27048 299.14857 286.95967
 274.67976 262.58486 250.60195 239.91105 230.04114 221.15324 213.34333 206.35343
 200.19552 195.14162 191.73172 189.78181 188.82691 188.89900 189.74210 191.05819
 192.79129 194.89438 197.16548 199.53257 201.98567 204.47376 206.56986 208.41995
 210.05405 211.20714 211.44424 211.68034 211.62543 211.33853 210.97962 210.61772
 210.24281 209.96091 209.77700 209.64910 209.58519 209.92429 210.31838 210.71548
 211.51657 212.70267 213.96076 215.75186 217.68796 219.73905 221.84215 223.93324
 226.00134 228.09343 230.19853 232.31262 234.44972 236.62981 238.89391 241.27200
 243.90110 246.16019 248.17029 249.94338 251.36848 252.49958 253.32967 253.65377
 253.69886 253.48096 252.84905 251.80515 250.41924 248.58834 246.50543 244.34653
 242.14562 239.95772 237.78581 235.63291 233.50100 231.37610 229.41020 227.57529
 225.86639 224.34648 222.98458 221.76467 220.65477 219.62286 218.73496 217.88405
 217.13415 216.32224 215.42834 214.80043 214.25853 214.43813 214.82878 214.66727
 213.84740 213.04143 213.24899 214.86554 217.72185 221.72958 226.58936 230.75726
 234.12825 237.92270 242.04037 246.28156 250.37541 254.25922 257.90756 261.24310
 264.14493 266.60040 268.74976 270.79095 272.68219 274.37146 275.89883 277.28723
 278.79410 280.18887 281.62598 282.98273 284.27524 285.45023 286.52225 287.49341
 288.36685 289.14465 289.82413 290.69006
 366.78100 356.34182 345.78064 334.65346 323.06328 311.26410 299.14092 286.95073
 274.66955 262.57337 250.58919 239.89701 230.02583 221.13665 213.32547 206.33429
 200.17511 195.11993 191.70875 189.75756 188.80138 188.87220 189.71402 191.02884
 192.76066 194.86248 197.13230 199.49812 201.94994 204.43676 206.53158 208.38040
 210.01321 211.16503 211.40085 211.63567 211.57949 211.29131 210.93113 210.56795
 210.19177 209.90859 209.72341 209.59423 209.52904 209.86686 210.25968 210.65550
 211.45532 212.64014 213.89696 215.68678 217.62160 219.67142 221.77324 223.86306
 225.92988 228.02069 230.12451 232.23733 234.37315 236.55197 238.81479 241.19161
 243.81943 246.07725 248.08607 249.85789 251.28171 252.41153 253.24034 253.56316
 253.60698 253.38780 252.75462 251.70944 250.32226 248.49008 246.40590 244.24572
 242.04354 239.85436 237.68117 235.52699 233.39381 231.26763 229.30045 227.46427
 225.75409 224.23291 222.86973 221.64855 220.53737 219.50419 218.61501 217.76282
 217.01164 216.19846 215.30328 214.67410 214.13092 214.38123 214.92438 214.68904
 213.82666 213.10458 213.45290 215.02310 217.71318 221.62306 226.43066 230.55449
 233.93066 237.75415 241.92143 246.19077 250.28954 254.17287 257.81900 261.15417
 264.03644 266.45074 268.54218 270.54541 272.43097 274.11652 275.73834 277.21646
 278.69324 280.28220 281.70361 283.01584 284.21350 285.30002 286.29132 287.18936
 287.99707 288.71631 289.34464 290.14539
 366.78100 356.34293 345.78285 334.65678 323.06770 311.26963 299.14756 286.95848
 274.67841 262.58333 250.60026 239.90919 230.03911 221.15104 213.34097 206.35089
 200.19282 195.13874 191.72867 189.77860 188.82352 188.89545 189.73837 191.05430
 192.78723 194.89015 197.16108 199.52800 201.98093 204.46886 206.56478 208.41471
 210.04863 211.20156 211.43849 211.67441 211.61934 211.33226 210.97319 210.61112
 210.23604 209.95397 209.76990 209.64182 209.57775 209.91667 210.31060 210.70753
 211.50845 212.69438 213.95230 215.74323 217.67916 219.73008 221.83301 223.92393
 225.99186 228.08379 230.18871 232.30264 234.43956 236.61949 238.88342 241.26134
 243.89027 246.14919 248.15912 249.93205 251.35697 252.48790 253.31783 253.64175
 253.68668 253.46860 252.83653 251.79246 250.40638 248.57531 246.49223 244.33316
 242.13209 239.94401 237.77194 235.61886 233.48679 231.36172 229.39564 227.56057
 225.85149 224.33142 222.96935 221.74927 220.63920 219.60713 218.71905 217.86798
 217.11790 216.30583 215.41176 214.78368 214.24161 214.45500 214.91016 214.71497
 213.83704 212.99544 213.47081 215.24374 217.90228 221.71791 226.46503 230.53511
 233.87126 237.69821 241.89430 246.19308 250.29396 254.17052 257.81052 261.14661
 264.05087 266.50479 268.61624 270.56433 272.37256 274.04480 275.77139 277.26880
 278.66641 280.26898 281.73239 283.07199 284.24640 285.28543 286.23340 287.09219
 287.86456 288.55237 289.15323 289.91898
 366.78100 356.34498 345.78697 334.66295 323.07594 311.27992 299.15991 286.97289
 274.69488 262.60186 250.62085 239.93183 230.06382 221.17780 213.36979 206.38177
 200.22576 195.17374 191.76573 189.81771 188.86470 188.93868 189.78367 191.10165
 192.83664 194.94162 197.21460 199.58359 202.03857 204.52856 206.62654 208.47853
 210.11451 211.26950 211.50848 211.74647 211.69345 211.40844 211.05142 210.69141
 210.31839 210.03838 209.85636 209.73035 209.66833 210.00932 210.40530 210.80429
 211.60727 212.79525 214.05524 215.84822 217.78621 219.83919 221.94418 224.03716
 226.10715 228.20113 230.30812 232.42410 234.56309 236.74507 239.01106 241.39104
 244.02203 246.28301 248.29500 250.06998 251.49697 252.62995 253.46194 253.78792
 253.83491 253.61889 252.98887 251.94686 250.56284 248.73383 246.65281 244.49580
 242.29678 240.11077 237.94075 235.78974 233.65972 231.53671 229.57269 227.73968
 226.03266 224.51465 223.15463 221.93662 220.82860 219.79859 218.91257 218.06356
 217.31554 216.50552 215.61351 214.98749 214.44748 214.57509 214.85220 214.74860
 213.95238 213.02975 213.29532 215.02625 217.84222 221.75661 226.55458 230.57291
 233.88512 237.70586 241.91467 246.21358 250.31065 254.16742 257.79935 261.16321
 264.13828 266.67725 268.82361 270.75418 272.45767 273.97272 275.71164 277.23978
 278.65762 280.28375 281.78394 283.10312 284.24478 285.25482 286.17636 287.01120
 287.76202 288.43066 289.01477 289.75912
 366.78100 356.34645 345.78989 334.66734 323.08178 311.28723 299.16867 286.98312
 274.70656 262.61501 250.63545 239.94790 230.08134 221.19679 213.39023 206.40368
 200.24912 195.19857 191.79201 189.84546 188.89390 188.96935 189.81579 191.13524
 192.87169 194.97813 197.25258 199.62302 202.07947 204.57091 206.67036 208.52380
 210.16125 211.31769 211.55814 211.79758 211.74603 211.46247 211.10692 210.74836
 210.37681 210.09825 209.91770 209.79314 209.73259 210.07503 210.47248 210.87292
 211.67737 212.86682 214.12826 215.92271 217.86215 219.91660 222.02304 224.11749
 226.18893 228.28438 230.39282 232.51027 234.65071 236.83416 239.10160 241.48305
 244.11549 246.37794 248.39138 250.16783 251.59627 252.73072 253.56416 253.89161
 253.94006 253.72550 253.09695 252.05639 250.67384 248.84628 246.76673 244.61117
 242.41362 240.22906 238.06051 235.91095 233.78240 231.66084 229.69829 227.86673
 226.16118 224.64462 223.28607 222.06951 220.96296 219.93440 219.04985 218.20230
 217.45574 216.64719 215.75663 215.13208 214.59352 214.66270 214.82076 214.78299
 214.10541 213.15416 213.13733 214.69254 217.67123 221.71126 226.57391 230.58546
 233.89580 237.72186 241.93456 246.23085 250.31142 254.12660 257.72046 261.08081
 264.10559 266.71841 268.90662 270.85101 272.55139 273.95233 275.57486 277.23904
 278.69199 280.38077 281.92981 283.32736 284.53683 285.60687 286.58316 287.46759
 288.26303 288.97137 289.59018 290.37878
 366.78100 356.34732 345.79163 334.66995 323.08527 311.29158 299.17390 286.98922
 274.71353 262.62285 250.64416 239.95748 230.09180 221.20811 213.40243 206.41675
 200.26306 195.21338 191.80770 189.86201 188.91133 188.98765 189.83496 191.15528
 192.89260 194.99991 197.27523 199.64655 202.10386 204.59618 206.69649 208.55081
 210.18913 211.34644 211.58776 211.82808 211.77739 211.49471 211.14003 210.78234
 210.41166 210.13398 209.95429 209.83061 209.77093 210.11424 210.51256 210.91387
 211.71919 212.90951 214.17182 215.96714 217.90746 219.96277 222.07009 224.16541
 226.23772 228.33404 230.44336 232.56167 234.70299 236.88731 239.15562 241.53794
 244.17126 246.43457 248.44889 250.22620 251.65552 252.79084 253.62515 253.95347
 254.00279 253.78910 253.16142 252.12174 250.74005 248.91337 246.83469 244.68000
 242.48332 240.29964 238.13195 235.98327 233.85558 231.73490 229.77322 227.94253
 226.23785 224.72217 223.36448 222.14880 221.04312 220.01543 219.13175 218.28507
 217.53938 216.73170 215.84202 215.21833 214.68065 214.72169 214.81728 214.79178
 214.21219 213.27777 213.09441 214.45465 217.49495 221.61720 226.52310 230.55264
 233.87851 237.72989 241.96454 246.27571 250.36241 254.15764 257.71545 261.05005
 264.09460 266.75137 268.97672 270.93881 272.64499 273.98123 275.59268 277.14984
 278.80872 280.52838 282.13873 283.57678 284.82132 285.92239 286.92697 287.83704
 288.65555 289.38443 290.02115 290.83261
 366.78100 356.34789 345.79279 334.67168 323.08757 311.29447 299.17736 286.99326
 274.71815 262.62804 250.64994 239.96383 230.09872 221.21562 213.41051 206.42540
 200.27230 195.22319 191.81808 189.87298 188.92287 188.99977 189.84766 191.16855
 192.90645 195.01434 197.29023 199.66213 202.12002 204.61291 206.71381 208.56870
 210.20759 211.36549 211.60738 211.84828 211.79817 211.51606 211.16196 210.80485
 210.43474 210.15764 209.97853 209.85542 209.79632 210.14021 210.53910 210.94100
 211.74689 212.93779 214.20068 215.99657 217.93747 219.99336 222.10125 224.19715
 226.27004 228.36693 230.47683 232.59572 234.73761 236.92251 239.19140 241.57430
 244.20819 246.47208 248.48698 250.26487 251.69476 252.83066 253.66555 253.99444
 254.04434 253.83123 253.20412 252.16502 250.78391 248.95781 246.87970 244.72559
 242.52949 240.34638 238.17927 236.03117 233.90406 231.78395 229.82285 227.99274
 226.28863 224.77353 223.41642 222.20132 221.09621 220.06910 219.18600 218.33989
 217.59478 216.78768 215.89857 215.27546 214.73836 214.75937 214.81471 214.82225
 214.30164 213.35080 213.08902 214.33543 217.35878 221.51422 226.38588 230.46646
 233.80855 237.69786 241.97205 246.31203 250.40921 254.18962 257.71405 261.02319
 264.07330 266.77835 269.06635 271.06274 272.80832 274.13318 275.59213 277.21793
 278.95642 280.69562 282.33371 283.84259 285.14838 286.30368 287.35770 288.31259
 289.17139 289.93616 290.60425 291.45566
 366.78100 356.34849 345.79398 334.67347 323.08997 311.29746 299.18095 286.99744
 274.72293 262.63342 250.65591 239.97041 230.10590 221.22339 213.41888 206.43437
 200.28186 195.23335 191.82885 189.88434 188.93483 189.01232 189.86081 191.18230
 192.92079 195.02929 197.30578 199.67827 202.13676 204.63025 206.73174 208.58723
 210.22673 211.38522 211.62771 211.86920 211.81969 211.53818 211.18467 210.82817
 210.45866 210.18215 210.00364 209.88113 209.82262 210.16711 210.56661 210.96910
 211.77559 212.96708 214.23057 216.02706 217.96855 220.02504 222.13354 224.23003
 226.30352 228.40101 230.51150 232.63099 234.77348 236.95898 239.22847 241.61196
 244.24645 246.51094 248.52643 250.30492 251.73542 252.87191 253.70740 254.03689
 254.08738 253.87487 253.24836 252.20986 250.82935 249.00384 246.92633 244.77282
 242.57731 240.39480 238.22830 236.08079 233.95428 231.83477 229.87426 228.04475
 226.34124 224.82674 223.47023 222.25572 221.15121 220.12470 219.24219 218.39668
 217.65218 216.84567 215.95716 215.33465 214.79814 214.79384 214.80176 214.87048
 214.40245 213.40694 213.08009 214.29414 217.28575 221.42850 226.25262 230.36246
 233.71136 237.63515 241.94760 246.30855 250.40024 254.15335 257.63657 260.90936
 263.93655 266.64050 268.96863 270.98764 272.77814 274.23492 275.56451 277.26505
 279.08600 280.83273 282.45334 284.05350 285.43832 286.66351 287.78131 288.79398
 289.70474 290.51581 291.22430 292.12723
 366.78100 356.34905 345.79511 334.67516 323.09222 311.30027 299.18432 287.00138
 274.72743 262.63848 250.66154 239.97659 230.11265 221.23070 213.42675 206.44281
 200.29086 195.24292 191.83897 189.89502 188.94608 189.02413 189.87318 191.19524
 192.93429 195.04335 197.32040 199.69345 202.15251 204.64656 206.74862 208.60467
 210.24472 211.40378 211.64683 211.88888 211.83994 211.55899 211.20605 210.85010
 210.48115 210.20521 210.02726 209.90532 209.84737 210.19242 210.59248 210.99553
 211.80258 212.99464 214.25869 216.05575 217.99780 220.05485 222.16391 224.26096
 226.33502 228.43307 230.54412 232.66418 234.80723 236.99329 239.26334 241.64739
 244.28245 246.54750 248.56355 250.34261 251.77366 252.91072 253.74677 254.07682
 254.12788 253.91593 253.28999 252.25204 250.87209 249.04715 246.97020 244.81725
 242.62231 240.44036 238.27442 236.12747 234.00152 231.88258 229.92263 228.09369
 226.39074 224.87679 223.52085 222.30690 221.20295 220.17701 219.29506 218.45012
 217.70617 216.90022 216.01228 215.39033 214.85439 214.82957 214.79741 214.89960
 214.45847 213.44232 213.06291 214.28644 217.27618 221.39911 226.20613 230.31200
 233.65623 237.60266 241.94209 246.31940 250.41187 254.14513 257.59772 260.84146
 263.84174 266.54056 268.88397 270.90399 272.70822 274.22101 275.58740 277.32123
 279.15536 280.91400 282.51654 284.05521 285.38678 286.56488 287.63971 288.61346
 289.48923 290.26907 290.95038 291.81857
 366.78100 356.35000 345.79700 334.67800 323.09600 311.30499 299.18999 287.00799
 274.73499 262.64699 250.67099 239.98699 230.12399 221.24299 213.43999 206.45698
 200.30598 195.25898 191.85598 189.91298 188.96498 189.04398 189.89398 191.21698
 192.95698 195.06697 197.34497 199.71897 202.17897 204.67397 206.77697 208.63397
 210.27497 211.43497 211.67897 211.92196 211.87396 211.59396 211.24196 210.88696
 210.51896 210.24396 210.06696 209.94596 209.88896 210.23495 210.63595 211.03995
 211.84795 213.04095 214.30595 216.10395 218.04695 220.10495 222.21495 224.31294
 226.38794 228.48694 230.59894 232.71994 234.86394 237.05094 239.32194 241.70694
 244.34293 246.60893 248.62593 250.40593 251.83793 252.97593 253.81293 254.14393
 254.19593 253.98493 253.35992 252.32292 250.94392 249.11992 247.04392 244.89192
 242.69792 240.51692 238.35192 236.20592 234.08091 231.96291 230.00391 228.17591
 226.47391 224.96091 223.60591 222.39291 221.28991 220.26491 219.38390 218.53990
 217.79690 216.99190 216.10490 215.48390 214.94890 214.88423 214.77008 214.92493
 214.53096 213.42606 212.99692 214.23495 217.25826 221.38455 226.18869 230.28348
 233.63055 237.59019 241.94986 246.34529 250.44221 254.16623 257.60165 260.83295
 263.82242 266.53043 268.89941 270.94312 272.78317 274.36679 275.79541 277.46725
 279.24976 280.99902 282.58453 284.10013 285.42502 286.59723 287.66666 288.63550
 289.50687 290.28284 290.96069 291.82455
 366.78100 356.35015 345.79730 334.67846 323.09661 311.30576 299.19091 287.00906
 274.73621 262.64837 250.67252 239.98867 230.12582 221.24497 213.44212 206.45928
 200.30843 195.26158 191.85873 189.91588 188.96803 189.04719 189.89734 191.22049
 192.96064 195.07079 197.34894 199.72310 202.18325 204.67840 206.78155 208.63870
 210.27986 211.44001 211.68416 211.92731 211.87946 211.59961 211.24777 210.89292
 210.52507 210.25022 210.07337 209.95252 209.89568 210.24183 210.64298 211.04713
 211.85528 213.04843 214.31359 216.11174 218.05489 220.11304 222.22319 224.32134
 226.39650 228.49565 230.60780 232.72895 234.87310 237.06026 239.33141 241.71656
 244.35271 246.61886 248.63601 250.41617 251.84832 252.98647 253.82362 254.15477
 254.20692 253.99608 253.37123 252.33438 250.95553 249.13168 247.05583 244.90399
 242.71014 240.52929 238.36444 236.21859 234.09374 231.97590 230.01705 228.18920
 226.48735 224.97450 223.61966 222.40681 221.30396 220.27911 219.39826 218.55441
 217.81157 217.00672 216.11987 215.49902 214.96417 214.90300 214.77597 214.86771
 214.72308 213.47583 212.92203 214.12062 217.16972 221.31314 226.11429 230.21169
 233.57358 237.55609 241.92993 246.34328 250.45018 254.16531 257.58975 260.82001
 263.80637 266.51385 268.90179 270.97128 272.84103 274.48053 275.97394 277.61636
 279.33698 281.04990 282.60553 284.05157 285.35236 286.50323 287.55322 288.50446
 289.35999 290.12183 290.78735 291.63550
 366.78100 356.34859 345.79418 334.67378 323.09037 311.29796 299.18155 286.99814
 274.72374 262.63433 250.65692 239.97151 230.10711 221.22470 213.42029 206.43588
 200.28347 195.23507 191.83066 189.88625 188.93684 189.01443 189.86303 191.18462
 192.92321 195.03180 197.30840 199.68099 202.13958 204.63317 206.73476 208.59036
 210.22995 211.38854 211.63113 211.87272 211.82332 211.54191 211.18850 210.83209
 210.46268 210.18628 210.00787 209.88546 209.82705 210.17165 210.57124 210.97383
 211.78042 212.97201 214.23561 216.03220 217.97379 220.03038 222.13897 224.23557
 226.30916 228.40675 230.51734 232.63694 234.77953 236.96512 239.23471 241.61830
 244.25290 246.51749 248.53308 250.31167 251.74226 252.87886 253.71445 254.04404
 254.09463 253.88222 253.25582 252.21741 250.83700 249.01159 246.93419 244.78078
 242.58537 240.40296 238.23655 236.08915 233.96274 231.84333 229.88292 228.05351
 226.35011 224.83570 223.47929 222.26488 221.16048 220.13407 219.25166 218.40625
 217.66184 216.85544 215.96703 215.34462 214.80821 214.83383 214.87152 214.73050
 214.85913 213.63765 212.93318 213.99536 217.02676 221.19647 226.02203 230.08540
 233.49055 237.49104 241.87498 246.28433 250.38766 254.11237 257.54544 260.79031
 263.79031 266.50177 268.88211 270.95709 272.83832 274.51691 276.08926 277.72287
 279.41263 281.10046 282.64709 284.03168 285.29593 286.46573 287.53299 288.49985
 289.36945 290.14383 290.82031 291.68240
 366.78100 356.34684 345.79068 334.66852 323.08336 311.28920 299.17104 286.98588
 274.70972 262.61856 250.63940 239.95224 230.08608 221.20192 213.39576 206.40960
 200.25544 195.20528 191.79912 189.85296 188.90180 188.97764 189.82448 191.14432
 192.88116 194.98800 197.26284 199.63368 202.09052 204.58236 206.68220 208.53604
 210.17388 211.33072 211.57156 211.81140 211.76024 211.47708 211.12192 210.76376
 210.39260 210.11444 209.93428 209.81012 209.74996 210.09280 210.49064 210.89149
 211.69633 212.88617 214.14801 215.94285 217.88269 219.93753 222.04437 224.13921
 226.21105 228.30689 230.41573 232.53357 234.67441 236.85825 239.12609 241.50793
 244.14077 246.40361 248.41745 250.19429 251.62313 252.75797 253.59181 253.91965
 253.96849 253.75433 253.12617 252.08601 250.70385 248.87669 246.79753 244.64237
 242.44521 240.26105 238.09289 235.94373 233.81557 231.69441 229.73225 227.90109
 226.19593 224.67977 223.32161 222.10545 220.99929 219.97113 219.08697 218.23981
 217.49365 216.68549 215.79533 215.17117 214.63301 214.74580 214.98410 214.67859
 214.81767 213.74310 212.93753 213.88301 216.89059 221.07582 225.95695 229.96286
 233.43048 237.42755 241.81563 246.21892 250.33360 254.07932 257.53677 260.77817
 263.77567 266.47940 268.83905 270.88837 272.75653 274.46991 276.09198 277.74576
 279.42661 281.05057 282.53540 283.82990 284.94464 285.97977 286.99716 287.91888
 288.74783 289.48605 290.13092 290.95276
 366.78100 356.34730 345.79159 334.66989 323.08518 311.29148 299.17377 286.98907
 274.71337 262.62266 250.64396 239.95725 230.09155 221.20784 213.40214 206.41644
 200.26273 195.21303 191.80732 189.86162 188.91091 188.98721 189.83451 191.15480
 192.89210 194.99939 197.27469 199.64598 202.10328 204.59558 206.69587 208.55017
 210.18846 211.34576 211.58706 211.82735 211.77665 211.49394 211.13924 210.78153
 210.41083 210.13313 209.95342 209.82972 209.77001 210.11331 210.51160 210.91290
 211.71820 212.90849 214.17079 215.96608 217.90638 219.96167 222.06897 224.16427
 226.23656 228.33286 230.44215 232.56045 234.70174 236.88604 239.15434 241.53663
 244.16993 246.43322 248.44752 250.22481 251.65411 252.78941 253.62370 253.95200
 254.00129 253.78759 253.15988 252.12018 250.73848 248.91177 246.83307 244.67836
 242.48166 240.29795 238.13025 235.98155 233.85384 231.73314 229.77143 227.94073
 226.23602 224.72032 223.36262 222.14691 221.04121 220.01350 219.12980 218.28309
 217.53739 216.72969 215.83998 215.21628 214.67857 214.77089 214.97092 214.80334
 214.76985 213.76108 212.94940 213.85928 216.82187 221.02727 225.94824 229.92540
 233.35246 237.37343 241.79779 246.24522 250.37259 254.10747 257.55447 260.79587
 263.80750 266.52496 268.88733 270.88495 272.70029 274.40109 276.02316 277.65323
 279.26862 280.75253 282.02795 283.29901 284.45404 285.45853 286.42145 287.29376
 288.07831 288.77695 289.38727 290.16507
 366.78100 356.35061 345.79821 334.67982 323.09842 311.30803 299.19364 287.01224
 274.73985 262.65245 250.67706 239.99367 230.13127 221.25088 213.44848 206.46609
 200.31570 195.26930 191.86691 189.92451 188.97712 189.05673 189.90733 191.23094
 192.97154 195.08215 197.36076 199.73536 202.19597 204.69157 206.79518 208.65279
 210.29439 211.45500 211.69960 211.94321 211.89582 211.61642 211.26503 210.91063
 210.54324 210.26885 210.09245 209.97206 209.91566 210.26227 210.66387 211.06848
 211.87709 213.07069 214.33630 216.13490 218.07851 220.13712 222.24772 224.34633
 226.42193 228.52154 230.63415 232.75575 234.90036 237.08796 239.35957 241.74518
 244.38178 246.64839 248.66599 250.44660 251.87921 253.01781 253.85542 254.18702
 254.23963 254.02924 253.40484 252.36845 250.99005 249.16666 247.09127 244.93987
 242.74648 240.56608 238.40169 236.25630 234.13190 232.01451 230.05611 228.22872
 226.52733 225.01493 223.66054 222.44814 221.34575 220.32136 219.44096 218.59757
 217.85517 217.05078 216.16439 215.54399 215.00960 214.95503 214.84523 214.92856
 214.78006 213.86032 213.08864 213.99678 216.86505 220.97307 225.86487 229.87132
 233.29803 237.35509 241.80734 246.28732 250.45047 254.20683 257.67636 260.91888
 263.91422 266.61588 268.97086 270.99472 272.80576 274.50153 276.15213 277.77927
 279.27698 280.60068 281.88766 283.25522 284.52228 285.64331 286.66605 287.59262
 288.42593 289.16803 289.81628 290.64243
 366.78100 356.35132 345.79964 334.68197 323.10129 311.31161 299.19793 287.01725
 274.74557 262.65890 250.68422 240.00154 230.13986 221.26018 213.45850 206.47683
 200.32715 195.28147 191.87979 189.93811 188.99144 189.07176 189.92308 191.24740
 192.98872 195.10004 197.37937 199.75469 202.21601 204.71233 206.81665 208.67497
 210.31730 211.47862 211.72394 211.96826 211.92158 211.64291 211.29223 210.93855
 210.57187 210.29819 210.12251 210.00284 209.94716 210.29448 210.69680 211.10212
 211.91144 213.10577 214.37209 216.17141 218.11573 220.17505 222.28638 224.38570
 226.46202 228.56234 230.67566 232.79798 234.94331 237.13163 239.40395 241.79027
 244.42759 246.69491 248.71324 250.49456 251.92788 253.06720 253.90552 254.23785
 254.29117 254.08149 253.45781 252.42213 251.04445 249.22178 247.14710 244.99642
 242.80374 240.62406 238.46038 236.31571 234.19203 232.07535 230.11767 228.29099
 226.59032 225.07864 223.72496 222.51328 221.41160 220.38792 219.50825 218.66557
 217.92389 217.12021 216.23453 215.61485 215.08118 215.00613 214.84819 214.86807
 214.73041 214.07265 213.23773 213.96188 216.79083 220.91115 225.76657 229.70705
 233.14587 237.27736 241.80780 246.32036 250.47154 254.22792 257.71121 260.99124
 264.04242 266.82565 269.25882 271.30038 273.10513 274.79727 276.44598 278.02399
 279.31763 280.53064 282.04630 283.53708 284.84293 285.99823 287.05228 288.00720
 288.86603 289.63083 290.29892 291.15033
 366.78100 356.34916 345.79532 334.67548 323.09264 311.30079 299.18495 287.00211
 274.72827 262.63943 250.66259 239.97775 230.11391 221.23206 213.42822 206.44438
 200.29254 195.24470 191.84086 189.89702 188.94818 189.02634 189.87549 191.19765
 192.93681 195.04597 197.32313 199.69629 202.15545 204.64961 206.75177 208.60792
 210.24808 211.40724 211.65040 211.89256 211.84372 211.56288 211.21004 210.85419
 210.48535 210.20951 210.03167 209.90983 209.85199 210.19715 210.59731 211.00047
 211.80762 212.99978 214.26394 216.06110 218.00326 220.06042 222.16958 224.26674
 226.34089 228.43905 230.55021 232.67037 234.81353 236.99969 239.26985 241.65401
 244.28917 246.55432 248.57048 250.34964 251.78080 252.91796 253.75412 254.08428
 254.13544 253.92359 253.29775 252.25991 250.88007 249.05523 246.97839 244.82555
 242.63071 240.44887 238.28302 236.13618 234.01034 231.89150 229.93166 228.10282
 226.39998 224.88614 223.53030 222.31645 221.21261 220.18677 219.30493 218.46009
 217.71625 216.91041 216.02257 215.40072 214.86488 214.88365 214.92686 214.91307
 214.58606 213.88156 213.32422 213.98042 216.75372 220.83937 225.68768 229.66040
 233.13557 237.25854 241.72163 246.14384 250.25208 253.99474 257.47552 260.76544
 263.85291 266.70197 269.23376 271.40125 273.31198 275.06598 276.69604 278.19696
 279.51602 280.61145 281.64133 282.80731 283.97000 284.96982 285.88824 286.72028
 287.46860 288.13498 288.71713 289.45898
 366.78100 356.34819 345.79337 334.67256 323.08874 311.29593 299.17911 286.99530
 274.72048 262.63067 250.65285 239.96704 230.10223 221.21941 213.41460 206.42978
 200.27697 195.22815 191.82334 189.87852 188.92871 189.00589 189.85408 191.17527
 192.91345 195.02164 197.29782 199.67001 202.12819 204.62138 206.72256 208.57775
 210.21694 211.37512 211.61731 211.85849 211.80868 211.52686 211.17305 210.81623
 210.44642 210.16960 209.99079 209.86798 209.80916 210.15335 210.55253 210.95472
 211.76090 212.95209 214.21527 216.01146 217.95264 220.00883 222.11702 224.21320
 226.28639 228.38357 230.49376 232.61294 234.75513 236.94031 239.20950 241.59268
 244.22687 246.49106 248.50624 250.28443 251.71461 252.85080 253.68598 254.01517
 254.06535 253.85254 253.22573 252.18691 250.80610 248.98028 246.90247 244.74865
 242.55284 240.37002 238.20321 236.05539 233.92858 231.80877 229.84795 228.01814
 226.31432 224.79951 223.44269 222.22788 221.12306 220.09625 219.21343 218.36762
 217.62281 216.81599 215.92718 215.30436 214.76755 214.82358 214.95428 214.95595
 214.93205 213.82394 213.15332 213.75636 216.62463 220.77710 225.72607 229.55791
 233.08836 237.22354 241.73122 246.13458 250.22371 253.92256 257.34637 260.58420
 263.63745 266.47626 269.03268 271.26736 273.24603 275.04733 276.68314 278.17236
 279.47781 280.59351 281.55109 282.45386 283.42810 284.11993 284.90518 285.77637
 286.58569 287.30640 287.93600 288.73837
 366.78100 356.34711 345.79122 334.66933 323.08444 311.29055 299.17266 286.98777
 274.71188 262.62099 250.64210 239.95521 230.08932 221.20543 213.39954 206.41365
 200.25976 195.20987 191.80398 189.85809 188.90720 188.98331 189.83042 191.15053
 192.88764 194.99475 197.26986 199.64097 202.09808 204.59019 206.69030 208.54441
 210.18252 211.33963 211.58074 211.82085 211.76996 211.48707 211.13218 210.77429
 210.40340 210.12551 209.94562 209.82173 209.76183 210.10494 210.50305 210.90416
 211.70927 212.89938 214.16149 215.95660 217.89671 219.95182 222.05893 224.15404
 226.22615 228.32226 230.43137 232.54948 234.69059 236.87470 239.14281 241.52492
 244.15803 246.42114 248.43525 250.21236 251.64147 252.77658 253.61069 253.93880
 253.98791 253.77402 253.14613 252.10624 250.72435 248.89746 246.81857 244.66368
 242.46679 240.28290 238.11501 235.96612 233.83823 231.71734 229.75545 227.92456
 226.21967 224.70378 223.34589 222.13000 221.02411 219.99622 219.11233 218.26544
 217.51955 216.71166 215.82177 215.19788 214.65999 214.77577 215.04268 214.81549
 215.06158 213.87924 213.05522 213.64592 216.54680 220.73906 225.71581 229.55507
 233.07687 237.23146 241.77327 246.22888 250.34506 254.04564 257.43707 260.62827
 263.62985 266.43564 268.99423 271.25366 273.27399 275.11081 276.74994 278.21255
 279.46854 280.52399 281.42969 282.28409 283.19162 283.96692 284.67957 285.44968
 286.18112 286.83249 287.40149 288.12662
 366.78100 356.34634 345.78968 334.66703 323.08137 311.28671 299.16805 286.98240
 274.70574 262.61408 250.63442 239.94676 230.08011 221.19545 213.38879 206.40213
 200.24748 195.19682 191.79016 189.84350 188.89184 188.96719 189.81353 191.13287
 192.86921 194.97556 197.24990 199.62024 202.07658 204.56792 206.66727 208.52061
 210.15795 211.31429 211.55464 211.79398 211.74232 211.45866 211.10300 210.74435
 210.37269 210.09403 209.91337 209.78872 209.72806 210.07040 210.46774 210.86808
 211.67243 212.86177 214.12311 215.91745 217.85680 219.91114 222.01748 224.11182
 226.18316 228.27851 230.38685 232.50419 234.64453 236.82788 239.09522 241.47656
 244.10890 246.37124 248.38459 250.16093 251.58927 252.72361 253.55696 253.88430
 253.93264 253.71798 253.08932 252.04867 250.66601 248.83835 246.75869 244.60303
 242.40538 240.22072 238.05206 235.90240 233.77375 231.65209 229.68943 227.85777
 226.15211 224.63546 223.27680 222.06014 220.95348 219.92483 219.04017 218.19251
 217.44585 216.63719 215.74654 215.12188 214.58322 214.73956 215.10478 214.78604
 215.05678 213.91820 212.96445 213.55783 216.47275 220.69475 225.71040 229.53998
 233.06586 237.22551 241.78792 246.29918 250.44772 254.16014 257.53201 260.68723
 263.64944 266.43051 268.99515 271.28781 273.34756 275.20914 276.83954 278.24442
 279.40048 280.34848 281.20242 282.07565 282.98422 283.90320 284.72021 285.47137
 286.16516 286.78586 287.32812 288.01913
 366.78100 356.34673 345.79046 334.66819 323.08292 311.28865 299.17038 286.98511
 274.70883 262.61756 250.63829 239.95102 230.08475 221.20048 213.39421 206.40794
 200.25367 195.20340 191.79713 189.85086 188.89959 188.97532 189.82205 191.14177
 192.87850 194.98523 197.25996 199.63069 202.08742 204.57915 206.67888 208.53261
 210.17034 211.32707 211.56780 211.80753 211.75626 211.47299 211.11771 210.75944
 210.38817 210.10990 209.92963 209.80536 209.74509 210.08782 210.48555 210.88628
 211.69101 212.88074 214.14247 215.93720 217.87693 219.93165 222.03838 224.13311
 226.20484 228.30057 230.40930 232.52703 234.66776 236.85149 239.11922 241.50095
 244.13368 246.39641 248.41014 250.18687 251.61559 252.75032 253.58405 253.91178
 253.96051 253.74624 253.11797 252.07770 250.69543 248.86816 246.78889 244.63362
 242.43635 240.25208 238.08381 235.93453 233.80626 231.68499 229.72272 227.89145
 226.18618 224.66991 223.31164 222.09537 220.98910 219.96083 219.07656 218.22929
 217.48302 216.67474 215.78447 215.16020 214.62193 214.75929 215.08316 214.85524
 215.07941 213.95094 212.85048 213.46967 216.39285 220.62956 225.66763 229.48845
 233.03230 237.19756 241.77530 246.32321 250.49609 254.22116 257.58633 260.71909
 263.64941 266.40509 268.97394 271.30109 273.40518 275.29730 276.92206 278.26843
 279.32800 280.19434 281.00458 281.83255 282.69592 283.61435 284.48019 285.25488
 285.94034 286.54504 287.07333 287.74655
 366.78100 356.34772 345.79245 334.67117 323.08690 311.29362 299.17635 286.99207
 274.71680 262.62652 250.64825 239.96197 230.09670 221.21342 213.40815 206.42287
 200.26960 195.22032 191.81505 189.86977 188.91950 188.99622 189.84395 191.16467
 192.90240 195.01012 197.28585 199.65757 202.11530 204.60802 206.70875 208.56347
 210.20220 211.35992 211.60165 211.84237 211.79210 211.50982 211.15555 210.79827
 210.42800 210.15072 209.97145 209.84817 209.78890 210.13262 210.53135 210.93307
 211.73880 212.92952 214.19225 215.98797 217.92870 219.98442 222.09215 224.18787
 226.26060 228.35732 230.46705 232.58577 234.72750 236.91222 239.18095 241.56367
 244.19740 246.46112 248.47585 250.25357 251.68330 252.81902 253.65375 253.98247
 254.03220 253.81892 253.19165 252.15237 250.77110 248.94482 246.86655 244.71227
 242.51600 240.33272 238.16545 236.01717 233.88990 231.76962 229.80835 227.97807
 226.27380 224.75852 223.40125 222.18597 221.08070 220.05342 219.17015 218.32387
 217.57860 216.77132 215.88205 215.25877 214.72150 214.81322 215.02844 214.93886
 215.06085 213.97461 212.78278 213.41943 216.32817 220.56985 225.59694 229.46950
 232.99341 237.17184 241.75497 246.31918 250.50798 254.24628 257.61655 260.74051
 263.65265 266.39774 268.98178 271.35135 273.51562 275.45462 277.09564 278.42542
 279.45895 280.32736 281.16241 281.89972 282.52356 283.23752 284.11603 284.90582
 285.59073 286.19098 286.71533 287.38354
 366.78100 356.34828 345.79356 334.67283 323.08911 311.29639 299.17967 286.99594
 274.72122 262.63150 250.65378 239.96806 230.10333 221.22061 213.41589 206.43117
 200.27844 195.22972 191.82500 189.88028 188.93056 189.00783 189.85611 191.17739
 192.91567 195.02394 197.30022 199.67250 202.13078 204.62406 206.72533 208.58061
 210.21989 211.37817 211.62044 211.86172 211.81200 211.53028 211.17656 210.81983
 210.45011 210.17339 209.99467 209.87195 209.81322 210.15750 210.55678 210.95906
 211.76533 212.95661 214.21989 216.01617 217.95745 220.01372 222.12200 224.21828
 226.29156 228.38883 230.49911 232.61839 234.76067 236.94595 239.21522 241.59850
 244.23278 246.49706 248.51233 250.29061 251.72089 252.85717 253.69245 254.02172
 254.07200 253.85928 253.23256 252.19383 250.81311 248.98739 246.90967 244.75595
 242.56022 240.37750 238.21078 236.06306 233.93633 231.81661 229.85589 228.02617
 226.32245 224.80772 223.45100 222.23628 221.13156 220.10483 219.22211 218.37639
 217.63167 216.82495 215.93622 215.31350 214.77678 214.84955 215.01782 214.97986
 214.95950 213.91515 212.78476 213.43321 216.30260 220.52292 225.52052 229.49797
 232.96912 237.15735 241.73297 246.28954 250.47815 254.21857 257.59698 260.71844
 263.62268 266.36884 268.97205 271.39282 273.63321 275.64334 277.32587 278.66498
 279.73111 280.68060 281.55939 282.23978 282.73026 283.30740 284.18427 284.95291
 285.63110 286.23502 286.76260 287.43494
 366.78100 356.34744 345.79187 334.67031 323.08575 311.29218 299.17462 286.99005
 274.71449 262.62393 250.64536 239.95880 230.09324 221.20967 213.40411 206.41855
 200.26498 195.21542 191.80986 189.86429 188.91373 188.99016 189.83760 191.15804
 192.89547 195.00291 197.27835 199.64978 202.10722 204.59966 206.70009 208.55453
 210.19297 211.35040 211.59184 211.83227 211.78171 211.49915 211.14458 210.78702
 210.41646 210.13889 209.95933 209.83577 209.77620 210.11964 210.51808 210.91951
 211.72495 212.91538 214.17782 215.97326 217.91369 219.96913 222.07657 224.17200
 226.24444 228.34088 230.45031 232.56875 234.71019 236.89462 239.16306 241.54549
 244.17893 246.44237 248.45680 250.23424 251.66368 252.79911 253.63355 253.96199
 254.01142 253.79786 253.17030 252.13073 250.74917 248.92260 246.84404 244.68948
 242.49291 240.30935 238.14179 235.99322 233.86566 231.74510 229.78353 227.95297
 226.24841 224.73284 223.37528 222.15971 221.05415 220.02659 219.14302 218.29646
 217.55090 216.74333 215.85377 215.23021 214.69264 214.81470 215.09055 214.94785
 214.82890 213.81985 212.80299 213.47263 216.32094 220.51799 225.50607 229.53601
 232.96858 237.14474 241.71001 246.25618 250.43216 254.16374 257.54535 260.66586
 263.56744 266.31494 268.94043 271.41479 273.72885 275.79919 277.49289 278.85825
 280.00983 281.02017 281.81961 282.29648 282.68814 283.50848 284.38464 285.15689
 285.85147 286.46997 287.01031 287.69888
 366.78100 356.34660 345.79020 334.66779 323.08239 311.28799 299.16959 286.98419
 274.70779 262.61638 250.63698 239.94958 230.08318 221.19878 213.39238 206.40597
 200.25157 195.20117 191.79477 189.84837 188.89697 188.97256 189.81916 191.13876
 192.87536 194.98196 197.25655 199.62715 202.08375 204.57535 206.67495 208.52855
 210.16614 211.32274 211.56334 211.80294 211.75154 211.46814 211.11273 210.75433
 210.38293 210.10453 209.92413 209.79973 209.73932 210.08192 210.47952 210.88012
 211.68472 212.87431 214.13591 215.93051 217.87011 219.92471 222.03131 224.12590
 226.19750 228.29310 230.40170 232.51930 234.65990 236.84349 239.11109 241.49269
 244.12529 246.38789 248.40148 250.17808 251.60668 252.74128 253.57488 253.90248
 253.95107 253.73667 253.10827 252.06787 250.68547 248.85807 246.77866 244.62326
 242.42586 240.24146 238.07306 235.92366 233.79525 231.67385 229.71145 227.88005
 226.17465 224.65824 223.29984 222.08344 220.97704 219.94864 219.06424 218.21683
 217.47043 216.66203 215.77163 215.14723 214.60883 214.77525 215.14963 214.95804
 214.73315 213.71024 212.81213 213.48195 216.31921 220.51974 225.51978 229.56647
 232.97000 237.12732 241.68547 246.22603 250.39111 254.11438 257.49164 260.60382
 263.49341 266.23557 268.88229 271.40881 273.77722 275.87363 277.57455 278.96811
 280.17209 281.20361 281.96735 282.33560 282.79883 283.68716 284.52728 285.27292
 285.94354 286.54071 287.06241 287.72723
 366.78100 356.34715 345.79130 334.66946 323.08461 311.29076 299.17291 286.98807
 274.71222 262.62137 250.64252 239.95567 230.08983 221.20598 213.40013 206.41428
 200.26043 195.21059 191.80474 189.85889 188.90804 188.98420 189.83135 191.15150
 192.88865 194.99580 197.27096 199.64211 202.09926 204.59141 206.69156 208.54572
 210.18387 211.34102 211.58217 211.82233 211.77148 211.48863 211.13378 210.77593
 210.40509 210.12724 209.94739 209.82354 209.76369 210.10685 210.50500 210.90615
 211.71130 212.90146 214.16361 215.95876 217.89891 219.95406 222.06122 224.15637
 226.22852 228.32467 230.43382 232.55198 234.69313 236.87728 239.14543 241.52759
 244.16074 246.42389 248.43804 250.21519 251.64435 252.77950 253.61365 253.94180
 253.99095 253.77711 253.14926 252.10941 250.72756 248.90072 246.82187 244.66702
 242.47017 240.28632 238.11848 235.96963 233.84178 231.72093 229.75908 227.92824
 226.22339 224.70754 223.34969 222.13385 221.02800 220.00015 219.11630 218.26945
 217.52361 216.71576 215.82591 215.20206 214.66422 214.80775 215.12875 214.98537
 214.71927 213.66069 212.79259 213.49220 216.31404 220.50778 225.51556 229.57639
 232.96825 237.11301 241.67213 246.22021 250.39296 254.11964 257.49405 260.58954
 263.45111 266.16797 268.81100 271.37177 273.77179 275.85541 277.55624 279.01678
 280.27972 281.16180 281.54916 281.84634 282.72873 283.69012 284.58261 285.39136
 286.11871 286.76645 287.33231 288.05341
 366.78100 356.34722 345.79144 334.66967 323.08489 311.29111 299.17333 286.98856
 274.71278 262.62200 250.64322 239.95645 230.09067 221.20689 213.40111 206.41534
 200.26156 195.21178 191.80600 189.86023 188.90945 188.98567 189.83289 191.15312
 192.89034 194.99756 197.27278 199.64401 202.10123 204.59345 206.69367 208.54790
 210.18612 211.34334 211.58456 211.82479 211.77401 211.49123 211.13645 210.77868
 210.40790 210.13012 209.95034 209.82657 209.76679 210.11001 210.50823 210.90946
 211.71468 212.90490 214.16712 215.96235 217.90257 219.95779 222.06501 224.16024
 226.23246 228.32868 230.43790 232.55613 234.69735 236.88157 239.14979 241.53202
 244.16524 246.42846 248.44268 250.21991 251.64913 252.78435 253.61857 253.94680
 253.99602 253.78224 253.15446 252.11469 250.73291 248.90613 246.82735 244.67258
 242.47580 240.29202 238.12424 235.97547 233.84769 231.72691 229.76513 227.93436
 226.22958 224.71380 223.35602 222.14025 221.03447 220.00669 219.12291 218.27614
 217.53036 216.72258 215.83280 215.20903 214.67125 214.81454 215.13571 214.98276
 214.64189 213.67149 212.83072 213.42920 216.26199 220.47197 225.48251 229.54521
 232.94118 237.08752 241.65312 246.21648 250.40848 254.15556 257.54083 260.63477
 263.48489 266.18253 268.82214 271.40961 273.83777 275.94504 277.66696 279.11398
 280.21295 280.77655 280.93503 281.32031 282.25766 283.25861 284.21661 285.08789
 285.87152 286.56934 287.17896 287.95581
 366.78100 356.34635 345.78971 334.66706 323.08141 311.28676 299.16812 286.98247
 274.70582 262.61418 250.63453 239.94688 230.08023 221.19559 213.38894 206.40229
 200.24765 195.19700 191.79035 189.84371 188.89206 188.96741 189.81376 191.13312
 192.86947 194.97582 197.25018 199.62053 202.07688 204.56823 206.66759 208.52094
 210.15829 211.31465 211.55500 211.79435 211.74270 211.45906 211.10341 210.74476
 210.37312 210.09447 209.91382 209.78917 209.72853 210.07088 210.46823 210.86859
 211.67294 212.86229 214.12364 215.91800 217.85735 219.91170 222.01806 224.11241
 226.18376 228.27912 230.38747 232.50482 234.64517 236.82853 239.09588 241.47723
 244.10959 246.37194 248.38529 250.16164 251.59000 252.72435 253.55770 253.88506
 253.93341 253.71876 253.09011 252.04947 250.66682 248.83917 246.75953 244.60388
 242.40623 240.22158 238.05294 235.90329 233.77464 231.65300 229.69035 227.85870
 226.15305 224.63641 223.27776 222.06111 220.95447 219.92582 219.04117 218.19353
 217.44688 216.63823 215.74758 215.12294 214.58429 214.77151 215.19420 214.96890
 214.63202 213.59955 212.82353 213.34816 216.20943 220.43156 225.42909 229.48042
 232.88953 237.04489 241.61230 246.17393 250.36516 254.12050 257.51685 260.61954
 263.47665 266.18817 268.85168 271.48206 273.96930 276.14667 277.91559 279.35162
 280.39957 280.93829 281.06299 281.13504 281.90158 282.89539 283.85754 284.74207
 285.53763 286.24603 286.86493 287.65359
 366.78100 356.34519 345.78737 334.66356 323.07674 311.28093 299.16111 286.97430
 274.69648 262.60367 250.62285 239.93404 230.06622 221.18041 213.37259 206.38478
 200.22896 195.17715 191.76933 189.82152 188.86870 188.94289 189.78807 191.10626
 192.84144 194.94663 197.21981 199.58900 202.04418 204.53437 206.63255 208.48474
 210.12092 211.27611 211.51529 211.75348 211.70067 211.41585 211.05904 210.69922
 210.32641 210.04659 209.86478 209.73896 209.67715 210.01833 210.41452 210.81370
 211.61689 212.80507 214.06526 215.85844 217.79663 219.84981 221.95500 224.04818
 226.11837 228.21255 230.31974 232.43592 234.57511 236.75729 239.02348 241.40366
 244.03485 246.29603 248.30822 250.08340 251.51059 252.64377 253.47596 253.80214
 253.84933 253.63352 253.00370 251.96189 250.57807 248.74926 246.66844 244.51163
 242.31281 240.12700 237.95718 235.80637 233.67655 231.55374 229.58992 227.75711
 226.05029 224.53248 223.17266 221.95485 220.84703 219.81722 218.93140 218.08259
 217.33477 216.52496 215.63314 215.00733 214.46751 214.71635 215.27689 214.88039
 214.69043 213.54506 212.77802 213.30832 216.19951 220.42770 225.40869 229.45752
 232.86960 237.02429 241.58833 246.14087 250.31569 254.05652 257.44437 260.54144
 263.39392 266.10855 268.79791 271.47934 274.02722 276.27045 278.10101 279.55350
 280.56180 281.08661 281.21518 281.14517 281.91544 282.91806 283.86374 284.72064
 285.49133 286.17764 286.77719 287.54126
 366.78100 356.34417 345.78534 334.66051 323.07268 311.27585 299.15502 286.96718
 274.68835 262.59452 250.61269 239.92286 230.05403 221.16720 213.35837 206.36954
 200.21271 195.15988 191.75105 189.80221 188.84838 188.92155 189.76572 191.08289
 192.81706 194.92123 197.19340 199.56157 202.01574 204.50491 206.60208 208.45325
 210.08841 211.24258 211.48075 211.71792 211.66409 211.37826 211.02043 210.65960
 210.28577 210.00494 209.82211 209.69528 209.63245 209.97261 210.36778 210.76595
 211.56812 212.75529 214.01446 215.80663 217.74380 219.79597 221.90014 223.99231
 226.06148 228.15464 230.26081 232.37598 234.51415 236.69532 238.96049 241.33966
 243.96983 246.23000 248.24117 250.01534 251.44151 252.57368 253.40484 253.73001
 253.77618 253.55935 252.92852 251.88569 250.50086 248.67103 246.58920 244.43137
 242.23154 240.04471 237.87388 235.72204 233.59121 231.46738 229.50255 227.66872
 225.96089 224.44206 223.08123 221.86240 220.75357 219.72274 218.83591 217.98607
 217.23724 216.42641 215.53358 214.90675 214.36592 214.66492 215.34668 214.84093
 214.66661 213.54535 212.71078 213.24478 216.19769 220.44897 225.42792 229.47585
 232.88614 237.03117 241.58505 246.13576 250.30440 254.03592 257.41342 260.49899
 263.34091 266.04950 268.75385 271.46912 274.05148 276.32562 278.15359 279.51630
 280.39731 280.85214 281.05609 281.27121 281.90533 282.86273 283.77966 284.58865
 285.31393 285.95978 286.52399 287.24301
 366.78100 356.34407 345.78514 334.66021 323.07228 311.27535 299.15442 286.96649
 274.68756 262.59362 250.61169 239.92176 230.05283 221.16590 213.35697 206.36804
 200.21111 195.15818 191.74925 189.80032 188.84639 188.91946 189.76353 191.08060
 192.81467 194.91874 197.19080 199.55887 202.01294 204.50201 206.59908 208.45015
 210.08522 211.23929 211.47736 211.71443 211.66050 211.37457 211.01664 210.65571
 210.28178 210.00085 209.81792 209.69098 209.62805 209.96812 210.36319 210.76126
 211.56333 212.75040 214.00947 215.80154 217.73861 219.79068 221.89475 223.98682
 226.05589 228.14896 230.25503 232.37010 234.50817 236.68923 238.95430 241.33337
 243.96344 246.22351 248.23458 250.00865 251.43472 252.56679 253.39786 253.72293
 253.76900 253.55207 252.92114 251.87821 250.49328 248.66335 246.58141 244.42348
 242.22355 240.03662 237.86569 235.71376 233.58283 231.45890 229.49397 227.66004
 225.95211 224.43318 223.07225 221.85332 220.74439 219.71346 218.82653 217.97659
 217.22766 216.41673 215.52380 214.89687 214.35594 214.65529 215.35103 214.91545
 214.60675 213.61604 212.66409 213.06944 216.10449 220.41718 225.40749 229.44760
 232.88597 237.02847 241.57491 246.12953 250.29935 254.03188 257.41135 260.49612
 263.33255 266.03659 268.74927 271.48782 274.09943 276.39200 278.21167 279.54553
 280.36069 280.80554 281.08371 281.40527 281.97772 282.85388 283.73282 284.51938
 285.19424 285.79523 286.32022 286.98929
 366.78100 356.34423 345.78547 334.66070 323.07294 311.27617 299.15541 286.96764
 274.68888 262.59511 250.61335 239.92358 230.05482 221.16805 213.35929 206.37052
 200.21376 195.16099 191.75223 189.80346 188.84970 188.92293 189.76717 191.08440
 192.81864 194.92287 197.19511 199.56334 202.01758 204.50681 206.60405 208.45528
 210.09052 211.24475 211.48299 211.72022 211.66646 211.38069 211.02293 210.66216
 210.28840 210.00763 209.82487 209.69810 209.63534 209.97557 210.37081 210.76904
 211.57128 212.75851 214.01775 215.80998 217.74722 219.79945 221.90369 223.99592
 226.06516 228.15839 230.26463 232.37986 234.51810 236.69933 238.96457 241.34380
 243.97404 246.23427 248.24551 250.01974 251.44598 252.57821 253.40945 253.73468
 253.78092 253.56415 252.93339 251.89062 250.50586 248.67609 246.59433 244.43656
 242.23680 240.05003 237.87927 235.72750 233.59674 231.47297 229.50821 227.67444
 225.96668 224.44791 223.08715 221.86838 220.75962 219.72885 218.84209 217.99232
 217.24356 216.43279 215.54003 214.91326 214.37250 214.65918 215.33453 214.98314
 214.55524 213.67953 212.62877 212.90550 215.99619 220.36206 225.37691 229.41548
 232.88306 237.02576 241.56604 246.11880 250.28674 254.02007 257.40280 260.48999
 263.32361 266.02417 268.74075 271.49844 274.14102 276.45288 278.26233 279.54810
 280.36658 280.86731 281.24792 281.66507 282.19943 283.02231 283.89050 284.65710
 285.30411 285.86740 286.35950 286.98657
 366.78100 356.34413 345.78526 334.66039 323.07252 311.27566 299.15479 286.96692
 274.68805 262.59418 250.61231 239.92244 230.05357 221.16670 213.35783 206.36897
 200.21210 195.15923 191.75036 189.80149 188.84762 188.92075 189.76488 191.08201
 192.81615 194.92028 197.19241 199.56054 202.01467 204.50380 206.60093 208.45206
 210.08719 211.24133 211.47946 211.71659 211.66272 211.37685 211.01898 210.65811
 210.28424 210.00337 209.82050 209.69364 209.63077 209.97090 210.36603 210.76416
 211.56629 212.75342 214.01255 215.80468 217.74182 219.79395 221.89808 223.99021
 226.05934 228.15247 230.25860 232.37373 234.51186 236.69299 238.95813 241.33726
 243.96739 246.22752 248.23865 250.01278 251.43891 252.57104 253.40217 253.72731
 253.77344 253.55657 252.92570 251.88283 250.49796 248.66809 246.58622 244.42835
 242.22849 240.04162 237.87075 235.71888 233.58801 231.46414 229.49927 227.66540
 225.95753 224.43866 223.07780 221.85893 220.75006 219.71919 218.83232 217.98245
 217.23358 216.42271 215.52984 214.90298 214.36211 214.64877 215.32608 215.03563
 214.55449 213.68364 212.55994 212.73991 215.92397 220.33234 225.35439 229.38422
 232.90181 237.03076 241.56128 246.11786 250.27971 254.01260 257.40363 260.50232
 263.33377 266.02145 268.73221 271.51181 274.17227 276.47205 278.25018 279.48654
 280.30099 280.85962 281.32086 281.81174 282.41049 283.15070 283.98596 284.74020
 285.40381 285.94009 286.40860 287.00565
 366.78100 356.34341 345.78383 334.65824 323.06966 311.27207 299.15049 286.96190
 274.68232 262.58773 250.60515 239.91456 230.04498 221.15739 213.34781 206.35822
 200.20064 195.14705 191.73747 189.78788 188.83330 188.90571 189.74913 191.06554
 192.79896 194.90237 197.17379 199.54120 201.99461 204.48303 206.57944 208.42986
 210.06427 211.21769 211.45510 211.69152 211.63693 211.35035 210.99176 210.63018
 210.25559 209.97401 209.79042 209.66284 209.59925 209.93867 210.33308 210.73050
 211.53191 212.71833 213.97674 215.76816 217.70457 219.75599 221.85940 223.95081
 226.01923 228.11164 230.21706 232.33147 234.46889 236.64930 238.91372 241.29213
 243.92155 246.18096 248.19138 249.96479 251.39021 252.52162 253.35204 253.67645
 253.72187 253.50428 252.87270 251.82911 250.44353 248.61294 246.53036 244.37177
 242.17119 239.98360 237.81201 235.65943 233.52784 231.40326 229.43767 227.60309
 225.89450 224.37492 223.01333 221.79375 220.68416 219.65258 218.76499 217.91441
 217.16482 216.35324 215.45965 214.83207 214.29048 214.61282 215.37401 215.02998
 214.61375 213.63712 212.41931 212.67180 215.81992 220.22906 225.27473 229.40996
 232.92046 237.05363 241.57158 246.11276 250.28395 254.03903 257.44687 260.54904
 263.37045 266.04346 268.74619 271.52200 274.19214 276.50479 278.27557 279.52689
 280.39850 281.00742 281.50528 282.02576 282.58359 283.27258 284.08209 284.83997
 285.48386 286.04102 286.52771 287.14798
 366.78100 356.34331 345.78363 334.65794 323.06926 311.27157 299.14988 286.96120
 274.68151 262.58683 250.60414 239.91345 230.04377 221.15608 213.34640 206.35671
 200.19902 195.14534 191.73565 189.78597 188.83128 188.90359 189.74691 191.06322
 192.79653 194.89985 197.17116 199.53848 201.99179 204.48010 206.57642 208.42673
 210.06105 211.21436 211.45167 211.68799 211.63330 211.34662 210.98793 210.62624
 210.25156 209.96987 209.78619 209.65850 209.59481 209.93413 210.32844 210.72576
 211.52707 212.71338 213.97170 215.76301 217.69933 219.75064 221.85395 223.94527
 226.01358 228.10590 230.21121 232.32552 234.46284 236.64315 238.90747 241.28578
 243.91509 246.17441 248.18472 249.95803 251.38335 252.51466 253.34498 253.66929
 253.71460 253.49692 252.86523 251.82155 250.43586 248.60517 246.52249 244.36380
 242.16312 239.97543 237.80374 235.65106 233.51937 231.39469 229.42900 227.59431
 225.88563 224.36594 223.00426 221.78457 220.67488 219.64320 218.75551 217.90483
 217.15514 216.34345 215.44977 214.82208 214.28040 214.61288 215.38048 215.03560
 214.55679 213.52161 212.32744 212.57764 215.80133 220.20093 225.20323 229.43594
 232.97443 237.10661 241.59807 246.11757 250.26884 254.01219 257.44272 260.58829
 263.45294 266.15009 268.86694 271.64532 274.33035 276.64282 278.30356 279.45169
 280.29544 280.98959 281.64288 282.31949 283.04968 283.89130 284.72897 285.44174
 286.07178 286.63281 287.12292 287.74753
 366.78100 356.34320 345.78340 334.65760 323.06880 311.27100 299.14919 286.96039
 274.68059 262.58579 250.60299 239.91219 230.04239 221.15459 213.34479 206.35499
 200.19718 195.14338 191.73358 189.78378 188.82898 188.90118 189.74438 191.06058
 192.79378 194.89698 197.16818 199.53537 201.98857 204.47677 206.57297 208.42317
 210.05737 211.21057 211.44777 211.68397 211.62917 211.34237 210.98356 210.62176
 210.24696 209.96516 209.78136 209.65356 209.58976 209.92896 210.32316 210.72036
 211.52155 212.70775 213.96595 215.75715 217.69335 219.74455 221.84775 223.93895
 226.00715 228.09935 230.20455 232.31874 234.45594 236.63614 238.90034 241.27854
 243.90774 246.16694 248.17714 249.95034 251.37554 252.50673 253.33693 253.66113
 253.70633 253.48853 252.85673 251.81293 250.42713 248.59633 246.51353 244.35473
 242.15392 239.96612 237.79432 235.64152 233.50972 231.38492 229.41912 227.58432
 225.87552 224.35572 222.99392 221.77411 220.66431 219.63251 218.74471 217.89391
 217.14411 216.33231 215.43851 214.81071 214.26891 214.58614 215.32967 215.08337
 214.55368 213.49910 212.30942 212.37315 215.80118 220.20668 225.15440 229.43805
 233.04068 237.14577 241.61444 246.12643 250.23520 253.95341 257.40845 260.60950
 263.52216 266.25540 268.99002 271.76425 274.42609 276.67953 278.26346 279.38821
 280.32660 281.17499 281.97711 282.76562 283.54907 284.34973 285.13489 285.71188
 286.22037 286.67316 287.06873 287.57281
 354.97500 345.04800 334.58700 324.11500 313.32600 302.53700 291.65000 280.76700
 269.93100 259.19300 248.62200 238.61700 229.08700 220.35500 212.54000 205.53500
 199.46400 194.49300 191.14300 189.19000 188.08900 188.01400 188.72400 189.90600
 191.46900 193.38200 195.40300 197.55600 199.80700 202.06000 204.28800 206.47900
 208.55200 210.37800 212.02500 213.65900 214.99800 216.11800 217.17200 218.25900
 219.49400 220.64500 221.67900 222.61400 223.54500 224.98200 226.57100 228.19000
 229.79700 231.81100 233.86500 235.97200 238.24200 240.55300 242.89900 245.25300
 247.48800 249.53500 251.36600 252.84800 254.09800 255.16700 256.02700 256.25300
 256.09500 255.54300 253.93500 252.56600 251.38400 250.24500 249.05200 247.70100
 246.01600 243.99600 241.78400 239.39300 236.81300 234.22300 231.65800 229.14400
 226.74000 224.47300 222.33500 220.32500 218.44000 216.67700 214.96200 213.47200
 212.20000 211.10800 210.26000 209.63900 209.24400 209.03100 209.05800 209.33300
 209.78400 210.62600 211.33100 212.39100 213.62500 214.84668 217.72949 219.47640
 220.32566 220.86828 220.88710 220.27371 219.43733 218.84250 219.04934 220.86203
 222.60583 225.72206 229.03064 232.61777 236.12270 239.51333 242.70767 245.68587
 248.41061 250.90679 253.19353 254.91714 256.48655 257.94920 259.39966 260.69384
 261.81714 262.77997 263.71679 264.54570 265.26305 265.89772 266.47676 267.00133
 267.47312 267.89325 268.26027 268.72800
