|-------------------------------------------------------------------------|
|   File Name : in_temp.dat
|   Subject   : temperature profiles used for initial guess atmosphere
|   File Type : input of gmtr
|   Data Type : atmospherical data
|   Author/s  : WRF-Chem
|   Date      : Fri Jul 26 15:39:24 2024
|-------------------------------------------------------------------------|

 WRF-Chem temperature
#
 values of T (K)    (8f10.5)
#
 354.97500 345.04800 334.58700 324.11500 313.32600 302.53700 291.65000 280.76700
 269.93100 259.19300 248.62200 238.61700 229.08700 220.35500 212.54000 205.53500
 199.46400 194.49300 191.14300 189.19000 188.08900 188.01400 188.72400 189.90600
 191.46900 193.38200 195.40300 197.55600 199.80700 202.06000 204.28800 206.47900
 208.55200 210.37800 212.02500 213.65900 214.99800 216.11800 217.17200 218.25900
 219.49400 220.64500 221.67900 222.61400 223.54500 224.98200 226.57100 228.19000
 229.79700 231.81100 233.86500 235.97200 238.24200 240.55300 242.89900 245.25300
 247.48800 249.53500 251.36600 252.84800 254.09800 255.16700 256.02700 256.25300
 256.09500 255.54300 253.93500 252.56600 251.38400 250.24500 249.05200 247.70100
 246.01600 243.99600 241.78400 239.39300 236.81300 234.22300 231.65800 229.14400
 226.74000 224.47300 222.33500 220.32500 218.44000 216.67700 214.96200 213.47200
 212.20000 211.10800 210.26000 209.63900 209.24400 209.03100 209.05800 209.33300
 209.78400 210.62600 211.33100 212.39100 213.62500 214.84668 217.72949 219.47640
 220.32566 220.86828 220.88710 220.27371 219.43733 218.84250 219.04934 220.86203
 222.60583 225.72206 229.03064 232.61777 236.12270 239.51333 242.70767 245.68587
 248.41061 250.90679 253.19353 254.91714 256.48655 257.94920 259.39966 260.69384
 261.81714 262.77997 263.71679 264.54570 265.26305 265.89772 266.47676 267.00133
 267.47312 267.89325 268.26027 268.72800
 366.78100 356.33500 345.76700 334.63300 323.03600 311.23000 299.10000 286.90300
 274.61500 262.51200 250.52100 239.82200 229.94400 221.04800 213.23000 206.23200
 200.06600 195.00400 191.58600 189.62800 188.66500 188.72900 189.56400 190.87200
 192.59700 194.69200 196.95500 199.31400 201.75900 204.23900 206.32700 208.16900
 209.79500 210.94000 211.16900 211.39700 211.33400 211.03900 210.67200 210.30200
 209.91900 209.62900 209.43700 209.30100 209.22900 209.56000 209.94600 210.33500
 211.12800 212.30600 213.55600 215.33900 217.26700 219.31000 221.40500 223.48800
 225.54800 227.63200 229.72900 231.83500 233.96400 236.13600 238.39200 240.76200
 243.38300 245.63400 247.63600 249.40100 250.81800 251.94100 252.76300 253.07900
 253.11600 252.89000 252.25000 251.19800 249.80400 247.96500 245.87400 243.70700
 241.49800 239.30200 237.12200 234.96100 232.82100 230.68800 228.71400 226.87100
 225.15400 223.62600 222.25600 221.02800 219.91000 218.87000 217.97400 217.11500
 216.35700 215.53700 214.63500 213.99900 213.44900 212.85855 212.01316 212.61654
 214.26826 216.08686 218.14273 220.53346 223.40855 226.78828 231.49734 235.90155
 239.42278 243.28576 247.23140 251.11907 254.80144 258.23331 261.38913 264.27520
 266.89312 269.26852 271.44504 273.08845 274.58484 275.98591 277.39845 278.65879
 279.75272 280.69038 281.56708 282.34086 283.01050 283.60295 284.14348 284.63317
 285.07358 285.46577 285.80838 286.24500
 381.81900 372.39900 361.20600 349.77600 337.62200 324.85300 311.81000 298.35300
 284.86000 271.32400 258.56100 246.30400 236.08700 226.79600 218.44800 211.29000
 205.52200 200.89400 197.38100 194.84800 193.01500 192.31500 192.25000 192.43100
 192.91200 193.53700 194.13600 194.71200 195.26200 195.83100 196.39300 196.97600
 197.60400 198.14900 198.58400 199.05700 199.69500 200.37800 201.05400 201.70800
 202.31300 202.85700 203.35500 203.86200 204.56900 205.29700 206.02600 206.98700
 208.19300 209.44100 210.96900 212.57600 214.46200 216.51300 218.63000 220.85300
 223.34100 225.96200 228.73900 231.69700 234.70600 237.70600 240.69200 243.65700
 246.73700 249.69900 252.52100 255.06300 257.29000 259.23300 260.63300 261.68000
 262.46100 262.79800 262.69100 262.22400 261.06900 259.52500 257.70700 255.50700
 253.00100 250.30200 247.39800 244.45200 241.65400 239.05400 236.73300 234.59000
 232.59500 230.72500 228.83400 226.82600 224.66600 222.38700 220.10400 217.71500
 215.45900 213.06600 210.54600 208.09300 205.35400 202.08130 196.05959 200.71215
 209.01611 216.90438 223.84126 229.78593 235.00632 240.20838 245.98943 250.68668
 254.32982 257.93487 261.55666 264.96801 268.15192 271.06452 273.76717 276.25691
 278.57680 280.74479 282.77456 284.60533 286.27232 287.81705 289.31715 290.65561
 291.81734 292.81312 293.70701 294.49387 295.17482 295.77730 296.32696 296.82492
 297.27278 297.67160 298.02000 298.46400
 399.33000 389.90700 379.81300 368.66800 357.52200 345.30100 333.07400 320.22700
 307.21600 293.84800 280.37600 267.29600 254.61000 242.98700 232.15100 221.97700
 212.67200 204.28600 197.66900 192.82100 189.48600 187.45200 186.81400 187.08900
 187.78100 189.05400 190.64800 192.54200 194.63000 196.75200 198.67100 200.15800
 201.53500 202.48700 202.97500 203.34000 203.53900 203.49700 203.38500 203.24700
 203.00500 202.78600 202.60300 202.43700 202.42600 202.88800 203.42000 203.95100
 204.89500 205.99200 207.30100 208.95800 210.73800 213.10000 215.56400 218.18000
 220.96600 223.91800 226.96100 230.09200 233.29300 236.55700 239.95500 243.53700
 246.84500 249.39000 251.54200 253.47400 255.19500 256.48400 257.43100 258.05900
 258.21200 258.04000 257.58200 256.64300 255.23900 253.50700 251.40800 249.05600
 246.57600 243.99400 241.38900 238.83000 236.34400 233.98600 231.96900 230.11800
 228.42300 226.89900 225.54800 224.29700 223.10500 221.96500 220.95800 220.11300
 219.49000 218.92000 218.32500 217.88100 217.42300 216.96366 216.35568 216.80261
 217.73415 218.28582 218.64258 219.10077 220.44626 222.53987 226.38451 230.35736
 233.59734 237.39164 241.29814 245.22796 248.98002 252.51130 255.78595 258.80109
 261.54781 264.05210 266.34239 268.04198 269.58951 271.01303 272.35754 273.55718
 274.59842 275.49092 276.28989 276.99307 277.60161 278.14001 278.63122 279.07623
 279.47646 279.83287 280.14422 280.54100
 399.73800 389.78500 379.66200 368.15100 356.64100 344.35000 331.79200 318.88800
 305.72600 292.49300 279.20900 266.73800 254.69600 244.21100 234.45700 225.43300
 217.56900 210.45100 204.30000 199.30600 195.45800 192.57600 191.02700 190.38600
 190.23900 190.53400 191.16600 191.92500 192.79500 193.76600 194.73200 195.31200
 195.80000 196.05200 196.11500 196.11500 196.03900 195.72300 195.34000 194.98900
 194.75100 194.79200 195.13300 195.59800 196.50600 198.13600 199.85800 201.56600
 204.17900 206.82300 209.89300 213.28400 216.82800 220.60500 224.38700 228.20900
 232.03200 235.82500 239.56000 243.25800 246.84500 250.20100 253.70900 257.46800
 261.53000 264.22100 266.60100 268.68100 270.32900 271.74100 272.83600 273.47400
 273.89800 274.00200 273.75700 273.28800 272.37100 271.10000 269.58900 267.77900
 265.81600 263.72100 261.39300 258.91600 256.29800 253.42300 250.33100 247.11400
 243.83700 240.52900 237.24900 233.99900 230.72800 227.51500 224.25400 220.95200
 217.62700 213.65600 210.12100 206.78900 204.01000 201.99491 199.07309 198.76551
 199.40006 200.48994 201.46112 202.31912 203.45100 204.96110 207.47502 210.85391
 213.70530 217.29629 220.99574 224.72316 228.28753 231.64854 234.68024 237.40893
 239.70644 241.60899 243.46854 245.67368 247.68154 249.52395 251.24767 252.78566
 254.12057 255.26479 256.23740 257.09036 257.82852 258.48160 259.07744 259.61723
 260.10271 260.53504 260.91270 261.39400
 399.73800 389.78500 379.66200 368.15100 356.64100 344.35000 331.79200 318.88800
 305.72600 292.49300 279.20900 266.73800 254.69600 244.21100 234.45700 225.43300
 217.56900 210.45100 204.30000 199.30600 195.45800 192.57600 191.02700 190.38600
 190.23900 190.53400 191.16600 191.92500 192.79500 193.76600 194.73200 195.31200
 195.80000 196.05200 196.11500 196.11500 196.03900 195.72300 195.34000 194.98900
 194.75100 194.79200 195.13300 195.59800 196.50600 198.13600 199.85800 201.56600
 204.17900 206.82300 209.89300 213.28400 216.82800 220.60500 224.38700 228.20900
 232.03200 235.82500 239.56000 243.25800 246.84500 250.20100 253.70900 257.46800
 261.53000 264.22100 266.60100 268.68100 270.32900 271.74100 272.83600 273.47400
 273.89800 274.00200 273.75700 273.28800 272.37100 271.10000 269.58900 267.77900
 265.81600 263.72100 261.39300 258.91600 256.29800 253.42300 250.33100 247.11400
 243.83700 240.52900 237.24900 233.99900 230.72800 227.51500 224.25400 220.95200
 217.62700 213.65600 210.12100 206.78900 204.01000 201.99491 199.07309 198.76551
 199.40006 200.48994 201.46112 202.31912 203.45100 204.96110 207.47502 210.85391
 213.70530 217.29629 220.99574 224.72316 228.28753 231.64854 234.68024 237.40893
 239.70644 241.60899 243.46854 245.67368 247.68154 249.52395 251.24767 252.78566
 254.12057 255.26479 256.23740 257.09036 257.82852 258.48160 259.07744 259.61723
 260.10271 260.53504 260.91270 261.39400
 399.33000 389.90700 379.81300 368.66800 357.52200 345.30100 333.07400 320.22700
 307.21600 293.84800 280.37600 267.29600 254.61000 242.98700 232.15100 221.97700
 212.67200 204.28600 197.66900 192.82100 189.48600 187.45200 186.81400 187.08900
 187.78100 189.05400 190.64800 192.54200 194.63000 196.75200 198.67100 200.15800
 201.53500 202.48700 202.97500 203.34000 203.53900 203.49700 203.38500 203.24700
 203.00500 202.78600 202.60300 202.43700 202.42600 202.88800 203.42000 203.95100
 204.89500 205.99200 207.30100 208.95800 210.73800 213.10000 215.56400 218.18000
 220.96600 223.91800 226.96100 230.09200 233.29300 236.55700 239.95500 243.53700
 246.84500 249.39000 251.54200 253.47400 255.19500 256.48400 257.43100 258.05900
 258.21200 258.04000 257.58200 256.64300 255.23900 253.50700 251.40800 249.05600
 246.57600 243.99400 241.38900 238.83000 236.34400 233.98600 231.96900 230.11800
 228.42300 226.89900 225.54800 224.29700 223.10500 221.96500 220.95800 220.11300
 219.49000 218.92000 218.32500 217.88100 217.42300 216.96366 216.35568 216.80261
 217.73415 218.28582 218.64258 219.10077 220.44626 222.53987 226.38451 230.35736
 233.59734 237.39164 241.29814 245.22796 248.98002 252.51130 255.78595 258.80109
 261.54781 264.05210 266.34239 268.04198 269.58951 271.01303 272.35754 273.55718
 274.59842 275.49092 276.28989 276.99307 277.60161 278.14001 278.63122 279.07623
 279.47646 279.83287 280.14422 280.54100
 381.81900 372.39900 361.20600 349.77600 337.62200 324.85300 311.81000 298.35300
 284.86000 271.32400 258.56100 246.30400 236.08700 226.79600 218.44800 211.29000
 205.52200 200.89400 197.38100 194.84800 193.01500 192.31500 192.25000 192.43100
 192.91200 193.53700 194.13600 194.71200 195.26200 195.83100 196.39300 196.97600
 197.60400 198.14900 198.58400 199.05700 199.69500 200.37800 201.05400 201.70800
 202.31300 202.85700 203.35500 203.86200 204.56900 205.29700 206.02600 206.98700
 208.19300 209.44100 210.96900 212.57600 214.46200 216.51300 218.63000 220.85300
 223.34100 225.96200 228.73900 231.69700 234.70600 237.70600 240.69200 243.65700
 246.73700 249.69900 252.52100 255.06300 257.29000 259.23300 260.63300 261.68000
 262.46100 262.79800 262.69100 262.22400 261.06900 259.52500 257.70700 255.50700
 253.00100 250.30200 247.39800 244.45200 241.65400 239.05400 236.73300 234.59000
 232.59500 230.72500 228.83400 226.82600 224.66600 222.38700 220.10400 217.71500
 215.45900 213.06600 210.54600 208.09300 205.35400 202.08130 196.05959 200.71215
 209.01611 216.90438 223.84126 229.78593 235.00632 240.20838 245.98943 250.68668
 254.32982 257.93487 261.55666 264.96801 268.15192 271.06452 273.76717 276.25691
 278.57680 280.74479 282.77456 284.60533 286.27232 287.81705 289.31715 290.65561
 291.81734 292.81312 293.70701 294.49387 295.17482 295.77730 296.32696 296.82492
 297.27278 297.67160 298.02000 298.46400
 366.78100 356.33793 345.77286 334.64179 323.04772 311.24465 299.11758 286.92351
 274.63844 262.53837 250.55030 239.85423 229.97916 221.08609 213.27102 206.27595
 200.11288 195.05381 191.63874 189.68367 188.72360 188.79053 189.62846 190.93939
 192.66732 194.76525 197.03119 199.39312 201.84105 204.32398 206.41491 208.25984
 209.88877 211.03670 211.26863 211.49956 211.43949 211.14742 210.78335 210.41628
 210.03621 209.74914 209.56007 209.42700 209.35793 209.69186 210.08079 210.47272
 211.26865 212.44958 213.70251 215.48844 217.41937 219.46530 221.56323 223.64916
 225.71209 227.79902 229.89895 232.00788 234.13981 236.31474 238.57367 240.94660
 243.57053 245.82446 247.82939 249.59732 251.01725 252.14318 252.96811 253.28704
 253.32697 253.10390 252.46683 251.41776 250.02669 248.19063 246.10256 243.93849
 241.73242 239.53935 237.36228 235.20421 233.06714 230.93707 228.96600 227.12593
 225.41186 223.88679 222.51972 221.29465 220.17958 219.14251 218.24944 217.39337
 216.63830 215.82123 214.92216 214.28909 213.74202 212.97171 211.15453 210.38736
 210.67926 212.21359 214.16272 216.19151 219.18170 223.64723 229.47696 234.64021
 238.54143 242.37663 246.22052 250.14680 254.10085 257.81369 260.62506 262.44342
 265.17758 268.00024 270.33167 272.13034 274.00739 275.92703 277.49683 279.06360
 280.77008 282.35724 283.82437 285.17960 286.36237 287.40851 288.36880 289.24075
 290.02890 290.73434 291.35565 292.18198
 366.78100 356.33803 345.77306 334.64209 323.04812 311.24515 299.11818 286.92421
 274.63924 262.53928 250.55131 239.85534 229.98037 221.08740 213.27243 206.27746
 200.11449 195.05552 191.64055 189.68558 188.72561 188.79264 189.63067 190.94170
 192.66973 194.76776 197.03380 199.39583 201.84386 204.32689 206.41792 208.26295
 209.89198 211.04001 211.27204 211.50307 211.44310 211.15113 210.78716 210.42019
 210.04022 209.75325 209.56429 209.43132 209.36235 209.69638 210.08541 210.47744
 211.27347 212.45450 213.70753 215.49356 217.42459 219.47062 221.56865 223.65468
 225.71771 227.80474 229.90477 232.01381 234.14584 236.32087 238.57990 240.95293
 243.57696 245.83099 247.83602 249.60405 251.02408 252.15011 252.97514 253.29417
 253.33420 253.11123 252.47426 251.42529 250.03433 248.19836 246.11039 243.94642
 241.74045 239.54748 237.37051 235.21254 233.07557 230.94560 228.97463 227.13466
 225.42069 223.89572 222.52875 221.30378 220.18882 219.15185 218.25888 217.40291
 216.64794 215.83097 214.93200 214.29903 213.75206 213.00916 211.25598 210.44292
 210.73412 212.29829 214.26228 216.24767 219.13667 223.57664 229.42389 234.57231
 238.45810 242.27895 246.11417 250.04840 254.04285 257.74518 260.53345 262.36862
 265.10922 267.94138 270.27802 272.05258 273.89603 275.80383 277.38770 278.96426
 280.67731 282.26590 283.72485 285.08051 286.26208 287.31018 288.27121 289.14255
 289.93069 290.63837 291.25925 292.08734
 366.78100 356.33821 345.77342 334.64264 323.04885 311.24606 299.11927 286.92549
 274.64070 262.54091 250.55312 239.85734 229.98255 221.08976 213.27497 206.28019
 200.11740 195.05861 191.64382 189.68904 188.72925 188.79646 189.63467 190.94589
 192.67410 194.77231 197.03852 199.40074 201.84895 204.33216 206.42337 208.26859
 209.89780 211.04601 211.27822 211.50944 211.44965 211.15786 210.79407 210.42729
 210.04750 209.76071 209.57192 209.43914 209.37035 209.70456 210.09377 210.48599
 211.28220 212.46341 213.71662 215.50284 217.43405 219.48026 221.57847 223.66469
 225.72790 227.81511 229.91532 232.02454 234.15675 236.33196 238.59117 240.96439
 243.58860 245.84281 247.84802 249.61624 251.03645 252.16266 252.98787 253.30709
 253.34730 253.12451 252.48772 251.43894 250.04815 248.21236 246.12457 243.96079
 241.75500 239.56221 237.38542 235.22764 233.09085 230.96106 228.99027 227.15049
 225.43670 223.91191 222.54512 221.32034 220.20555 219.16876 218.27597 217.42019
 216.66540 215.84861 214.94982 214.31704 213.77025 213.04909 211.34671 210.50645
 210.80417 212.37041 214.34752 216.30467 219.11836 223.50998 229.36745 234.49825
 238.36911 242.17836 246.00647 249.95078 253.98677 257.67572 260.43732 262.29034
 265.03513 267.87729 270.22040 271.97586 273.78949 275.68478 277.28174 278.86737
 280.58792 282.17752 283.63098 284.98575 286.16763 287.21652 288.17728 289.04712
 289.83813 290.54257 291.16666 291.99524
 366.78100 356.33848 345.77395 334.64343 323.04991 311.24738 299.12086 286.92734
 274.64282 262.54329 250.55577 239.86025 229.98572 221.09320 213.27868 206.28415
 200.12163 195.06311 191.64858 189.69406 188.73454 188.80202 189.64049 190.95197
 192.68045 194.77892 197.04540 199.40788 201.85635 204.33983 206.43131 208.27678
 209.90626 211.05474 211.28722 211.51869 211.45917 211.16765 210.80412 210.43760
 210.05808 209.77155 209.58303 209.45051 209.38198 209.71646 210.10594 210.49842
 211.29489 212.47637 213.72985 215.51632 217.44780 219.49428 221.59275 223.67923
 225.74271 227.83018 229.93066 232.04014 234.17262 236.34809 238.60757 240.98105
 243.60552 245.86000 247.86548 249.63395 251.05443 252.18091 253.00638 253.32586
 253.36634 253.14382 252.50729 251.45877 250.06825 248.23272 246.14520 243.98168
 241.77615 239.58363 237.40711 235.24958 233.11306 230.98354 229.01302 227.17349
 225.45997 223.93545 222.56892 221.34440 220.22988 219.19335 218.30083 217.44531
 216.69078 215.87426 214.97574 214.34321 213.79669 213.09154 211.42667 210.58389
 210.87950 212.43520 214.42651 216.36008 219.10870 223.45163 229.31123 234.42288
 238.27873 242.07736 245.89961 249.85472 253.93204 257.60434 260.33545 262.20935
 264.95526 267.80539 270.15796 271.89856 273.68610 275.57187 277.18274 278.77866
 280.50333 282.09390 283.54126 284.89697 286.07806 287.12778 288.08743 288.96091
 289.74899 290.45789 291.07977 291.90939
 366.78100 356.33869 345.77437 334.64406 323.05074 311.24843 299.12211 286.92880
 274.64448 262.54517 250.55786 239.86254 229.98823 221.09591 213.28160 206.28728
 200.12497 195.06665 191.65234 189.69802 188.73871 188.80640 189.64508 190.95677
 192.68545 194.78414 197.05082 199.41351 201.86219 204.34588 206.43757 208.28325
 209.91294 211.06162 211.29431 211.52599 211.46668 211.17536 210.81205 210.44573
 210.06642 209.78011 209.59179 209.45948 209.39116 209.72585 210.11553 210.50822
 211.30490 212.48659 213.74028 215.52696 217.45865 219.50533 221.60402 223.69070
 225.75439 227.84207 229.94276 232.05244 234.18513 236.36082 238.62050 240.99419
 243.61887 245.87356 247.87924 249.64793 251.06861 252.19530 253.02099 253.34067
 253.38136 253.15904 252.52273 251.47441 250.08410 248.24878 246.16147 243.99816
 241.79284 239.60053 237.42421 235.26690 233.13058 231.00127 229.03095 227.19164
 225.47832 223.95401 222.58770 221.36338 220.24907 219.21275 218.32044 217.46512
 216.71081 215.89449 214.99618 214.36387 213.81755 213.12965 211.50533 210.66873
 210.95715 212.49831 214.50220 216.41750 219.09410 223.40027 229.25583 234.34731
 238.18663 241.97453 245.79295 249.76152 253.87979 257.52942 260.22983 262.12509
 264.86871 267.72403 270.08716 271.81808 273.58777 275.46747 277.09311 278.69775
 280.42352 282.01608 283.45822 284.81204 285.99420 287.04385 288.00418 288.87689
 289.66620 290.37378 290.99792 291.82886
 366.78100 356.33879 345.77458 334.64438 323.05117 311.24896 299.12275 286.92954
 274.64534 262.54613 250.55892 239.86371 229.98950 221.09730 213.28309 206.28888
 200.12667 195.06846 191.65426 189.70005 188.74084 188.80863 189.64742 190.95922
 192.68801 194.78680 197.05359 199.41638 201.86518 204.34897 206.44076 208.28655
 209.91634 211.06514 211.29793 211.52972 211.47051 211.17930 210.81610 210.44989
 210.07068 209.78447 209.59626 209.46406 209.39585 209.73064 210.12043 210.51322
 211.31002 212.49181 213.74560 215.53239 217.46418 219.51098 221.60977 223.69656
 225.76035 227.84814 229.94894 232.05873 234.19152 236.36731 238.62710 241.00090
 243.62569 245.88048 247.88627 249.65506 251.07586 252.20265 253.02844 253.34823
 253.38902 253.16682 252.53061 251.48240 250.09219 248.25698 246.16978 244.00657
 241.80136 239.60915 237.43295 235.27574 233.13953 231.01032 229.04011 227.20091
 225.48770 223.96349 222.59728 221.37307 220.25887 219.22266 218.33045 217.47524
 216.72103 215.90483 215.00662 214.37441 213.82820 213.16129 211.58629 210.76047
 211.03448 212.55954 214.57904 216.47948 219.07645 223.34908 229.19975 234.27159
 238.09351 241.86975 245.68698 249.67227 253.83093 257.45319 260.12152 262.03848
 264.77542 267.63257 270.00525 271.73315 273.49313 275.37070 277.01248 278.62442
 280.34998 281.94412 283.38101 284.73511 285.91653 286.96793 287.92633 288.80011
 289.58975 290.29785 290.92273 291.75461
 366.78100 356.33878 345.77455 334.64433 323.05111 311.24889 299.12266 286.92944
 274.64522 262.54599 250.55877 239.86355 229.98933 221.09710 213.28288 206.28866
 200.12644 195.06821 191.65399 189.69977 188.74054 188.80832 189.64710 190.95888
 192.68765 194.78643 197.05321 199.41598 201.86476 204.34854 206.44032 208.28609
 209.91587 211.06465 211.29743 211.52920 211.46998 211.17876 210.81553 210.44931
 210.07009 209.78387 209.59564 209.46342 209.39520 209.72997 210.11975 210.51253
 211.30931 212.49108 213.74486 215.53164 217.46342 219.51019 221.60897 223.69575
 225.75952 227.84730 229.94808 232.05786 234.19063 236.36641 238.62619 240.99996
 243.62474 245.87952 247.88530 249.65407 251.07485 252.20163 253.02740 253.34718
 253.38796 253.16574 252.52951 251.48129 250.09107 248.25585 246.16862 244.00540
 241.80018 239.60795 237.43173 235.27451 233.13829 231.00906 229.03884 227.19962
 225.48639 223.96217 222.59595 221.37173 220.25750 219.22128 218.32906 217.47384
 216.71961 215.90339 215.00517 214.37294 213.82672 213.18558 211.67126 210.85573
 211.11464 212.61606 214.65604 216.54817 219.05867 223.29579 229.14250 234.19177
 237.99493 241.76146 245.58261 249.58900 253.78552 257.37897 260.01648 261.95471
 264.67728 267.52942 269.91058 271.63992 273.40015 275.28159 276.93884 278.55771
 280.28235 281.87601 283.31042 284.66461 285.84799 286.89639 287.85864 288.73138
 289.52090 290.22928 290.85422 291.68848
 366.78100 356.33862 345.77424 334.64386 323.05048 311.24810 299.12172 286.92833
 274.64395 262.54457 250.55719 239.86181 229.98743 221.09505 213.28067 206.28629
 200.12391 195.06553 191.65115 189.69677 188.73739 188.80500 189.64362 190.95524
 192.68386 194.78248 197.04910 199.41172 201.86034 204.34396 206.43558 208.28120
 209.91082 211.05944 211.29206 211.52367 211.46429 211.17291 210.80953 210.44315
 210.06377 209.77739 209.58901 209.45663 209.38825 209.72287 210.11249 210.50511
 211.30173 212.48334 213.73696 215.52358 217.45520 219.50182 221.60044 223.68706
 225.75068 227.83830 229.93892 232.04854 234.18116 236.35678 238.61640 240.99001
 243.61463 245.86925 247.87487 249.64349 251.06411 252.19073 253.01635 253.33597
 253.37659 253.15421 252.51783 251.46945 250.07907 248.24368 246.15630 243.99292
 241.78754 239.59516 237.41878 235.26140 233.12502 230.99564 229.02526 227.18588
 225.47250 223.94812 222.58174 221.35735 220.24297 219.20659 218.31421 217.45883
 216.70445 215.88807 214.98969 214.35731 213.81093 213.20161 211.76225 210.95282
 211.19737 212.67085 214.72939 216.61708 219.04898 223.24098 229.08072 234.10550
 237.89244 241.65283 245.48340 249.51334 253.74506 257.30798 259.91553 261.87610
 264.57550 267.41522 269.80215 271.53641 273.30554 275.19839 276.87177 278.49527
 280.21924 281.81390 283.24683 284.60114 285.78409 286.83432 287.79382 288.66858
 289.45660 290.16653 290.79440 291.62338
 366.78100 356.33843 345.77386 334.64329 323.04972 311.24715 299.12058 286.92701
 274.64244 262.54287 250.55530 239.85973 229.98516 221.09259 213.27802 206.28345
 200.12088 195.06231 191.64774 189.69317 188.73360 188.80103 189.63946 190.95089
 192.67932 194.77775 197.04418 199.40661 201.85504 204.33847 206.42990 208.27533
 209.90476 211.05319 211.28562 211.51705 211.45748 211.16591 210.80234 210.43577
 210.05620 209.76963 209.58106 209.44849 209.37992 209.71435 210.10378 210.49621
 211.29264 212.47407 213.72750 215.51393 217.44536 219.49179 221.59022 223.67665
 225.74008 227.82751 229.92794 232.03737 234.16980 236.34523 238.60466 240.97809
 243.60252 245.85694 247.86237 249.63080 251.05123 252.17766 253.00309 253.32252
 253.36295 253.14038 252.50381 251.45524 250.06467 248.22910 246.14153 243.97796
 241.77239 239.57982 237.40325 235.24568 233.10911 230.97954 229.00897 227.16940
 225.45583 223.93126 222.56469 221.34012 220.22555 219.18898 218.29641 217.44084
 216.68627 215.86970 214.97113 214.33856 213.79199 213.21483 211.85132 211.06241
 211.27792 212.71248 214.80583 216.69098 219.04691 223.19055 229.01830 234.01161
 237.78319 241.54047 245.38715 249.44518 253.70958 257.24072 259.81870 261.80530
 264.47269 267.29181 269.68121 271.42270 273.20767 275.11877 276.80585 278.43369
 280.15668 281.75397 283.18851 284.54327 285.72754 286.77713 287.73581 288.61163
 289.40106 290.11053 290.73630 291.57352
 366.78100 356.33777 345.77254 334.64131 323.04708 311.24385 299.11662 286.92239
 274.63716 262.53693 250.54870 239.85247 229.97725 221.08402 213.26879 206.27356
 200.11033 195.05110 191.63587 189.68064 188.72041 188.78718 189.62495 190.93572
 192.66349 194.76126 197.02703 199.38880 201.83657 204.31934 206.41011 208.25488
 209.88365 211.03142 211.26319 211.49397 211.43374 211.14151 210.77728 210.41005
 210.02982 209.74259 209.55336 209.42013 209.35090 209.68467 210.07344 210.46521
 211.26098 212.44175 213.69452 215.48029 217.41106 219.45683 221.55460 223.64037
 225.70314 227.78991 229.88969 231.99846 234.13023 236.30500 238.56377 240.93654
 243.56031 245.81408 247.81885 249.58662 251.00639 252.13216 252.95693 253.27570
 253.31547 253.09224 252.45501 251.40578 250.01455 248.17832 246.09009 243.92586
 241.71963 239.52641 237.34918 235.19095 233.05372 230.92349 228.95226 227.11203
 225.39780 223.87257 222.50534 221.28011 220.16488 219.12765 218.23442 217.37819
 216.62296 215.80573 214.90650 214.27327 213.72604 213.20302 211.96736 211.15590
 211.36368 212.76364 214.87679 216.76173 219.05328 223.14606 228.94650 233.90651
 237.66711 241.42529 245.29274 249.38383 253.67700 257.17398 259.72290 261.73892
 264.36972 267.16022 269.55170 271.30521 273.11237 275.04630 276.74725 278.37689
 280.09824 281.69781 283.13629 284.49237 285.67462 286.72488 287.68448 288.55832
 289.34937 290.05936 290.68655 291.52313
 366.78100 356.33769 345.77238 334.64107 323.04675 311.24344 299.11613 286.92182
 274.63651 262.53620 250.54788 239.85157 229.97626 221.08295 213.26764 206.27233
 200.10901 195.04970 191.63439 189.67908 188.71877 188.78546 189.62314 190.93383
 192.66152 194.75921 197.02490 199.38659 201.83427 204.31696 206.40765 208.25234
 209.88103 211.02872 211.26040 211.49109 211.43078 211.13847 210.77416 210.40685
 210.02653 209.73922 209.54991 209.41660 209.34729 209.68098 210.06966 210.46135
 211.25704 212.43773 213.69042 215.47611 217.40679 219.45248 221.55017 223.63586
 225.69855 227.78524 229.88492 231.99361 234.12530 236.29999 238.55868 240.93137
 243.55505 245.80874 247.81343 249.58112 251.00081 252.12650 252.95118 253.26987
 253.30956 253.08625 252.44894 251.39963 250.00831 248.17200 246.08369 243.91938
 241.71307 239.51976 237.34244 235.18413 233.04682 230.91651 228.94520 227.10489
 225.39057 223.86526 222.49795 221.27264 220.15733 219.12002 218.22670 217.37039
 216.61508 215.79777 214.89846 214.26515 213.71783 213.21837 212.03835 211.29318
 211.45277 212.80716 214.95903 216.82549 219.04674 223.09181 228.87593 233.79781
 237.54317 241.30139 245.19519 249.32515 253.64262 257.10379 259.62631 261.67639
 264.26801 267.02530 269.42065 271.19312 273.02707 274.98761 276.70218 278.32886
 280.04483 281.64420 283.08878 284.44397 285.62741 286.67795 287.63699 288.51077
 289.30234 290.01263 290.63995 291.48007
 366.78100 356.33752 345.77204 334.64056 323.04609 311.24261 299.11513 286.92065
 274.63517 262.53469 250.54621 239.84974 229.97426 221.08078 213.26530 206.26982
 200.10634 195.04686 191.63139 189.67591 188.71543 188.78195 189.61947 190.92999
 192.65751 194.75504 197.02056 199.38208 201.82960 204.31212 206.40264 208.24716
 209.87569 211.02321 211.25473 211.48525 211.42477 211.13229 210.76781 210.40034
 210.01986 209.73238 209.54290 209.40942 209.33994 209.67346 210.06199 210.45351
 211.24903 212.42955 213.68207 215.46759 217.39811 219.44363 221.54116 223.62668
 225.68920 227.77572 229.87524 231.98376 234.11528 236.28981 238.54833 240.92085
 243.54437 245.79789 247.80241 249.56993 250.98946 252.11498 252.93950 253.25802
 253.29754 253.07406 252.43658 251.38711 249.99563 248.15915 246.07067 243.90619
 241.69971 239.50623 237.32876 235.17028 233.03280 230.90232 228.93084 227.09036
 225.37588 223.85041 222.48293 221.25745 220.14197 219.10449 218.21101 217.35453
 216.59906 215.78158 214.88210 214.24862 213.70114 213.23001 212.11690 211.39442
 211.60860 212.86089 215.00462 216.87093 219.04550 223.05316 228.78830 233.66661
 237.40338 241.16815 245.09810 249.27141 253.61203 257.04034 259.54340 261.63068
 264.17584 266.89194 269.28891 271.08313 272.94528 274.93408 276.65979 278.28131
 279.99197 281.58926 283.04419 284.39948 285.58371 286.63281 287.59338 288.46707
 289.26001 289.96786 290.59790 291.43933
 366.78100 356.33659 345.77018 334.63777 323.04236 311.23795 299.10953 286.91412
 274.62771 262.52630 250.53689 239.83948 229.96307 221.06866 213.25225 206.25584
 200.09143 195.03101 191.61460 189.65819 188.69678 188.76237 189.59896 190.90855
 192.63514 194.73173 196.99632 199.35691 201.80349 204.28508 206.37467 208.21826
 209.84585 210.99244 211.22303 211.45262 211.39121 211.09780 210.73239 210.36397
 209.98256 209.69415 209.50374 209.36933 209.29892 209.63151 210.01910 210.40969
 211.20428 212.38387 213.63546 215.42004 217.34963 219.39422 221.49081 223.57540
 225.63699 227.72258 229.82117 231.92876 234.05935 236.23294 238.49052 240.86211
 243.48470 245.73729 247.74088 249.50747 250.92606 252.05065 252.87424 253.19183
 253.23042 253.00600 252.36759 251.31718 249.92477 248.08736 245.99795 243.83254
 241.62513 239.43072 237.25231 235.09290 232.95448 230.82307 228.85066 227.00925
 225.29384 223.76743 222.39902 221.17261 220.05620 219.01779 218.12338 217.26596
 216.50955 215.69114 214.79073 214.15632 213.60791 213.20084 212.23906 211.46524
 211.71083 213.02914 215.08290 216.87476 219.02165 222.95314 228.70258 233.54439
 237.26871 241.04454 245.01428 249.22900 253.58804 256.98669 259.47296 261.59485
 264.08734 266.75546 269.14987 270.96432 272.85800 274.87598 276.61008 278.22757
 279.93695 281.53391 283.00204 284.35907 285.54129 286.59283 287.55298 288.42538
 289.21753 289.92783 290.55756 291.40173
 366.78100 356.33570 345.76841 334.63511 323.03882 311.23352 299.10422 286.90793
 274.62063 262.51834 250.52804 239.82974 229.95245 221.05715 213.23986 206.24256
 200.07726 195.01597 191.59867 189.64137 188.67908 188.74378 189.57949 190.88819
 192.61389 194.70960 196.97330 199.33301 201.77871 204.25941 206.34812 208.19082
 209.81753 210.96323 211.19293 211.42164 211.35934 211.06505 210.69875 210.32945
 209.94716 209.65786 209.46657 209.33127 209.25997 209.59168 209.97838 210.36809
 211.16179 212.34049 213.59120 215.37490 217.30360 219.34731 221.44301 223.52672
 225.58742 227.67212 229.76983 231.87653 234.00624 236.17894 238.43564 240.80635
 243.42805 245.67976 247.68246 249.44816 250.86587 251.98957 252.81228 253.12898
 253.16668 252.94139 252.30209 251.25080 249.85750 248.01920 245.92891 243.76261
 241.55432 239.35902 237.17972 235.01943 232.88013 230.74783 228.77454 226.93224
 225.21595 223.68865 222.31935 221.09206 219.97476 218.93547 218.04017 217.18187
 216.42458 215.60528 214.70399 214.06869 213.51939 213.17354 212.35645 211.58380
 211.74219 213.17157 215.17911 216.89653 219.00540 222.85446 228.62344 233.43472
 237.14412 240.93361 244.94246 249.19351 253.56491 256.93076 259.39948 261.55597
 263.99744 266.61459 269.00635 270.84363 272.77026 274.81744 276.55844 278.17194
 279.88184 281.47290 282.96384 284.32175 285.50467 286.55432 287.51440 288.38760
 289.17960 289.89050 290.52200 291.36606
 366.78100 356.33519 345.76738 334.63357 323.03677 311.23096 299.10115 286.90434
 274.61653 262.51372 250.52291 239.82411 229.94630 221.05049 213.23268 206.23487
 200.06906 195.00725 191.58945 189.63164 188.66883 188.73302 189.56821 190.87640
 192.60159 194.69678 196.95998 199.31917 201.76436 204.24455 206.33274 208.17493
 209.80112 210.94632 211.17551 211.40370 211.34089 211.04608 210.67927 210.30946
 209.92666 209.63685 209.44504 209.30923 209.23742 209.56861 209.95480 210.34400
 211.13719 212.31538 213.56557 215.34876 217.27695 219.32014 221.41534 223.49853
 225.55872 227.64291 229.74010 231.84629 233.97548 236.14768 238.40387 240.77406
 243.39525 245.64644 247.64863 249.41382 250.83101 251.95421 252.77640 253.09259
 253.12978 252.90397 252.26416 251.21235 249.81855 247.97974 245.88893 243.72212
 241.51331 239.31750 237.13769 234.97689 232.83708 230.70427 228.73046 226.88765
 225.17084 223.64303 222.27323 221.04542 219.92761 218.88780 217.99199 217.13318
 216.37537 215.55557 214.65376 214.01795 213.46814 213.16382 212.44481 211.73286
 211.78156 213.27682 215.26816 216.93123 218.99593 222.77031 228.54678 233.32521
 237.01974 240.82547 244.87488 249.15990 253.53606 256.86612 259.31827 261.51242
 263.90787 266.47583 268.86499 270.73004 272.68927 274.76474 276.51205 278.11780
 279.82578 281.40228 282.92841 284.28915 285.47192 286.52225 287.48151 288.35477
 289.14703 289.86066 290.48688 291.34006
 366.78100 356.33458 345.76615 334.63173 323.03430 311.22788 299.09745 286.90003
 274.61160 262.50818 250.51676 239.81733 229.93891 221.04248 213.22406 206.22563
 200.05921 194.99678 191.57836 189.61994 188.65651 188.72009 189.55466 190.86224
 192.58681 194.68139 196.94396 199.30254 201.74712 204.22669 206.31427 208.15584
 209.78142 210.92599 211.15457 211.38214 211.31872 211.02330 210.65587 210.28545
 209.90202 209.61160 209.41917 209.28275 209.21032 209.54090 209.92648 210.31505
 211.10763 212.28520 213.53478 215.31735 217.24493 219.28750 221.38208 223.46466
 225.52423 227.60781 229.70438 231.80996 233.93853 236.11011 238.36568 240.73526
 243.35584 245.60641 247.60799 249.37256 250.78914 251.91171 252.73329 253.04886
 253.08544 252.85902 252.21859 251.16617 249.77174 247.93232 245.84089 243.67347
 241.46404 239.26762 237.08720 234.92577 232.78535 230.65192 228.67750 226.83407
 225.11665 223.58822 222.21780 220.98938 219.87095 218.83053 217.93410 217.07468
 216.31625 215.49583 214.59340 213.95698 213.40656 213.14819 212.53780 211.86961
 211.84851 213.37263 215.34801 216.95944 218.98376 222.69490 228.47298 233.21233
 236.89331 240.71912 244.81128 249.12892 253.50185 256.79578 259.23346 261.46609
 263.82074 266.34131 268.72949 270.62396 272.61481 274.71832 276.46927 278.06549
 279.77042 281.35300 282.88925 284.25195 285.43610 286.48645 287.44748 288.32135
 289.11298 289.82596 290.45517 291.30685
 366.78100 356.33377 345.76455 334.62932 323.03110 311.22387 299.09265 286.89442
 274.60519 262.50097 250.50874 239.80852 229.92929 221.03207 213.21284 206.21361
 200.04639 194.98316 191.56394 189.60471 188.64049 188.70326 189.53703 190.84381
 192.56758 194.66136 196.92313 199.28091 201.72468 204.20346 206.29023 208.13100
 209.75578 210.89955 211.12733 211.35410 211.28988 210.99365 210.62542 210.25420
 209.86997 209.57875 209.38552 209.24830 209.17507 209.50484 209.88962 210.27739
 211.06917 212.24594 213.49472 215.27649 217.20326 219.24504 221.33881 223.42059
 225.47936 227.56214 229.65791 231.76268 233.89046 236.06123 238.31601 240.68478
 243.30456 245.55433 247.55510 249.31888 250.73465 251.85643 252.67720 252.99198
 253.02775 252.80052 252.15930 251.10607 249.71085 247.87062 245.77840 243.61017
 241.39995 239.20272 237.02149 234.85927 232.71804 230.58382 228.60859 226.76437
 225.04614 223.51691 222.14569 220.91646 219.79724 218.75601 217.85879 216.99856
 216.23933 215.41811 214.51488 213.87766 213.32643 213.12285 212.64188 211.99203
 211.93544 213.46545 215.41550 216.98083 218.97310 222.62622 228.39868 233.09624
 236.76863 240.61903 244.75394 249.09966 253.46231 256.72028 259.14487 261.41449
 263.73502 266.21204 268.60022 270.52646 272.54807 274.67459 276.42856 278.01663
 279.71704 281.30975 282.84900 284.21298 285.39783 286.44879 287.41055 288.28317
 289.07693 289.78986 290.41757 291.27267
 366.78100 356.33299 345.76297 334.62696 323.02795 311.21993 299.08792 286.88891
 274.59889 262.49388 250.50087 239.79985 229.91984 221.02183 213.20182 206.20180
 200.03379 194.96978 191.54976 189.58975 188.62474 188.68672 189.51971 190.82570
 192.54868 194.64167 196.90266 199.25964 201.70263 204.18062 206.26660 208.10659
 209.73058 210.87356 211.10055 211.32654 211.26153 210.96451 210.59550 210.22349
 209.83847 209.54646 209.35245 209.21443 209.14042 209.46941 209.85339 210.24038
 211.03137 212.20735 213.45534 215.23633 217.16231 219.20330 221.29629 223.37727
 225.43526 227.51725 229.61223 231.71622 233.84321 236.01320 238.26718 240.63517
 243.25416 245.50314 247.50313 249.26612 250.68110 251.80209 252.62208 252.93606
 252.97105 252.74304 252.10102 251.04701 249.65100 247.80998 245.71697 243.54796
 241.33694 239.13893 236.95692 234.79390 232.65189 230.51688 228.54087 226.69585
 224.97684 223.44683 222.07481 220.84480 219.72479 218.68277 217.78476 216.92375
 216.16373 215.34172 214.43771 213.79969 213.24768 213.09785 212.74388 212.11653
 212.03406 213.55052 215.46625 217.00159 218.96594 222.56540 228.32245 232.98212
 236.65062 240.52849 244.70451 249.07208 253.41603 256.63702 259.04971 261.35501
 263.64920 266.08945 268.47977 270.44055 272.48904 274.63449 276.38910 277.96780
 279.66180 281.26733 282.80774 284.17221 285.35855 286.40945 287.37143 288.24542
 289.03812 289.75327 290.38000 291.23669
 366.78100 356.33231 345.76163 334.62494 323.02526 311.21657 299.08389 286.88420
 274.59351 262.48783 250.49414 239.79246 229.91177 221.01309 213.19240 206.19172
 200.02303 194.95834 191.53766 189.57697 188.61129 188.67260 189.50492 190.81023
 192.53254 194.62486 196.88517 199.24149 201.68380 204.16112 206.24643 208.08574
 209.70906 210.85137 211.07769 211.30300 211.23732 210.93963 210.56995 210.19726
 209.81157 209.51889 209.32420 209.18552 209.11083 209.43915 209.82246 210.20877
 210.99909 212.17440 213.42172 215.20203 217.12735 219.16766 221.25997 223.34029
 225.39760 227.47892 229.57323 231.67655 233.80286 235.97218 238.22549 240.59280
 243.21112 245.45943 247.45875 249.22106 250.63538 251.75569 252.57500 252.88832
 252.92263 252.69395 252.05126 250.99658 249.59989 247.75821 245.66452 243.49483
 241.28315 239.08446 236.90178 234.73809 232.59541 230.45972 228.48303 226.63735
 224.91766 223.38698 222.01429 220.78361 219.66292 218.62023 217.72155 216.85986
 216.09918 215.27649 214.37181 213.73312 213.18044 213.07834 212.83714 212.25163
 212.14067 213.62524 215.50069 217.01854 218.96068 222.51363 228.24750 232.87410
 236.54337 240.44870 244.66246 249.04565 253.36072 256.54379 258.94553 261.28525
 263.56387 265.97501 268.37000 270.36655 272.43869 274.59579 276.34814 277.91904
 279.60690 281.22351 282.76709 284.13278 285.31824 286.36987 287.33136 288.20581
 289.00061 289.71353 290.34286 291.19965
 366.78100 356.33172 345.76044 334.62316 323.02288 311.21360 299.08032 286.88004
 274.58876 262.48248 250.48820 239.78592 229.90464 221.00536 213.18408 206.18280
 200.01353 194.94825 191.52697 189.56569 188.59941 188.66013 189.49185 190.79657
 192.51829 194.61001 196.86973 199.22545 201.66717 204.14389 206.22861 208.06733
 209.69005 210.83177 211.05749 211.28221 211.21593 210.91765 210.54737 210.17409
 209.78781 209.49453 209.29925 209.15997 209.08469 209.41241 209.79514 210.18086
 210.97058 212.14530 213.39202 215.17174 217.09646 219.13618 221.22790 223.30762
 225.36434 227.44506 229.53878 231.64150 233.76722 235.93594 238.18866 240.55538
 243.17310 245.42082 247.41954 249.18126 250.59498 251.71470 252.53342 252.84614
 252.87986 252.65058 252.00730 250.95202 249.55474 247.71247 245.61819 243.44791
 241.23563 239.03635 236.85307 234.68879 232.54551 230.40923 228.43195 226.58567
 224.86539 223.33411 221.96083 220.72955 219.60827 218.56499 217.66571 216.80343
 216.04215 215.21887 214.31359 213.67431 213.12103 213.06227 212.92345 212.39624
 212.25352 213.68806 215.51884 217.03001 218.95807 222.46782 228.17560 232.77472
 236.44798 240.38171 244.62807 249.01897 253.29541 256.43964 258.83289 261.20450
 263.47681 265.86841 268.27090 270.30304 272.39551 274.55948 276.30734 277.87134
 279.55118 281.18143 282.72552 284.09167 285.27771 286.32928 287.29099 288.16602
 288.96103 289.67526 290.30423 291.16013
 366.78100 356.33112 345.75925 334.62137 323.02050 311.21062 299.07675 286.87587
 274.58400 262.47712 250.48225 239.77937 229.89750 220.99762 213.17575 206.17387
 200.00400 194.93812 191.51625 189.55437 188.58750 188.64762 189.47875 190.78287
 192.50399 194.59512 196.85424 199.20937 201.65049 204.12662 206.21074 208.04887
 209.67099 210.81212 211.03724 211.26137 211.19449 210.89562 210.52474 210.15087
 209.76399 209.47012 209.27424 209.13437 209.05849 209.38561 209.76774 210.15286
 210.94199 212.11611 213.36224 215.14136 217.06549 219.10461 221.19574 223.27486
 225.33099 227.41111 229.50424 231.60636 233.73149 235.89961 238.15174 240.51786
 243.13499 245.38211 247.38024 249.14136 250.55448 251.67361 252.49173 252.80386
 252.83698 252.60711 251.96323 250.90736 249.50948 247.66661 245.57173 243.40086
 241.18798 238.98811 236.80423 234.63936 232.49548 230.35861 228.38073 226.53386
 224.81298 223.28111 221.90723 220.67535 219.55348 218.50960 217.60973 216.74685
 215.98498 215.16110 214.25523 213.61535 213.06148 213.04608 213.00967 212.54890
 212.36655 213.74211 215.52357 217.03043 218.96132 222.43237 228.11128 232.68512
 236.36613 240.32779 244.60289 248.99373 253.22195 256.32739 258.71286 261.10974
 263.38257 265.76379 268.17767 270.24683 272.35974 274.52625 276.26941 277.82684
 279.49890 281.13992 282.68515 284.05148 285.23727 286.28922 287.25098 288.12659
 288.92096 289.63425 290.26559 291.12164
 366.78100 356.33037 345.75775 334.61912 323.01749 311.20686 299.07224 286.87061
 274.57798 262.47036 250.47473 239.77110 229.88847 220.98785 213.16522 206.16259
 199.99197 194.92534 191.50271 189.54008 188.57246 188.63183 189.46220 190.76557
 192.48595 194.57632 196.83469 199.18907 201.62944 204.10481 206.18818 208.02556
 209.64693 210.78730 211.01168 211.23505 211.16742 210.86779 210.49617 210.12154
 209.73391 209.43929 209.24266 209.10203 209.02540 209.35178 209.73315 210.11752
 210.90590 212.07927 213.32464 215.10301 217.02639 219.06476 221.15513 223.23351
 225.28888 227.36825 229.46062 231.56200 233.68637 235.85374 238.10512 240.47049
 243.08686 245.33323 247.33061 249.09098 250.50335 251.62172 252.43910 252.75047
 252.78284 252.55222 251.90759 250.85096 249.45233 247.60871 245.51308 243.34145
 241.12783 238.92720 236.74257 234.57694 232.43232 230.29469 228.31606 226.46844
 224.74681 223.21418 221.83955 220.60693 219.48430 218.43967 217.53905 216.67542
 215.91279 215.08816 214.18154 213.54091 212.98628 213.02203 213.10651 212.69901
 212.48468 213.78499 215.50429 217.03064 218.97629 222.40073 228.05048 232.60474
 236.29762 240.28812 244.58792 248.97154 253.14182 256.20856 258.58588 260.99860
 263.27762 265.65878 268.08862 270.19675 272.33115 274.49750 276.23575 277.78717
 279.45123 281.10046 282.64560 284.01157 285.19922 286.25006 287.21222 288.08746
 288.88269 289.59653 290.22516 291.08618
 366.78100 356.32979 345.75659 334.61738 323.01517 311.20396 299.06876 286.86655
 274.57334 262.46514 250.46893 239.76472 229.88152 220.98031 213.15710 206.15389
 199.98269 194.91548 191.49227 189.52907 188.56086 188.61965 189.44945 190.75224
 192.47203 194.56182 196.81962 199.17341 201.61320 204.08800 206.17079 208.00758
 209.62838 210.76817 210.99196 211.21475 211.14655 210.84634 210.47413 210.09893
 209.71072 209.41551 209.21831 209.07710 208.99989 209.32568 209.70648 210.09027
 210.87806 212.05086 213.29565 215.07344 216.99624 219.03403 221.12382 223.20161
 225.25641 227.33520 229.42699 231.52779 233.65158 235.81837 238.06917 240.43396
 243.04975 245.29554 247.29234 249.05213 250.46392 251.58172 252.39851 252.70930
 252.74110 252.50989 251.86468 250.80747 249.40827 247.56406 245.46785 243.29565
 241.08144 238.88023 236.69503 234.52882 232.38361 230.24540 228.26620 226.41799
 224.69578 223.16258 221.78737 220.55416 219.43096 218.38575 217.48454 216.62033
 215.85713 215.03192 214.12471 213.48351 212.92830 213.00693 213.19269 212.86812
 212.59048 213.81184 215.48735 217.02066 218.97937 222.37735 228.00089 232.53947
 236.24352 240.26259 244.58342 248.95380 253.05608 256.08417 258.45129 260.87082
 263.16129 265.55127 268.00186 270.15195 272.30756 274.46988 276.19934 277.74548
 279.40515 281.06421 282.60928 283.97598 285.16193 286.21301 287.17596 288.05231
 288.84787 289.56076 290.19113 291.04965
 366.78100 356.32852 345.75404 334.61357 323.01009 311.19761 299.06113 286.85765
 274.56317 262.45370 250.45622 239.75074 229.86626 220.96378 213.13930 206.13483
 199.96235 194.89387 191.46939 189.50491 188.53544 188.59296 189.42148 190.72300
 192.44152 194.53004 196.78657 199.13909 201.57761 204.05113 206.13265 207.96818
 209.58770 210.72622 210.94874 211.17026 211.10078 210.79931 210.42583 210.04935
 209.65987 209.36339 209.16491 209.02244 208.94396 209.26848 209.64800 210.03052
 210.81705 211.98857 213.23209 215.00861 216.93013 218.96665 221.05518 223.13170
 225.18522 227.26274 229.35326 231.45279 233.57531 235.74083 237.99035 240.35387
 242.96839 245.21292 247.20844 248.96696 250.37748 251.49400 252.30952 252.61905
 252.64957 252.41709 251.77061 250.71213 249.31166 247.46618 245.36870 243.19522
 240.97974 238.77726 236.59079 234.42331 232.27683 230.13735 228.15687 226.30739
 224.58392 223.04944 221.67296 220.43848 219.31400 218.26753 217.36505 216.49957
 215.73509 214.90861 214.00013 213.35766 212.80118 212.95799 213.32846 212.99484
 212.70377 213.83936 215.43471 217.02556 219.02205 222.35963 227.95015 232.47928
 236.19922 240.24821 244.58784 248.94081 252.96632 255.95413 258.30835 260.72552
 263.03006 265.43793 267.91409 270.10754 272.28644 274.44034 276.15723 277.69928
 279.35223 281.03580 282.57800 283.94321 285.12827 286.18103 287.14224 288.01831
 288.81335 289.52835 290.15771 291.01236
 366.78100 356.32805 345.75311 334.61216 323.00822 311.19527 299.05832 286.85438
 274.55943 262.44949 250.45154 239.74559 229.86065 220.95770 213.13276 206.12781
 199.95486 194.88592 191.46097 189.49602 188.52608 188.58313 189.41119 190.71224
 192.43029 194.51835 196.77440 199.12646 201.56451 204.03756 206.11862 207.95367
 209.57273 210.71078 210.93283 211.15389 211.08394 210.78200 210.40805 210.03110
 209.64116 209.34421 209.14527 209.00232 208.92337 209.24743 209.62648 210.00854
 210.79459 211.96564 213.20870 214.98475 216.90581 218.94186 221.02991 223.10597
 225.15902 227.23607 229.32613 231.42518 233.54724 235.71229 237.96134 240.32440
 242.93845 245.18251 247.17756 248.93561 250.34567 251.46172 252.27678 252.58583
 252.61588 252.38294 251.73599 250.67705 249.27610 247.43015 245.33221 243.15826
 240.94232 238.73937 236.55242 234.38448 232.23753 230.09759 228.11664 226.26669
 224.54275 223.00780 221.63086 220.39591 219.27096 218.22402 217.32107 216.45512
 215.69018 214.86323 213.95429 213.31134 212.75439 212.95073 213.41457 213.15691
 212.80664 213.86290 215.40936 217.01331 219.01581 222.34660 227.91920 232.43954
 236.16919 240.24707 244.60165 248.92984 252.86909 255.81047 258.14835 260.55832
 262.88333 265.32016 267.82791 270.06848 272.27182 274.41589 276.12152 277.65826
 279.30219 281.00912 282.54993 283.91296 285.09641 286.14859 287.11020 287.98621
 288.78012 289.49445 290.12372 290.98679
 366.78100 356.32835 345.75370 334.61305 323.00940 311.19675 299.06010 286.85645
 274.56180 262.45215 250.45450 239.74885 229.86420 220.96155 213.13690 206.13224
 199.95959 194.89094 191.46629 189.50164 188.53199 188.58934 189.41769 190.71904
 192.43739 194.52574 196.78209 199.13444 201.57279 204.04614 206.12749 207.96284
 209.58219 210.72054 210.94289 211.16424 211.09459 210.79294 210.41929 210.04264
 209.65299 209.35634 209.15769 209.01504 208.93639 209.26073 209.64008 210.02243
 210.80878 211.98013 213.22348 214.99983 216.92118 218.95753 221.04588 223.12223
 225.17558 227.25293 229.34328 231.44263 233.56498 235.73033 237.97968 240.34303
 242.95738 245.20173 247.19708 248.95543 250.36578 251.48213 252.29748 252.60683
 252.63718 252.40453 251.75787 250.69922 249.29857 247.45292 245.35527 243.18162
 240.96597 238.76332 236.57667 234.40902 232.26237 230.12272 228.14207 226.29242
 224.56877 223.03412 221.65747 220.42282 219.29817 218.25152 217.34887 216.48322
 215.71857 214.89192 213.98327 213.34062 212.78397 212.98260 213.45187 213.37375
 212.90265 213.82469 215.35855 217.04172 219.08955 222.35300 227.87262 232.38612
 236.13643 240.24646 244.61453 248.91216 252.75594 255.64552 257.96881 260.37384
 262.72870 265.20438 267.75058 270.04324 272.26978 274.40280 276.09976 277.62976
 279.27197 280.97665 282.51846 283.88306 285.06662 286.11758 287.08099 287.95654
 288.75122 289.46533 290.09518 290.95187
 366.78100 356.32814 345.75327 334.61241 323.00854 311.19568 299.05882 286.85495
 274.56009 262.45022 250.45236 239.74649 229.86163 220.95877 213.13390 206.12904
 199.95617 194.88731 191.46245 189.49758 188.52772 188.58485 189.41299 190.71413
 192.43226 194.52040 196.77653 199.12867 201.56680 204.03994 206.12108 207.95621
 209.57535 210.71348 210.93562 211.15676 211.08689 210.78503 210.41116 210.03430
 209.64444 209.34757 209.14871 209.00584 208.92698 209.25111 209.63025 210.01239
 210.79852 211.96966 213.21279 214.98893 216.91007 218.94620 221.03434 223.11047
 225.16361 227.24075 229.33088 231.43002 233.55215 235.71729 237.96642 240.32956
 242.94370 245.18783 247.18297 248.94110 250.35124 251.46738 252.28251 252.59165
 252.62178 252.38892 251.74206 250.68319 249.28233 247.43646 245.33860 243.16473
 240.94887 238.74601 236.55914 234.39128 232.24441 230.10455 228.12369 226.27382
 224.54996 223.01509 221.63823 220.40337 219.27850 218.23164 217.32877 216.46291
 215.69804 214.87118 213.96232 213.31945 212.76259 212.99139 213.53197 213.53122
 213.02002 213.81119 215.27017 217.07655 219.19234 222.33098 227.82961 232.34094
 236.11055 240.25273 244.62982 248.88965 252.63184 255.46860 257.78241 260.18503
 262.57584 265.09732 267.68463 270.03058 272.27679 274.39563 276.08295 277.60620
 279.25558 280.93951 282.48627 283.85062 285.03622 286.08795 287.04984 287.92740
 288.72260 289.43817 290.06650 290.92181
 366.78100 356.32763 345.75226 334.61089 323.00651 311.19314 299.05577 286.85140
 274.55603 262.44566 250.44729 239.74091 229.85554 220.95217 213.12680 206.12143
 199.94806 194.87869 191.45331 189.48794 188.51757 188.57420 189.40183 190.70246
 192.42008 194.50771 196.76334 199.11497 201.55260 204.02523 206.10586 207.94048
 209.55911 210.69674 210.91837 211.13900 211.06863 210.76626 210.39188 210.01451
 209.62414 209.32677 209.12740 208.98403 208.90466 209.22828 209.60691 209.98854
 210.77417 211.94480 213.18743 214.96306 216.88368 218.91931 221.00694 223.08257
 225.13520 227.21183 229.30145 231.40008 233.52171 235.68634 237.93497 240.29760
 242.91123 245.15485 247.14948 248.90711 250.31674 251.43237 252.24700 252.55563
 252.58525 252.35188 251.70451 250.64514 249.24377 247.39740 245.29903 243.12465
 240.90828 238.70491 236.51754 234.34917 232.20180 230.06143 228.08005 226.22968
 224.50531 222.96994 221.59257 220.35720 219.23182 218.18445 217.28108 216.41471
 215.64934 214.82197 213.91260 213.26922 212.71185 212.98822 213.64117 213.63582
 213.14214 213.83958 215.21791 217.10295 219.24631 222.29750 227.79170 232.30147
 236.09038 240.26457 244.64630 248.86168 252.49873 255.28476 257.59555 259.99692
 262.42755 264.99707 267.62543 270.02185 272.28308 274.38452 276.05887 277.57553
 279.22699 280.91071 282.45767 283.82394 285.00916 286.06171 287.02347 287.90115
 288.69559 289.40979 290.03949 290.89218
 366.78100 356.32743 345.75186 334.61029 323.00572 311.19216 299.05459 286.85002
 274.55445 262.44388 250.44531 239.73874 229.85317 220.94961 213.12404 206.11847
 199.94490 194.87533 191.44976 189.48419 188.51362 188.57006 189.39749 190.69792
 192.41535 194.50278 196.75821 199.10964 201.54707 204.01951 206.09994 207.93437
 209.55280 210.69023 210.91166 211.13209 211.06152 210.75896 210.38439 210.00682
 209.61625 209.31868 209.11911 208.97554 208.89597 209.21941 209.59784 209.97927
 210.76470 211.93513 213.17756 214.95299 216.87342 218.90886 220.99629 223.07172
 225.12415 227.20058 229.29001 231.38844 233.50987 235.67431 237.92274 240.28517
 242.89860 245.14203 247.13646 248.89389 250.30332 251.41876 252.23319 252.54162
 252.57105 252.33748 251.68991 250.63034 249.22877 247.38221 245.28364 243.10907
 240.89250 238.68893 236.50136 234.33279 232.18522 230.04465 228.06309 226.21252
 224.48795 222.95238 221.57481 220.33924 219.21367 218.16610 217.26254 216.39597
 215.63040 214.80283 213.89326 213.24969 212.69212 213.00217 213.73468 213.73372
 213.24927 213.90141 215.22139 217.10721 219.24377 222.26685 227.75166 232.26288
 236.07611 240.28224 244.66315 248.82881 252.36041 255.10034 257.41144 259.81042
 262.28149 264.89984 267.56851 270.01047 272.28378 274.36426 276.02469 277.53943
 279.19513 280.88416 282.43100 283.79776 284.98245 286.03366 286.99689 287.87430
 288.66946 289.38315 290.01270 290.86487
 366.78100 356.32761 345.75221 334.61082 323.00643 311.19304 299.05564 286.85125
 274.55586 262.44547 250.44707 239.74068 229.85529 220.95190 213.12650 206.12111
 199.94772 194.87832 191.45293 189.48754 188.51715 188.57375 189.40136 190.70197
 192.41958 194.50718 196.76279 199.11440 201.55200 204.02461 206.10522 207.93983
 209.55843 210.69604 210.91765 211.13826 211.06786 210.76547 210.39108 210.01369
 209.62329 209.32590 209.12651 208.98311 208.90372 209.22733 209.60594 209.98754
 210.77315 211.94376 213.18637 214.96197 216.88258 218.91819 221.00580 223.08140
 225.13401 227.21062 229.30022 231.39883 233.52044 235.68505 237.93365 240.29626
 242.90987 245.15348 247.14808 248.90569 250.31530 251.43091 252.24551 252.55412
 252.58373 252.35033 251.70294 250.64355 249.24216 247.39576 245.29737 243.12298
 240.90659 238.70319 236.51580 234.34741 232.20001 230.05962 228.07823 226.22784
 224.50344 222.96805 221.59066 220.35527 219.22987 218.18248 217.27909 216.41270
 215.64730 214.81991 213.91052 213.26712 212.70973 213.03622 213.80757 213.83728
 213.34538 213.97238 215.25905 217.10098 219.22076 222.24739 227.70781 232.22464
 236.06696 240.30421 244.67871 248.78926 252.21568 254.91156 257.22495 259.62143
 262.13470 264.80301 267.50983 269.99353 272.27673 274.33798 275.98505 277.49969
 279.16129 280.85788 282.40564 283.77274 284.95737 286.00757 286.97095 287.84818
 288.64218 289.35660 289.98602 290.83621
 366.78100 356.32804 345.75308 334.61212 323.00817 311.19521 299.05825 286.85429
 274.55933 262.44937 250.45142 239.74546 229.86050 220.95754 213.13258 206.12762
 199.95467 194.88571 191.46075 189.49579 188.52583 188.58287 189.41091 190.71196
 192.43000 194.51804 196.77408 199.12612 201.56416 204.03721 206.11825 207.95329
 209.57233 210.71037 210.93241 211.15346 211.08350 210.78154 210.40758 210.03062
 209.64066 209.34371 209.14475 209.00179 208.92283 209.24687 209.62591 210.00795
 210.79400 211.96504 213.20808 214.98412 216.90516 218.94120 221.02925 223.10529
 225.15833 227.23537 229.32541 231.42445 233.54650 235.71154 237.96058 240.32362
 242.93766 245.18170 247.17674 248.93479 250.34483 251.46087 252.27591 252.58495
 252.61499 252.38204 251.73508 250.67612 249.27516 247.42920 245.33124 243.15729
 240.94133 238.73837 236.55141 234.38345 232.23649 230.09653 228.11558 226.26562
 224.54166 223.00670 221.62974 220.39478 219.26983 218.22287 217.31991 216.45395
 215.68899 214.86203 213.95308 213.31012 212.75316 213.08499 213.86899 213.93596
 213.44130 214.04364 215.31160 217.09833 219.20515 222.23730 227.66055 232.18890
 236.06197 240.32745 244.68839 248.73784 252.06012 254.71361 257.03189 259.42975
 261.98798 264.70712 267.45020 269.97256 272.26501 274.30942 275.94577 277.46329
 279.13074 280.82916 282.37671 283.74405 284.92807 285.97983 286.94199 287.81918
 288.61377 289.32526 289.95776 290.79999
 366.78100 356.32871 345.75441 334.61412 323.01082 311.19853 299.06223 286.85894
 274.56464 262.45535 250.45805 239.75276 229.86846 220.96617 213.14187 206.13758
 199.96528 194.89699 191.47269 189.50840 188.53910 188.59681 189.42551 190.72722
 192.44592 194.53463 196.79133 199.14404 201.58275 204.05645 206.13816 207.97386
 209.59357 210.73227 210.95498 211.17668 211.10739 210.80609 210.43280 210.05650
 209.66721 209.37091 209.17262 209.03032 208.95203 209.27673 209.65644 210.03914
 210.82585 211.99755 213.24126 215.01796 216.93967 218.97638 221.06508 223.14179
 225.19549 227.27320 229.36390 231.46361 233.58631 235.75202 238.00172 240.36543
 242.98013 245.22484 247.22054 248.97925 250.38995 251.50666 252.32236 252.63207
 252.66277 252.43048 251.78418 250.72589 249.32559 247.48030 245.38300 243.20971
 240.99442 238.79212 236.60583 234.43853 232.29224 230.15294 228.17265 226.32335
 224.60006 223.06576 221.68947 220.45517 219.33088 218.28458 217.38229 216.51699
 215.75270 214.92640 214.01811 213.37581 212.81952 213.14728 213.92166 214.02180
 213.54466 214.11725 215.37036 217.10637 219.20177 222.23306 227.61172 232.15662
 236.05920 240.34898 244.68877 248.67082 251.89070 254.50520 256.83224 259.23825
 261.84460 264.61337 267.39069 269.94583 272.24536 274.27444 275.90448 277.42792
 279.09894 280.80402 282.35303 283.71860 284.90466 285.95599 286.91956 287.79742
 288.59695 289.31131 289.94492 290.78735
 366.78100 356.32956 345.75613 334.61669 323.01426 311.20282 299.06738 286.86495
 274.57151 262.46308 250.46664 239.76220 229.87877 220.97733 213.15390 206.15046
 199.97902 194.91159 191.48815 189.52472 188.55628 188.61484 189.44441 190.74697
 192.46653 194.55610 196.81366 199.16723 201.60679 204.08135 206.16392 208.00048
 209.62105 210.76061 210.98417 211.20674 211.13830 210.83787 210.46543 210.08999
 209.70156 209.40612 209.20869 209.06725 208.98981 209.31538 209.69594 210.07951
 210.86707 212.03963 213.28420 215.06176 216.98433 219.02189 221.11145 223.18902
 225.24358 227.32215 229.41371 231.51427 233.63784 235.80440 238.05497 240.41953
 243.03509 245.28066 247.27722 249.03678 250.44835 251.56591 252.38248 252.69304
 252.72460 252.49317 251.84773 250.79030 249.39086 247.54642 245.44999 243.27755
 241.06312 238.86168 236.67624 234.50981 232.36437 230.22594 228.24650 226.39806
 224.67563 223.14219 221.76676 220.53332 219.40988 218.36445 217.46301 216.59858
 215.83514 215.00970 214.10227 213.46083 212.90540 213.22087 213.96625 214.09042
 213.66055 214.19757 215.43016 217.12541 219.20979 222.23045 227.56339 232.12917
 236.05742 240.36630 244.67700 248.58514 251.70728 254.28743 256.63016 259.05283
 261.70856 264.52380 267.33173 269.91159 272.21628 274.23444 275.86053 277.39417
 279.06708 280.77744 282.32645 283.69336 284.87848 285.93039 286.89404 287.77319
 288.57135 289.28802 289.91812 290.76266
 366.78100 356.33064 345.75828 334.61991 323.01855 311.20819 299.07383 286.87246
 274.58010 262.47274 250.47738 239.77401 229.89165 220.99129 213.16893 206.16656
 199.99620 194.92984 191.50748 189.54511 188.57775 188.63739 189.46803 190.77166
 192.49230 194.58294 196.84158 199.19621 201.63685 204.11249 206.19613 208.03376
 209.65540 210.79604 211.02068 211.24431 211.17695 210.87759 210.50623 210.13186
 209.74450 209.45014 209.25378 209.11342 209.03705 209.36369 209.74533 210.12997
 210.91860 212.09224 213.33788 215.11652 217.04015 219.07879 221.16943 223.24807
 225.30370 227.38334 229.47598 231.57762 233.70225 235.86989 238.12153 240.48717
 243.10380 245.35044 247.34808 249.10872 250.52135 251.63999 252.45763 252.76927
 252.80190 252.57154 251.92718 250.87082 249.47245 247.62909 245.53373 243.36237
 241.14901 238.94864 236.76428 234.59892 232.45456 230.31719 228.33883 226.49147
 224.77011 223.23774 221.86338 220.63102 219.50866 218.46429 217.56393 216.70057
 215.93821 215.11384 214.20748 213.56712 213.01276 213.30623 213.99959 214.14490
 213.78885 214.28560 215.49635 217.15764 219.21942 222.22948 227.51961 232.10590
 236.05669 240.37726 244.65025 248.47830 251.50835 254.06062 256.42609 258.87552
 261.58215 264.44092 267.27255 269.87164 272.18066 274.19000 275.81628 277.36008
 279.03461 280.74448 282.29361 283.66110 284.84476 285.89722 286.86111 287.73981
 288.53696 289.25366 289.88480 290.72513
 366.78100 356.33191 345.76082 334.62372 323.02363 311.21454 299.08145 286.88136
 274.59026 262.48417 250.49008 239.78799 229.90689 221.00780 213.18671 206.18562
 200.01653 194.95143 191.53034 189.56925 188.60316 188.66407 189.49597 190.80088
 192.52279 194.61470 196.87460 199.23051 201.67242 204.14933 206.23424 208.07314
 209.69605 210.83796 211.06387 211.28878 211.22268 210.92459 210.55450 210.18141
 209.79531 209.50222 209.30713 209.16804 209.09295 209.42085 209.80376 210.18967
 210.97958 212.15449 213.40139 215.18130 217.10621 219.14612 221.23802 223.31793
 225.37484 227.45575 229.54966 231.65256 233.77847 235.94738 238.20029 240.56720
 243.18510 245.43301 247.43192 249.19383 250.60773 251.72764 252.54655 252.85946
 252.89337 252.66427 252.02118 250.96609 249.56900 247.72691 245.63281 243.46272
 241.25063 239.05154 236.86844 234.70435 232.56126 230.42517 228.44808 226.60198
 224.88189 223.35080 221.97771 220.74662 219.62552 218.58243 217.68334 216.82125
 216.06015 215.23706 214.33197 213.69288 213.13979 213.40242 214.02295 214.18726
 213.92575 214.38211 215.56876 217.20047 219.23822 222.22769 227.47833 232.08522
 236.05627 240.38181 244.60773 248.34775 251.29164 253.82272 256.21881 258.70749
 261.46796 264.36798 267.21658 269.83023 272.14304 274.14694 275.77512 277.32864
 279.00174 280.70343 282.25211 283.61917 284.80411 285.85590 286.81812 287.69885
 288.49460 289.21161 289.83954 290.68353
 366.78100 356.33355 345.76410 334.62865 323.03020 311.22275 299.09131 286.89286
 274.60341 262.49896 250.50651 239.80606 229.92661 221.02916 213.20971 206.21026
 200.04281 194.97937 191.55992 189.60047 188.63602 188.69857 189.53212 190.83867
 192.56222 194.65577 196.91732 199.27487 201.71843 204.19698 206.28353 208.12408
 209.74863 210.89218 211.11973 211.34628 211.28183 210.98538 210.61694 210.24549
 209.86104 209.56959 209.37614 209.23869 209.16524 209.49479 209.87934 210.26689
 211.05844 212.23500 213.48355 215.26510 217.19165 219.23320 221.32675 223.40830
 225.46685 227.54940 229.64495 231.74950 233.87706 236.04761 238.30216 240.67071
 243.29026 245.53981 247.54036 249.30391 250.71946 251.84101 252.66156 252.97612
 253.01167 252.78422 252.14277 251.08932 249.69387 247.85342 245.76097 243.59252
 241.38207 239.18462 237.00318 234.84073 232.69928 230.56483 228.58938 226.74493
 225.02648 223.49703 222.12558 220.89613 219.77669 218.73524 217.83779 216.97734
 216.21789 215.39644 214.49299 213.85554 213.30409 213.51808 214.02364 214.23613
 214.06273 214.48047 215.65805 217.25275 219.24835 222.22568 227.44168 232.06853
 236.05795 240.38133 244.54990 248.19434 251.05777 253.57407 256.00861 258.54849
 261.36591 264.30399 267.16571 269.78799 272.10431 274.10547 275.73953 277.30011
 278.96802 280.65546 282.20267 283.56958 284.75500 285.80655 286.76938 287.64929
 288.44495 289.15979 289.79025 290.63016
 366.78100 356.33532 345.76764 334.63396 323.03728 311.23160 299.10192 286.90523
 274.61755 262.51487 250.52419 239.82551 229.94783 221.05215 213.23447 206.23679
 200.07111 195.00943 191.59175 189.63407 188.67139 188.73570 189.57102 190.87934
 192.60466 194.69998 196.96330 199.32262 201.76794 204.24826 206.33658 208.17890
 209.80522 210.95054 211.17986 211.40817 211.34549 211.05081 210.68413 210.31445
 209.93177 209.64209 209.45041 209.31473 209.24305 209.57437 209.96069 210.35001
 211.14332 212.32164 213.57196 215.35528 217.28360 219.32692 221.42224 223.50556
 225.56588 227.65020 229.74752 231.85384 233.98316 236.15548 238.41179 240.78211
 243.40343 245.65475 247.65707 249.42239 250.83971 251.96303 252.78535 253.10167
 253.13899 252.91331 252.27363 251.22194 249.82826 247.98958 245.89890 243.73222
 241.52354 239.32786 237.14818 234.98750 232.84782 230.71514 228.74146 226.89878
 225.18210 223.65441 222.28473 221.05705 219.93937 218.89969 218.00401 217.14533
 216.38765 215.56797 214.66629 214.03061 213.48093 213.64104 214.01935 214.27101
 214.22258 214.58321 215.73596 217.30386 219.27435 222.22362 227.41202 232.05511
 236.05966 240.37360 244.47522 248.01761 250.80786 253.31744 255.79831 258.39932
 261.27594 264.24902 267.11911 269.74573 272.06619 274.06824 275.71115 277.27652
 278.93359 280.60004 282.14648 283.51251 284.69730 285.74994 286.71213 287.59030
 288.38748 289.10162 289.73218 290.57071
 366.78100 356.33761 345.77223 334.64084 323.04645 311.24307 299.11568 286.92129
 274.63591 262.53552 250.54713 239.85075 229.97536 221.08197 213.26659 206.27120
 200.10781 195.04843 191.63304 189.67766 188.71727 188.78388 189.62150 190.93211
 192.65972 194.75734 197.02295 199.38456 201.83218 204.31479 206.40540 208.25002
 209.87863 211.02624 211.25786 211.48847 211.42808 211.13570 210.77131 210.40392
 210.02354 209.73615 209.54676 209.41338 209.34399 209.67760 210.06622 210.45783
 211.25344 212.43406 213.68667 215.47228 217.40290 219.44851 221.54612 223.63174
 225.69435 227.78097 229.88058 231.98919 234.12081 236.29542 238.55403 240.92665
 243.55026 245.80387 247.80849 249.57610 250.99571 252.12133 252.94594 253.26455
 253.30417 253.08078 252.44339 251.39401 250.00262 248.16623 246.07785 243.91346
 241.70707 239.51369 237.33630 235.17791 233.04053 230.91014 228.93875 227.09837
 225.38398 223.85859 222.49121 221.26582 220.15044 219.11305 218.21966 217.36328
 216.60789 215.79050 214.89112 214.25773 213.71034 213.79051 213.97995 214.33040
 214.37199 214.69028 215.83090 217.36594 219.28793 222.21210 227.37364 232.04079
 236.06445 240.36272 244.38943 247.82655 250.55093 253.05986 255.59161 258.26050
 261.19662 264.20016 267.07358 269.70187 272.02765 274.03482 275.68860 277.25583
 278.89688 280.54028 282.08304 283.45059 284.63541 285.68616 286.65070 287.52878
 288.32690 289.04245 289.67166 290.50620
 366.78100 356.33994 345.77687 334.64781 323.05574 311.25468 299.12962 286.93755
 274.65449 262.55642 250.57036 239.87630 230.00323 221.11217 213.29910 206.30604
 200.14498 195.08791 191.67485 189.72178 188.76372 188.83266 189.67259 190.98553
 192.71546 194.81540 197.08334 199.44727 201.89721 204.38214 206.47508 208.32201
 209.95295 211.10289 211.33682 211.56976 211.51169 211.22163 210.85957 210.49450
 210.11644 209.83137 209.64431 209.51325 209.44618 209.78212 210.17305 210.56699
 211.36493 212.54786 213.80280 215.59073 217.52367 219.57161 221.67154 223.75948
 225.82441 227.91335 230.01529 232.12622 234.26016 236.43709 238.69803 241.07297
 243.69890 245.95484 247.96177 249.73171 251.15365 252.28158 253.10852 253.42945
 253.47139 253.25033 252.61526 251.56820 250.17913 248.34507 246.25901 244.09694
 241.89288 239.70181 237.52675 235.37069 233.23562 231.10756 229.13849 227.30043
 225.58836 224.06530 222.70024 221.47717 220.36411 219.32904 218.43798 217.58392
 216.83085 216.01579 215.11872 214.48766 213.94260 213.94234 213.94174 214.35561
 214.57814 214.79680 215.90697 217.40253 219.28856 222.20763 227.36067 232.04408
 236.07262 240.34801 244.29085 247.61736 250.28174 252.79636 255.38350 258.12701
 261.12350 264.15515 267.02896 269.65604 271.98978 274.00952 275.67621 277.24179
 278.85907 280.47357 282.01315 283.38147 284.56570 285.61533 286.57935 287.45526
 288.25000 288.96277 289.58984 290.42447
 366.78100 356.34139 345.77978 334.65217 323.06156 311.26195 299.13834 286.94773
 274.66612 262.56951 250.58490 239.89229 230.02068 221.13107 213.31946 206.32785
 200.16824 195.11263 191.70102 189.74941 188.79280 188.86319 189.70458 191.01897
 192.75036 194.85175 197.12114 199.48653 201.93792 204.42431 206.51870 208.36709
 209.99948 211.15087 211.38626 211.62065 211.56404 211.27543 210.91482 210.55121
 210.17460 209.89099 209.70538 209.57577 209.51016 209.84755 210.23994 210.63533
 211.43472 212.61911 213.87550 215.66489 217.59928 219.64867 221.75006 223.83945
 225.90584 227.99623 230.09962 232.21201 234.34740 236.52579 238.78818 241.16457
 243.79196 246.04935 248.05774 249.82913 251.25252 252.38191 253.21030 253.53269
 253.57608 253.35647 252.72286 251.67725 250.28964 248.45703 246.37242 244.21181
 242.00920 239.81959 237.64598 235.49137 233.35776 231.23115 229.26354 227.42693
 225.71632 224.19471 222.83110 221.60949 220.49788 219.46427 218.57466 217.72205
 216.97044 216.15683 215.26122 214.63161 214.08800 214.05200 213.96693 214.32445
 214.73048 214.92979 215.98567 217.52299 219.32141 222.22044 227.33392 232.03198
 236.07195 240.31911 244.17146 247.38622 250.00110 252.52985 255.17894 258.00336
 261.06039 264.11823 266.98865 269.61288 271.95547 273.99164 275.67572 277.23605
 278.82343 280.40363 281.94165 283.30792 284.49301 285.54312 286.50485 287.38248
 288.17700 288.88708 289.51575 290.34946
 366.78100 356.34305 345.78310 334.65715 323.06820 311.27025 299.14830 286.95935
 274.67940 262.58445 250.60150 239.91055 230.04060 221.15265 213.34270 206.35275
 200.19480 195.14085 191.73091 189.78096 188.82601 188.89806 189.74111 191.05716
 192.79021 194.89326 197.16431 199.53136 201.98441 204.47246 206.56851 208.41856
 210.05261 211.20566 211.44271 211.67876 211.62381 211.33686 210.97791 210.61596
 210.24101 209.95906 209.77511 209.64716 209.58321 209.92226 210.31631 210.71336
 211.51441 212.70046 213.95851 215.74956 217.68561 219.73667 221.83972 223.93077
 225.99882 228.09087 230.19592 232.30997 234.44702 236.62707 238.89112 241.26917
 243.89822 246.15727 248.16732 249.94037 251.36542 252.49647 253.32652 253.65057
 253.69562 253.47767 252.84572 251.80177 250.41582 248.58487 246.50192 244.34297
 242.14202 239.95407 237.78212 235.62917 233.49722 231.37227 229.40632 227.57137
 225.86242 224.34248 222.98053 221.76058 220.65063 219.61868 218.73073 217.87978
 217.12983 216.31788 215.42393 214.79598 214.25403 214.17107 213.97505 214.32719
 214.85364 215.05190 216.03430 217.62019 219.37462 222.24051 227.30548 232.02440
 236.07584 240.29076 244.04994 247.15434 249.72745 252.27477 254.98672 257.89316
 261.00876 264.08817 266.95193 269.57068 271.92023 273.97623 275.68094 277.24161
 278.79727 280.33115 281.86261 283.22821 284.41269 285.46191 286.42416 287.30231
 288.09436 288.80466 289.43527 290.26587
 366.78100 356.34471 345.78642 334.66213 323.07484 311.27856 299.15827 286.97098
 274.69269 262.59940 250.61811 239.92882 230.06053 221.17424 213.36595 206.37767
 200.22138 195.16909 191.76080 189.81251 188.85922 188.93293 189.77764 191.09535
 192.83007 194.93478 197.20749 199.57620 202.03091 204.52062 206.61833 208.47004
 210.10575 211.26046 211.49918 211.73689 211.68360 211.39831 211.04102 210.68073
 210.30744 210.02715 209.84486 209.71858 209.65629 209.99700 210.39271 210.79142
 211.59413 212.78184 214.04155 215.83426 217.77197 219.82469 221.92940 224.02211
 226.09182 228.18553 230.29224 232.40795 234.54666 236.72837 238.99409 241.37380
 244.00451 246.26522 248.27693 250.05164 251.47835 252.61106 253.44277 253.76848
 253.81520 253.59891 252.96862 251.92633 250.54204 248.71275 246.63146 244.47417
 242.27488 240.08860 237.91831 235.76702 233.63673 231.51344 229.54915 227.71586
 226.00857 224.49028 223.12999 221.91171 220.80342 219.77313 218.88684 218.03755
 217.28926 216.47897 215.58668 214.96039 214.42010 214.28883 213.97868 214.34435
 214.97107 215.16623 216.06601 217.68149 219.43570 222.27786 227.29362 232.03281
 236.08755 240.26341 243.92538 246.92088 249.45744 252.02553 254.80022 257.79028
 260.96225 264.05984 266.91434 269.52505 271.88107 273.95621 275.68329 277.24835
 278.77100 280.26331 281.78802 283.15445 284.33783 285.38724 286.34964 287.22552
 288.01874 288.73059 289.35980 290.18933
 366.78100 356.34603 345.78905 334.66608 323.08010 311.28513 299.16616 286.98018
 274.70321 262.61123 250.63126 239.94329 230.07631 221.19134 213.38436 206.39739
 200.24242 195.19144 191.78447 189.83749 188.88552 188.96055 189.80657 191.12560
 192.86163 194.96765 197.24168 199.61170 202.06773 204.55876 206.65778 208.51081
 210.14783 211.30386 211.54389 211.78291 211.73094 211.44696 211.09099 210.73202
 210.36004 210.08107 209.90009 209.77512 209.71415 210.05617 210.45320 210.85322
 211.65725 212.84628 214.10730 215.90133 217.84035 219.89438 222.00041 224.09443
 226.16546 228.26048 230.36851 232.48554 234.62556 236.80859 239.07562 241.45664
 244.08867 246.35069 248.36372 250.13975 251.56777 252.70180 253.53482 253.86185
 253.90988 253.69490 253.06593 252.02495 250.64198 248.81401 246.73403 244.57806
 242.38008 240.19511 238.02614 235.87616 233.74719 231.62521 229.66224 227.83027
 226.12429 224.60732 223.24834 222.03137 220.92440 219.89542 219.01045 218.16247
 217.41550 216.60653 215.71555 215.09058 214.55161 214.38770 214.00043 214.35309
 215.08630 215.26765 216.10194 217.73505 219.48988 222.32652 227.29662 232.04961
 236.09752 240.22809 243.79135 246.68182 249.18944 251.78116 254.61769 257.69131
 260.91724 264.02954 266.87357 269.47650 271.84024 273.93829 275.69217 277.26547
 278.75821 280.20044 281.71539 283.08075 284.26453 285.31415 286.27603 287.15189
 287.94519 288.65594 289.28564 290.11581
 366.78100 356.34706 345.79112 334.66919 323.08425 311.29031 299.17237 286.98744
 274.71150 262.62056 250.64162 239.95469 230.08875 221.20481 213.39887 206.41294
 200.25900 195.20906 191.80312 189.85719 188.90625 188.98231 189.82937 191.14944
 192.88650 194.99356 197.26862 199.63969 202.09675 204.58881 206.68887 208.54294
 210.18100 211.33806 211.57912 211.81919 211.76825 211.48531 211.13037 210.77243
 210.40150 210.12356 209.94362 209.81968 209.75975 210.10281 210.50087 210.90193
 211.70700 212.89706 214.15912 215.95418 217.89425 219.94931 222.05637 224.15143
 226.22350 228.31956 230.42862 232.54668 234.68775 236.87181 239.13987 241.52193
 244.15500 246.41806 248.43212 250.20918 251.63825 252.77331 253.60737 253.93543
 253.98449 253.77056 253.14262 252.10268 250.72074 248.89381 246.81487 244.65993
 242.46299 240.27906 238.11112 235.96218 233.83424 231.71331 229.75137 227.92043
 226.21549 224.69956 223.34162 222.12568 221.01974 219.99181 219.10787 218.26093
 217.51499 216.70706 215.81712 215.19318 214.65524 214.47067 214.03459 214.36084
 215.19466 215.35753 216.14873 217.79527 219.52879 222.37363 227.30414 232.06749
 236.10304 240.18489 243.65224 246.44424 248.92906 251.54471 254.44084 257.59543
 260.87280 263.99631 266.82956 269.42618 271.80017 273.92267 275.70328 277.29141
 278.76086 280.15509 281.64807 283.01190 284.19623 285.24582 286.20776 287.08344
 287.87628 288.58786 289.21692 290.04703
 366.78100 356.34795 345.79291 334.67186 323.08781 311.29476 299.17772 286.99367
 274.71862 262.62858 250.65053 239.96448 230.09944 221.21639 213.41134 206.42629
 200.27325 195.22420 191.81915 189.87411 188.92406 189.00101 189.84896 191.16992
 192.90787 195.01582 197.29178 199.66373 202.12168 204.61464 206.71559 208.57054
 210.20949 211.36745 211.60940 211.85035 211.80031 211.51826 211.16421 210.80716
 210.43712 210.16007 209.98102 209.85798 209.79893 210.14288 210.54183 210.94379
 211.74974 212.94069 214.20365 215.99960 217.94055 219.99651 222.10446 224.20041
 226.27336 228.37032 230.48027 232.59922 234.74118 236.92613 239.19508 241.57803
 244.21199 246.47594 248.49089 250.26885 251.69880 252.83475 253.66971 253.99866
 254.04861 253.83556 253.20852 252.16947 250.78842 248.96238 246.88433 244.73028
 242.53423 240.35119 238.18414 236.03609 233.90905 231.78900 229.82795 227.99791
 226.29386 224.77881 223.42176 222.20672 221.10167 220.07462 219.19158 218.34553
 217.60048 216.79343 215.90439 215.28134 214.74429 214.54430 214.07181 214.38028
 215.28807 215.44637 216.19868 217.84668 219.55260 222.41745 227.31714 232.08687
 236.10597 240.13945 243.51424 246.21204 248.67700 251.31529 254.26938 257.50290
 260.82852 263.96143 266.78467 269.37738 271.76270 273.90683 275.71393 277.31323
 278.76263 280.12167 281.59262 282.95389 284.13910 285.18811 286.15079 287.02579
 287.81839 288.53128 289.16138 289.98975
 366.78100 356.34869 345.79439 334.67408 323.09078 311.29847 299.18217 286.99886
 274.72455 262.63525 250.65794 239.97264 230.10833 221.22602 213.42172 206.43741
 200.28511 195.23680 191.83250 189.88819 188.93888 189.01658 189.86527 191.18697
 192.92566 195.03436 197.31105 199.68374 202.14244 204.63613 206.73783 208.59352
 210.23321 211.39191 211.63460 211.87630 211.82699 211.54569 211.19238 210.83607
 210.46677 210.19046 210.01216 209.88985 209.83154 210.17624 210.57593 210.97863
 211.78532 212.97702 214.24071 216.03740 217.97910 220.03579 222.14449 224.24118
 226.31488 228.41257 230.52326 232.64296 234.78565 236.97135 239.24104 241.62473
 244.25943 246.52412 248.53982 250.31851 251.74921 252.88590 253.72159 254.05129
 254.10198 253.88968 253.26337 252.22507 250.84476 249.01945 246.94215 244.78884
 242.59354 240.41123 238.24492 236.09762 233.97131 231.85201 229.89170 228.06240
 226.35909 224.84478 223.48848 222.27417 221.16987 220.14356 219.26126 218.41595
 217.67164 216.86534 215.97703 215.35473 214.81842 214.60840 214.11217 214.41536
 215.36250 215.54301 216.24638 217.87680 219.56815 222.46210 227.33679 232.10907
 236.10910 240.09299 243.37613 245.98206 248.43097 251.09372 254.10475 257.41385
 260.78287 263.92224 266.73654 269.32669 271.72495 273.89310 275.72455 277.33820
 278.77365 280.11786 281.54398 282.90256 284.08615 285.13586 286.09918 286.97363
 287.76663 288.48053 289.10947 289.94073
 366.78100 356.34921 345.79542 334.67563 323.09285 311.30106 299.18527 287.00248
 274.72869 262.63990 250.66312 239.97833 230.11454 221.23275 213.42896 206.44517
 200.29339 195.24560 191.84181 189.89802 188.94923 189.02744 189.87666 191.19887
 192.93808 195.04729 197.32450 199.69771 202.15693 204.65114 206.75335 208.60956
 210.24977 211.40898 211.65220 211.89441 211.84562 211.56483 211.21204 210.85625
 210.48747 210.21168 210.03389 209.91210 209.85431 210.19952 210.59973 211.00295
 211.81016 213.00237 214.26658 216.06379 218.00600 220.06322 222.17243 224.26964
 226.34385 228.44206 230.55327 232.67349 234.81670 237.00291 239.27312 241.65733
 244.29254 246.55776 248.57397 250.35318 251.78439 252.92160 253.75781 254.08803
 254.13924 253.92745 253.30166 252.26387 250.88408 249.05930 246.98251 244.82972
 242.63493 240.45314 238.28735 236.14057 234.01478 231.89599 229.93620 228.10741
 226.40462 224.89084 223.53505 222.32126 221.21747 220.19168 219.30989 218.46510
 217.72132 216.91553 216.02774 215.40595 214.87016 214.65895 214.15994 214.46001
 215.42108 215.64038 216.29556 217.89098 219.58601 222.51196 227.36862 232.13441
 236.11078 240.03938 243.22943 245.74883 248.18872 250.87962 253.94760 257.32751
 260.73291 263.87625 266.68335 269.27365 271.68701 273.87906 275.73816 277.36667
 278.79382 280.12869 281.50803 282.86328 284.04745 285.09781 286.05988 286.93594
 287.72888 288.44183 289.07114 289.89691
 366.78100 356.34946 345.79592 334.67638 323.09384 311.30230 299.18676 287.00421
 274.73067 262.64213 250.66559 239.98105 230.11751 221.23597 213.43243 206.44889
 200.29735 195.24981 191.84627 189.90273 188.95419 189.03264 189.88210 191.20456
 192.94402 195.05348 197.33094 199.70440 202.16386 204.65832 206.76078 208.61724
 210.25770 211.41716 211.66062 211.90307 211.85453 211.57399 211.22145 210.86591
 210.49737 210.22183 210.04429 209.92275 209.86521 210.21067 210.61113 211.01459
 211.82205 213.01450 214.27896 216.07642 218.01888 220.07634 222.18580 224.28326
 226.35772 228.45618 230.56764 232.68810 234.83156 237.01802 239.28848 241.67293
 244.30839 246.57385 248.59031 250.36977 251.80123 252.93869 253.77515 254.10561
 254.15707 253.94553 253.31999 252.28245 250.90291 249.07836 247.00182 244.84928
 242.65474 240.47320 238.30766 236.16112 234.03558 231.91704 229.95750 228.12896
 226.42642 224.91288 223.55734 222.34379 221.24025 220.21471 219.33317 218.48863
 217.74509 216.93955 216.05201 215.43047 214.89493 214.69341 214.21729 214.50833
 215.46774 215.73476 216.35336 217.90953 219.61632 222.56384 227.40698 232.15753
 236.10492 239.96762 243.06372 245.50642 247.94756 250.67354 253.79926 257.24423
 260.67996 263.82452 266.62598 269.22198 271.65353 273.87021 275.75488 277.39783
 278.81610 280.13525 281.49139 282.84360 284.02988 285.08026 286.04346 286.92020
 287.71402 288.42688 289.05563 289.88132
 366.78100 356.34954 345.79608 334.67662 323.09416 311.30270 299.18724 287.00478
 274.73132 262.64286 250.66640 239.98194 230.11848 221.23702 213.43356 206.45010
 200.29864 195.25118 191.84772 189.90426 188.95580 189.03434 189.88388 191.20642
 192.94596 195.05550 197.33304 199.70658 202.16612 204.66066 206.76320 208.61974
 210.26028 211.41981 211.66335 211.90589 211.85743 211.57697 211.22451 210.86905
 210.50059 210.22513 210.04767 209.92621 209.86875 210.21429 210.61483 211.01837
 211.82591 213.01845 214.28299 216.08053 218.02307 220.08061 222.19015 224.28769
 226.36223 228.46077 230.57231 232.69285 234.83639 237.02293 239.29347 241.67801
 244.31355 246.57909 248.59563 250.37517 251.80671 252.94425 253.78079 254.11133
 254.16287 253.95141 253.32595 252.28849 250.90903 249.08457 247.00811 244.85565
 242.66119 240.47973 238.31427 236.16781 234.04235 231.92389 229.96443 228.13597
 226.43351 224.92005 223.56459 222.35113 221.24767 220.22221 219.34075 218.49629
 217.75283 216.94737 216.05990 215.43844 214.90298 214.71713 214.27802 214.56139
 215.51233 215.81795 216.42902 217.94437 219.65269 222.61292 227.44374 232.17458
 236.09018 239.87669 242.87915 245.25612 247.70810 250.47568 253.65921 257.16379
 260.62399 263.76819 266.56860 269.17502 271.62643 273.86765 275.77820 277.43384
 278.84460 280.14691 281.48825 282.84009 284.02551 285.07889 286.04419 286.92267
 287.72244 288.43994 289.06927 289.89966
 366.78100 356.34937 345.79574 334.67611 323.09348 311.30185 299.18622 287.00359
 274.72996 262.64133 250.66470 239.98008 230.11645 221.23482 213.43119 206.44756
 200.29593 195.24830 191.84467 189.90104 188.95241 189.03078 189.88015 191.20252
 192.94189 195.05126 197.32863 199.70200 202.16137 204.65574 206.75811 208.61448
 210.25486 211.41423 211.65760 211.89997 211.85134 211.57071 211.21808 210.86245
 210.49382 210.21819 210.04056 209.91893 209.86130 210.20667 210.60704 211.01041
 211.81778 213.01015 214.27452 216.07189 218.01426 220.07164 222.18101 224.27838
 226.35275 228.45112 230.56249 232.68286 234.82623 237.01260 239.28297 241.66734
 244.30271 246.56808 248.58445 250.36382 251.79519 252.93256 253.76893 254.09930
 254.15067 253.93904 253.31342 252.27579 250.89616 249.07153 246.99490 244.84227
 242.64764 240.46601 238.30038 236.15375 234.02812 231.90949 229.94986 228.12123
 226.41860 224.90497 223.54934 222.33571 221.23208 220.20645 219.32482 218.48019
 217.73657 216.93094 216.04331 215.42168 214.88605 214.72601 214.34790 214.60997
 215.56458 215.90480 216.50171 217.98792 219.70268 222.65927 227.47559 232.18442
 236.06511 239.76723 242.67851 245.00024 247.47253 250.28831 253.53059 257.08905
 260.56842 263.71140 266.51370 269.13153 271.60220 273.86871 275.80643 277.47940
 278.88498 280.17538 281.48697 282.83743 284.02264 285.07629 286.03998 286.91879
 287.71793 288.43552 289.06793 289.89148
 366.78100 356.34925 345.79550 334.67576 323.09301 311.30126 299.18551 287.00277
 274.72902 262.64027 250.66352 239.97878 230.11503 221.23328 213.42953 206.44579
 200.29404 195.24629 191.84254 189.89880 188.95005 189.02830 189.87755 191.19980
 192.93906 195.04831 197.32556 199.69881 202.15807 204.65232 206.75457 208.61082
 210.25108 211.41033 211.65358 211.89583 211.84709 211.56634 211.21359 210.85784
 210.48909 210.21335 210.03560 209.91385 209.85610 210.20136 210.60161 211.00486
 211.81211 213.00437 214.26862 216.06587 218.00812 220.06538 222.17463 224.27188
 226.34613 228.44439 230.55564 232.67589 234.81914 237.00539 239.27565 241.65990
 244.29515 246.56040 248.57666 250.35591 251.78716 252.92441 253.76067 254.09092
 254.14217 253.93042 253.30468 252.26693 250.88718 249.06243 246.98568 244.83294
 242.63819 240.45644 238.29069 236.14395 234.01820 231.89945 229.93970 228.11096
 226.40821 224.89446 223.53871 222.32497 221.22122 220.19547 219.31372 218.46898
 217.72523 216.91948 216.03173 215.40998 214.87424 214.73520 214.40669 214.67509
 215.60904 215.99117 216.60156 218.03450 219.74069 222.69414 227.50148 232.18771
 236.03043 239.64545 242.46968 244.74727 247.24777 250.11607 253.41512 257.02023
 260.51196 263.65128 266.45468 269.08444 271.57495 273.86896 275.83624 277.53043
 278.93643 280.21619 281.49356 282.84045 284.02704 285.08032 286.04364 286.92194
 287.71982 288.43750 289.06769 289.89200
 366.78100 356.34890 345.79481 334.67471 323.09162 311.29952 299.18342 287.00033
 274.72623 262.63714 250.66004 239.97494 230.11085 221.22875 213.42466 206.44056
 200.28846 195.24037 191.83627 189.89218 188.94308 189.02098 189.86989 191.19179
 192.93070 195.03960 197.31650 199.68941 202.14831 204.64222 206.74412 208.60002
 210.23993 211.39883 211.64174 211.88364 211.83454 211.55345 211.20035 210.84426
 210.47516 210.19906 210.02097 209.89887 209.84078 210.18568 210.58558 210.98849
 211.79539 212.98730 214.25120 216.04810 217.99001 220.04691 222.15582 224.25272
 226.32662 228.42453 230.53543 232.65534 234.79824 236.98414 239.25405 241.63795
 244.27286 246.53776 248.55366 250.33257 251.76347 252.90038 253.73628 254.06618
 254.11709 253.90499 253.27890 252.24080 250.86070 249.03561 246.95851 244.80542
 242.61032 240.42823 238.26213 236.11503 233.98894 231.86984 229.90975 228.08065
 226.37755 224.86346 223.50736 222.29327 221.18917 220.16307 219.28098 218.43588
 217.69179 216.88569 215.99759 215.37550 214.83940 214.73064 214.47369 214.72678
 215.67471 216.07869 216.67799 218.08661 219.79778 222.73174 227.52760 232.18712
 235.98730 239.51364 242.25191 244.49292 247.02817 249.95305 253.30820 256.95325
 260.45114 263.58347 266.38873 269.03314 271.54709 273.87122 275.86990 277.58682
 278.99469 280.26379 281.51071 282.85413 284.04178 285.09531 286.05798 286.93677
 287.73456 288.45062 289.08286 289.90231
 366.78100 356.34823 345.79345 334.67268 323.08890 311.29613 299.17936 286.99558
 274.72081 262.63103 250.65326 239.96749 230.10271 221.21994 213.41516 206.43039
 200.27762 195.22884 191.82407 189.87930 188.92952 189.00675 189.85497 191.17620
 192.91443 195.02265 197.29888 199.67110 202.12933 204.62256 206.72378 208.57901
 210.21823 211.37646 211.61869 211.85991 211.81014 211.52836 211.17459 210.81782
 210.44804 210.17127 209.99249 209.86972 209.81095 210.15517 210.55440 210.95663
 211.76285 212.95408 214.21730 216.01353 217.95476 220.01098 222.11921 224.21543
 226.28866 228.38589 230.49611 232.61534 234.75756 236.94279 239.21202 241.59524
 244.22947 246.49369 248.50892 250.28715 251.71737 252.85360 253.68882 254.01805
 254.06828 253.85550 253.22873 252.18995 250.80918 248.98341 246.90563 244.75186
 242.55609 240.37331 238.20654 236.05876 233.93199 231.81222 229.85144 228.02167
 226.31789 224.80312 223.44635 222.23157 221.12680 220.10002 219.21725 218.37148
 217.62670 216.81993 215.93115 215.30838 214.77161 214.70772 214.55678 214.76791
 215.69925 216.20692 216.82095 218.14001 219.83298 222.76007 227.54910 232.17813
 235.93106 239.36499 242.01846 244.23329 246.81351 249.79982 253.20998 256.88992
 260.38919 263.51288 266.32263 268.98486 271.52405 273.87772 275.90671 277.64621
 279.05670 280.31259 281.53448 282.87692 284.06393 285.11664 286.08060 286.95819
 287.75598 288.47217 289.10388 289.92291
 366.78100 356.34780 345.79260 334.67141 323.08721 311.29401 299.17681 286.99261
 274.71742 262.62722 250.64902 239.96282 230.09762 221.21443 213.40923 206.42403
 200.27083 195.22163 191.81644 189.87124 188.92104 188.99784 189.84564 191.16645
 192.90425 195.01205 197.28785 199.65965 202.11746 204.61026 206.71106 208.56586
 210.20466 211.36247 211.60427 211.84507 211.79487 211.51267 211.15848 210.80128
 210.43108 210.15388 209.97468 209.85149 209.79229 210.13609 210.53489 210.93670
 211.74250 212.93330 214.19610 215.99190 217.93271 219.98851 222.09631 224.19211
 226.26491 228.36172 230.47152 232.59032 234.73212 236.91692 239.18573 241.56853
 244.20233 246.46613 248.48093 250.25874 251.68854 252.82434 253.65914 253.98794
 254.03775 253.82455 253.19735 252.15815 250.77695 248.95076 246.87256 244.71836
 242.52216 240.33896 238.17177 236.02357 233.89637 231.77617 229.81497 227.98478
 226.28058 224.76538 223.40818 222.19298 221.08779 220.06059 219.17739 218.33119
 217.58599 216.77880 215.88960 215.26640 214.72920 214.69547 214.61577 214.84933
 215.68210 216.29074 216.97446 218.25784 219.88861 222.77136 227.56343 232.16327
 235.86632 239.20764 241.78082 243.98080 246.61201 249.66255 253.12462 256.83279
 260.32980 263.44516 266.26105 268.94141 271.50464 273.88422 275.94193 277.69977
 279.11279 280.35983 281.56238 282.90125 284.08810 285.14368 286.10513 286.98285
 287.78070 288.49637 289.12573 289.94446
 366.78100 356.34766 345.79232 334.67097 323.08663 311.29329 299.17595 286.99160
 274.71626 262.62592 250.64758 239.96123 230.09589 221.21255 213.40721 206.42187
 200.26852 195.21918 191.81384 189.86850 188.91815 188.99481 189.84247 191.16313
 192.90078 195.00844 197.28410 199.65576 202.11341 204.60607 206.70673 208.56139
 210.20005 211.35770 211.59936 211.84002 211.78968 211.50733 211.15299 210.79565
 210.42531 210.14796 209.96862 209.84528 209.78594 210.12960 210.52825 210.92991
 211.73557 212.92623 214.18888 215.98454 217.92520 219.98086 222.08851 224.18417
 226.25683 228.35349 230.46315 232.58180 234.72346 236.90812 239.17678 241.55943
 244.19309 246.45675 248.47141 250.24906 251.67872 252.81438 253.64904 253.97769
 254.02735 253.81401 253.18667 252.14733 250.76598 248.93964 246.86130 244.70696
 242.51061 240.32727 238.15993 236.01159 233.88424 231.76390 229.80256 227.97222
 226.26788 224.75253 223.39519 222.17985 221.07451 220.04716 219.16382 218.31748
 217.57214 216.76479 215.87545 215.25211 214.71477 214.69539 214.64960 214.96033
 215.66389 216.35428 217.12936 218.37808 219.93654 222.78310 227.57658 232.14679
 235.79895 239.04585 241.54324 243.73683 246.42461 249.53896 253.04939 256.78027
 260.27115 263.37766 266.20068 268.89764 271.48273 273.88678 275.97000 277.74658
 279.16205 280.40332 281.59079 282.92700 284.11600 285.16830 286.13129 287.00800
 287.80441 288.52100 289.14752 289.96701
 366.78100 356.34728 345.79156 334.66984 323.08512 311.29139 299.17367 286.98895
 274.71323 262.62251 250.64379 239.95707 230.09135 221.20762 213.40190 206.41618
 200.26246 195.21274 191.80702 189.86130 188.91058 188.98685 189.83413 191.15441
 192.89169 194.99897 197.27425 199.64553 202.10281 204.59509 206.69536 208.54964
 210.18792 211.34520 211.58648 211.82676 211.77604 211.49332 211.13859 210.78087
 210.41015 210.13243 209.95271 209.82899 209.76927 210.11255 210.51082 210.91210
 211.71738 212.90766 214.16994 215.96522 217.90550 219.96078 222.06806 224.16333
 226.23561 228.33189 230.44117 232.55945 234.70073 236.88501 239.15329 241.53556
 244.16884 246.43212 248.44640 250.22368 251.65296 252.78824 253.62252 253.95079
 254.00007 253.78635 253.15863 252.11891 250.73719 248.91047 246.83175 244.67703
 242.48030 240.29658 238.12886 235.98014 233.85242 231.73170 229.76998 227.93926
 226.23453 224.71881 223.36109 222.14537 221.03965 220.01193 219.12821 218.28149
 217.53576 216.72804 215.83832 215.21460 214.67688 214.68155 214.69260 215.06642
 215.65282 216.41664 217.27890 218.48744 219.97978 222.80461 227.59653 232.13640
 235.73134 238.88483 241.31354 243.50954 246.25313 249.42928 252.98264 256.73096
 260.21085 263.30710 266.13516 268.84760 271.45294 273.88113 275.98767 277.78287
 279.20111 280.43896 281.61978 282.95474 284.14380 285.19727 286.15915 287.03503
 287.83099 288.54492 289.17383 289.99039
 366.78100 356.34664 345.79028 334.66792 323.08256 311.28820 299.16984 286.98449
 274.70813 262.61677 250.63741 239.95005 230.08369 221.19933 213.39297 206.40661
 200.25225 195.20189 191.79553 189.84918 188.89782 188.97346 189.82010 191.13974
 192.87638 194.98302 197.25766 199.62830 202.08494 204.57658 206.67622 208.52987
 210.16751 211.32415 211.56479 211.80443 211.75307 211.46971 211.11435 210.75599
 210.38463 210.10627 209.92591 209.80156 209.74120 210.08384 210.48148 210.88212
 211.68676 212.87640 214.13804 215.93268 217.87232 219.92696 222.03360 224.12825
 226.19989 228.29553 230.40417 232.52181 234.66245 236.84609 239.11373 241.49537
 244.12801 246.39065 248.40429 250.18094 251.60958 252.74422 253.57786 253.90550
 253.95414 253.73978 253.11142 252.07106 250.68870 248.86134 246.78198 244.62663
 242.42927 240.24491 238.07655 235.92719 233.79883 231.67747 229.71511 227.88375
 226.17839 224.66203 223.30367 222.08732 220.98096 219.95260 219.06824 218.22088
 217.47452 216.66616 215.77580 215.15144 214.61308 214.65388 214.75027 215.15192
 215.66870 216.48672 217.40218 218.56364 219.99918 222.81764 227.61116 232.12048
 235.65991 238.71533 241.07933 243.28201 246.09375 249.33202 252.92604 256.69022
 260.16284 263.25153 266.08215 268.80591 271.42969 273.88031 276.01022 277.82083
 279.23227 280.45798 281.61887 282.97723 284.16498 285.21991 286.18179 287.05899
 287.85507 288.56885 289.20007 290.01526
 366.78100 356.34600 345.78901 334.66601 323.08001 311.28501 299.16602 286.98002
 274.70302 262.61102 250.63103 239.94303 230.07603 221.19104 213.38404 206.39704
 200.24204 195.19105 191.78405 189.83705 188.88505 188.96006 189.80606 191.12506
 192.86106 194.96707 197.24107 199.61107 202.06708 204.55808 206.65708 208.51008
 210.14709 211.30309 211.54309 211.78209 211.73010 211.44610 211.09010 210.73111
 210.35911 210.08011 209.89911 209.77412 209.71312 210.05512 210.45212 210.85213
 211.65613 212.84513 214.10614 215.90014 217.83914 219.89314 221.99915 224.09315
 226.16415 228.25915 230.36716 232.48416 234.62416 236.80717 239.07417 241.45517
 244.08717 246.34918 248.36218 250.13818 251.56618 252.70019 253.53319 253.86019
 253.90819 253.69320 253.06420 252.02320 250.64021 248.81221 246.73221 244.57621
 242.37822 240.19322 238.02422 235.87422 233.74523 231.62323 229.66023 227.82824
 226.12224 224.60524 223.24624 222.02925 220.92225 219.89325 219.00825 218.16026
 217.41326 216.60426 215.71327 215.08827 214.54927 214.62706 214.81084 215.21439
 215.69449 216.54132 217.50378 218.61839 219.99944 222.80705 227.60452 232.09729
 235.58301 238.53798 240.84158 243.04933 245.94223 249.24309 252.87589 256.66241
 260.13684 263.22308 266.05774 268.79114 271.42587 273.88934 276.04645 277.86185
 279.28589 280.49774 281.67804 282.99570 284.18320 285.23621 286.19714 287.07208
 287.86383 288.57797 289.21866 290.03793
 366.78100 356.34557 345.78814 334.66471 323.07829 311.28286 299.16343 286.97700
 274.69957 262.60714 250.62671 239.93828 230.07086 221.18543 213.37800 206.39057
 200.23514 195.18371 191.77628 189.82886 188.87643 188.95100 189.79657 191.11514
 192.85071 194.95628 197.22985 199.59943 202.05500 204.54557 206.64414 208.49671
 210.13328 211.28885 211.52843 211.76700 211.71457 211.43014 211.07371 210.71428
 210.34185 210.06242 209.88100 209.75557 209.69414 210.03571 210.43228 210.83185
 211.63542 212.82400 214.08457 215.87814 217.81671 219.87028 221.97585 224.06942
 226.14000 228.23457 230.34214 232.45871 234.59828 236.78085 239.04742 241.42799
 244.05957 246.32114 248.33371 250.10928 251.53685 252.67042 253.50299 253.82957
 253.87714 253.66171 253.03228 251.99085 250.60742 248.77899 246.69856 244.54214
 242.34371 240.15828 237.98885 235.83842 233.70899 231.58656 229.62314 227.79071
 226.08428 224.56685 223.20742 221.98999 220.88256 219.85313 218.96771 218.11928
 217.37185 216.56242 215.67099 215.04556 214.50613 214.60776 214.84785 215.30626
 215.72821 216.58432 217.62016 218.68846 220.03342 222.82088 227.60760 232.07568
 235.49583 238.36423 240.62473 242.85039 245.80469 249.16353 252.82733 256.62271
 260.08536 263.17142 266.01788 268.76538 271.41498 273.89624 276.08276 277.91336
 279.35461 280.55182 281.73227 283.02869 284.21762 285.27301 286.23712 287.11209
 287.90961 288.63815 289.30057 290.14471
 366.78100 356.34549 345.78798 334.66447 323.07796 311.28246 299.16295 286.97644
 274.69893 262.60642 250.62591 239.93740 230.06989 221.18438 213.37688 206.38937
 200.23386 195.18235 191.77484 189.82733 188.87482 188.94931 189.79480 191.11329
 192.84879 194.95428 197.22777 199.59726 202.05275 204.54324 206.64173 208.49422
 210.13071 211.28621 211.52570 211.76419 211.71168 211.42717 211.07066 210.71115
 210.33864 210.05913 209.87763 209.75212 209.69061 210.03210 210.42859 210.82808
 211.63157 212.82006 214.08055 215.87405 217.81254 219.86603 221.97152 224.06501
 226.13550 228.22999 230.33748 232.45397 234.59346 236.77596 239.04245 241.42294
 244.05443 246.31592 248.32841 250.10390 251.53139 252.66488 253.49738 253.82387
 253.87136 253.65585 253.02634 251.98483 250.60132 248.77281 246.69230 244.53580
 242.33729 240.15178 237.98227 235.83176 233.70225 231.57974 229.61623 227.78372
 226.07721 224.55971 223.20020 221.98269 220.87518 219.84567 218.96016 218.11165
 217.36414 216.55463 215.66313 215.03762 214.49811 214.60333 214.85193 215.42368
 215.81212 216.64822 217.73726 218.75737 220.07137 222.83759 227.60800 232.03564
 235.38341 238.17130 240.39821 242.65584 245.66187 249.07671 252.77048 256.56430
 260.01083 263.08942 265.94565 268.71301 271.38489 273.88727 276.09921 277.94669
 279.40057 280.59802 281.77148 283.05630 284.24542 285.30215 286.26572 287.14410
 287.93945 288.67163 289.33395 290.17798
 366.78100 356.34571 345.78841 334.66512 323.07882 311.28353 299.16423 286.97794
 274.70064 262.60835 250.62806 239.93976 230.07247 221.18717 213.37988 206.39258
 200.23729 195.18600 191.77870 189.83141 188.87911 188.95382 189.79952 191.11823
 192.85393 194.95964 197.23335 199.60305 202.05876 204.54946 206.64817 208.50087
 210.13758 211.29329 211.53299 211.77170 211.71940 211.43511 211.07881 210.71952
 210.34722 210.06793 209.88664 209.76134 209.70005 210.04175 210.43846 210.83816
 211.64187 212.83058 214.09128 215.88499 217.82369 219.87740 221.98310 224.07681
 226.14751 228.24222 230.34993 232.46663 234.60634 236.78904 239.05575 241.43645
 244.06816 246.32987 248.34257 250.11828 251.54598 252.67969 253.51239 253.83910
 253.88680 253.67151 253.04222 252.00092 250.61763 248.78933 246.70904 244.55274
 242.35445 240.16916 237.99986 235.84957 233.72027 231.59798 229.63468 227.80239
 226.09609 224.57880 223.21951 222.00221 220.89492 219.86562 218.98033 218.13203
 217.38474 216.57544 215.68415 215.05886 214.51956 214.61395 214.83693 215.51694
 215.93201 216.74118 217.84749 218.82262 220.09721 222.84322 227.59875 231.98059
 235.26067 237.97261 240.17352 242.47110 245.53125 248.99933 252.71997 256.51233
 259.94580 263.01993 265.88593 268.67142 271.36057 273.88092 276.10986 277.97070
 279.43005 280.62491 281.79474 283.07416 284.26349 285.31903 286.28223 287.15848
 287.95267 288.68167 289.34271 290.18515
 366.78100 356.34591 345.78881 334.66572 323.07963 311.28454 299.16544 286.97935
 274.70226 262.61017 250.63007 239.94198 230.07489 221.18980 213.38270 206.39561
 200.24052 195.18943 191.78233 189.83524 188.88315 188.95806 189.80396 191.12287
 192.85878 194.96469 197.23859 199.60850 202.06441 204.55532 206.65422 208.50713
 210.14404 211.29995 211.53985 211.77876 211.72667 211.44258 211.08648 210.72739
 210.35530 210.07621 209.89511 209.77002 209.70893 210.05084 210.44774 210.84765
 211.65156 212.84047 214.10137 215.89528 217.83419 219.88810 221.99400 224.08791
 226.15882 228.25373 230.36163 232.47854 234.61845 236.80136 239.06826 241.44917
 244.08108 246.34299 248.35589 250.13180 251.55971 252.69362 253.52652 253.85343
 253.90134 253.68625 253.05715 252.01606 250.63297 248.80488 246.72478 244.56869
 242.37060 240.18551 238.01641 235.86632 233.73723 231.61514 229.65204 227.81995
 226.11386 224.59677 223.23767 222.02058 220.91349 219.88440 218.99930 218.15121
 217.40412 216.59503 215.70393 215.07884 214.53975 214.62335 214.82086 215.59685
 216.06224 216.86131 217.95543 218.89740 220.14258 222.86568 227.59911 231.91896
 235.13123 237.78079 239.97052 242.32080 245.42772 248.94292 252.68416 256.47052
 259.89310 262.96088 265.83340 268.63611 271.34338 273.88043 276.12909 278.01288
 279.48059 280.67386 281.81021 283.08514 284.27267 285.32748 286.28983 287.16580
 287.96112 288.67764 289.34720 290.20056
 366.78100 356.34610 345.78919 334.66629 323.08039 311.28549 299.16658 286.98068
 274.70378 262.61187 250.63197 239.94407 230.07716 221.19226 213.38536 206.39846
 200.24355 195.19265 191.78575 189.83884 188.88694 188.96204 189.80813 191.12723
 192.86333 194.96943 197.24352 199.61362 202.06972 204.56081 206.65991 208.51301
 210.15010 211.30620 211.54630 211.78540 211.73349 211.44959 211.09369 210.73478
 210.36288 210.08398 209.90307 209.77817 209.71727 210.05937 210.45646 210.85656
 211.66066 212.84975 214.11085 215.90495 217.84404 219.89814 222.00424 224.09834
 226.16943 228.26453 230.37263 232.48972 234.62982 236.81292 239.08001 241.46111
 244.09321 246.35531 248.36840 250.14450 251.57260 252.70669 253.53979 253.86689
 253.91498 253.70008 253.07118 252.03028 250.64737 248.81947 246.73957 244.58366
 242.38576 240.20086 238.03195 235.88205 233.75315 231.63125 229.66834 227.83644
 226.13054 224.61363 223.25473 222.03783 220.93092 219.90202 219.01712 218.16922
 217.42231 216.61341 215.72251 215.09760 214.55870 214.63141 214.80315 215.68991
 216.20255 216.99466 218.06813 218.97388 220.18771 222.88770 227.59726 231.84593
 234.98994 237.58426 239.76942 242.17419 245.32652 248.88530 252.64589 256.41287
 259.81976 262.88602 265.76865 268.59045 271.31772 273.87244 276.13766 278.04938
 279.52228 280.72275 281.77539 283.10577 284.28885 285.33966 286.30157 287.17700
 287.97372 288.69247 289.34052 290.19037
 366.78100 356.34636 345.78972 334.66708 323.08145 311.28681 299.16817 286.98253
 274.70589 262.61425 250.63461 239.94698 230.08034 221.19570 213.38906 206.40242
 200.24778 195.19714 191.79051 189.84387 188.89223 188.96759 189.81395 191.13331
 192.86967 194.97604 197.25040 199.62076 202.07712 204.56848 206.66784 208.52120
 210.15857 211.31493 211.55529 211.79465 211.74301 211.45937 211.10373 210.74510
 210.37346 210.09482 209.91418 209.78954 209.72890 210.07126 210.46863 210.86899
 211.67335 212.86271 214.12407 215.91843 217.85779 219.91216 222.01852 224.11288
 226.18424 228.27960 230.38796 232.50532 234.64569 236.82905 239.09641 241.47777
 244.11013 246.37249 248.38586 250.16222 251.59058 252.72494 253.55830 253.88566
 253.93402 253.71939 253.09075 252.05011 250.66747 248.83983 246.76019 244.60455
 242.40692 240.22228 238.05364 235.90400 233.77536 231.65372 229.69108 227.85945
 226.15381 224.63717 223.27853 222.06189 220.95525 219.92661 219.04198 218.19434
 217.44770 216.63906 215.74842 215.12378 214.58514 214.64357 214.78160 215.77077
 216.35991 217.14113 218.16824 219.04353 220.22726 222.89935 227.58208 231.76213
 234.84177 237.38216 239.56485 242.02567 245.22893 248.82951 252.60530 256.35397
 259.74380 262.80963 265.70764 268.55054 271.29211 273.85199 276.12863 278.05872
 279.52985 280.74655 281.75665 283.10074 284.28467 285.33725 286.29584 287.17194
 287.96555 288.68396 289.31656 290.12918
 366.78100 356.34669 345.79038 334.66807 323.08276 311.28845 299.17014 286.98483
 274.70852 262.61722 250.63791 239.95060 230.08429 221.19998 213.39367 206.40736
 200.25305 195.20274 191.79643 189.85012 188.89881 188.97450 189.82119 191.14088
 192.87757 194.98426 197.25895 199.62965 202.08634 204.57803 206.67772 208.53141
 210.16910 211.32579 211.56648 211.80617 211.75486 211.47155 211.11624 210.75793
 210.38662 210.10831 209.92800 209.80369 209.74339 210.08608 210.48377 210.88446
 211.68915 212.87884 214.14053 215.93522 217.87491 219.92960 222.03629 224.13098
 226.20267 228.29836 230.40705 232.52474 234.66543 236.84912 239.11682 241.49851
 244.13120 246.39389 248.40758 250.18427 251.61296 252.74765 253.58134 253.90903
 253.95772 253.74341 253.11510 252.07479 250.69248 248.86517 246.78586 244.63056
 242.43325 240.24894 238.08063 235.93132 233.80301 231.68170 229.71939 227.88808
 226.18277 224.66646 223.30815 222.09184 220.98553 219.95722 219.07291 218.22560
 217.47929 216.67099 215.78068 215.15637 214.61806 214.65933 214.75688 215.83333
 216.51215 217.28984 218.27693 219.10283 220.24875 222.89259 227.55757 231.67513
 234.69667 237.18643 239.37465 241.89421 245.15158 248.78900 252.57407 256.30475
 259.67914 262.74356 265.65170 268.51187 271.26559 273.82825 276.11292 278.05106
 279.51593 280.73581 281.76666 283.08792 284.27319 285.32596 286.28613 287.16077
 287.95416 288.67389 289.29947 290.11319
 366.78100 356.34705 345.79111 334.66916 323.08422 311.29027 299.17233 286.98738
 274.71144 262.62049 250.64155 239.95460 230.08866 221.20471 213.39877 206.41282
 200.25888 195.20893 191.80299 189.85704 188.90610 188.98215 189.82921 191.14926
 192.88632 194.99337 197.26843 199.63948 202.09654 204.58859 206.68865 208.54270
 210.18076 211.33781 211.57887 211.81892 211.76798 211.48503 211.13009 210.77214
 210.40120 210.12325 209.94331 209.81936 209.75942 210.10247 210.50053 210.90158
 211.70664 212.89669 214.15875 215.95380 217.89386 219.94891 222.05597 224.15102
 226.22308 228.31913 230.42819 232.54624 234.68730 236.87135 239.13941 241.52146
 244.15452 246.41757 248.43163 250.20868 251.63774 252.77279 253.60685 253.93490
 253.98396 253.77001 253.14207 252.10212 250.72018 248.89323 246.81429 244.65934
 242.46240 240.27845 238.11051 235.96156 233.83362 231.71267 229.75073 227.91978
 226.21484 224.69889 223.34095 222.12500 221.01906 219.99111 219.10717 218.26022
 217.51428 216.70633 215.81639 215.19244 214.65450 214.67699 214.73012 215.88875
 216.67578 217.41626 218.35469 219.16161 220.27536 222.89909 227.53174 231.58495
 234.55104 236.98991 239.18930 241.77274 245.08675 248.75760 252.54791 256.26038
 259.61880 262.68167 265.59698 268.47363 271.23889 273.80487 276.09775 278.04379
 279.49612 280.70963 281.75262 283.07275 284.25885 285.31207 286.27261 287.14682
 287.94308 288.66165 289.28659 290.10272
 366.78100 356.34731 345.79161 334.66992 323.08523 311.29153 299.17384 286.98915
 274.71345 262.62276 250.64407 239.95737 230.09168 221.20799 213.40229 206.41660
 200.26291 195.21321 191.80752 189.86183 188.91113 188.98744 189.83475 191.15505
 192.89236 194.99967 197.27497 199.64628 202.10359 204.59589 206.69620 208.55051
 210.18882 211.34612 211.58743 211.82774 211.77704 211.49435 211.13966 210.78196
 210.41127 210.13358 209.95388 209.83019 209.77050 210.11380 210.51211 210.91342
 211.71872 212.90903 214.17134 215.96664 217.90695 219.96226 222.06956 224.16487
 226.23718 228.33348 230.44279 232.56110 234.70240 236.88671 239.15502 241.53732
 244.17063 246.43394 248.44824 250.22555 251.65486 252.79016 253.62447 253.95278
 254.00208 253.78839 253.16070 252.12100 250.73931 248.91262 246.83392 244.67923
 242.48254 240.29884 238.13115 235.98246 233.85476 231.73407 229.77238 227.94168
 226.23699 224.72130 223.36361 222.14791 221.04222 220.01453 219.13083 218.28414
 217.53845 216.73075 215.84106 215.21737 214.67967 214.68860 214.70967 215.93126
 216.84392 217.56036 218.44022 219.25516 220.32561 222.87260 227.48778 231.47882
 234.38731 236.77914 238.99892 241.65495 245.02820 248.73158 252.52446 256.21609
 259.55942 262.62137 265.54446 268.43829 271.21304 273.78043 276.08197 278.03436
 279.47440 280.68091 281.73349 283.05664 284.24249 285.29593 286.25491 287.13110
 287.92535 288.64429 289.27390 290.08673
 366.78100 356.34753 345.79206 334.67059 323.08612 311.29265 299.17518 286.99072
 274.71525 262.62478 250.64631 239.95984 230.09437 221.21090 213.40543 206.41996
 200.26649 195.21702 191.81155 189.86608 188.91561 188.99215 189.83968 191.16021
 192.89774 195.00527 197.28080 199.65233 202.10986 204.60239 206.70292 208.55745
 210.19598 211.35351 211.59504 211.83558 211.78511 211.50264 211.14817 210.79070
 210.42023 210.14276 209.96329 209.83982 209.78035 210.12388 210.52241 210.92394
 211.72947 212.92001 214.18254 215.97807 217.91860 219.97413 222.08166 224.17719
 226.24972 228.34625 230.45578 232.57431 234.71584 236.90037 239.16890 241.55144
 244.18497 246.44850 248.46303 250.24056 251.67009 252.80562 253.64015 253.96868
 254.01821 253.80474 253.17727 252.13780 250.75633 248.92987 246.85140 244.69693
 242.50046 240.31699 238.14952 236.00105 233.87358 231.75311 229.79164 227.96117
 226.25670 224.74123 223.38376 222.16830 221.06283 220.03536 219.15189 218.30542
 217.55995 216.75248 215.86301 215.23954 214.70207 214.69852 214.69012 215.96513
 217.00140 217.72122 218.54366 219.34605 220.37154 222.83380 227.43060 231.35785
 234.20996 236.56192 238.81349 241.54915 244.98279 248.71597 252.50772 256.17563
 259.50488 262.56531 265.49487 268.40399 271.18649 273.75275 276.06146 278.01532
 279.44046 280.64377 281.71112 283.03690 284.22296 285.27710 286.23706 287.11267
 287.90814 288.62408 289.25653 290.07004
 366.78100 356.34782 345.79265 334.67147 323.08730 311.29412 299.17695 286.99277
 274.71759 262.62742 250.64924 239.96307 230.09789 221.21472 213.40954 206.42436
 200.27119 195.22201 191.81684 189.87166 188.92149 188.99831 189.84613 191.16696
 192.90478 195.01261 197.28843 199.66026 202.11808 204.61090 206.71173 208.56655
 210.20538 211.36320 211.60503 211.84585 211.79567 211.51350 211.15932 210.80215
 210.43197 210.15480 209.97562 209.85244 209.79327 210.13709 210.53592 210.93774
 211.74357 212.93439 214.19722 215.99304 217.93386 219.98969 222.09751 224.19334
 226.26616 228.36299 230.47281 232.59163 234.73346 236.91828 239.18711 241.56993
 244.20376 246.46758 248.48240 250.26023 251.69005 252.82588 253.66070 253.98953
 254.03935 253.82617 253.19900 252.15982 250.77865 248.95247 246.87430 244.72012
 242.52394 240.34077 238.17359 236.02542 233.89824 231.77807 229.81689 227.98671
 226.28254 224.76736 223.41019 222.19501 221.08984 220.06266 219.17948 218.33331
 217.58813 216.78096 215.89178 215.26861 214.73143 214.71140 214.66405 215.99106
 217.15533 217.89224 218.66621 219.42789 220.40646 222.79533 227.36482 231.22783
 234.02840 236.35155 238.64482 241.46338 244.95464 248.71304 252.49878 256.13928
 259.45160 262.50845 265.44510 268.36786 271.15454 273.71918 276.03281 277.98163
 279.39240 280.59494 281.68576 283.01566 284.20215 285.25482 286.21579 287.09033
 287.88879 288.60370 289.23615 290.04794
 366.78100 356.34818 345.79335 334.67253 323.08870 311.29588 299.17906 286.99523
 274.72041 262.63058 250.65276 239.96693 230.10211 221.21929 213.41446 206.42964
 200.27681 195.22799 191.82317 189.87834 188.92852 189.00569 189.85387 191.17504
 192.91322 195.02140 197.29757 199.66975 202.12792 204.62110 206.72228 208.57745
 210.21663 211.37480 211.61698 211.85816 211.80833 211.52651 211.17268 210.81586
 210.44603 210.16921 209.99039 209.86756 209.80874 210.15291 210.55209 210.95427
 211.76044 212.95162 214.21479 216.01097 217.95214 220.00832 222.11650 224.21267
 226.28585 228.38302 230.49320 232.61238 234.75455 236.93973 239.20890 241.59208
 244.22626 246.49043 248.50561 250.28378 251.71396 252.85013 253.68531 254.01449
 254.06466 253.85184 253.22501 252.18619 250.80537 248.97954 246.90172 244.74789
 242.55207 240.36924 238.20242 236.05460 233.92777 231.80795 229.84712 228.01730
 226.31348 224.79865 223.44183 222.22700 221.12218 220.09536 219.21253 218.36671
 217.62188 216.81506 215.92623 215.30341 214.76659 214.72609 214.63042 216.01079
 217.30962 218.06685 218.79645 219.50323 220.43176 222.75923 227.29329 231.09383
 233.84755 236.15137 238.49287 241.39485 244.94003 248.71823 252.49281 256.10114
 259.39417 262.44635 265.39136 268.32797 271.11862 273.67990 275.99725 277.93411
 279.33524 280.53891 281.65881 282.99173 284.17813 285.23126 286.19183 287.06796
 287.86353 288.58279 289.21100 290.02603
 366.78100 356.34863 345.79425 334.67388 323.09051 311.29813 299.18176 286.99838
 274.72401 262.63464 250.65726 239.97189 230.10752 221.22514 213.42077 206.43639
 200.28402 195.23565 191.83127 189.88690 188.93753 189.01515 189.86378 191.18540
 192.92403 195.03266 197.30928 199.68191 202.14054 204.63416 206.73579 208.59142
 210.23104 211.38967 211.63229 211.87392 211.82455 211.54317 211.18980 210.83343
 210.46405 210.18768 210.00930 209.88693 209.82856 210.17318 210.57281 210.97544
 211.78206 212.97369 214.23732 216.03394 217.97557 220.03219 222.14082 224.23745
 226.31107 228.40870 230.51933 232.63895 234.78158 236.96720 239.23683 241.62046
 244.25508 246.51971 248.53534 250.31396 251.74459 252.88121 253.71684 254.04647
 254.09709 253.88472 253.25835 252.21997 250.83960 249.01423 246.93685 244.78348
 242.58810 240.40573 238.23936 236.09198 233.96561 231.84624 229.88586 228.05649
 226.35311 224.83874 223.48237 222.26799 221.16362 220.13725 219.25487 218.40950
 217.66513 216.85875 215.97038 215.34800 214.81163 214.74443 214.58566 216.03368
 217.45779 218.24098 218.92639 219.57893 220.45528 222.72717 227.21880 230.95860
 233.66856 235.95862 238.35155 241.33694 244.93307 248.72641 252.48550 256.05811
 259.33038 262.37885 265.33493 268.28632 271.07867 273.63699 275.95462 277.87598
 279.26990 280.48044 281.63000 282.96451 284.15204 285.20380 286.16458 287.03961
 287.83600 288.55359 289.18362 289.99692
 366.78100 356.34918 345.79535 334.67553 323.09271 311.30088 299.18506 287.00224
 274.72842 262.63959 250.66277 239.97795 230.11412 221.23230 213.42848 206.44465
 200.29283 195.24501 191.84119 189.89736 188.94854 189.02672 189.87589 191.19807
 192.93725 195.04642 197.32360 199.69678 202.15596 204.65013 206.75231 208.60849
 210.24866 211.40784 211.65102 211.89319 211.84437 211.56355 211.21073 210.85490
 210.48608 210.21026 210.03243 209.91061 209.85279 210.19796 210.59814 211.00132
 211.80850 213.00067 214.26485 216.06203 218.00420 220.06138 222.17056 224.26773
 226.34191 228.44009 230.55127 232.67144 234.81462 237.00080 239.27097 241.65515
 244.29033 246.55550 248.57168 250.35086 251.78204 252.91921 253.75539 254.08557
 254.13674 253.92492 253.29910 252.26127 250.88145 249.05663 246.97981 244.82698
 242.63216 240.45034 238.28451 236.13769 234.01187 231.89304 229.93322 228.10440
 226.40158 224.88775 223.53193 222.31811 221.21428 220.18846 219.30664 218.46181
 217.71799 216.91217 216.02435 215.40252 214.86670 214.76746 214.53297 216.06238
 217.59735 218.41260 219.05275 219.65680 220.48593 222.70116 227.14227 230.82080
 233.48785 235.76794 238.21547 241.28537 244.93082 248.73578 252.47630 256.01175
 259.26416 262.31168 265.28052 268.24451 271.03659 273.59073 275.90393 277.80420
 279.19424 280.41571 281.59860 282.93533 284.12091 285.17407 286.13379 287.00806
 287.80533 288.52313 289.15335 289.96875
 366.78100 356.34963 345.79627 334.67690 323.09453 311.30316 299.18780 287.00543
 274.73206 262.64370 250.66733 239.98296 230.11960 221.23823 213.43486 206.45149
 200.30013 195.25276 191.84939 189.90603 188.95766 189.03629 189.88592 191.20856
 192.94819 195.05782 197.33546 199.70909 202.16872 204.66335 206.76599 208.62262
 210.26325 211.42289 211.66652 211.90915 211.86079 211.58042 211.22805 210.87268
 210.50432 210.22895 210.05158 209.93022 209.87285 210.21848 210.61911 211.02275
 211.83038 213.02301 214.28765 216.08528 218.02791 220.08555 222.19518 224.29281
 226.36744 228.46608 230.57771 232.69834 234.84198 237.02861 239.29924 241.68387
 244.31951 246.58514 248.60177 250.38141 251.81304 252.95067 253.78730 254.11794
 254.16957 253.95820 253.33284 252.29547 250.91610 249.09174 247.01537 244.86300
 242.66863 240.48727 238.32190 236.17553 234.05017 231.93180 229.97243 228.14406
 226.44170 224.92833 223.57296 222.35960 221.25623 220.23086 219.34949 218.50513
 217.76176 216.95639 216.06903 215.44766 214.91229 214.78606 214.48782 216.08667
 217.73151 218.58466 219.18164 219.73685 220.51970 222.67612 227.06252 230.67973
 233.30417 235.57834 238.08450 241.24052 244.93321 248.74625 252.46573 255.96452
 259.19870 262.24658 265.22842 268.20169 270.99091 273.53876 275.83942 277.71570
 279.10513 280.34641 281.56232 282.90167 284.08649 285.13815 286.09857 286.97382
 287.77063 288.48621 289.11954 289.93298
 366.78100 356.34992 345.79685 334.67777 323.09570 311.30462 299.18954 287.00747
 274.73439 262.64632 250.67024 239.98616 230.12309 221.24201 213.43894 206.45586
 200.30479 195.25771 191.85463 189.91156 188.96348 189.04241 189.89233 191.21525
 192.95518 195.06510 197.34303 199.71695 202.17687 204.67180 206.77472 208.63165
 210.27257 211.43249 211.67642 211.91934 211.87127 211.59119 211.23911 210.88404
 210.51596 210.24089 210.06381 209.94273 209.88566 210.23158 210.63251 211.03643
 211.84435 213.03728 214.30220 216.10013 218.04305 220.10098 222.21090 224.30882
 226.38375 228.48267 230.59460 232.71552 234.85944 237.04637 239.31729 241.70222
 244.33814 246.60406 248.62099 250.40091 251.83284 252.97076 253.80768 254.13861
 254.19053 253.97946 253.35438 252.31730 250.93823 249.11415 247.03808 244.88600
 242.69192 240.51085 238.34577 236.19970 234.07462 231.95655 229.99747 228.16939
 226.46732 224.95424 223.59917 222.38609 221.28301 220.25794 219.37686 218.53279
 217.78971 216.98463 216.09756 215.47648 214.94141 214.79604 214.45258 216.09923
 217.87044 218.75731 219.30544 219.81334 220.56418 222.65800 226.98126 230.53383
 233.11580 235.38928 237.95923 241.20175 244.93987 248.75826 252.45473 255.91891
 259.13629 262.18549 265.17850 268.15524 270.93845 273.47769 275.75977 277.60831
 279.00385 280.26962 281.52222 282.86435 284.04706 285.09924 286.05893 286.93320
 287.72998 288.44879 289.07852 289.89243
 366.78100 356.35007 345.79714 334.67821 323.09628 311.30535 299.19042 287.00849
 274.73555 262.64762 250.67169 239.98776 230.12483 221.24390 213.44097 206.45804
 200.30711 195.26018 191.85725 189.91432 188.96639 189.04546 189.89553 191.21859
 192.95866 195.06873 197.34680 199.72087 202.18094 204.67601 206.77908 208.63615
 210.27722 211.43729 211.68136 211.92443 211.87650 211.59657 211.24463 210.88970
 210.52177 210.24684 210.06991 209.94898 209.89205 210.23812 210.63919 211.04326
 211.85133 213.04440 214.30947 216.10754 218.05060 220.10867 222.21874 224.31681
 226.39188 228.49095 230.60302 232.72409 234.86816 237.05523 239.32630 241.71137
 244.34744 246.61351 248.63058 250.41064 251.84271 252.98078 253.81785 254.14892
 254.20099 253.99006 253.36513 252.32820 250.94927 249.12534 247.04941 244.89748
 242.70355 240.52262 238.35768 236.21175 234.08682 231.96889 230.00996 228.18203
 226.48010 224.96717 223.61224 222.39931 221.29638 220.27145 219.39052 218.54659
 217.80366 216.99872 216.11179 215.49086 214.95593 214.79698 214.42142 216.09460
 218.01115 218.94414 219.45364 219.89322 220.59612 222.62585 226.88734 230.37654
 232.92145 235.20312 237.84344 241.17377 244.95435 248.77466 252.44695 255.87773
 259.07877 262.12796 265.12964 268.10519 270.87811 273.40634 275.66205 277.48425
 278.89194 280.18744 281.47559 282.81790 284.00211 285.05319 286.01294 286.88708
 287.68323 288.40140 289.03250 289.84323
 366.78100 356.35005 345.79710 334.67815 323.09620 311.30525 299.19030 287.00834
 274.73539 262.64744 250.67149 239.98754 230.12459 221.24364 213.44069 206.45774
 200.30679 195.25984 191.85689 189.91393 188.96598 189.04503 189.89508 191.21813
 192.95818 195.06823 197.34628 199.72033 202.18038 204.67543 206.77848 208.63552
 210.27657 211.43662 211.68067 211.92372 211.87577 211.59582 211.24387 210.88892
 210.52097 210.24602 210.06907 209.94811 209.89116 210.23721 210.63826 211.04231
 211.85036 213.04341 214.30846 216.10651 218.04956 220.10761 222.21766 224.31571
 226.39075 228.48980 230.60185 232.72290 234.86695 237.05400 239.32505 241.71010
 244.34615 246.61220 248.62925 250.40930 251.84134 252.97939 253.81644 254.14749
 254.19954 253.98859 253.36364 252.32669 250.94774 249.12379 247.04784 244.89589
 242.70193 240.52098 238.35603 236.21008 234.08513 231.96718 230.00823 228.18028
 226.47833 224.96538 223.61043 222.39748 221.29452 220.26957 219.38862 218.54467
 217.80172 216.99677 216.10982 215.48887 214.95392 214.78804 214.39613 216.07645
 218.14665 219.12953 219.61574 219.97447 220.60503 222.57558 226.78932 230.21873
 232.73126 235.03011 237.74506 241.16165 244.98048 248.79712 252.44235 255.84019
 259.02405 262.07208 265.08069 268.04999 270.81143 273.32306 275.54681 277.34531
 278.76978 280.10132 281.42059 282.76672 283.94916 284.99973 285.95847 286.83380
 287.63065 288.34998 288.98022 289.78824
 366.78100 356.34980 345.79660 334.67739 323.09519 311.30399 299.18879 287.00659
 274.73338 262.64518 250.66898 239.98478 230.12158 221.24037 213.43717 206.45397
 200.30277 195.25557 191.85236 189.90916 188.96096 189.03976 189.88956 191.21235
 192.95215 195.06195 197.33975 199.71355 202.17334 204.66814 206.77094 208.62774
 210.26854 211.42833 211.67213 211.91493 211.86673 211.58653 211.23432 210.87912
 210.51092 210.23572 210.05852 209.93732 209.88011 210.22591 210.62671 211.03051
 211.83831 213.03110 214.29590 216.09370 218.03650 220.09430 222.20409 224.30189
 226.37669 228.47549 230.58729 232.70808 234.85188 237.03868 239.30948 241.69428
 244.33007 246.59587 248.61267 250.39247 251.82427 252.96206 253.79886 254.12966
 254.18146 253.97026 253.34505 252.30785 250.92865 249.10445 247.02825 244.87604
 242.68184 240.50064 238.33544 236.18924 234.06403 231.94583 229.98663 228.15843
 226.45623 224.94302 223.58782 222.37462 221.27142 220.24622 219.36501 218.52081
 217.77761 216.97241 216.08521 215.46400 214.92880 214.76762 214.38684 216.05466
 218.27367 219.30823 219.75757 220.04588 220.61813 222.52531 226.68257 230.05510
 232.54408 234.86938 237.66383 241.16472 245.01756 248.82678 252.44270 255.80724
 258.97266 262.01892 265.03256 267.98993 270.73529 273.22739 275.41568 277.19342
 278.64166 280.01074 281.35800 282.70380 283.88635 284.93552 285.89496 286.77103
 287.56924 288.28903 288.92038 289.73346
 366.78100 356.34953 345.79606 334.67659 323.09412 311.30265 299.18718 287.00471
 274.73124 262.64277 250.66630 239.98183 230.11836 221.23689 213.43342 206.44995
 200.29848 195.25101 191.84754 189.90407 188.95560 189.03413 189.88367 191.20620
 192.94573 195.05526 197.33279 199.70632 202.16585 204.66038 206.76291 208.61944
 210.25997 211.41950 211.66303 211.90556 211.85709 211.57662 211.22415 210.86868
 210.50021 210.22474 210.04727 209.92580 209.86833 210.21386 210.61439 211.01792
 211.82545 213.01798 214.28251 216.08004 218.02257 220.08010 222.18963 224.28716
 226.36169 228.46022 230.57175 232.69228 234.83581 237.02234 239.29287 241.67740
 244.31293 246.57847 248.59500 250.37453 251.80606 252.94359 253.78012 254.11065
 254.16218 253.95071 253.32524 252.28777 250.90830 249.08383 247.00736 244.85489
 242.66042 240.47895 238.31348 236.16701 234.04154 231.92307 229.96360 228.13513
 226.43266 224.91919 223.56372 222.35025 221.24678 220.22131 219.33984 218.49537
 217.75190 216.94643 216.05896 215.43749 214.90202 214.74960 214.38947 216.03951
 218.37393 219.46623 219.88487 220.11044 220.61528 222.46037 226.57971 229.90343
 232.37424 234.73312 237.60753 241.18968 245.07048 248.86508 252.44759 255.77861
 258.92487 261.96899 264.98642 267.92563 270.65173 273.11841 275.26700 277.03137
 278.51141 279.91669 281.28665 282.63132 283.81265 284.86246 285.82117 286.69855
 287.49619 288.22046 288.85141 289.66583
 366.78100 356.34947 345.79594 334.67641 323.09388 311.30235 299.18682 287.00429
 274.73076 262.64223 250.66570 239.98117 230.11765 221.23612 213.43259 206.44906
 200.29753 195.25000 191.84647 189.90294 188.95441 189.03288 189.88235 191.20482
 192.94429 195.05376 197.33123 199.70470 202.16417 204.65864 206.76111 208.61758
 210.25805 211.41752 211.66099 211.90346 211.85494 211.57441 211.22188 210.86635
 210.49782 210.22229 210.04476 209.92323 209.86570 210.21117 210.61164 211.01511
 211.82258 213.01505 214.27952 216.07699 218.01946 220.07693 222.18640 224.28387
 226.35834 228.45681 230.56828 232.68875 234.83223 237.01870 239.28917 241.67364
 244.30911 246.57458 248.59105 250.37052 251.80199 252.93946 253.77593 254.10640
 254.15787 253.94634 253.32081 252.28328 250.90375 249.07922 247.00269 244.85016
 242.65563 240.47410 238.30857 236.16204 234.03652 231.91799 229.95846 228.12993
 226.42740 224.91387 223.55834 222.34481 221.24128 220.21575 219.33422 218.48969
 217.74616 216.94063 216.05310 215.43157 214.89604 214.74707 214.39510 216.02017
 218.46342 219.59840 219.98083 220.15318 220.63489 222.41751 226.47174 229.74908
 232.21332 234.61517 237.57222 241.23225 245.13817 248.91733 252.46584 255.76215
 258.88589 261.92627 264.94330 267.85928 270.56116 272.99744 275.10889 276.86383
 278.37283 279.81296 281.20569 282.54913 283.73108 284.77960 285.73911 286.61536
 287.41721 288.14191 288.77298 289.59122
 366.78100 356.34889 345.79478 334.67467 323.09156 311.29945 299.18334 287.00023
 274.72611 262.63700 250.65989 239.97478 230.11067 221.22856 213.42445 206.44034
 200.28823 195.24012 191.83601 189.89190 188.94279 189.02068 189.86957 191.19146
 192.93034 195.03923 197.31612 199.68901 202.14790 204.64179 206.74368 208.59957
 210.23946 211.39835 211.64124 211.88313 211.83402 211.55291 211.19980 210.84369
 210.47457 210.19846 210.02035 209.89824 209.84013 210.18502 210.58491 210.98780
 211.79469 212.98658 214.25047 216.04736 217.98925 220.04614 222.15503 224.25192
 226.32580 228.42369 230.53458 232.65447 234.79736 236.98325 239.25314 241.63703
 244.27192 246.53681 248.55270 250.33159 251.76248 252.89937 253.73526 254.06514
 254.11603 253.90392 253.27781 252.23970 250.85959 249.03448 246.95737 244.80426
 242.60915 240.42704 238.26093 236.11382 233.98771 231.86860 229.90849 228.07937
 226.37626 224.86215 223.50604 222.29193 221.18782 220.16171 219.27960 218.43449
 217.69038 216.88427 215.99616 215.37405 214.83794 214.71727 214.43219 216.00238
 218.51810 219.70990 220.06703 220.20946 220.62115 222.32719 226.35947 229.60507
 232.06657 234.51538 237.55508 241.29201 245.22087 248.97939 252.49069 255.75403
 258.86105 261.90192 264.91800 267.80731 270.48117 272.88605 274.96417 276.71396
 278.24963 279.71143 281.10422 282.44031 283.62045 284.66895 285.62885 286.50620
 287.30698 288.03439 288.66730 289.48318
 366.78100 356.34691 345.79083 334.66874 323.08366 311.28957 299.17149 286.98640
 274.71032 262.61923 250.64014 239.95306 230.08697 221.20289 213.39680 206.41072
 200.25663 195.20655 191.80046 189.85437 188.90329 188.97920 189.82612 191.14603
 192.88295 194.98986 197.26477 199.63569 202.09260 204.58452 206.68443 208.53835
 210.17626 211.33318 211.57409 211.81400 211.76292 211.47983 211.12475 210.76666
 210.39558 210.11749 209.93741 209.81332 209.75323 210.09615 210.49406 210.89498
 211.69989 212.88981 214.15172 215.94664 217.88655 219.94146 222.04838 224.14329
 226.21521 228.31112 230.42004 232.53795 234.67887 236.86278 239.13069 241.51261
 244.14552 246.40844 248.42235 250.19927 251.62818 252.76309 253.59701 253.92492
 253.97384 253.75975 253.13167 252.09158 250.70950 248.88241 246.80332 244.64824
 242.45115 240.26707 238.09898 235.94990 233.82181 231.70073 229.73864 227.90755
 226.20247 224.68638 223.32830 222.11221 221.00613 219.97804 219.09396 218.24687
 217.50078 216.69270 215.80261 215.17853 214.64044 214.60489 214.52090 216.05225
 218.52623 219.77951 220.12006 220.12959 220.52052 222.25514 226.26044 229.48392
 231.95979 234.46983 237.59325 241.40208 245.34966 249.08615 252.55948 255.78685
 258.86386 261.88742 264.88461 267.73001 270.36115 272.71555 274.74564 276.49887
 278.08258 279.58170 281.00586 282.34772 283.52695 284.57581 285.53488 286.41284
 287.21683 287.94003 288.57446 289.39417
 366.78100 356.34509 345.78718 334.66327 323.07636 311.28045 299.16054 286.97363
 274.69572 262.60281 250.62189 239.93298 230.06507 221.17916 213.37125 206.38334
 200.22743 195.17552 191.76761 189.81970 188.86679 188.94088 189.78597 191.10406
 192.83915 194.94424 197.21733 199.58642 202.04151 204.53159 206.62968 208.48177
 210.11786 211.27295 211.51204 211.75013 211.69722 211.41231 211.05540 210.69549
 210.32258 210.04267 209.86076 209.73485 209.67294 210.01403 210.41012 210.80920
 211.61229 212.80038 214.06047 215.85356 217.79165 219.84474 221.94983 224.04292
 226.11301 228.20710 230.31419 232.43028 234.56937 236.75146 239.01755 241.39764
 244.02873 246.28982 248.30190 250.07699 251.50408 252.63717 253.46926 253.79535
 253.84244 253.62653 252.99662 251.95471 250.57080 248.74189 246.66098 244.50407
 242.30516 240.11925 237.94934 235.79843 233.66852 231.54560 229.58169 227.74878
 226.04187 224.52396 223.16405 221.94614 220.83823 219.80832 218.92241 218.07350
 217.32559 216.51568 215.62377 214.99786 214.45795 214.48633 214.55338 216.18394
 218.56668 219.80609 220.12238 219.97292 220.35970 222.17285 226.15930 229.37253
 231.87387 234.45183 237.66521 241.55371 245.53265 249.25490 252.68736 255.86942
 258.90530 261.90231 264.86502 267.65240 270.22144 272.50110 274.46521 276.20703
 277.82776 279.36826 280.78177 282.08759 283.25513 284.29987 285.25616 286.13272
 286.93216 287.65176 288.28629 289.11227
 366.78100 356.34554 345.78808 334.66462 323.07817 311.28271 299.16325 286.97679
 274.69933 262.60687 250.62641 239.93796 230.07050 221.18504 213.37758 206.39012
 200.23466 195.18320 191.77575 189.82829 188.87583 188.95037 189.79591 191.11445
 192.84999 194.95554 197.22908 199.59862 202.05416 204.54470 206.64324 208.49578
 210.13233 211.28787 211.52741 211.76595 211.71349 211.42903 211.07257 210.71312
 210.34066 210.06120 209.87974 209.75428 209.69282 210.03436 210.43091 210.83045
 211.63399 212.82253 214.08307 215.87661 217.81515 219.86870 221.97424 224.06778
 226.13832 228.23286 230.34040 232.45694 234.59649 236.77903 239.04557 241.42611
 244.05765 246.31919 248.33173 250.10728 251.53482 252.66836 253.50090 253.82744
 253.87498 253.65952 253.03007 251.98861 250.60515 248.77669 246.69623 244.53977
 242.34131 240.15586 237.98640 235.83594 233.70648 231.58402 229.62056 227.78810
 226.08165 224.56419 223.20473 221.98727 220.87981 219.85035 218.96489 218.11644
 217.36898 216.55952 215.66806 215.04260 214.50314 214.49055 214.46083 216.30894
 218.75713 219.90872 220.11151 219.77989 220.12903 222.00401 225.97997 229.17233
 231.71693 234.39143 237.72217 241.69249 245.70462 249.43304 252.84958 256.01620
 259.03049 261.99988 264.93951 267.67133 270.17645 272.38766 274.28363 275.99719
 277.66653 279.11215 280.46121 281.69620 282.81790 283.84854 284.80029 285.67471
 286.47180 287.19708 287.83286 288.66675
 366.78100 356.34734 345.79167 334.67001 323.08535 311.29169 299.17402 286.98936
 274.71370 262.62303 250.64437 239.95771 230.09205 221.20838 213.40272 206.41706
 200.26339 195.21373 191.80807 189.86240 188.91174 188.98808 189.83542 191.15575
 192.89309 195.00043 197.27576 199.64710 202.10444 204.59678 206.69711 208.55145
 210.18979 211.34712 211.58846 211.82880 211.77814 211.49547 211.14081 210.78315
 210.41248 210.13482 209.95516 209.83149 209.77183 210.11517 210.51351 210.91484
 211.72018 212.91052 214.17285 215.96819 217.90853 219.96387 222.07120 224.16654
 226.23888 228.33521 230.44455 232.56289 234.70423 236.88856 239.15690 241.53924
 244.17257 246.43591 248.45025 250.22758 251.65692 252.79226 253.62660 253.95493
 254.00427 253.79061 253.16294 252.12328 250.74162 248.91496 246.83629 244.68163
 242.48497 240.30130 238.13364 235.98498 233.85732 231.73665 229.77499 227.94433
 226.23966 224.72400 223.36634 222.15067 221.04501 220.01735 219.13369 218.28702
 217.54136 216.73370 215.84403 215.22037 214.68271 214.58337 214.34868 216.31088
 219.02933 220.19147 220.30275 219.66183 219.86534 221.78886 225.71986 228.84242
 231.38988 234.14970 237.63405 241.77840 245.89024 249.60744 252.99210 256.13553
 259.14130 262.11212 265.02249 267.71033 270.18539 272.38974 274.28687 276.01602
 277.60620 278.89172 280.11029 281.20395 282.19318 283.18347 284.12964 285.00125
 285.80414 286.53937 287.18738 288.02713
 366.78100 356.34842 345.79384 334.67326 323.08968 311.29710 299.18052 286.99694
 274.72236 262.63278 250.65520 239.96962 230.10504 221.22246 213.41788 206.43330
 200.28072 195.23213 191.82755 189.88297 188.93339 189.01081 189.85923 191.18065
 192.91907 195.02749 197.30391 199.67633 202.13475 204.62817 206.72959 208.58501
 210.22443 211.38285 211.62527 211.86669 211.81711 211.53553 211.18195 210.82537
 210.45579 210.17921 210.00063 209.87805 209.81947 210.16389 210.56331 210.96573
 211.77215 212.96357 214.22698 216.02340 217.96482 220.02124 222.12966 224.22608
 226.29950 228.39692 230.50734 232.62676 234.76918 236.95460 239.22402 241.60744
 244.24186 246.50628 248.52170 250.30012 251.73054 252.86696 253.70238 254.03180
 254.08222 253.86964 253.24306 252.20448 250.82390 248.99832 246.92074 244.76716
 242.57158 240.38900 238.22242 236.07483 233.94825 231.82867 229.86809 228.03851
 226.33493 224.82035 223.46377 222.24919 221.14461 220.11803 219.23545 218.38987
 217.64529 216.83871 215.95013 215.32755 214.79097 214.65370 214.32936 216.23361
 219.17117 220.44859 220.57463 219.73175 219.75989 221.66832 225.52362 228.57718
 231.10788 233.92355 237.53178 241.79703 245.96249 249.63623 252.95248 256.07230
 259.07568 262.07550 264.99677 267.68051 270.15991 272.39191 274.30887 276.09631
 277.66275 278.86932 280.02356 281.02042 281.90103 282.85913 283.80478 284.67728
 285.48300 286.21945 286.87564 287.71912
 366.78100 356.34778 345.79257 334.67135 323.08714 311.29392 299.17671 286.99249
 274.71728 262.62706 250.64885 239.96263 230.09742 221.21420 213.40898 206.42377
 200.27055 195.22134 191.81612 189.87091 188.92069 188.99748 189.84526 191.16605
 192.90383 195.01162 197.28740 199.65918 202.11697 204.60975 206.71054 208.56532
 210.20411 211.36189 211.60368 211.84446 211.79425 211.51203 211.15782 210.80060
 210.43039 210.15317 209.97395 209.85074 209.79152 210.13531 210.53409 210.93588
 211.74166 212.93245 214.19523 215.99102 217.93180 219.98759 222.09537 224.19115
 226.26394 228.36072 230.47051 232.58929 234.73108 236.91586 239.18465 241.56743
 244.20122 246.46500 248.47979 250.25757 251.68735 252.82314 253.65792 253.98671
 254.03649 253.82328 253.19606 252.15685 250.77563 248.94942 246.87120 244.71699
 242.52077 240.33755 238.17034 236.02212 233.89491 231.77469 229.81348 227.98326
 226.27905 224.76383 223.40662 222.19140 221.08619 220.05897 219.17576 218.32954
 217.58432 216.77711 215.88789 215.26468 214.72746 214.63037 214.40099 216.19060
 219.15080 220.55942 220.73409 219.78395 219.68364 221.59322 225.40019 228.42406
 230.96101 233.82326 237.51671 241.86050 246.05829 249.68623 252.95374 256.05917
 259.07153 262.09106 265.00848 267.66116 270.12735 272.34634 274.27542 276.09262
 277.62671 278.77274 279.88950 280.85965 281.73639 282.71671 283.66513 284.53992
 285.34366 286.08148 286.73544 287.57993
 366.78100 356.34598 345.78896 334.66594 323.07992 311.28491 299.16589 286.97987
 274.70285 262.61083 250.63081 239.94279 230.07577 221.19075 213.38373 206.39672
 200.24170 195.19068 191.78366 189.83664 188.88462 188.95960 189.80558 191.12456
 192.86054 194.96653 197.24051 199.61049 202.06647 204.55745 206.65643 208.50941
 210.14639 211.30237 211.54236 211.78134 211.72932 211.44530 211.08928 210.73026
 210.35824 210.07922 209.89820 209.77318 209.71217 210.05415 210.45113 210.85111
 211.65509 212.84407 214.10505 215.89903 217.83801 219.89200 221.99798 224.09196
 226.16294 228.25792 230.36590 232.48288 234.62286 236.80584 239.07282 241.45381
 244.08579 246.34777 248.36075 250.13673 251.56471 252.69869 253.53167 253.85865
 253.90663 253.69162 253.06260 252.02158 250.63856 248.81054 246.73052 244.57450
 242.37648 240.19146 238.02245 235.87243 233.74341 231.62139 229.65837 227.82635
 226.12033 224.60331 223.24429 222.02727 220.92026 219.89124 219.00622 218.15820
 217.41118 216.60216 215.71114 215.08612 214.54710 214.53906 214.52005 216.19223
 219.05035 220.59760 220.84132 219.82037 219.60222 221.50223 225.27104 228.27982
 230.82956 233.74466 237.51517 241.94458 246.16785 249.77866 253.01765 256.11661
 259.13083 262.15210 265.04187 267.64835 270.07141 272.24911 274.18881 276.01437
 277.48132 278.58554 279.67722 280.65247 281.57684 282.56604 283.51547 284.38715
 285.19003 285.92313 286.57660 287.42065
 366.78100 356.34427 345.78553 334.66080 323.07307 311.27633 299.15560 286.96787
 274.68913 262.59540 250.61367 239.92394 230.05520 221.16847 213.35974 206.37100
 200.21427 195.16154 191.75280 189.80407 188.85034 188.92360 189.76787 191.08514
 192.81940 194.92367 197.19594 199.56421 202.01847 204.50774 206.60501 208.45627
 210.09154 211.24581 211.48407 211.72134 211.66761 211.38187 211.02414 210.66341
 210.28967 210.00894 209.82621 209.69948 209.63674 209.97701 210.37228 210.77054
 211.57281 212.76008 214.01934 215.81161 217.74888 219.80114 221.90541 223.99768
 226.06694 228.16021 230.26648 232.38175 234.52001 236.70128 238.96655 241.34581
 243.97608 246.23635 248.24761 250.02188 251.44815 252.58041 253.41168 253.73695
 253.78321 253.56648 252.93575 251.89301 250.50828 248.67855 246.59682 244.43908
 242.23935 240.05262 237.88188 235.73015 233.59942 231.47568 229.51095 227.67722
 225.96948 224.45075 223.09002 221.87128 220.76255 219.73182 218.84509 217.99535
 217.24662 216.43589 215.54315 214.91642 214.37569 214.45154 214.63075 216.22168
 218.94106 220.60089 220.94498 219.89751 219.56038 221.42960 225.14114 228.11140
 230.67839 233.65192 237.50400 241.99284 246.25096 249.82822 253.03772 256.12750
 259.14557 262.17569 265.04785 267.63776 270.03006 272.18924 274.16574 275.98926
 277.40207 278.45694 279.52280 280.48404 281.42535 282.42133 283.36749 284.23856
 285.04510 285.78214 286.41840 287.24463
 366.78100 356.34384 345.78467 334.65951 323.07134 311.27418 299.15301 286.96485
 274.68568 262.59152 250.60935 239.91919 230.05002 221.16286 213.35369 206.36453
 200.20736 195.15420 191.74503 189.79587 188.84170 188.91454 189.75837 191.07521
 192.80904 194.91288 197.18472 199.55255 202.00639 204.49522 206.59206 208.44289
 210.07773 211.23156 211.46940 211.70623 211.65207 211.36590 211.00774 210.64657
 210.27241 209.99124 209.80808 209.68091 209.61775 209.95758 210.35242 210.75025
 211.55209 212.73892 213.99776 215.78959 217.72643 219.77827 221.88210 223.97394
 226.04277 228.13561 230.24144 232.35628 234.49411 236.67495 238.93978 241.31862
 243.94845 246.20829 248.21912 249.99296 251.41879 252.55063 253.38146 253.70630
 253.75213 253.53497 252.90380 251.86064 250.47547 248.64531 246.56315 244.40498
 242.20482 240.01765 237.84649 235.69432 233.56316 231.43899 229.47383 227.63966
 225.93150 224.41233 223.05117 221.83200 220.72284 219.69167 218.80451 217.95434
 217.20518 216.39401 215.50085 214.87368 214.33252 214.43773 214.68629 216.26872
 218.89418 220.58540 220.96552 219.91440 219.51715 221.35379 225.02475 227.99043
 230.55907 233.57837 237.50761 242.06084 246.31192 249.86252 253.04756 256.12558
 259.15359 262.19177 265.06537 267.63419 270.02960 272.19089 274.18423 275.97409
 277.35059 278.41815 279.50061 280.48807 281.41367 282.24457 283.15219 284.02393
 284.85156 285.59024 286.21429 287.04907
 366.78100 356.34328 345.78356 334.65783 323.06911 311.27139 299.14967 286.96095
 274.68123 262.58650 250.60378 239.91306 230.04334 221.15562 213.34590 206.35617
 200.19845 195.14473 191.73501 189.78529 188.83056 188.90284 189.74612 191.06240
 192.79568 194.89896 197.17023 199.53751 201.99079 204.47907 206.57535 208.42563
 210.05990 211.21318 211.45046 211.68674 211.63202 211.34530 210.98657 210.62485
 210.25013 209.96841 209.78469 209.65696 209.59324 209.93252 210.32680 210.72408
 211.52536 212.71163 213.96991 215.76119 217.69747 219.74875 221.85203 223.94330
 226.01158 228.10386 230.20914 232.32342 234.46069 236.64097 238.90525 241.28353
 243.91281 246.17209 248.18236 249.95564 251.38092 252.51220 253.34248 253.66676
 253.71203 253.49431 252.86259 251.81887 250.43315 248.60243 246.51970 244.36098
 242.16026 239.97254 237.80082 235.64809 233.51637 231.39165 229.42593 227.59121
 225.88249 224.36276 223.00104 221.78132 220.67160 219.63988 218.75216 217.90143
 217.15171 216.33999 215.44627 214.81855 214.27682 214.42325 214.76918 216.30203
 218.81163 220.59070 221.01514 219.90578 219.43147 221.28331 224.89900 227.79182
 230.39633 233.50426 237.55634 242.15221 246.36339 249.90160 253.07849 256.16718
 259.20126 262.26270 265.13358 267.68954 270.04257 272.20560 274.17047 275.88663
 277.22913 278.30023 279.41245 280.37198 281.25812 282.24619 283.20212 284.08136
 284.86874 285.56476 286.18121 287.00867
 366.78100 356.34280 345.78260 334.65640 323.06720 311.26899 299.14679 286.95759
 274.67739 262.58219 250.59899 239.90779 230.03759 221.14938 213.33918 206.34898
 200.19078 195.13658 191.72638 189.77618 188.82098 188.89278 189.73557 191.05137
 192.78417 194.88697 197.15777 199.52457 201.97737 204.46517 206.56096 208.41076
 210.04456 211.19736 211.43416 211.66996 211.61476 211.32756 210.96836 210.60615
 210.23095 209.94875 209.76455 209.63635 209.57215 209.91095 210.30475 210.70154
 211.50234 212.68814 213.94594 215.73674 217.67254 219.72334 221.82614 223.91694
 225.98473 228.07653 230.18133 232.29513 234.43193 236.61173 238.87553 241.25333
 243.88212 246.14092 248.15072 249.92352 251.34832 252.47912 253.30892 253.63272
 253.67751 253.45931 252.82711 251.78291 250.39671 248.56551 246.48231 244.32311
 242.12191 239.93370 237.76150 235.60830 233.47610 231.35090 229.38470 227.54950
 225.84030 224.32009 222.95789 221.73769 220.62749 219.59529 218.70709 217.85589
 217.10569 216.29349 215.39928 214.77108 214.22888 214.40959 214.83655 216.37961
 218.73631 220.52930 221.00470 219.90308 219.39113 221.17474 224.77887 227.73640
 230.31201 233.44766 237.59053 242.21179 246.39526 249.91415 253.10263 256.20175
 259.25635 262.31409 265.17615 267.72638 270.06595 272.21072 274.11856 275.85870
 277.23297 278.33951 279.41360 280.39899 281.20111 282.11578 283.07407 283.93256
 284.67712 285.37305 286.00848 286.85944
 366.78100 356.34542 345.78783 334.66425 323.07766 311.28208 299.16250 286.97591
 274.69833 262.60574 250.62516 239.93657 230.06899 221.18341 213.37582 206.38824
 200.23265 195.18107 191.77349 189.82590 188.87332 188.94773 189.79315 191.11156
 192.84698 194.95240 197.22581 199.59523 202.05064 204.54106 206.63948 208.49189
 210.12831 211.28372 211.52314 211.76155 211.70897 211.42439 211.06780 210.70822
 210.33563 210.05605 209.87447 209.74888 209.68730 210.02871 210.42513 210.82455
 211.62796 212.81638 214.07679 215.87021 217.80862 219.86204 221.96746 224.06087
 226.13129 228.22570 230.33312 232.44954 234.58895 236.77137 239.03778 241.41820
 244.04961 246.31103 248.32345 250.09886 251.52628 252.65969 253.49211 253.81853
 253.86594 253.65036 253.02077 251.97919 250.59560 248.76702 246.68644 244.52985
 242.33127 240.14568 237.97610 235.82552 233.69593 231.57335 229.60976 227.77718
 226.07060 224.55301 223.19343 221.97584 220.86826 219.83867 218.95309 218.10451
 217.35692 216.54734 215.65575 215.03017 214.49059 214.56784 214.75035 216.36815
 218.93382 220.74272 221.09128 219.72406 219.11687 221.06595 224.60728 227.35481
 230.03415 233.34041 237.66689 242.29886 246.45372 250.02669 253.19032 256.29105
 259.34097 262.43259 265.23828 267.69861 269.97351 272.08533 274.05728 275.66751
 277.07645 278.11966 279.29654 280.31476 281.08530 282.09152 283.06015 283.82465
 284.51074 285.21725 285.87042 286.73849
 366.78100 356.34745 345.79190 334.67035 323.08580 311.29225 299.17470 286.99015
 274.71460 262.62406 250.64551 239.95896 230.09341 221.20986 213.40431 206.41876
 200.26521 195.21566 191.81011 189.86456 188.91401 188.99046 189.83791 191.15836
 192.89581 195.00327 197.27872 199.65017 202.10762 204.60007 206.70052 208.55497
 210.19342 211.35087 211.59232 211.83277 211.78222 211.49967 211.14512 210.78757
 210.41702 210.13948 209.95993 209.83638 209.77683 210.12028 210.51873 210.92018
 211.72563 212.91608 214.17853 215.97398 217.91443 219.96988 222.07733 224.17278
 226.24523 228.34168 230.45114 232.56959 234.71104 236.89549 239.16394 241.54639
 244.17984 246.44329 248.45774 250.23519 251.66464 252.80009 253.63454 253.96299
 254.01244 253.79889 253.17135 252.13180 250.75025 248.92370 246.84515 244.69060
 242.49405 240.31050 238.14295 235.99440 233.86685 231.74630 229.78475 227.95420
 226.24965 224.73410 223.37656 222.16101 221.05546 220.02791 219.14436 218.29781
 217.55226 216.74471 215.85516 215.23161 214.69406 214.71814 214.81143 216.25121
 218.84967 220.73697 221.43713 220.06509 218.88306 220.57433 224.16895 227.23006
 229.70473 233.04990 237.51718 242.23051 246.36856 249.82910 253.19098 256.46088
 259.55347 262.56680 265.37195 267.79980 269.96597 271.82245 273.94089 275.74725
 277.00247 278.06366 279.00128 279.93179 280.89972 281.81482 282.68433 283.49631
 284.22900 284.88150 285.45148 286.17789
 366.78100 356.34216 345.78131 334.65447 323.06462 311.26578 299.14293 286.95309
 274.67225 262.57640 250.59256 239.90071 230.02987 221.14102 213.33018 206.33933
 200.18049 195.12565 191.71480 189.76396 188.80811 188.87927 189.72142 191.03658
 192.76874 194.87089 197.14105 199.50720 201.95936 204.44651 206.54167 208.39083
 210.02398 211.17614 211.41229 211.64745 211.59160 211.30376 210.94392 210.58107
 210.20523 209.92238 209.73754 209.60869 209.54385 209.88200 210.27516 210.67132
 211.47147 212.65663 213.91378 215.70394 217.63909 219.68925 221.79141 223.88156
 225.94872 228.03987 230.14403 232.25718 234.39334 236.57250 238.83565 241.21281
 243.84096 246.09912 248.10827 249.88043 251.30458 252.43474 253.26390 253.58705
 253.63121 253.41236 252.77952 251.73467 250.34783 248.51599 246.43214 244.27230
 242.07045 239.88161 237.70876 235.55492 233.42208 231.29623 229.32939 227.49354
 225.78370 224.26285 222.90001 221.67917 220.56832 219.53548 218.64663 217.79479
 217.04394 216.23110 215.33625 214.70741 214.16457 214.51929 215.34221 216.23195
 218.37347 220.67747 221.50632 220.47078 219.82558 221.05786 224.22745 227.03375
 229.58734 233.17915 237.64819 242.15337 246.01453 249.59238 252.97893 256.31390
 259.54343 262.61188 265.33191 267.80023 270.00174 272.01825 274.05234 275.65561
 276.96741 278.17920 279.41953 280.50864 281.45114 282.28503 283.04584 283.73508
 284.35498 284.90698 285.38922 286.00375
 366.78100 356.33607 345.76913 334.63620 323.04026 311.23533 299.10640 286.91046
 274.62353 262.52160 250.53166 239.83373 229.95679 221.06186 213.24493 206.24799
 200.08306 195.02213 191.60519 189.64826 188.68632 188.75139 189.58746 190.89652
 192.62259 194.71865 196.98272 199.34279 201.78885 204.26992 206.35899 208.20205
 209.82912 210.97518 211.20525 211.43432 211.37238 211.07845 210.71251 210.34358
 209.96165 209.67271 209.48178 209.34685 209.27591 209.60798 209.99504 210.38511
 211.17918 212.35824 213.60931 215.39338 217.32244 219.36651 221.46257 223.54664
 225.60771 227.69277 229.79084 231.89790 234.02797 236.20104 238.45810 240.82917
 243.45124 245.70330 247.70637 249.47243 250.89050 252.01457 252.83763 253.15470
 253.19277 252.96783 252.32890 251.27796 249.88503 248.04710 245.95716 243.79123
 241.58329 239.38836 237.20943 235.04949 232.91056 230.77863 228.80569 226.96376
 225.24782 223.72089 222.35196 221.12502 220.00809 218.96916 218.07422 217.21629
 216.45935 215.64042 214.73949 214.10455 213.55562 214.25043 215.72208 216.23250
 217.69853 220.27914 221.70354 220.87280 220.00035 221.12138 224.62155 227.31931
 229.86272 233.37862 237.79939 242.28090 246.17081 249.64398 252.94016 256.42145
 259.55725 262.55118 265.13092 267.63266 270.17941 272.23898 274.06158 275.57361
 276.85883 277.97897 278.94827 279.79938 280.53595 281.18762 281.78217 282.32080
 282.80524 283.23663 283.61349 284.09375
 366.78100 356.33890 345.77480 334.64471 323.05161 311.24951 299.12341 286.93031
 274.64622 262.54712 250.56002 239.86492 229.99082 221.09873 213.28463 206.29053
 200.12843 195.07033 191.65624 189.70214 188.74304 188.81094 189.64984 190.96175
 192.69065 194.78955 197.05645 199.41935 201.86826 204.35216 206.44406 208.28996
 209.91986 211.06877 211.30167 211.53357 211.47447 211.18338 210.82028 210.45418
 210.07508 209.78898 209.60089 209.46879 209.40069 209.73559 210.12549 210.51840
 211.31530 212.49720 213.75110 215.53800 217.46991 219.51681 221.61571 223.70261
 225.76651 227.85442 229.95532 232.06522 234.19812 236.37402 238.63393 241.00783
 243.63273 245.88763 247.89353 249.66244 251.08334 252.21024 253.03614 253.35604
 253.39695 253.17485 252.53875 251.49065 250.10055 248.26546 246.17836 244.01526
 241.81016 239.61806 237.44197 235.28487 233.14877 231.01967 229.04957 227.21048
 225.49738 223.97328 222.60718 221.38308 220.26899 219.23289 218.34079 217.48569
 216.73159 215.91550 215.01740 214.38530 213.83920 214.37811 215.64572 216.52173
 217.67422 219.72215 220.94081 220.52274 220.16383 221.49939 224.60606 227.49977
 229.98901 233.46014 237.86934 242.38847 246.28871 249.71141 253.07506 256.51956
 259.62863 262.54669 265.13580 267.58328 270.10196 272.19165 273.94336 275.43262
 277.00381 278.54416 280.02405 281.32352 282.44806 283.44302 284.35077 285.17313
 285.91275 286.57138 287.14676 287.88000
 366.78100 356.34126 345.77952 334.65177 323.06103 311.26129 299.13755 286.94680
 274.66506 262.56832 250.58358 239.89083 230.01909 221.12935 213.31761 206.32587
 200.16612 195.11038 191.69864 189.74690 188.79015 188.86041 189.70167 191.01593
 192.74718 194.84844 197.11770 199.48296 201.93422 204.42047 206.51473 208.36299
 209.99525 211.14650 211.38176 211.61602 211.55928 211.27053 210.90979 210.54605
 210.16931 209.88556 209.69982 209.57008 209.50434 209.84160 210.23385 210.62911
 211.42837 212.61263 213.86888 215.65814 217.59240 219.64166 221.74291 223.83217
 225.89843 227.98869 230.09195 232.20420 234.33946 236.51772 238.77998 241.15623
 243.78349 246.04075 248.04901 249.82026 251.24352 252.37278 253.20104 253.52330
 253.56655 253.34681 252.71307 251.66733 250.27958 248.44684 246.36210 244.20136
 241.99861 239.80887 237.63513 235.48039 233.34665 231.21990 229.25216 227.41542
 225.70468 224.18293 222.81919 221.59745 220.48571 219.45196 218.56222 217.70948
 216.95774 216.14400 215.24825 214.61851 214.07477 214.52634 215.60152 216.50572
 217.84532 219.87161 220.92599 220.29239 219.87610 221.25380 224.27821 227.26645
 229.84540 233.42693 237.89104 242.38199 246.17596 249.56952 253.05696 256.47949
 259.58020 262.51425 265.25809 267.58231 270.09326 272.13013 273.88138 275.48242
 277.02411 278.32709 279.66940 280.96732 282.09055 283.08432 283.99097 284.81235
 285.55109 286.20892 286.78360 287.51596
 366.78100 356.34033 345.77766 334.64899 323.05732 311.25665 299.13198 286.94031
 274.65764 262.55997 250.57430 239.88063 230.00796 221.11729 213.30462 206.31195
 200.15128 195.09461 191.68194 189.72927 188.77160 188.84093 189.68126 190.99459
 192.72492 194.82525 197.09358 199.45791 201.90824 204.39357 206.48690 208.33423
 209.96556 211.11589 211.35022 211.58355 211.52588 211.23621 210.87454 210.50987
 210.13220 209.84753 209.66086 209.53019 209.46352 209.79985 210.19118 210.58551
 211.38384 212.56717 213.82250 215.61083 217.54416 219.59249 221.69282 223.78115
 225.84648 227.93581 230.03814 232.14947 234.28380 236.46113 238.72246 241.09779
 243.72412 245.98045 247.98778 249.75811 251.18044 252.30877 253.13610 253.45743
 253.49976 253.27909 252.64442 251.59775 250.20908 248.37541 246.28974 244.12807
 241.92440 239.73373 237.55906 235.40339 233.26872 231.14105 229.17238 227.33471
 225.62304 224.10037 222.73570 221.51303 220.40036 219.36569 218.47501 217.62134
 216.86867 216.05400 215.15733 214.52666 213.98199 214.52960 215.76346 216.42552
 217.71216 219.89716 221.15668 220.45549 219.87265 221.17163 224.17407 227.12497
 229.71906 233.37891 237.91896 242.33011 246.09167 249.57011 253.12852 256.53308
 259.57245 262.46762 265.16086 267.71252 270.15857 272.14124 273.86310 275.33170
 276.76175 278.14081 279.68295 281.04266 282.21936 283.26044 284.21027 285.07074
 285.84467 286.53381 287.13586 287.90311
 366.78100 356.33963 345.77626 334.64689 323.05452 311.25315 299.12778 286.93541
 274.65204 262.55367 250.56730 239.87294 229.99957 221.10820 213.29483 206.30146
 200.14009 195.08272 191.66935 189.71598 188.75761 188.82624 189.66587 190.97850
 192.70813 194.80776 197.07539 199.43902 201.88865 204.37328 206.46591 208.31254
 209.94318 211.09281 211.32644 211.55907 211.50070 211.21033 210.84796 210.48259
 210.10422 209.81885 209.63148 209.50011 209.43274 209.76837 210.15900 210.55263
 211.35026 212.53289 213.78752 215.57515 217.50779 219.55542 221.65505 223.74268
 225.80731 227.89594 229.99757 232.10820 234.24183 236.41846 238.67909 241.05372
 243.67935 245.93498 247.94161 249.71124 251.13287 252.26050 253.08713 253.40776
 253.44939 253.22803 252.59266 251.54529 250.15592 248.32155 246.23518 244.07281
 241.86844 239.67707 237.50170 235.34533 233.20996 231.08159 229.11222 227.27385
 225.56148 224.03811 222.67274 221.44937 220.33600 219.30063 218.40927 217.55490
 216.80153 215.98616 215.08879 214.45742 213.91205 214.53662 215.91049 216.46805
 217.46271 219.68233 221.24588 220.56583 219.83183 221.10594 224.19225 227.10927
 229.79485 233.49124 237.98958 242.33986 246.11322 249.68214 253.25873 256.59882
 259.64926 262.60129 265.31519 267.81683 270.18781 272.16037 273.83405 275.25876
 276.70834 278.48541 280.05505 281.43332 282.62607 283.68137 284.64417 285.51639
 286.30087 286.99945 287.60971 288.38742
 366.78100 356.33990 345.77679 334.64769 323.05559 311.25448 299.12938 286.93728
 274.65417 262.55607 250.56997 239.87586 230.00276 221.11166 213.29855 206.30545
 200.14435 195.08724 191.67414 189.72104 188.76293 188.83183 189.67173 190.98462
 192.71452 194.81441 197.08231 199.44621 201.89610 204.38100 206.47390 208.32079
 209.95169 211.10159 211.33548 211.56838 211.51028 211.22017 210.85807 210.49297
 210.11486 209.82976 209.64266 209.51155 209.44445 209.78035 210.17124 210.56514
 211.36304 212.54593 213.80083 215.58873 217.52162 219.56952 221.66942 223.75731
 225.82221 227.91111 230.01300 232.12390 234.25780 236.43469 238.69559 241.07049
 243.69638 245.95228 247.95918 249.72907 251.15097 252.27887 253.10576 253.42666
 253.46855 253.24745 252.61235 251.56524 250.17614 248.34204 246.25593 244.09383
 241.88973 239.69862 237.52352 235.36742 233.23231 231.10421 229.13511 227.29700
 225.58490 224.06180 222.69669 221.47359 220.36049 219.32538 218.43428 217.58018
 216.82707 216.01197 215.11487 214.48376 213.93866 214.58289 216.00417 216.54573
 217.28276 219.39319 221.21426 220.61917 219.77785 221.04391 224.16156 227.05383
 229.74422 233.51387 238.06104 242.38457 246.14114 249.75937 253.37250 256.70551
 259.78680 262.71161 265.48801 268.04300 270.27820 272.19519 273.75900 275.16272
 276.87674 278.71744 280.31024 281.70886 282.91922 283.99011 284.96710 285.85223
 286.64828 287.35715 287.97644 288.76562
 366.78100 356.33993 345.77686 334.64778 323.05571 311.25464 299.12957 286.93749
 274.65442 262.55635 250.57028 239.87620 230.00313 221.11206 213.29899 206.30592
 200.14484 195.08777 191.67470 189.72163 188.76355 188.83248 189.67241 190.98534
 192.71527 194.81519 197.08312 199.44705 201.89698 204.38190 206.47483 208.32176
 209.95269 211.10261 211.33654 211.56947 211.51140 211.22133 210.85925 210.49418
 210.11611 209.83104 209.64396 209.51289 209.44582 209.78175 210.17268 210.56660
 211.36453 212.54746 213.80239 215.59031 217.52324 219.57117 221.67110 223.75902
 225.82395 227.91288 230.01481 232.12574 234.25966 236.43659 238.69752 241.07245
 243.69837 245.95430 247.96123 249.73116 251.15309 252.28101 253.10794 253.42887
 253.47080 253.24972 252.61465 251.56758 250.17851 248.34443 246.25836 244.09629
 241.89222 239.70115 237.52607 235.37000 233.23493 231.10686 229.13778 227.29971
 225.58764 224.06457 222.69950 221.47642 220.36335 219.32828 218.43721 217.58313
 216.83006 216.01499 215.11792 214.48684 213.94177 214.61931 216.09514 216.55637
 217.22118 219.23535 221.12819 220.61751 219.76407 221.03745 224.03322 226.95041
 229.65941 233.51428 238.10220 242.39262 246.15437 249.80690 253.41605 256.75616
 259.85483 262.76294 265.54333 268.12903 270.32169 272.18466 273.67767 275.06064
 276.87173 278.74960 280.37698 281.80594 283.04257 284.13669 285.13489 286.03918
 286.85251 287.57678 288.20947 289.01581
 366.78100 356.33974 345.77648 334.64722 323.05496 311.25370 299.12844 286.93618
 274.65293 262.55467 250.56841 239.87415 230.00089 221.10963 213.29637 206.30311
 200.14185 195.08459 191.67133 189.71807 188.75981 188.82855 189.66829 190.98103
 192.71078 194.81052 197.07826 199.44200 201.89174 204.37648 206.46922 208.31596
 209.94670 211.09644 211.33018 211.56292 211.50466 211.21440 210.85214 210.48689
 210.10863 209.82337 209.63611 209.50485 209.43759 209.77333 210.16407 210.55781
 211.35555 212.53829 213.79303 215.58077 217.51351 219.56125 221.66100 223.74874
 225.81348 227.90222 230.00396 232.11470 234.24844 236.42518 238.68592 241.06066
 243.68640 245.94214 247.94888 249.71862 251.14036 252.26810 253.09485 253.41559
 253.45733 253.23607 252.60081 251.55355 250.16429 248.33003 246.24377 244.08151
 241.87725 239.68599 237.51073 235.35447 233.21921 231.09096 229.12170 227.28344
 225.57118 224.04792 222.68266 221.45940 220.34614 219.31088 218.41962 217.56536
 216.81210 215.99684 215.09958 214.46832 213.92307 214.64783 216.19766 216.52985
 217.09604 219.19795 221.17554 220.65846 219.65395 220.90427 223.91049 226.81384
 229.57973 233.53780 238.15356 242.39885 246.15446 249.84492 253.45647 256.81284
 259.92505 262.82330 265.59317 268.15024 270.30573 272.16840 273.61133 274.98221
 276.86722 278.72690 280.33615 281.74918 282.97205 284.05399 285.04108 285.93530
 286.73956 287.45578 288.08142 288.87875
 366.78100 356.33906 345.77512 334.64518 323.05225 311.25031 299.12437 286.93143
 274.64749 262.54855 250.56161 239.86667 229.99274 221.10080 213.28686 206.29292
 200.13098 195.07304 191.65910 189.70517 188.74623 188.81429 189.65335 190.96541
 192.69447 194.79353 197.06059 199.42366 201.87272 204.35678 206.44884 208.29490
 209.92496 211.07402 211.30709 211.53915 211.48021 211.18927 210.82633 210.46039
 210.08145 209.79551 209.60758 209.47564 209.40770 209.74276 210.13282 210.52588
 211.32294 212.50501 213.75907 215.54613 217.47819 219.52525 221.62431 223.71137
 225.77543 227.86350 229.96456 232.07462 234.20768 236.38374 238.64380 241.01786
 243.64293 245.89799 247.90405 249.67311 251.09417 252.22123 253.04729 253.36735
 253.40842 253.18648 252.55054 251.50260 250.11266 248.27772 246.19078 244.02785
 241.82291 239.63097 237.45503 235.29809 233.16215 231.03321 229.06327 227.22434
 225.51140 223.98746 222.62152 221.39758 220.28364 219.24770 218.35577 217.50083
 216.74689 215.93095 215.03301 214.40107 213.85513 214.64961 216.32243 216.52457
 216.86794 219.04332 221.15965 220.65993 219.72183 220.77534 223.88715 226.75803
 229.57706 233.62277 238.23570 242.45366 246.21957 249.94083 253.55284 256.92493
 260.04321 262.94788 265.73306 268.22238 270.33856 272.12595 273.52545 274.95114
 277.12338 279.07541 280.76459 282.24780 283.53140 284.66705 285.70319 286.64182
 287.48602 288.23779 288.89453 289.73148
 366.78100 356.33890 345.77481 334.64471 323.05162 311.24952 299.12342 286.93033
 274.64623 262.54714 250.56004 239.86494 229.99085 221.09875 213.28466 206.29056
 200.12846 195.07037 191.65627 189.70218 188.74308 188.81098 189.64989 190.96179
 192.69070 194.78960 197.05650 199.41941 201.86831 204.35222 206.44412 208.29002
 209.91993 211.06883 211.30174 211.53364 211.47454 211.18345 210.82035 210.45426
 210.07516 209.78906 209.60097 209.46887 209.40078 209.73568 210.12558 210.51849
 211.31539 212.49730 213.75120 215.53810 217.47001 219.51691 221.61582 223.70272
 225.76662 227.85453 229.95543 232.06534 234.19824 236.37414 238.63405 241.00795
 243.63286 245.88776 247.89366 249.66257 251.08347 252.21038 253.03628 253.35618
 253.39709 253.17499 252.53890 251.49080 250.10070 248.26561 246.17851 244.01542
 241.81032 239.61823 237.44213 235.28503 233.14894 231.01984 229.04975 227.21065
 225.49755 223.97346 222.60736 221.38327 220.26917 219.23307 218.34098 217.48588
 216.73179 215.91569 215.01759 214.38550 213.83940 214.66632 216.41972 216.58324
 216.65370 218.77194 220.99223 220.47954 219.75543 220.85109 223.91241 226.77278
 229.59613 233.71246 238.35649 242.57170 246.35921 250.08493 253.69916 257.07596
 260.18234 263.08633 265.88959 268.35837 270.44125 272.12625 273.45993 274.93094
 276.97327 278.72382 280.23868 281.56879 282.71991 283.73837 284.66754 285.50931
 286.26639 286.94055 287.52951 288.28006
 366.78100 356.34173 345.78045 334.65318 323.06291 311.26363 299.14036 286.95009
 274.66881 262.57254 250.58827 239.89599 230.02472 221.13545 213.32417 206.33290
 200.17363 195.11835 191.70708 189.75581 188.79953 188.87026 189.71199 191.02671
 192.75844 194.86017 197.12990 199.49562 201.94735 204.43408 206.52880 208.37753
 210.01026 211.16198 211.39771 211.63244 211.57616 211.28789 210.92762 210.56434
 210.18807 209.90480 209.71952 209.59025 209.52498 209.86270 210.25543 210.65116
 211.45088 212.63561 213.89234 215.68206 217.61679 219.66652 221.76824 223.85797
 225.92470 228.01542 230.11915 232.23188 234.36760 236.54633 238.80906 241.18578
 243.81351 246.07124 248.07996 249.85169 251.27542 252.40514 253.23387 253.55660
 253.60032 253.38105 252.74778 251.70251 250.31523 248.48296 246.39869 244.23841
 242.03614 239.84687 237.67359 235.51932 233.38605 231.25977 229.29250 227.45623
 225.74595 224.22468 222.86141 221.64013 220.52886 219.49559 218.60631 217.75404
 217.00277 216.18949 215.29422 214.66495 214.12167 214.81183 216.38538 216.75388
 216.52852 218.42247 220.65042 220.28735 219.68132 220.87843 223.89450 226.75978
 229.61041 233.77338 238.43910 242.65553 246.47327 250.21147 253.83553 257.22528
 260.34988 263.26602 266.04221 268.49844 270.61090 272.40024 273.42554 274.90408
 277.37766 279.49789 281.33261 282.94360 284.33780 285.57129 286.69669 287.71619
 288.63315 289.44968 290.16299 291.07202
 366.78100 356.34394 345.78489 334.65983 323.07178 311.27472 299.15366 286.96561
 274.68655 262.59249 250.61044 239.92038 230.05133 221.16427 213.35521 206.36616
 200.20910 195.15605 191.74699 189.79793 188.84388 188.91682 189.76076 191.07771
 192.81165 194.91560 197.18754 199.55548 202.00943 204.49837 206.59532 208.44626
 210.08120 211.23515 211.47309 211.71003 211.65598 211.36992 211.01187 210.65081
 210.27675 209.99570 209.81264 209.68559 209.62253 209.96247 210.35742 210.75536
 211.55730 212.74425 214.00319 215.79514 217.73208 219.78402 221.88797 223.97991
 226.04885 228.14180 230.24774 232.36269 234.50063 236.68157 238.94652 241.32546
 243.95541 246.21535 248.22629 250.00024 251.42618 252.55812 253.38907 253.71401
 253.75996 253.54290 252.91184 251.86879 250.48373 248.65368 246.57162 244.41356
 242.21351 240.02645 237.85539 235.70334 233.57228 231.44823 229.48317 227.64911
 225.94106 224.42200 223.06095 221.84189 220.73283 219.70178 218.81472 217.96466
 217.21561 216.40455 215.51150 214.88444 214.34338 214.93584 216.33078 216.89906
 216.60970 218.01996 220.10164 220.05284 219.58134 221.08269 223.83980 226.75615
 229.63701 233.79916 238.48293 242.70390 246.55455 250.30717 253.94260 257.32578
 260.42429 263.30603 266.08282 268.58575 270.75574 272.60608 274.12039 275.23074
 277.31583 279.31345 281.04205 282.55991 283.87347 285.03564 286.09595 287.05649
 287.92041 288.68973 289.36182 290.21826
 366.78100 356.34331 345.78362 334.65792 323.06923 311.27154 299.14985 286.96115
 274.68146 262.58677 250.60408 239.91339 230.04369 221.15600 213.34631 206.35662
 200.19893 195.14523 191.73554 189.78585 188.83116 188.90346 189.74677 191.06308
 192.79639 194.89970 197.17100 199.53831 201.99162 204.47993 206.57624 208.42654
 210.06085 211.21416 211.45147 211.68777 211.63308 211.34639 210.98770 210.62601
 210.25131 209.96962 209.78593 209.65824 209.59455 209.93385 210.32816 210.72547
 211.52678 212.71308 213.97139 215.76270 217.69901 219.75032 221.85362 223.94493
 226.01324 228.10555 230.21086 232.32516 234.46247 236.64278 238.90709 241.28539
 243.91470 246.17401 248.18432 249.95763 251.38293 252.51424 253.34455 253.66886
 253.71417 253.49647 252.86478 251.82109 250.43540 248.60470 246.52201 244.36332
 242.16263 239.97494 237.80324 235.65055 233.51886 231.39417 229.42848 227.59378
 225.88509 224.36540 223.00371 221.78401 220.67432 219.64263 218.75494 217.90425
 217.15455 216.34286 215.44917 214.82148 214.27979 214.92633 216.38638 216.87874
 216.80096 217.74431 219.48932 219.77277 219.73152 221.23969 223.79808 226.78281
 229.57637 233.81403 238.56020 242.76929 246.61459 250.36409 253.97676 257.33890
 260.42334 263.30933 266.05200 268.48288 270.62543 272.55643 274.28912 275.72699
 276.99442 278.64825 280.23724 281.65311 282.87842 283.96249 284.95154 285.84756
 286.65341 287.37106 287.99796 288.79688
 366.78100 356.34222 345.78145 334.65467 323.06490 311.26612 299.14334 286.95357
 274.67279 262.57702 250.59324 239.90146 230.03069 221.14191 213.33114 206.34036
 200.18158 195.12681 191.71603 189.76526 188.80948 188.88070 189.72293 191.03815
 192.77038 194.87260 197.14282 199.50905 201.96127 204.44850 206.54372 208.39294
 210.02617 211.17839 211.41462 211.64984 211.59406 211.30629 210.94651 210.58374
 210.20796 209.92518 209.74041 209.61163 209.54686 209.88508 210.27830 210.67453
 211.47475 212.65998 213.91720 215.70743 217.64265 219.69287 221.79510 223.88532
 225.95255 228.04377 230.14799 232.26122 234.39744 236.57667 238.83989 241.21711
 243.84534 246.10356 248.11279 249.88501 251.30923 252.43946 253.26868 253.59191
 253.63613 253.41735 252.78458 251.73980 250.35303 248.52125 246.43747 244.27770
 242.07592 239.88715 237.71437 235.56059 233.42782 231.30204 229.33527 227.49949
 225.78971 224.26894 222.90616 221.68539 220.57461 219.54183 218.65306 217.80128
 217.05051 216.23773 215.34295 214.71418 214.17140 214.89233 216.49052 216.83846
 216.73520 217.77087 219.49060 219.60326 219.52939 221.10774 223.78424 226.69482
 229.55392 233.85406 238.62614 242.82335 246.65987 250.41464 254.04353 257.40442
 260.47009 263.36288 265.97763 268.34448 270.48199 272.42642 274.04324 275.77231
 276.89618 278.36557 279.99615 281.46939 282.74435 283.87238 284.90149 285.83383
 286.67236 287.41907 288.07138 288.90268
 366.78100 356.34359 345.78418 334.65877 323.07037 311.27296 299.15155 286.96314
 274.68373 262.58932 250.60692 239.91651 230.04710 221.15969 213.35028 206.36087
 200.20346 195.15006 191.74065 189.79124 188.83683 188.90942 189.75301 191.06960
 192.80320 194.90679 197.17838 199.54597 201.99956 204.48815 206.58475 208.43534
 210.06993 211.22352 211.46111 211.69770 211.64329 211.35689 210.99848 210.63707
 210.26266 209.98125 209.79784 209.67044 209.60703 209.94662 210.34121 210.73880
 211.54039 212.72698 213.98558 215.77717 217.71376 219.76535 221.86894 223.96053
 226.02912 228.12172 230.22731 232.34190 234.47949 236.66008 238.92467 241.30327
 243.93286 246.19245 248.20304 249.97663 251.40222 252.53381 253.36441 253.68900
 253.73459 253.51718 252.88577 251.84236 250.45695 248.62655 246.54414 244.38573
 242.18532 239.99791 237.82650 235.67410 233.54269 231.41828 229.45287 227.61846
 225.91005 224.39064 223.02924 221.80983 220.70042 219.66901 218.78160 217.93119
 217.18179 216.37038 215.47697 214.84956 214.30815 214.97673 216.48734 216.89603
 216.55374 217.75069 219.63492 219.47049 219.23427 220.92265 223.78789 226.71533
 229.76021 233.99332 238.61357 242.85504 246.76770 250.56363 254.21715 257.57379
 260.63181 263.47949 266.05002 268.40109 270.55264 272.41992 274.04733 275.60492
 277.08734 279.02853 280.72488 282.21442 283.50348 284.64398 285.68448 286.62714
 287.47495 288.22992 288.88943 289.72992
 366.78100 356.34530 345.78760 334.66391 323.07721 311.28151 299.16181 286.97512
 274.69742 262.60472 250.62402 239.93533 230.06763 221.18193 213.37423 206.38653
 200.23084 195.17914 191.77144 189.82374 188.87105 188.94535 189.79065 191.10895
 192.84426 194.94956 197.22286 199.59216 202.04747 204.53777 206.63607 208.48837
 210.12467 211.27998 211.51928 211.75758 211.70488 211.42019 211.06349 210.70379
 210.33109 210.05140 209.86970 209.74400 209.68230 210.02360 210.41991 210.81921
 211.62251 212.81081 214.07112 215.86442 217.80272 219.85602 221.96133 224.05463
 226.12493 228.21923 230.32654 232.44284 234.58214 236.76444 239.03074 241.41105
 244.04235 246.30365 248.31595 250.09126 251.51856 252.65186 253.48416 253.81047
 253.85777 253.64207 253.01237 251.97067 250.58698 248.75828 246.67758 244.52088
 242.32219 240.13649 237.96679 235.81609 233.68640 231.56370 229.60000 227.76730
 226.06060 224.54291 223.18321 221.96551 220.85781 219.82812 218.94242 218.09372
 217.34602 216.53633 215.64463 215.01893 214.47923 215.06978 216.45251 216.98479
 216.54001 217.50157 219.33620 219.18179 219.01395 220.88342 223.95392 226.85448
 229.91658 234.13245 238.74664 243.01135 246.93761 250.73830 254.39671 257.73950
 260.78433 263.63504 266.22449 268.56735 270.73648 272.56442 274.13397 275.85263
 277.71243 279.69583 281.41214 282.91919 284.22339 285.37729 286.43005 287.38376
 288.24155 289.00540 289.67267 290.52304
 366.78100 356.34412 345.78524 334.66037 323.07249 311.27561 299.15473 286.96685
 274.68797 262.59410 250.61222 239.92234 230.05346 221.16658 213.35770 206.36883
 200.21195 195.15907 191.75019 189.80131 188.84744 188.92056 189.76468 191.08180
 192.81592 194.92004 197.19217 199.56029 202.01441 204.50353 206.60065 208.45177
 210.08690 211.24102 211.47914 211.71626 211.66238 211.37650 211.01863 210.65775
 210.28387 210.00299 209.82011 209.69324 209.63036 209.97048 210.36560 210.76372
 211.56584 212.75297 214.01209 215.80421 217.74133 219.79345 221.89757 223.98970
 226.05882 228.15194 230.25806 232.37318 234.51131 236.69243 238.95755 241.33667
 243.96679 246.22691 248.23804 250.01216 251.43828 252.57040 253.40152 253.72664
 253.77277 253.55589 252.92501 251.88213 250.49725 248.66738 246.58550 244.42762
 242.22774 240.04086 237.86998 235.71811 233.58723 231.46335 229.49847 227.66459
 225.95671 224.43784 223.07696 221.85808 220.74920 219.71832 218.83145 217.98157
 217.23269 216.42181 215.52893 214.90205 214.36118 215.02444 216.50522 216.97560
 216.76962 217.40324 218.83624 218.74948 218.87828 220.89491 223.96292 226.94687
 229.98218 234.21704 238.85417 243.11256 247.03580 250.82970 254.47296 257.79190
 260.79605 263.62250 266.23901 268.58807 270.77396 272.72046 274.30035 276.15292
 277.86755 279.81540 281.53928 283.05301 284.36298 285.52197 286.57941 287.53735
 288.39890 289.16614 289.83636 290.69049
 366.78100 356.34277 345.78255 334.65632 323.06709 311.26887 299.14664 286.95741
 274.67719 262.58196 250.59873 239.90751 230.03728 221.14906 213.33883 206.34860
 200.19038 195.13615 191.72592 189.77570 188.82047 188.89224 189.73502 191.05079
 192.78356 194.88634 197.15711 199.52388 201.97666 204.46443 206.56020 208.40998
 210.04375 211.19653 211.43330 211.66907 211.61385 211.32662 210.96739 210.60517
 210.22994 209.94771 209.76349 209.63526 209.57103 209.90981 210.30358 210.70035
 211.50113 212.68690 213.94467 215.73545 217.67122 219.72199 221.82477 223.91554
 225.98332 228.07509 230.17986 232.29364 234.43041 236.61018 238.87396 241.25173
 243.88050 246.13928 248.14905 249.92182 251.34660 252.47737 253.30714 253.63092
 253.67569 253.45746 252.82524 251.78101 250.39479 248.56356 246.48033 244.32111
 242.11988 239.93165 237.75943 235.60620 233.47397 231.34875 229.38252 227.54729
 225.83807 224.31784 222.95561 221.73539 220.62516 219.59293 218.70471 217.85348
 217.10325 216.29103 215.39680 214.76858 214.22635 214.97035 216.56773 216.89467
 216.81900 217.50751 218.81659 218.56169 218.61511 220.71155 223.85579 226.87834
 229.99219 234.27174 238.89713 243.15678 247.09914 250.91872 254.57771 257.87125
 260.85794 263.64746 266.23404 268.58975 270.76434 272.69821 274.41501 276.23526
 278.16025 280.19467 281.95514 283.50092 284.83868 286.02228 287.10211 288.08035
 288.96017 289.74368 290.42813 291.30038
 366.78100 356.34443 345.78586 334.66129 323.07372 311.27715 299.15657 286.96900
 274.69043 262.59686 250.61529 239.92572 230.05715 221.17058 213.36201 206.37344
 200.21687 195.16429 191.75572 189.80715 188.85358 188.92701 189.77144 191.08887
 192.82330 194.92773 197.20016 199.56858 202.02301 204.51244 206.60987 208.46130
 210.09673 211.25116 211.48959 211.72702 211.67345 211.38788 211.03030 210.66973
 210.29616 210.01559 209.83302 209.70645 209.64388 209.98431 210.37974 210.77817
 211.58060 212.76802 214.02745 215.81988 217.75731 219.80974 221.91417 224.00660
 226.07603 228.16946 230.27589 232.39131 234.52974 236.71117 238.97660 241.35603
 243.98646 246.24689 248.25832 250.03275 251.45918 252.59161 253.42303 253.74846
 253.79489 253.57832 252.94775 251.90518 250.52061 248.69104 246.60947 244.45190
 242.25233 240.06575 237.89518 235.74361 233.61304 231.48947 229.52490 227.69133
 225.98376 224.46519 223.10462 221.88605 220.77747 219.74690 218.86033 218.01076
 217.26219 216.45162 215.55905 214.93248 214.39191 215.04338 216.49878 216.93544
 216.76044 217.43166 218.66327 218.45047 218.55779 220.70956 223.83975 226.89120
 230.01750 234.34235 238.99905 243.27040 247.22714 251.05678 254.71751 257.99466
 260.95432 263.74631 266.33481 268.69955 270.88412 272.87506 274.72473 276.55179
 278.45477 280.46280 282.22241 283.76752 285.10464 286.28766 287.36697 288.34476
 289.22418 290.00729 290.69144 291.56326
 366.78100 356.34645 345.78989 334.66734 323.08179 311.28724 299.16868 286.98313
 274.70658 262.61502 250.63547 239.94792 230.08136 221.19681 213.39026 206.40371
 200.24915 195.19860 191.79205 189.84549 188.89394 188.96939 189.81583 191.13528
 192.87173 194.97818 197.25262 199.62307 202.07952 204.57096 206.67041 208.52386
 210.16131 211.31775 211.55820 211.79765 211.74609 211.46254 211.10699 210.74843
 210.37688 210.09833 209.91778 209.79322 209.73267 210.07512 210.47256 210.87301
 211.67746 212.86691 214.12835 215.92280 217.86225 219.91669 222.02314 224.11759
 226.18903 228.28448 230.39293 232.51038 234.65082 236.83427 239.10172 241.48316
 244.11561 246.37806 248.39150 250.16795 251.59640 252.73085 253.56429 253.89174
 253.94019 253.72563 253.09708 252.05653 250.67398 248.84642 246.76687 244.61132
 242.41376 240.22921 238.06066 235.91110 233.78255 231.66100 229.69845 227.86689
 226.16134 224.64479 223.28623 222.06968 220.96313 219.93457 219.05002 218.20247
 217.45592 216.64736 215.75681 215.13226 214.59370 215.12724 216.39082 217.06979
 216.85110 217.27574 218.19934 218.16850 218.55753 220.71118 223.80568 226.92181
 230.01042 234.40778 239.13257 243.40028 247.35406 251.16377 254.78662 258.04724
 261.00607 263.77863 266.36755 268.74402 270.96591 273.04276 275.01187 276.90341
 278.47125 280.25882 281.95996 283.46234 284.76251 285.91281 286.96231 287.91309
 288.76819 289.52966 290.19489 291.04260
 366.78100 356.34699 345.79098 334.66897 323.08396 311.28996 299.17195 286.98694
 274.71093 262.61992 250.64091 239.95390 230.08789 221.20388 213.39787 206.41187
 200.25786 195.20785 191.80184 189.85583 188.90482 188.98081 189.82780 191.14779
 192.88478 194.99178 197.26677 199.63776 202.09475 204.58674 206.68673 208.54072
 210.17871 211.33570 211.57669 211.81669 211.76568 211.48267 211.12766 210.76965
 210.39864 210.12063 209.94062 209.81661 209.75660 210.09960 210.49759 210.89858
 211.70357 212.89356 214.15555 215.95054 217.89053 219.94552 222.05251 224.14751
 226.21950 228.31549 230.42448 232.54247 234.68346 236.86745 239.13544 241.51743
 244.15043 246.41342 248.42741 250.20440 251.63339 252.76838 253.60237 253.93036
 253.97935 253.76534 253.13734 252.09733 250.71532 248.88831 246.80930 244.65429
 242.45728 240.27327 238.10526 235.95625 233.82825 231.70724 229.74523 227.91422
 226.20921 224.69320 223.33519 222.11918 221.01317 219.98516 219.10116 218.25415
 217.50814 216.70013 215.81012 215.18611 214.64810 215.15335 216.35187 217.06268
 217.00006 217.35007 218.06909 217.90897 218.31912 220.50880 223.63428 226.82738
 229.98741 234.45862 239.21272 243.50156 247.47900 251.30327 254.95247 258.20847
 261.11514 263.82202 266.37735 268.73813 270.96683 273.15259 275.20276 277.05624
 278.55359 280.26459 281.96759 283.50009 284.82632 285.99973 287.07025 288.04007
 288.91232 289.68906 290.36761 291.23236
 366.78100 356.34649 345.78997 334.66746 323.08194 311.28743 299.16891 286.98340
 274.70689 262.61537 250.63586 239.94834 230.08183 221.19731 213.39080 206.40428
 200.24977 195.19926 191.79274 189.84623 188.89471 188.97020 189.81668 191.13617
 192.87266 194.97914 197.25363 199.62411 202.08060 204.57208 206.67157 208.52506
 210.16254 211.31903 211.55951 211.79900 211.74748 211.46397 211.10845 210.74994
 210.37843 210.09991 209.91940 209.79488 209.73437 210.07685 210.47434 210.87483
 211.67931 212.86880 214.13028 215.92477 217.86425 219.91874 222.02522 224.11971
 226.19120 228.28668 230.39517 232.51265 234.65314 236.83662 239.10411 241.48560
 244.11808 246.38057 248.39405 250.17054 251.59902 252.73351 253.56700 253.89448
 253.94297 253.72845 253.09994 252.05942 250.67691 248.84939 246.76988 244.61437
 242.41685 240.23234 238.06382 235.91431 233.78579 231.66428 229.70177 227.87025
 226.16474 224.64822 223.28971 222.07319 220.96668 219.93817 219.05365 218.20614
 217.45962 216.65111 215.76059 215.13608 214.59756 215.13423 216.36473 216.94315
 217.09079 217.49356 218.11105 217.81102 218.16039 220.33771 223.45807 226.71413
 229.97021 234.51361 239.28091 243.57686 247.56297 251.41403 255.09772 258.37003
 261.26782 263.94333 266.48538 268.83109 271.07410 273.36145 275.52319 277.36203
 278.67606 280.29651 282.00842 283.55215 284.88815 286.07013 287.14853 288.12546
 289.00412 289.78656 290.47009 291.34119
 366.78100 356.34519 345.78738 334.66358 323.07677 311.28096 299.16115 286.97435
 274.69654 262.60373 250.62292 239.93412 230.06631 221.18050 213.37269 206.38489
 200.22908 195.17727 191.76946 189.82166 188.86885 188.94304 189.78823 191.10643
 192.84162 194.94681 197.22000 199.58920 202.04439 204.53458 206.63277 208.48497
 210.12116 211.27635 211.51554 211.75374 211.70093 211.41612 211.05931 210.69951
 210.32670 210.04689 209.86508 209.73928 209.67747 210.01866 210.41485 210.81405
 211.61724 212.80543 214.06562 215.85882 217.79701 219.85020 221.95539 224.04859
 226.11878 228.21297 230.32016 232.43636 234.57555 236.75774 239.02393 241.40413
 244.03532 246.29651 248.30870 250.08390 251.51109 252.64428 253.47647 253.80266
 253.84986 253.63405 253.00424 251.96243 250.57863 248.74982 246.66901 244.51220
 242.31340 240.12759 237.95778 235.80697 233.67717 231.55436 229.59055 227.75774
 226.05094 224.53313 223.17332 221.95551 220.84771 219.81790 218.93209 218.08328
 217.33548 216.52567 215.63386 215.00805 214.46825 215.07167 216.41554 216.82404
 217.18748 217.59343 218.04768 217.71172 218.04341 220.18913 223.32472 226.60898
 230.01271 234.56993 239.34198 243.61816 247.59122 251.43254 255.09398 258.36682
 261.31323 264.04651 266.61923 268.97467 271.26068 273.61429 275.86224 277.70789
 279.18307 280.48691 282.04999 283.51303 284.77917 285.89938 286.92139 287.84726
 288.67999 289.42154 290.06934 290.89487
 366.78100 356.34421 345.78541 334.66062 323.07282 311.27603 299.15524 286.96744
 274.68865 262.59486 250.61306 239.92327 230.05447 221.16768 213.35889 206.37009
 200.21330 195.16050 191.75171 189.80292 188.84912 188.92233 189.76654 191.08374
 192.81795 194.92215 197.19436 199.56257 202.01677 204.50598 206.60318 208.45439
 210.08960 211.24380 211.48201 211.71921 211.66542 211.37963 211.02183 210.66104
 210.28725 210.00645 209.82366 209.69686 209.63407 209.97428 210.36948 210.76769
 211.56989 212.75710 214.01631 215.80851 217.74572 219.79793 221.90213 223.99434
 226.06354 228.15675 230.26296 232.37816 234.51637 236.69757 238.96278 241.34199
 243.97219 246.23240 248.24361 250.01781 251.44402 252.57622 253.40743 253.73264
 253.77884 253.56205 252.93125 251.88846 250.50367 248.67387 246.59208 244.43428
 242.23449 240.04770 237.87690 235.72511 233.59432 231.47052 229.50573 227.67193
 225.96414 224.44535 223.08455 221.86576 220.75696 219.72617 218.83938 217.98958
 217.24079 216.43000 215.53720 214.91041 214.36961 215.01729 216.46153 216.73190
 217.21469 217.72672 217.97755 217.54428 217.84178 219.97377 223.17738 226.48775
 230.07635 234.61667 239.33994 243.64677 247.64835 251.50928 255.15169 258.37656
 261.31918 264.08557 266.67596 269.05640 271.39404 273.88077 276.15012 278.01007
 279.61035 280.85349 282.00549 282.95667 283.94919 284.82730 285.62848 286.35425
 287.00702 287.58832 288.09613 288.74329
 366.78100 356.34609 345.78919 334.66628 323.08038 311.28547 299.16657 286.98066
 274.70376 262.61185 250.63195 239.94404 230.07713 221.19223 213.38532 206.39842
 200.24351 195.19261 191.78570 189.83880 188.88689 188.96199 189.80808 191.12717
 192.86327 194.96936 197.24346 199.61355 202.06965 204.56074 206.65984 208.51293
 210.15003 211.30612 211.54622 211.78531 211.73340 211.44950 211.09359 210.73469
 210.36278 210.08388 209.90297 209.77807 209.71716 210.05926 210.45635 210.85644
 211.66054 212.84963 214.11073 215.90482 217.84392 219.89801 222.00411 224.09820
 226.16930 228.26439 230.37248 232.48958 234.62967 236.81277 239.07986 241.46096
 244.09305 246.35515 248.36824 250.14434 251.57243 252.70652 253.53962 253.86671
 253.91481 253.69990 253.07100 252.03009 250.64719 248.81928 246.73938 244.58347
 242.38557 240.20066 238.03175 235.88185 233.75294 231.63104 229.66813 227.83623
 226.13032 224.61342 223.25451 222.03761 220.93070 219.90179 219.01689 218.16898
 217.42208 216.61317 215.72227 215.09736 214.55846 215.09280 216.33575 216.86230
 217.10457 217.59285 217.87097 217.39630 217.63092 219.77348 223.18269 226.34488
 230.11406 234.64423 239.37183 243.71797 247.73599 251.58597 255.17838 258.38052
 261.29175 264.03870 266.63538 269.07233 271.53418 274.06436 276.35532 278.25980
 279.90887 281.26385 282.26343 282.96289 283.34494 283.93991 284.75049 285.48480
 286.14523 286.73337 287.24713 287.90189
 366.78100 356.34784 345.79267 334.67151 323.08735 311.29419 299.17702 286.99286
 274.71770 262.62754 250.64937 239.96321 230.09805 221.21489 213.40972 206.42456
 200.27140 195.22224 191.81707 189.87191 188.92175 188.99859 189.84642 191.16726
 192.90510 195.01294 197.28877 199.66061 202.11845 204.61129 206.71212 208.56696
 210.20580 211.36363 211.60547 211.84631 211.79615 211.51398 211.15982 210.80266
 210.43250 210.15533 209.97617 209.85301 209.79385 210.13768 210.53652 210.93836
 211.74420 212.93503 214.19787 215.99371 217.93455 219.99038 222.09822 224.19406
 226.26690 228.36373 230.47357 232.59241 234.73425 236.91908 239.18792 241.57076
 244.20460 246.46843 248.48327 250.26111 251.69094 252.82678 253.66162 253.99046
 254.04029 253.82713 253.19997 252.16081 250.77964 248.95348 246.87532 244.72116
 242.52499 240.34183 238.17467 236.02651 233.89934 231.77918 229.81802 227.98786
 226.28369 224.76853 223.41137 222.19621 221.09104 220.06388 219.18072 218.33456
 217.58939 216.78223 215.89307 215.26990 214.73274 215.16664 216.19345 216.99831
 217.27313 217.64720 217.74585 217.14281 217.37585 219.63991 223.15601 226.12885
 230.11076 234.68602 239.45000 243.80734 247.82631 251.66515 255.24835 258.44620
 261.33313 264.02881 266.57983 269.05002 271.59506 274.17932 276.45816 278.33194
 279.94650 281.24710 282.19223 282.80017 283.13092 283.39008 283.97510 284.75171
 285.46878 286.10736 286.66519 287.37610
 366.78100 356.34687 345.79074 334.66861 323.08348 311.28934 299.17121 286.98608
 274.70995 262.61882 250.63969 239.95256 230.08643 221.20229 213.39616 206.41003
 200.25590 195.20577 191.79964 189.85351 188.90238 188.97824 189.82511 191.14498
 192.88185 194.98872 197.26359 199.63446 202.09133 204.58320 206.68306 208.53693
 210.17480 211.33167 211.57254 211.81241 211.76128 211.47815 211.12301 210.76488
 210.39375 210.11562 209.93549 209.81136 209.75123 210.09410 210.49196 210.89283
 211.69770 212.88757 214.14944 215.94431 217.88418 219.93905 222.04591 224.14078
 226.21265 228.30852 230.41739 232.53526 234.67613 236.86000 239.12787 241.50973
 244.14260 246.40547 248.41934 250.19621 251.62508 252.75995 253.59382 253.92168
 253.97055 253.75642 253.12829 252.08816 250.70603 248.87890 246.79977 244.64463
 242.44750 240.26337 238.09524 235.94611 233.81798 231.69685 229.73472 227.90359
 226.19845 224.68232 223.32419 222.10806 221.00193 219.97380 219.08967 218.24254
 217.49640 216.68827 215.79814 215.17401 214.63588 215.12132 216.26097 216.88033
 217.32353 217.75354 217.71356 217.02574 217.25064 219.43149 222.89111 226.15321
 230.11649 234.74103 239.49315 243.86928 247.91884 251.77084 255.36148 258.57516
 261.47458 264.14270 266.62997 269.02872 271.58093 274.26349 276.57202 278.42795
 280.02072 281.27069 282.09561 282.54846 282.77988 283.03607 283.70972 284.48557
 285.18335 285.80472 286.34753 287.03931
 366.78100 356.34502 345.78704 334.66307 323.07609 311.28011 299.16013 286.97316
 274.69518 262.60220 250.62122 239.93225 230.06427 221.17829 213.37031 206.38233
 200.22636 195.17438 191.76640 189.81842 188.86545 188.93947 189.78449 191.10251
 192.83754 194.94256 197.21558 199.58460 202.03963 204.52965 206.62767 208.47969
 210.11571 211.27074 211.50976 211.74778 211.69480 211.40983 211.05285 210.69287
 210.31989 210.03992 209.85794 209.73196 209.66998 210.01100 210.40703 210.80605
 211.60907 212.79709 214.05712 215.85014 217.78816 219.84118 221.94621 224.03923
 226.10925 228.20327 230.31030 232.42632 234.56534 236.74736 239.01338 241.39341
 244.02443 246.28545 248.29747 250.07250 251.49952 252.63254 253.46456 253.79059
 253.83761 253.62163 252.99165 251.94967 250.56570 248.73672 246.65574 244.49876
 242.29979 240.11381 237.94383 235.79285 233.66288 231.53990 229.57592 227.74294
 226.03596 224.51799 223.15801 221.94003 220.83205 219.80208 218.91610 218.06712
 217.31914 216.50917 215.61719 214.99121 214.45123 215.03630 216.38057 216.74782
 217.28287 217.88330 217.82690 217.06836 217.23604 219.30144 222.65627 226.17807
 230.14424 234.80774 239.55348 243.93845 248.00336 251.86714 255.45763 258.67789
 261.60147 264.27185 266.73608 269.10309 271.64627 274.33240 276.70261 278.59631
 280.18201 281.41519 282.16617 282.38321 282.38065 283.10440 283.91071 284.64117
 285.29813 285.88315 286.39423 287.04553
 366.78100 356.34560 345.78820 334.66481 323.07841 311.28301 299.16361 286.97722
 274.69982 262.60742 250.62702 239.93862 230.07123 221.18583 213.37843 206.39103
 200.23563 195.18424 191.77684 189.82944 188.87704 188.95165 189.79725 191.11585
 192.85145 194.95705 197.23066 199.60026 202.05586 204.54646 206.64506 208.49767
 210.13427 211.28987 211.52947 211.76808 211.71568 211.43128 211.07488 210.71548
 210.34309 210.06369 209.88229 209.75689 209.69550 210.03710 210.43370 210.83330
 211.63690 212.82551 214.08611 215.87971 217.81831 219.87191 221.97752 224.07112
 226.14172 228.23632 230.34393 232.46053 234.60013 236.78273 239.04933 241.42994
 244.06154 246.32314 248.33574 250.11134 251.53895 252.67255 253.50515 253.83175
 253.87936 253.66396 253.03456 251.99316 250.60976 248.78137 246.70097 244.54457
 242.34617 240.16078 237.99138 235.84098 233.71158 231.58918 229.62579 227.79339
 226.08699 224.56959 223.21019 221.99280 220.88540 219.85600 218.97060 218.12221
 217.37481 216.56541 215.67401 215.04861 214.50922 215.05731 216.33383 216.85094
 217.20193 217.75531 217.76326 216.99014 217.11954 219.16824 222.57089 226.11920
 230.18449 234.86630 239.62662 244.00822 248.07555 251.92253 255.49400 258.71359
 261.65256 264.34436 266.81158 269.12640 271.62506 274.39249 276.85324 278.76880
 280.39386 281.58331 282.25128 282.28601 282.21106 282.68753 283.48837 284.23599
 284.90839 285.50714 286.03021 286.69681
 366.78100 356.34780 345.79260 334.67141 323.08721 311.29401 299.17681 286.99262
 274.71742 262.62722 250.64902 239.96283 230.09763 221.21443 213.40923 206.42404
 200.27084 195.22164 191.81644 189.87125 188.92105 188.99785 189.84565 191.16646
 192.90426 195.01206 197.28786 199.65967 202.11747 204.61027 206.71107 208.56588
 210.20468 211.36248 211.60428 211.84509 211.79489 211.51269 211.15849 210.80130
 210.43110 210.15390 209.97470 209.85151 209.79231 210.13611 210.53491 210.93672
 211.74252 212.93332 214.19612 215.99193 217.93273 219.98853 222.09633 224.19214
 226.26494 228.36174 230.47154 232.59035 234.73215 236.91695 239.18575 241.56856
 244.20236 246.46616 248.48096 250.25877 251.68857 252.82437 253.65917 253.98798
 254.03778 253.82458 253.19738 252.15819 250.77699 248.95079 246.87259 244.71840
 242.52220 240.33900 238.17180 236.02361 233.89641 231.77621 229.81501 227.98482
 226.28062 224.76542 223.40822 222.19303 221.08783 220.06063 219.17743 218.33124
 217.58604 216.77884 215.88964 215.26645 214.72925 215.15440 216.16159 217.07239
 217.37918 217.71689 217.70274 216.79761 216.87863 218.97125 222.50464 225.96559
 230.21242 234.90619 239.69537 244.06609 248.13875 251.97397 255.54234 258.76129
 261.69833 264.39713 266.87103 269.21426 271.68549 274.43134 276.99182 278.95462
 280.53806 281.69171 282.27402 282.36703 282.24313 282.29337 282.75470 283.47775
 284.22653 284.89331 285.47580 286.21811
 366.78100 356.34789 345.79277 334.67166 323.08755 311.29444 299.17732 286.99321
 274.71810 262.62799 250.64987 239.96376 230.09865 221.21554 213.41042 206.42531
 200.27220 195.22308 191.81797 189.87286 188.92275 188.99963 189.84752 191.16841
 192.90630 195.01418 197.29007 199.66196 202.11984 204.61273 206.71362 208.56851
 210.20739 211.36528 211.60717 211.84806 211.79794 211.51583 211.16172 210.80461
 210.43449 210.15738 209.97827 209.85515 209.79604 210.13993 210.53882 210.94070
 211.74659 212.93748 214.20037 215.99625 217.93714 219.99303 222.10092 224.19680
 226.26969 228.36658 230.47646 232.59535 234.73724 236.92213 239.19101 241.57390
 244.20779 246.47168 248.48656 250.26445 251.69434 252.83023 253.66511 253.99400
 254.04389 253.83077 253.20366 252.16455 250.78344 248.95732 246.87921 244.72510
 242.52899 240.34587 238.17876 236.03065 233.90353 231.78342 229.82231 227.99220
 226.28808 224.77297 223.41586 222.20075 221.09563 220.06852 219.18541 218.33930
 217.59418 216.78707 215.89796 215.27484 214.73773 215.15332 216.13521 217.07788
 217.59682 217.78909 217.63280 216.71219 216.77621 218.79303 222.35100 225.87503
 230.24271 234.96001 239.76642 244.13103 248.21158 252.04752 255.62202 258.84619
 261.78656 264.46835 266.90964 269.22589 271.67596 274.44058 277.08002 279.08734
 280.65591 281.79010 282.35315 282.40851 282.28821 282.25793 282.55237 283.09491
 283.68008 284.32413 284.90533 285.64603
 366.78100 356.34652 345.79004 334.66756 323.08208 311.28760 299.16912 286.98364
 274.70716 262.61568 250.63620 239.94872 230.08224 221.19776 213.39128 206.40480
 200.25032 195.19984 191.79336 189.84688 188.89540 188.97092 189.81744 191.13696
 192.87348 194.98000 197.25452 199.62504 202.08156 204.57308 206.67260 208.52612
 210.16364 211.32016 211.56068 211.80020 211.74872 211.46524 211.10976 210.75128
 210.37980 210.10132 209.92084 209.79636 209.73588 210.07840 210.47592 210.87644
 211.68096 212.87048 214.13200 215.92652 217.86604 219.92056 222.02708 224.12160
 226.19312 228.28864 230.39716 232.51468 234.65520 236.83872 239.10624 241.48776
 244.12028 246.38280 248.39632 250.17284 251.60136 252.73588 253.56940 253.89692
 253.94544 253.73096 253.10248 252.06200 250.67952 248.85204 246.77256 244.61708
 242.41960 240.23512 238.06664 235.91716 233.78868 231.66720 229.70472 227.87324
 226.16776 224.65128 223.29280 222.07632 220.96984 219.94136 219.05688 218.20940
 217.46292 216.65444 215.76396 215.13948 214.60100 215.08473 216.22758 216.99930
 217.69568 217.88219 217.57378 216.54277 216.60707 218.63380 222.23558 225.89429
 230.25688 235.00458 239.82007 244.21196 248.30635 252.15575 255.74290 258.96960
 261.90921 264.57727 266.99548 269.25589 271.61383 274.36389 277.09473 279.19135
 280.75641 281.85855 282.35620 282.33716 282.17624 282.12766 282.36829 282.86258
 283.44730 284.05856 284.63019 285.35864
 354.97500 345.04800 334.58700 324.11500 313.32600 302.53700 291.65000 280.76700
 269.93100 259.19300 248.62200 238.61700 229.08700 220.35500 212.54000 205.53500
 199.46400 194.49300 191.14300 189.19000 188.08900 188.01400 188.72400 189.90600
 191.46900 193.38200 195.40300 197.55600 199.80700 202.06000 204.28800 206.47900
 208.55200 210.37800 212.02500 213.65900 214.99800 216.11800 217.17200 218.25900
 219.49400 220.64500 221.67900 222.61400 223.54500 224.98200 226.57100 228.19000
 229.79700 231.81100 233.86500 235.97200 238.24200 240.55300 242.89900 245.25300
 247.48800 249.53500 251.36600 252.84800 254.09800 255.16700 256.02700 256.25300
 256.09500 255.54300 253.93500 252.56600 251.38400 250.24500 249.05200 247.70100
 246.01600 243.99600 241.78400 239.39300 236.81300 234.22300 231.65800 229.14400
 226.74000 224.47300 222.33500 220.32500 218.44000 216.67700 214.96200 213.47200
 212.20000 211.10800 210.26000 209.63900 209.24400 209.03100 209.05800 209.33300
 209.78400 210.62600 211.33100 212.39100 213.62500 214.84668 217.72949 219.47640
 220.32566 220.86828 220.88710 220.27371 219.43733 218.84250 219.04934 220.86203
 222.60583 225.72206 229.03064 232.61777 236.12270 239.51333 242.70767 245.68587
 248.41061 250.90679 253.19353 254.91714 256.48655 257.94920 259.39966 260.69384
 261.81714 262.77997 263.71679 264.54570 265.26305 265.89772 266.47676 267.00133
 267.47312 267.89325 268.26027 268.72800
