|-------------------------------------------------------------------------|
|   File Name : in_temp.dat
|   Subject   : temperature profiles used for initial guess atmosphere
|   File Type : input of gmtr
|   Data Type : atmospherical data
|   Author/s  : WRF-Chem
|   Date      : Fri Jul 26 15:39:24 2024
|-------------------------------------------------------------------------|

 WRF-Chem temperature
#
 values of T (K)    (8f10.5)
#
 354.97500 345.04800 334.58700 324.11500 313.32600 302.53700 291.65000 280.76700
 269.93100 259.19300 248.62200 238.61700 229.08700 220.35500 212.54000 205.53500
 199.46400 194.49300 191.14300 189.19000 188.08900 188.01400 188.72400 189.90600
 191.46900 193.38200 195.40300 197.55600 199.80700 202.06000 204.28800 206.47900
 208.55200 210.37800 212.02500 213.65900 214.99800 216.11800 217.17200 218.25900
 219.49400 220.64500 221.67900 222.61400 223.54500 224.98200 226.57100 228.19000
 229.79700 231.81100 233.86500 235.97200 238.24200 240.55300 242.89900 245.25300
 247.48800 249.53500 251.36600 252.84800 254.09800 255.16700 256.02700 256.25300
 256.09500 255.54300 253.93500 252.56600 251.38400 250.24500 249.05200 247.70100
 246.01600 243.99600 241.78400 239.39300 236.81300 234.22300 231.65800 229.14400
 226.74000 224.47300 222.33500 220.32500 218.44000 216.67700 214.96200 213.47200
 212.20000 211.10800 210.26000 209.63900 209.24400 209.03100 209.05800 209.33300
 209.78400 210.62600 211.33100 212.39100 213.62500 214.84668 217.72949 219.47640
 220.32566 220.86828 220.88710 220.27371 219.43733 218.84250 219.04934 220.86203
 222.60583 225.72206 229.03064 232.61777 236.12270 239.51333 242.70767 245.68587
 248.41061 250.90679 253.19353 254.91714 256.48655 257.94920 259.39966 260.69384
 261.81714 262.77997 263.71679 264.54570 265.26305 265.89772 266.47676 267.00133
 267.47312 267.89325 268.26027 268.72800
 366.78100 356.33500 345.76700 334.63300 323.03600 311.23000 299.10000 286.90300
 274.61500 262.51200 250.52100 239.82200 229.94400 221.04800 213.23000 206.23200
 200.06600 195.00400 191.58600 189.62800 188.66500 188.72900 189.56400 190.87200
 192.59700 194.69200 196.95500 199.31400 201.75900 204.23900 206.32700 208.16900
 209.79500 210.94000 211.16900 211.39700 211.33400 211.03900 210.67200 210.30200
 209.91900 209.62900 209.43700 209.30100 209.22900 209.56000 209.94600 210.33500
 211.12800 212.30600 213.55600 215.33900 217.26700 219.31000 221.40500 223.48800
 225.54800 227.63200 229.72900 231.83500 233.96400 236.13600 238.39200 240.76200
 243.38300 245.63400 247.63600 249.40100 250.81800 251.94100 252.76300 253.07900
 253.11600 252.89000 252.25000 251.19800 249.80400 247.96500 245.87400 243.70700
 241.49800 239.30200 237.12200 234.96100 232.82100 230.68800 228.71400 226.87100
 225.15400 223.62600 222.25600 221.02800 219.91000 218.87000 217.97400 217.11500
 216.35700 215.53700 214.63500 213.99900 213.44900 212.85855 212.01316 212.61654
 214.26826 216.08686 218.14273 220.53346 223.40855 226.78828 231.49734 235.90155
 239.42278 243.28576 247.23140 251.11907 254.80144 258.23331 261.38913 264.27520
 266.89312 269.26852 271.44504 273.08845 274.58484 275.98591 277.39845 278.65879
 279.75272 280.69038 281.56708 282.34086 283.01050 283.60295 284.14348 284.63317
 285.07358 285.46577 285.80838 286.24500
 381.81900 372.39900 361.20600 349.77600 337.62200 324.85300 311.81000 298.35300
 284.86000 271.32400 258.56100 246.30400 236.08700 226.79600 218.44800 211.29000
 205.52200 200.89400 197.38100 194.84800 193.01500 192.31500 192.25000 192.43100
 192.91200 193.53700 194.13600 194.71200 195.26200 195.83100 196.39300 196.97600
 197.60400 198.14900 198.58400 199.05700 199.69500 200.37800 201.05400 201.70800
 202.31300 202.85700 203.35500 203.86200 204.56900 205.29700 206.02600 206.98700
 208.19300 209.44100 210.96900 212.57600 214.46200 216.51300 218.63000 220.85300
 223.34100 225.96200 228.73900 231.69700 234.70600 237.70600 240.69200 243.65700
 246.73700 249.69900 252.52100 255.06300 257.29000 259.23300 260.63300 261.68000
 262.46100 262.79800 262.69100 262.22400 261.06900 259.52500 257.70700 255.50700
 253.00100 250.30200 247.39800 244.45200 241.65400 239.05400 236.73300 234.59000
 232.59500 230.72500 228.83400 226.82600 224.66600 222.38700 220.10400 217.71500
 215.45900 213.06600 210.54600 208.09300 205.35400 202.08130 196.05959 200.71215
 209.01611 216.90438 223.84126 229.78593 235.00632 240.20838 245.98943 250.68668
 254.32982 257.93487 261.55666 264.96801 268.15192 271.06452 273.76717 276.25691
 278.57680 280.74479 282.77456 284.60533 286.27232 287.81705 289.31715 290.65561
 291.81734 292.81312 293.70701 294.49387 295.17482 295.77730 296.32696 296.82492
 297.27278 297.67160 298.02000 298.46400
 399.33000 389.90700 379.81300 368.66800 357.52200 345.30100 333.07400 320.22700
 307.21600 293.84800 280.37600 267.29600 254.61000 242.98700 232.15100 221.97700
 212.67200 204.28600 197.66900 192.82100 189.48600 187.45200 186.81400 187.08900
 187.78100 189.05400 190.64800 192.54200 194.63000 196.75200 198.67100 200.15800
 201.53500 202.48700 202.97500 203.34000 203.53900 203.49700 203.38500 203.24700
 203.00500 202.78600 202.60300 202.43700 202.42600 202.88800 203.42000 203.95100
 204.89500 205.99200 207.30100 208.95800 210.73800 213.10000 215.56400 218.18000
 220.96600 223.91800 226.96100 230.09200 233.29300 236.55700 239.95500 243.53700
 246.84500 249.39000 251.54200 253.47400 255.19500 256.48400 257.43100 258.05900
 258.21200 258.04000 257.58200 256.64300 255.23900 253.50700 251.40800 249.05600
 246.57600 243.99400 241.38900 238.83000 236.34400 233.98600 231.96900 230.11800
 228.42300 226.89900 225.54800 224.29700 223.10500 221.96500 220.95800 220.11300
 219.49000 218.92000 218.32500 217.88100 217.42300 216.96366 216.35568 216.80261
 217.73415 218.28582 218.64258 219.10077 220.44626 222.53987 226.38451 230.35736
 233.59734 237.39164 241.29814 245.22796 248.98002 252.51130 255.78595 258.80109
 261.54781 264.05210 266.34239 268.04198 269.58951 271.01303 272.35754 273.55718
 274.59842 275.49092 276.28989 276.99307 277.60161 278.14001 278.63122 279.07623
 279.47646 279.83287 280.14422 280.54100
 399.73800 389.78500 379.66200 368.15100 356.64100 344.35000 331.79200 318.88800
 305.72600 292.49300 279.20900 266.73800 254.69600 244.21100 234.45700 225.43300
 217.56900 210.45100 204.30000 199.30600 195.45800 192.57600 191.02700 190.38600
 190.23900 190.53400 191.16600 191.92500 192.79500 193.76600 194.73200 195.31200
 195.80000 196.05200 196.11500 196.11500 196.03900 195.72300 195.34000 194.98900
 194.75100 194.79200 195.13300 195.59800 196.50600 198.13600 199.85800 201.56600
 204.17900 206.82300 209.89300 213.28400 216.82800 220.60500 224.38700 228.20900
 232.03200 235.82500 239.56000 243.25800 246.84500 250.20100 253.70900 257.46800
 261.53000 264.22100 266.60100 268.68100 270.32900 271.74100 272.83600 273.47400
 273.89800 274.00200 273.75700 273.28800 272.37100 271.10000 269.58900 267.77900
 265.81600 263.72100 261.39300 258.91600 256.29800 253.42300 250.33100 247.11400
 243.83700 240.52900 237.24900 233.99900 230.72800 227.51500 224.25400 220.95200
 217.62700 213.65600 210.12100 206.78900 204.01000 201.99491 199.07309 198.76551
 199.40006 200.48994 201.46112 202.31912 203.45100 204.96110 207.47502 210.85391
 213.70530 217.29629 220.99574 224.72316 228.28753 231.64854 234.68024 237.40893
 239.70644 241.60899 243.46854 245.67368 247.68154 249.52395 251.24767 252.78566
 254.12057 255.26479 256.23740 257.09036 257.82852 258.48160 259.07744 259.61723
 260.10271 260.53504 260.91270 261.39400
 399.73800 389.78500 379.66200 368.15100 356.64100 344.35000 331.79200 318.88800
 305.72600 292.49300 279.20900 266.73800 254.69600 244.21100 234.45700 225.43300
 217.56900 210.45100 204.30000 199.30600 195.45800 192.57600 191.02700 190.38600
 190.23900 190.53400 191.16600 191.92500 192.79500 193.76600 194.73200 195.31200
 195.80000 196.05200 196.11500 196.11500 196.03900 195.72300 195.34000 194.98900
 194.75100 194.79200 195.13300 195.59800 196.50600 198.13600 199.85800 201.56600
 204.17900 206.82300 209.89300 213.28400 216.82800 220.60500 224.38700 228.20900
 232.03200 235.82500 239.56000 243.25800 246.84500 250.20100 253.70900 257.46800
 261.53000 264.22100 266.60100 268.68100 270.32900 271.74100 272.83600 273.47400
 273.89800 274.00200 273.75700 273.28800 272.37100 271.10000 269.58900 267.77900
 265.81600 263.72100 261.39300 258.91600 256.29800 253.42300 250.33100 247.11400
 243.83700 240.52900 237.24900 233.99900 230.72800 227.51500 224.25400 220.95200
 217.62700 213.65600 210.12100 206.78900 204.01000 201.99491 199.07309 198.76551
 199.40006 200.48994 201.46112 202.31912 203.45100 204.96110 207.47502 210.85391
 213.70530 217.29629 220.99574 224.72316 228.28753 231.64854 234.68024 237.40893
 239.70644 241.60899 243.46854 245.67368 247.68154 249.52395 251.24767 252.78566
 254.12057 255.26479 256.23740 257.09036 257.82852 258.48160 259.07744 259.61723
 260.10271 260.53504 260.91270 261.39400
 399.33000 389.90700 379.81300 368.66800 357.52200 345.30100 333.07400 320.22700
 307.21600 293.84800 280.37600 267.29600 254.61000 242.98700 232.15100 221.97700
 212.67200 204.28600 197.66900 192.82100 189.48600 187.45200 186.81400 187.08900
 187.78100 189.05400 190.64800 192.54200 194.63000 196.75200 198.67100 200.15800
 201.53500 202.48700 202.97500 203.34000 203.53900 203.49700 203.38500 203.24700
 203.00500 202.78600 202.60300 202.43700 202.42600 202.88800 203.42000 203.95100
 204.89500 205.99200 207.30100 208.95800 210.73800 213.10000 215.56400 218.18000
 220.96600 223.91800 226.96100 230.09200 233.29300 236.55700 239.95500 243.53700
 246.84500 249.39000 251.54200 253.47400 255.19500 256.48400 257.43100 258.05900
 258.21200 258.04000 257.58200 256.64300 255.23900 253.50700 251.40800 249.05600
 246.57600 243.99400 241.38900 238.83000 236.34400 233.98600 231.96900 230.11800
 228.42300 226.89900 225.54800 224.29700 223.10500 221.96500 220.95800 220.11300
 219.49000 218.92000 218.32500 217.88100 217.42300 216.96366 216.35568 216.80261
 217.73415 218.28582 218.64258 219.10077 220.44626 222.53987 226.38451 230.35736
 233.59734 237.39164 241.29814 245.22796 248.98002 252.51130 255.78595 258.80109
 261.54781 264.05210 266.34239 268.04198 269.58951 271.01303 272.35754 273.55718
 274.59842 275.49092 276.28989 276.99307 277.60161 278.14001 278.63122 279.07623
 279.47646 279.83287 280.14422 280.54100
 381.81900 372.39900 361.20600 349.77600 337.62200 324.85300 311.81000 298.35300
 284.86000 271.32400 258.56100 246.30400 236.08700 226.79600 218.44800 211.29000
 205.52200 200.89400 197.38100 194.84800 193.01500 192.31500 192.25000 192.43100
 192.91200 193.53700 194.13600 194.71200 195.26200 195.83100 196.39300 196.97600
 197.60400 198.14900 198.58400 199.05700 199.69500 200.37800 201.05400 201.70800
 202.31300 202.85700 203.35500 203.86200 204.56900 205.29700 206.02600 206.98700
 208.19300 209.44100 210.96900 212.57600 214.46200 216.51300 218.63000 220.85300
 223.34100 225.96200 228.73900 231.69700 234.70600 237.70600 240.69200 243.65700
 246.73700 249.69900 252.52100 255.06300 257.29000 259.23300 260.63300 261.68000
 262.46100 262.79800 262.69100 262.22400 261.06900 259.52500 257.70700 255.50700
 253.00100 250.30200 247.39800 244.45200 241.65400 239.05400 236.73300 234.59000
 232.59500 230.72500 228.83400 226.82600 224.66600 222.38700 220.10400 217.71500
 215.45900 213.06600 210.54600 208.09300 205.35400 202.08130 196.05959 200.71215
 209.01611 216.90438 223.84126 229.78593 235.00632 240.20838 245.98943 250.68668
 254.32982 257.93487 261.55666 264.96801 268.15192 271.06452 273.76717 276.25691
 278.57680 280.74479 282.77456 284.60533 286.27232 287.81705 289.31715 290.65561
 291.81734 292.81312 293.70701 294.49387 295.17482 295.77730 296.32696 296.82492
 297.27278 297.67160 298.02000 298.46400
 366.78100 356.33662 345.77024 334.63786 323.04248 311.23811 299.10973 286.91435
 274.62797 262.52659 250.53721 239.83983 229.96345 221.06907 213.25270 206.25632
 200.09194 195.03156 191.61518 189.65880 188.69742 188.76304 189.59967 190.90929
 192.63591 194.73253 196.99715 199.35777 201.80439 204.28601 206.37563 208.21926
 209.84688 210.99350 211.22412 211.45374 211.39236 211.09898 210.73360 210.36522
 209.98385 209.69547 209.50509 209.37071 209.30033 209.63295 210.02057 210.41119
 211.20581 212.38544 213.63706 215.42168 217.35130 219.39592 221.49254 223.57716
 225.63878 227.72441 229.82303 231.93065 234.06127 236.23489 238.49251 240.86413
 243.48675 245.73937 247.74300 249.50962 250.92824 252.05286 252.87648 253.19410
 253.23272 253.00834 252.36996 251.31959 249.92721 248.08983 246.00045 243.83507
 241.62769 239.43331 237.25493 235.09556 232.95718 230.82580 228.85342 227.01204
 225.29666 223.77028 222.40190 221.17552 220.05915 219.02077 218.12639 217.26901
 216.51263 215.69425 214.79387 214.15949 213.61111 213.05592 211.75266 212.38643
 213.95674 215.84489 217.14674 217.54300 218.62154 222.71864 228.54292 233.39098
 237.17290 240.94109 244.70766 248.41122 251.95284 255.01247 257.60989 260.08139
 262.67950 265.24387 267.66016 269.78989 271.82901 273.79010 275.42813 277.01816
 278.68472 280.34601 281.87012 283.23019 284.41235 285.46152 286.42371 287.29898
 288.09109 288.80127 289.42740 290.26291
 366.78100 356.33594 345.76888 334.63582 323.03976 311.23470 299.10564 286.90958
 274.62252 262.52045 250.53039 239.83233 229.95527 221.06021 213.24315 206.24609
 200.08103 195.01997 191.60291 189.64585 188.68379 188.74873 189.58467 190.89361
 192.61955 194.71548 196.97942 199.33936 201.78530 204.26624 206.35518 208.19812
 209.82506 210.97100 211.20094 211.42988 211.36782 211.07376 210.70770 210.33864
 209.95658 209.66751 209.47645 209.34139 209.27033 209.60227 209.98921 210.37915
 211.17309 212.35203 213.60297 215.38691 217.31585 219.35979 221.45573 223.53967
 225.60061 227.68554 229.78348 231.89042 234.02036 236.19330 238.45024 240.82118
 243.44312 245.69506 247.69800 249.46394 250.88188 252.00582 252.82876 253.14570
 253.18364 252.95857 252.31951 251.26845 249.87539 248.03733 245.94727 243.78121
 241.57315 239.37809 237.19903 235.03897 232.89991 230.76785 228.79479 226.95273
 225.23667 223.70961 222.34054 221.11348 219.99642 218.95736 218.06230 217.20424
 216.44718 215.62812 214.72706 214.09200 213.54294 213.02826 211.81947 212.50603
 214.08446 215.96547 217.17299 217.64639 218.63817 222.76097 228.47974 233.29846
 237.07393 240.84932 244.62804 248.31206 251.77103 254.80156 257.45139 259.98410
 262.52347 265.04990 267.50763 269.67133 271.71570 273.66647 275.30029 276.89490
 278.56433 280.22696 281.75391 283.11490 284.29764 285.34726 286.31058 287.18539
 287.97791 288.68695 289.31573 290.15152
 366.78100 356.33535 345.76770 334.63405 323.03741 311.23176 299.10211 286.90546
 274.61781 262.51516 250.52451 239.82586 229.94822 221.05257 213.23492 206.23727
 200.07162 195.00997 191.59232 189.63467 188.67203 188.73638 189.57173 190.88008
 192.60543 194.70078 196.96413 199.32349 201.76884 204.24919 206.33754 208.17989
 209.80624 210.95159 211.18094 211.40930 211.34665 211.05200 210.68535 210.31570
 209.93305 209.64340 209.45175 209.31611 209.24446 209.57581 209.96216 210.35151
 211.14486 212.32321 213.57357 215.35692 217.28527 219.32862 221.42397 223.50732
 225.56767 227.65202 229.74938 231.85573 233.98508 236.15743 238.41378 240.78413
 243.40548 245.65684 247.65919 249.42454 250.84189 251.96524 252.78759 253.10394
 253.14129 252.91565 252.27600 251.22435 249.83070 247.99205 245.90140 243.73475
 241.52610 239.33046 237.15081 234.99016 232.85051 230.71786 228.74421 226.90156
 225.18492 223.65727 222.28762 221.05997 219.94232 218.90267 218.00702 217.14837
 216.39073 215.57108 214.66943 214.03378 213.48413 213.00723 211.88647 212.61404
 214.19801 216.06378 217.23300 217.73761 218.71136 222.79758 228.42975 233.21342
 236.97765 240.75426 244.54179 248.20653 251.58481 254.58960 257.29785 259.89340
 262.36935 264.85992 267.34784 269.54770 271.60147 273.54117 275.16812 276.76682
 278.44647 280.11938 281.64993 283.01123 284.19458 285.24521 286.20700 287.08319
 287.87692 288.58749 289.21411 290.04739
 366.78100 356.33507 345.76714 334.63321 323.03627 311.23034 299.10041 286.90348
 274.61555 262.51262 250.52169 239.82276 229.94482 221.04889 213.23096 206.23303
 200.06710 195.00517 191.58724 189.62931 188.66637 188.73044 189.56551 190.87358
 192.59865 194.69372 196.95679 199.31586 201.76092 204.24099 206.32906 208.17113
 209.79720 210.94227 211.17134 211.39941 211.33647 211.04154 210.67461 210.30468
 209.92175 209.63182 209.43989 209.30395 209.23202 209.56309 209.94916 210.33823
 211.13130 212.30937 213.55944 215.34250 217.27057 219.31364 221.40871 223.49178
 225.55185 227.63592 229.73299 231.83905 233.96812 236.14019 238.39626 240.76633
 243.38740 245.63847 247.64054 249.40560 250.82267 251.94574 252.76781 253.08388
 253.12095 252.89502 252.25508 251.20315 249.80922 247.97029 245.87936 243.71243
 241.50350 239.30757 237.12763 234.96670 232.82677 230.69384 228.71991 226.87698
 225.16005 223.63212 222.26218 221.03425 219.91632 218.87639 217.98046 217.12153
 216.36360 215.54367 214.64173 214.00580 213.45587 213.00317 211.93842 212.72881
 214.30608 216.13118 217.31096 217.82094 218.82884 222.81425 228.38957 233.13710
 236.88121 240.65988 244.45268 248.10066 251.39940 254.37920 257.14728 259.80307
 262.22025 264.65704 267.17795 269.41879 271.49030 273.42389 275.05011 276.64749
 278.33939 280.00989 281.54321 282.90607 284.08926 285.14008 286.10364 286.97879
 287.77158 288.48367 289.11032 289.94702
 366.78100 356.33453 345.76606 334.63159 323.03411 311.22764 299.09717 286.89970
 274.61123 262.50776 250.51629 239.81681 229.93834 221.04187 213.22340 206.22493
 200.05846 194.99599 191.57751 189.61904 188.65557 188.71910 189.55363 190.86116
 192.58569 194.68021 196.94274 199.30127 201.74580 204.22533 206.31286 208.15439
 209.77991 210.92444 211.15297 211.38050 211.31703 211.02156 210.65409 210.28361
 209.90014 209.60967 209.41720 209.28073 209.20826 209.53878 209.92431 210.31284
 211.10537 212.28290 213.53243 215.31496 217.24248 219.28501 221.37954 223.46207
 225.52160 227.60513 229.70166 231.80718 233.93571 236.10724 238.36277 240.73230
 243.35283 245.60336 247.60488 249.36941 250.78594 251.90847 252.73000 253.04553
 253.08206 252.85558 252.21511 251.16264 249.76817 247.92870 245.83723 243.66976
 241.46028 239.26381 237.08334 234.92187 232.78140 230.64793 228.67346 226.82998
 225.11251 223.58404 222.21357 220.98510 219.86663 218.82616 217.92968 217.07021
 216.31174 215.49127 214.58880 213.95233 213.40186 212.98515 212.00420 212.85098
 214.41069 216.19231 217.37755 217.89578 218.95706 222.81805 228.35332 233.06479
 236.78435 240.56335 244.35791 247.98682 251.20912 254.16551 256.99411 259.70874
 262.07925 264.45392 267.00339 269.27744 271.36612 273.29785 274.93848 276.54688
 278.24246 279.90527 281.43863 282.80225 283.98535 285.03629 285.99878 286.87537
 287.66919 288.37979 289.00665 289.84567
 366.78100 356.33371 345.76443 334.62914 323.03086 311.22357 299.09229 286.89400
 274.60471 262.50043 250.50814 239.80786 229.92857 221.03128 213.21200 206.21271
 200.04543 194.98214 191.56286 189.60357 188.63928 188.70200 189.53571 190.84243
 192.56614 194.65985 196.92157 199.27928 201.72300 204.20171 206.28843 208.12914
 209.75385 210.89757 211.12528 211.35200 211.28771 210.99143 210.62314 210.25185
 209.86757 209.57628 209.38300 209.24571 209.17242 209.50214 209.88685 210.27457
 211.06628 212.24300 213.49171 215.27342 217.20014 219.24185 221.33557 223.41728
 225.47599 227.55871 229.65442 231.75914 233.88685 236.05757 238.31228 240.68099
 243.30071 245.55042 247.55114 249.31485 250.73057 251.85228 252.67299 252.98771
 253.02342 252.79614 252.15485 251.10156 249.70628 247.86599 245.77371 243.60542
 241.39514 239.19785 237.01656 234.85428 232.71299 230.57871 228.60342 226.75913
 225.04085 223.51156 222.14028 220.91099 219.79171 218.75042 217.85313 216.99285
 216.23356 215.41228 214.50899 213.87171 213.32042 212.95229 212.08479 212.97531
 214.51131 216.25883 217.43892 217.96706 219.07344 222.82709 228.32310 232.99481
 236.69104 240.46475 244.25882 247.86401 251.01265 253.94620 256.83084 259.60455
 261.93439 264.26645 266.82925 269.12607 271.23087 273.16699 274.82452 276.44928
 278.15103 279.81482 281.34952 282.71344 283.89771 284.94843 285.91068 286.78766
 287.58099 288.29221 288.91974 289.75943
 366.78100 356.33302 345.76304 334.62705 323.02807 311.22009 299.08811 286.88913
 274.59914 262.49416 250.50118 239.80020 229.92022 221.02224 213.20225 206.20227
 200.03429 194.97031 191.55033 189.59034 188.62536 188.68738 189.52040 190.82642
 192.54943 194.64245 196.90347 199.26049 201.70351 204.18152 206.26754 208.10756
 209.73158 210.87460 211.10161 211.32763 211.26265 210.96567 210.59669 210.22471
 209.83972 209.54774 209.35376 209.21578 209.14180 209.47081 209.85483 210.24185
 211.03287 212.20889 213.45690 215.23792 217.16394 219.20496 221.29798 223.37899
 225.43701 227.51903 229.61405 231.71807 233.84509 236.01510 238.26912 240.63714
 243.25616 245.50518 247.50519 249.26821 250.68323 251.80425 252.62427 252.93828
 252.97330 252.74532 252.10334 251.04936 249.65337 247.81239 245.71941 243.55043
 241.33945 239.14147 236.95948 234.79650 232.65452 230.51954 228.54356 226.69857
 224.97959 223.44961 222.07763 220.84765 219.72766 218.68568 217.78770 216.92672
 216.16674 215.34475 214.44077 213.80279 213.25081 212.92627 212.16063 213.09962
 214.60316 216.32695 217.51122 218.03926 219.18246 222.84506 228.29861 232.92886
 236.60484 240.37265 244.16522 247.74315 250.82101 253.72653 256.65881 259.49023
 261.78421 264.08664 266.64636 268.96320 271.08914 273.03754 274.70691 276.34866
 278.05554 279.75494 281.29675 282.66235 283.84775 284.90192 285.86755 286.74960
 287.55255 288.27100 288.90289 289.74384
 366.78100 356.33235 345.76170 334.62504 323.02539 311.21674 299.08409 286.88443
 274.59378 262.48813 250.49448 239.79283 229.91217 221.01352 213.19287 206.19222
 200.02356 194.95891 191.53826 189.57761 188.61196 188.67330 189.50565 190.81100
 192.53335 194.62569 196.88604 199.24239 201.68474 204.16209 206.24743 208.08678
 209.71013 210.85248 211.07882 211.30417 211.23852 210.94087 210.57122 210.19856
 209.81291 209.52026 209.32561 209.18695 209.11230 209.44065 209.82400 210.21035
 211.00069 212.17604 213.42339 215.20374 217.12908 219.16943 221.26178 223.34213
 225.39948 227.48082 229.57517 231.67852 233.80487 235.97421 238.22756 240.59491
 243.21326 245.46160 247.46095 249.22330 250.63765 251.75800 252.57734 252.89069
 252.92504 252.69639 252.05373 250.99908 249.60243 247.76078 245.66713 243.49747
 241.28582 239.08717 236.90452 234.74086 232.59821 230.46256 228.48591 226.64026
 224.92060 223.38995 222.01730 220.78665 219.66599 218.62334 217.72469 216.86304
 216.10239 215.27973 214.37508 213.73643 213.18378 212.90244 212.23779 213.22377
 214.68665 216.39268 217.58849 218.10518 219.30148 222.86037 228.27995 232.86526
 236.52026 240.28719 244.07751 247.62534 250.63475 253.50810 256.48056 259.36902
 261.64014 263.91504 266.46234 268.79858 270.94940 272.91159 274.59250 276.24960
 277.97318 279.70386 281.24976 282.61646 283.80310 284.85638 285.82407 286.70786
 287.51141 288.23325 288.86627 289.71375
 366.78100 356.33170 345.76039 334.62309 323.02278 311.21348 299.08017 286.87987
 274.58857 262.48226 250.48796 239.78565 229.90435 221.00504 213.18374 206.18244
 200.01313 194.94783 191.52652 189.56522 188.59892 188.65961 189.49131 190.79600
 192.51770 194.60939 196.86909 199.22479 201.66648 204.14318 206.22787 208.06657
 209.68926 210.83096 211.05666 211.28135 211.21505 210.91674 210.54644 210.17313
 209.78683 209.49353 209.29822 209.15892 209.08361 209.41131 209.79400 210.17970
 210.96940 212.14409 213.39079 215.17048 217.09518 219.13488 221.22657 223.30627
 225.36296 227.44366 229.53735 231.64005 233.76575 235.93444 238.18714 240.55383
 243.17153 245.41922 247.41792 249.17962 250.59331 251.71301 252.53170 252.84440
 252.87809 252.64879 252.00549 250.95018 249.55288 247.71057 245.61627 243.44597
 241.23366 239.03436 236.85105 234.68675 232.54344 230.40714 228.42984 226.58353
 224.86323 223.33192 221.95862 220.72731 219.60601 218.56271 217.66340 216.80110
 216.03979 215.21649 214.31118 213.67188 213.11858 212.88008 212.31664 213.35179
 214.76749 216.45506 217.66168 218.17285 219.42661 222.87788 228.25568 232.80136
 236.43774 240.20818 243.99228 247.50426 250.44524 253.28610 256.29413 259.23538
 261.49994 263.75031 266.28522 268.63849 270.81680 272.79654 274.49069 276.15588
 277.90680 279.65009 281.19794 282.56616 283.75336 284.80859 285.77591 286.66205
 287.46725 288.19046 288.82516 289.66797
 366.78100 356.33112 345.75924 334.62136 323.02048 311.21060 299.07672 286.87584
 274.58396 262.47707 250.48219 239.77931 229.89743 220.99755 213.17567 206.17379
 200.00391 194.93803 191.51615 189.55427 188.58739 188.64751 189.47863 190.78275
 192.50387 194.59499 196.85411 199.20922 201.65034 204.12646 206.21058 208.04870
 209.67082 210.81194 211.03706 211.26118 211.19430 210.89542 210.52454 210.15066
 209.76378 209.46990 209.27402 209.13414 209.05826 209.38537 209.76749 210.15261
 210.94173 212.11585 213.36197 215.14109 217.06521 219.10433 221.19545 223.27457
 225.33069 227.41081 229.50393 231.60605 233.73117 235.89929 238.15141 240.51752
 243.13464 245.38176 247.37988 249.14100 250.55412 251.67324 252.49136 252.80348
 252.83660 252.60672 251.96284 250.90696 249.50908 247.66620 245.57132 243.40044
 241.18755 238.98767 236.80379 234.63891 232.49503 230.35815 228.38027 226.53339
 224.81251 223.28063 221.90675 220.67487 219.55299 218.50911 217.60923 216.74635
 215.98447 215.16059 214.25470 213.61482 213.06094 212.86272 212.39438 213.47737
 214.85095 216.51451 217.74052 218.23090 219.57600 222.88365 228.23784 232.74173
 236.35654 240.12936 243.90450 247.37814 250.25447 253.06334 256.10052 259.08557
 261.35477 263.58905 266.11328 268.48416 270.69345 272.69931 274.41254 276.08612
 277.84546 279.59219 281.14230 282.51007 283.69934 284.75357 285.72388 286.60822
 287.41727 288.14270 288.77856 289.62448
 366.78100 356.33078 345.75855 334.62033 323.01911 311.20888 299.07466 286.87343
 274.58121 262.47399 250.47876 239.77554 229.89332 220.99309 213.17087 206.16864
 199.99842 194.93220 191.50997 189.54775 188.58053 188.64030 189.47108 190.77485
 192.49563 194.58641 196.84518 199.19996 201.64074 204.11651 206.20029 208.03806
 209.65984 210.80062 211.02539 211.24917 211.18195 210.88272 210.51150 210.13727
 209.75005 209.45583 209.25960 209.11938 209.04316 209.36993 209.75171 210.13648
 210.92526 212.09904 213.34481 215.12359 217.04737 219.08614 221.17692 223.25569
 225.31147 227.39125 229.48402 231.58580 233.71058 235.87835 238.13013 240.49590
 243.11268 245.35946 247.35723 249.11801 250.53079 251.64956 252.46734 252.77911
 252.81189 252.58167 251.93744 250.88122 249.48300 247.63977 245.54455 243.37333
 241.16010 238.95988 236.77565 234.61043 232.46621 230.32898 228.35076 226.50354
 224.78231 223.25009 221.87586 220.64364 219.52142 218.47719 217.57697 216.71375
 215.95152 215.12730 214.22107 213.58085 213.02663 212.85933 212.46404 213.59811
 214.93190 216.57849 217.81883 218.31197 219.72783 222.90161 228.21152 232.67838
 236.27760 240.05698 243.82213 247.25426 250.06393 252.83723 255.89391 258.91245
 261.19907 263.43295 265.94812 268.33780 270.57950 272.61392 274.34708 276.02960
 277.78442 279.53845 281.08917 282.45715 283.64682 284.70456 285.67426 286.56180
 287.37277 288.10080 288.73578 289.58545
 366.78100 356.33093 345.75885 334.62078 323.01971 311.20964 299.07556 286.87449
 274.58242 262.47535 250.48027 239.77720 229.89513 220.99506 213.17298 206.17091
 200.00084 194.93476 191.51269 189.55062 188.58355 188.64347 189.47440 190.77833
 192.49926 194.59018 196.84911 199.20404 201.64497 204.12089 206.20482 208.04275
 209.66467 210.80560 211.03053 211.25446 211.18738 210.88831 210.51724 210.14317
 209.75609 209.46202 209.26595 209.12588 209.04980 209.37673 209.75866 210.14358
 210.93251 212.10644 213.35237 215.13129 217.05522 219.09415 221.18508 223.26400
 225.31993 227.39986 229.49279 231.59471 233.71964 235.88757 238.13949 240.50542
 243.12235 245.36928 247.36720 249.12813 250.54106 251.65999 252.47791 252.78984
 252.82277 252.59269 251.94862 250.89255 249.49448 247.65140 245.55633 243.38526
 241.17219 238.97211 236.78804 234.62297 232.47890 230.34182 228.36375 226.51668
 224.79560 223.26353 221.88946 220.65739 219.53531 218.49124 217.59117 216.72810
 215.96602 215.14195 214.23588 213.59581 213.04173 212.88402 212.51135 213.72359
 215.00597 216.61952 217.94215 218.38950 219.91437 222.91840 228.18599 232.61983
 236.20190 239.98750 243.73570 247.11598 249.85851 252.60152 255.67595 258.72546
 261.05127 263.29980 265.80310 268.20813 270.48004 272.54431 274.29599 275.98483
 277.72409 279.46945 281.02014 282.38699 283.57458 284.62952 285.59647 286.48047
 287.28915 288.01270 288.63104 289.46915
 366.78100 356.33069 345.75838 334.62007 323.01875 311.20844 299.07413 286.87282
 274.58051 262.47320 250.47789 239.77458 229.89226 220.99195 213.16964 206.16733
 199.99702 194.93071 191.50840 189.54608 188.57877 188.63846 189.46915 190.77284
 192.49353 194.58422 196.84291 199.19759 201.63828 204.11397 206.19766 208.03535
 209.65704 210.79773 211.02242 211.24610 211.17879 210.87948 210.50817 210.13386
 209.74655 209.45224 209.25592 209.11561 209.03930 209.36599 209.74768 210.13237
 210.92106 212.09475 213.34043 215.11912 217.04281 219.08150 221.17219 223.25088
 225.30657 227.38625 229.47894 231.58063 233.70532 235.87301 238.12470 240.49039
 243.10708 245.35376 247.35145 249.11214 250.52483 251.64352 252.46121 252.77290
 252.80558 252.57527 251.93096 250.87465 249.47634 247.63303 245.53772 243.36641
 241.15309 238.95278 236.76847 234.60316 232.45885 230.32154 228.34323 226.49592
 224.77460 223.24229 221.86798 220.63567 219.51336 218.46905 217.56874 216.70542
 215.94311 215.11880 214.21249 213.57218 213.01787 212.89215 212.59514 213.82242
 215.07491 216.62090 218.02975 218.60318 220.13683 222.88809 228.16145 232.56442
 236.11682 239.90688 243.63495 246.96025 249.64470 252.36678 255.45848 258.53778
 260.91940 263.18817 265.67352 268.09055 270.39166 272.48883 274.25912 275.94925
 277.67310 279.40445 280.95312 282.31906 283.50748 284.56149 285.52692 286.41351
 287.22192 287.94510 288.56400 289.40338
 366.78100 356.33032 345.75765 334.61897 323.01730 311.20662 299.07195 286.87027
 274.57760 262.46992 250.47425 239.77057 229.88790 220.98722 213.16455 206.16187
 199.99120 194.92452 191.50185 189.53917 188.57150 188.63082 189.46115 190.76447
 192.48480 194.57512 196.83345 199.18777 201.62810 204.10342 206.18675 208.02407
 209.64540 210.78572 211.01005 211.23337 211.16570 210.86602 210.49435 210.11967
 209.73200 209.43732 209.24065 209.09997 209.02330 209.34962 209.73095 210.11527
 210.90360 212.07692 213.32225 215.10057 217.02390 219.06222 221.15255 223.23087
 225.28620 227.36552 229.45784 231.55917 233.68349 235.85082 238.10214 240.46747
 243.08379 245.33012 247.32744 249.08777 250.50009 251.61842 252.43574 252.74707
 252.77939 252.54872 251.90404 250.84737 249.44869 247.60502 245.50934 243.33767
 241.12399 238.92332 236.73864 234.57297 232.42829 230.29062 228.31194 226.46427
 224.74259 223.20992 221.83524 220.60257 219.47989 218.43522 217.53454 216.67087
 215.90819 215.08352 214.17684 213.53617 212.98149 212.89726 212.69826 213.89647
 215.18369 216.66927 218.01530 218.76234 220.33095 222.93678 228.13354 232.49333
 236.02257 239.82016 243.53371 246.81297 249.45062 252.15175 255.25034 258.35254
 260.79630 263.09335 265.56055 267.98682 270.31558 272.44623 274.23853 275.92871
 277.63617 279.34161 280.88733 282.25339 283.44019 284.49396 285.45969 286.34497
 287.15472 287.87320 288.49170 289.33282
 366.78100 356.33036 345.75773 334.61909 323.01745 311.20682 299.07218 286.87055
 274.57791 262.47027 250.47464 239.77100 229.88836 220.98773 213.16509 206.16246
 199.99182 194.92518 191.50255 189.53991 188.57227 188.63164 189.46200 190.76536
 192.48573 194.57609 196.83446 199.18882 201.62918 204.10455 206.18791 208.02527
 209.64664 210.78700 211.01136 211.23473 211.16709 210.86746 210.49582 210.12118
 209.73355 209.43891 209.24227 209.10164 209.02500 209.35137 209.73273 210.11709
 210.90546 212.07882 213.32418 215.10255 217.02591 219.06427 221.15464 223.23300
 225.28837 227.36773 229.46009 231.56146 233.68582 235.85318 238.10455 240.46991
 243.08627 245.33264 247.33000 249.09037 250.50273 251.62109 252.43846 252.74982
 252.78218 252.55155 251.90691 250.85028 249.45164 247.60800 245.51237 243.34073
 241.12709 238.92646 236.74182 234.57618 232.43155 230.29391 228.31528 226.46764
 224.74600 223.21337 221.83873 220.60609 219.48346 218.43882 217.53818 216.67455
 215.91191 215.08728 214.18064 213.54000 212.98537 212.92558 212.78435 213.97568
 215.28500 216.74330 218.02739 218.86745 220.44385 223.04842 228.08887 232.40102
 235.91945 239.72960 243.43153 246.66946 249.26845 251.95244 255.05315 258.17770
 260.69635 263.02399 265.48163 267.92203 270.27554 272.44379 274.26004 275.93491
 277.61237 279.27020 280.81180 282.17783 283.36340 284.41763 285.38254 286.26633
 287.08160 287.79416 288.41382 289.25702
 366.78100 356.33047 345.75794 334.61941 323.01788 311.20735 299.07283 286.87130
 274.57877 262.47124 250.47571 239.77218 229.88965 220.98912 213.16659 206.16406
 199.99354 194.92701 191.50448 189.54195 188.57442 188.63389 189.46436 190.76783
 192.48830 194.57877 196.83724 199.19172 201.63219 204.10766 206.19113 208.02860
 209.65007 210.79054 211.01501 211.23848 211.17095 210.87142 210.49990 210.12537
 209.73784 209.44331 209.24678 209.10625 209.02972 209.35619 209.73766 210.12213
 210.91060 212.08408 213.32955 215.10802 217.03149 219.06996 221.16043 223.23890
 225.29437 227.37384 229.46631 231.56779 233.69226 235.85973 238.11120 240.47667
 243.09314 245.33961 247.33708 249.09755 250.51002 251.62849 252.44597 252.75744
 252.78991 252.55938 251.91485 250.85832 249.45979 247.61626 245.52073 243.34920
 241.13567 238.93515 236.75062 234.58509 232.44056 230.30303 228.32450 226.47697
 224.75544 223.22291 221.84838 220.61586 219.49333 218.44880 217.54827 216.68474
 215.92221 215.09768 214.19115 213.55062 212.99609 212.96608 212.91249 214.01257
 215.33430 216.79430 218.06082 218.91237 220.44760 223.06502 227.98186 232.30707
 235.79135 239.63771 243.33717 246.54300 249.06984 251.71709 254.83864 258.01492
 260.66220 263.05496 265.47861 267.91666 270.28250 272.47079 274.35645 276.04721
 277.66263 279.23642 280.73972 282.10394 283.28735 284.33835 285.30051 286.18668
 286.99780 287.74680 288.41275 289.26141
 366.78100 356.33030 345.75760 334.61890 323.01719 311.20649 299.07179 286.87009
 274.57739 262.46969 250.47399 239.77029 229.88758 220.98688 213.16418 206.16148
 199.99078 194.92408 191.50138 189.53867 188.57097 188.63027 189.46057 190.76387
 192.48417 194.57447 196.83277 199.18706 201.62736 204.10266 206.18596 208.02326
 209.64456 210.78486 211.00915 211.23245 211.16475 210.86505 210.49335 210.11865
 209.73095 209.43625 209.23954 209.09884 209.02214 209.34844 209.72974 210.11404
 210.90234 212.07563 213.32093 215.09923 217.02253 219.06083 221.15113 223.22943
 225.28473 227.36402 229.45632 231.55762 233.68192 235.84922 238.10052 240.46582
 243.08211 245.32841 247.32571 249.08601 250.49831 251.61661 252.43391 252.74521
 252.77750 252.54680 251.90210 250.84540 249.44670 247.60300 245.50730 243.33559
 241.12189 238.92119 236.73649 234.57079 232.42609 230.28839 228.30969 226.46198
 224.74028 223.20758 221.83288 220.60018 219.47748 218.43278 217.53207 216.66837
 215.90567 215.08097 214.17427 213.53357 212.97887 212.99434 213.07713 214.11971
 215.31001 216.69833 218.04556 219.06253 220.61517 223.29517 227.89757 232.23167
 235.68442 239.51387 243.16740 246.30359 248.89929 251.58188 254.67503 257.80676
 260.57007 263.07266 265.51727 267.93393 270.29315 272.48328 274.39441 276.08444
 277.68680 279.23584 280.74854 282.12073 283.31467 284.38205 285.38312 286.36118
 287.27930 288.09692 288.81116 289.72137
 366.78100 356.33014 345.75728 334.61842 323.01656 311.20570 299.07084 286.86898
 274.57612 262.46826 250.47240 239.76854 229.88568 220.98482 213.16196 206.15910
 199.98824 194.92138 191.49852 189.53566 188.56780 188.62694 189.45708 190.76022
 192.48036 194.57050 196.82864 199.18278 201.62292 204.09806 206.18120 208.01834
 209.63948 210.77962 211.00376 211.22690 211.15904 210.85918 210.48732 210.11246
 209.72461 209.42975 209.23289 209.09203 209.01517 209.34131 209.72245 210.10659
 210.89473 212.06787 213.31301 215.09115 217.01429 219.05243 221.14257 223.22071
 225.27585 227.35499 229.44713 231.54827 233.67241 235.83955 238.09069 240.45583
 243.07197 245.31811 247.31525 249.07539 250.48753 251.60567 252.42281 252.73395
 252.76609 252.53523 251.89037 250.83351 249.43465 247.59079 245.49493 243.32307
 241.10921 238.90835 236.72349 234.55763 232.41277 230.27491 228.29605 226.44819
 224.72633 223.19347 221.81861 220.58575 219.46289 218.41803 217.51717 216.65331
 215.89045 215.06559 214.15873 213.51787 212.96301 213.01833 213.21118 214.26036
 215.31831 216.69740 218.07428 219.17395 220.76254 223.45592 227.86273 232.13828
 235.59424 239.39687 242.99988 246.06973 248.66937 251.37036 254.46085 257.59375
 260.41840 262.94318 265.43610 267.89322 270.26535 272.46198 274.38113 276.06793
 277.63376 279.20032 280.76004 282.13925 283.34650 284.43973 285.53015 286.55386
 287.47455 288.29446 289.01071 289.92346
 366.78100 356.32944 345.75588 334.61632 323.01376 311.20220 299.06664 286.86408
 274.57052 262.46196 250.46540 239.76084 229.87728 220.97572 213.15216 206.14860
 199.97704 194.90948 191.48592 189.52236 188.55380 188.61224 189.44168 190.74412
 192.46356 194.55300 196.81044 199.16388 201.60332 204.07776 206.16020 207.99664
 209.61708 210.75652 210.97996 211.20240 211.13384 210.83328 210.46072 210.08516
 209.69660 209.40104 209.20348 209.06192 208.98436 209.30980 209.69024 210.07368
 210.86112 212.03356 213.27800 215.05543 216.97787 219.01531 221.10475 223.18219
 225.23663 227.31507 229.40651 231.50695 233.63039 235.79683 238.04727 240.41171
 243.02715 245.27259 247.26903 249.02847 250.43991 251.55735 252.37379 252.68423
 252.71567 252.48411 251.83855 250.78099 249.38143 247.53687 245.44031 243.26775
 241.05319 238.85163 236.66607 234.49951 232.35395 230.21539 228.23583 226.38727
 224.66471 223.13115 221.75559 220.52203 219.39847 218.35291 217.45135 216.58679
 215.82323 214.99767 214.09011 213.44855 212.89299 213.00858 213.35280 214.40582
 215.45049 216.83339 218.18980 219.32306 220.94127 223.59531 227.84583 232.06667
 235.50699 239.27357 242.82489 245.84218 248.42711 251.14221 254.24246 257.40741
 260.15698 262.86139 265.39658 267.84061 270.20462 272.40448 274.31909 275.99725
 277.55399 279.12515 280.68909 282.08066 283.31558 284.51447 285.67059 286.71796
 287.65994 288.49878 289.23157 290.16544
 366.78100 356.32881 345.75462 334.61442 323.01123 311.19904 299.06285 286.85966
 274.56546 262.45627 250.45908 239.75389 229.86969 220.96750 213.14331 206.13912
 199.96693 194.89873 191.47454 189.51035 188.54116 188.59897 189.42777 190.72958
 192.44839 194.53720 196.79400 199.14681 201.58562 204.05943 206.14124 207.97704
 209.59685 210.73566 210.95847 211.18028 211.11108 210.80989 210.43670 210.06051
 209.67132 209.37512 209.17693 209.03474 208.95655 209.28135 209.66116 210.04397
 210.83078 212.00259 213.24639 215.02320 216.94501 218.98182 221.07063 223.14743
 225.20124 227.27905 229.36986 231.46967 233.59247 235.75828 238.00809 240.37190
 242.98670 245.23151 247.22732 248.98613 250.39694 251.51374 252.32955 252.63936
 252.67017 252.43798 251.79178 250.73359 249.33340 247.48821 245.39101 243.21782
 241.00263 238.80044 236.61425 234.44705 232.30086 230.16167 228.18148 226.33229
 224.60909 223.07490 221.69871 220.46452 219.34033 218.29413 217.39194 216.52675
 215.76256 214.93636 214.02817 213.38598 212.82979 213.01021 213.50880 214.48392
 215.59375 216.98897 218.33725 219.51599 221.14139 223.71536 227.85782 231.97972
 235.41408 239.13327 242.63156 245.60291 248.18935 250.93452 254.05554 257.27026
 260.05746 262.74438 265.44867 267.89786 270.19449 272.34372 274.20700 275.83176
 277.36377 279.12482 280.71335 282.16772 283.61447 284.91507 286.10165 287.17661
 288.14340 289.00436 289.75647 290.71494
 366.78100 356.33000 345.75700 334.61800 323.01600 311.20500 299.07000 286.86800
 274.57500 262.46699 250.47099 239.76699 229.88399 220.98299 213.15999 206.15699
 199.98599 194.91899 191.49599 189.53299 188.56499 188.62399 189.45399 190.75699
 192.47699 194.56699 196.82499 199.17898 201.61898 204.09398 206.17698 208.01398
 209.63498 210.77498 210.99898 211.22198 211.15398 210.85398 210.48198 210.10698
 209.71898 209.42398 209.22698 209.08598 209.00898 209.33497 209.71597 210.09997
 210.88797 212.06097 213.30597 215.08397 217.00697 219.04497 221.13497 223.21297
 225.26797 227.34697 229.43897 231.53997 233.66397 235.83097 238.08197 240.44696
 243.06296 245.30896 247.30596 249.06596 250.47796 251.59596 252.41296 252.72396
 252.75596 252.52496 251.87996 250.82296 249.42396 247.57996 245.48396 243.31196
 241.09796 238.89695 236.71195 234.54595 232.40095 230.26295 228.28395 226.43595
 224.71395 223.18095 221.80595 220.57295 219.44995 218.40495 217.50395 216.63995
 215.87695 215.05195 214.14495 213.50394 212.94894 213.09952 213.54399 214.57903
 215.74628 217.09666 218.44237 219.65839 221.29242 223.79686 227.83868 231.88853
 235.29376 238.95468 242.37489 245.28975 247.88095 250.66579 253.84027 257.10178
 260.07318 262.84613 265.52383 267.95648 270.23099 272.36014 274.21860 275.85608
 277.44983 279.24716 280.83832 282.32526 283.79227 285.09018 286.27432 287.34708
 288.31192 289.17111 289.92166 290.87817
 366.78100 356.33067 345.75835 334.62002 323.01869 311.20837 299.07404 286.87272
 274.58039 262.47306 250.47774 239.77441 229.89208 220.99176 213.16943 206.16711
 199.99678 194.93045 191.50813 189.54580 188.57847 188.63815 189.46882 190.77250
 192.49317 194.58384 196.84252 199.19719 201.63786 204.11354 206.19721 208.03489
 209.65656 210.79723 211.02191 211.24558 211.17825 210.87893 210.50760 210.13328
 209.74595 209.45162 209.25530 209.11497 209.03864 209.36532 209.74699 210.13167
 210.92034 212.09401 213.33969 215.11836 217.04203 219.08071 221.17138 223.25005
 225.30573 227.38540 229.47808 231.57975 233.70442 235.87210 238.12377 240.48944
 243.10612 245.35279 247.35047 249.11114 250.52381 251.64249 252.46016 252.77183
 252.80451 252.57418 251.92986 250.87353 249.47520 247.63188 245.53655 243.36522
 241.15190 238.95157 236.76725 234.60192 232.45759 230.32027 228.34194 226.49461
 224.77329 223.24096 221.86664 220.63431 219.51198 218.46766 217.56733 216.70400
 215.94168 215.11735 214.21103 213.57070 213.01637 213.15231 213.54604 214.70613
 215.81316 217.10773 218.48085 219.71815 221.40012 223.88243 227.78589 231.82820
 235.16940 238.75473 242.05855 244.90219 247.51308 250.36356 253.57828 256.86511
 259.96655 262.80441 265.44592 267.92960 270.27338 272.46255 274.41946 276.13629
 277.72699 279.29141 280.84662 282.22556 283.43811 284.58740 285.70502 286.71753
 287.62817 288.43909 289.14752 290.05029
 366.78100 356.33048 345.75797 334.61945 323.01793 311.20742 299.07290 286.87139
 274.57887 262.47135 250.47584 239.77232 229.88980 220.98929 213.16677 206.16425
 199.99374 194.92722 191.50470 189.54219 188.57467 188.63416 189.46464 190.76812
 192.48861 194.57909 196.83757 199.19206 201.63254 204.10802 206.19151 208.02899
 209.65048 210.79096 211.01544 211.23893 211.17141 210.87189 210.50038 210.12586
 209.73834 209.44383 209.24731 209.10679 209.03028 209.35676 209.73825 210.12273
 210.91121 212.08470 213.33018 215.10866 217.03215 219.07063 221.16111 223.23960
 225.29508 227.37457 229.46705 231.56853 233.69302 235.86050 238.11198 240.47747
 243.09395 245.34043 247.33792 249.09840 250.51088 251.62937 252.44685 252.75834
 252.79082 252.56030 251.91579 250.85927 249.46075 247.61724 245.52172 243.35020
 241.13669 238.93617 236.75166 234.58614 232.44162 230.30411 228.32559 226.47807
 224.75656 223.22404 221.84952 220.61701 219.49449 218.44998 217.54946 216.68594
 215.92343 215.09891 214.19239 213.55188 212.99736 213.15073 213.55110 215.00655
 215.93213 217.14520 218.65408 219.88512 221.55373 223.92937 227.79672 231.73679
 235.07877 238.59857 241.77554 244.51019 247.08490 249.96901 253.25337 256.58337
 259.72009 262.61148 265.28238 267.80591 270.20099 272.44083 274.47522 276.28674
 277.93246 279.42642 280.81021 282.17648 283.36096 284.41934 285.40088 286.28970
 287.13190 287.88998 288.55222 289.39621
 366.78100 356.33032 345.75764 334.61896 323.01728 311.20661 299.07193 286.87025
 274.57757 262.46989 250.47421 239.77053 229.88785 220.98718 213.16450 206.16182
 199.99114 194.92446 191.50178 189.53910 188.57142 188.63075 189.46107 190.76439
 192.48471 194.57503 196.83335 199.18767 201.62799 204.10332 206.18664 208.02396
 209.64528 210.78560 211.00992 211.23324 211.16556 210.86589 210.49421 210.11953
 209.73185 209.43717 209.24049 209.09981 209.02313 209.34946 209.73078 210.11510
 210.90342 212.07674 213.32206 215.10038 217.02370 219.06203 221.15235 223.23067
 225.28599 227.36531 229.45763 231.55895 233.68327 235.85060 238.10192 240.46724
 243.08356 245.32988 247.32720 249.08752 250.49984 251.61817 252.43549 252.74681
 252.77913 252.54845 251.90377 250.84709 249.44841 247.60474 245.50906 243.33738
 241.12370 238.92302 236.73834 234.57266 232.42798 230.29031 228.31163 226.46395
 224.74227 223.20959 221.83491 220.60223 219.47955 218.43488 217.53420 216.67052
 215.90784 215.08316 214.17648 213.53580 212.98112 213.16194 213.59715 215.14978
 216.11035 217.38539 218.86835 220.06442 221.71819 224.00949 227.85408 231.67274
 234.97574 238.37340 241.40532 244.06349 246.67378 249.63519 252.99223 256.37189
 259.55099 262.47546 265.16367 267.70148 270.10272 272.34824 274.41342 276.27719
 277.97739 279.51398 280.86215 282.11337 283.27823 284.32449 285.28320 286.13501
 286.90485 287.60999 288.25937 289.08694
 366.78100 356.33043 345.75785 334.61928 323.01770 311.20713 299.07255 286.87098
 274.57840 262.47083 250.47525 239.77168 229.88910 220.98853 213.16595 206.16338
 199.99280 194.92623 191.50365 189.54108 188.57350 188.63293 189.46335 190.76678
 192.48720 194.57763 196.83605 199.19048 201.63090 204.10633 206.18975 208.02718
 209.64860 210.78903 211.01345 211.23688 211.16930 210.86973 210.49815 210.12358
 209.73600 209.44143 209.24485 209.10428 209.02770 209.35413 209.73555 210.11998
 210.90840 212.08183 213.32725 215.10568 217.02910 219.06753 221.15795 223.23638
 225.29180 227.37123 229.46365 231.56508 233.68950 235.85693 238.10835 240.47378
 243.09020 245.33663 247.33405 249.09448 250.50690 251.62533 252.44275 252.75418
 252.78660 252.55603 251.91145 250.85488 249.45630 247.61273 245.51715 243.34558
 241.13200 238.93143 236.74685 234.58128 232.43670 230.29913 228.32055 226.47298
 224.75140 223.21883 221.84425 220.61168 219.48910 218.44453 217.54395 216.68038
 215.91780 215.09323 214.18665 213.54608 212.99150 213.19244 213.66719 215.24606
 216.26816 217.61703 219.00270 220.18707 221.85851 224.10721 227.90933 231.63496
 234.88104 238.15977 241.05629 243.64668 246.31659 249.37106 252.78084 256.19598
 259.41031 262.36722 265.08588 267.63217 270.01926 272.24719 274.31723 276.21869
 277.97369 279.54099 280.91800 282.14890 283.25836 284.30627 285.25723 286.07663
 286.80759 287.49701 288.12473 288.94690
 366.78100 356.33063 345.75826 334.61989 323.01852 311.20814 299.07377 286.87240
 274.58003 262.47266 250.47729 239.77392 229.89155 220.99118 213.16880 206.16643
 199.99606 194.92969 191.50732 189.54495 188.57758 188.63721 189.46784 190.77146
 192.49209 194.58272 196.84135 199.19598 201.63661 204.11224 206.19587 208.03349
 209.65512 210.79575 211.02038 211.24401 211.17664 210.87727 210.50590 210.13153
 209.74415 209.44978 209.25341 209.11304 209.03667 209.36330 209.74493 210.12956
 210.91819 212.09181 213.33744 215.11607 217.03970 219.07833 221.16896 223.24759
 225.30322 227.38285 229.47547 231.57710 233.70173 235.86936 238.12099 240.48662
 243.10325 245.34988 247.34751 249.10813 250.52076 251.63939 252.45702 252.76865
 252.80128 252.57091 251.92654 250.87016 249.47179 247.62842 245.53305 243.36168
 241.14831 238.94794 236.76357 234.59820 232.45382 230.31645 228.33808 226.49071
 224.76934 223.23697 221.86260 220.63023 219.50786 218.46348 217.56311 216.69974
 215.93737 215.11300 214.20663 213.56626 213.01189 213.22775 213.74229 215.39307
 216.33574 217.78177 219.17320 220.23189 221.94791 224.19569 227.96758 231.63191
 234.83315 237.98143 240.72511 243.20517 245.90288 249.05434 252.54512 256.01114
 259.26172 262.24899 265.00058 267.56555 269.95071 272.16919 274.25494 276.19635
 277.97519 279.55316 280.94196 282.20853 283.36249 284.38376 285.27777 286.09009
 286.85446 287.55560 288.20654 289.03607
 366.78100 356.32936 345.75571 334.61607 323.01343 311.20179 299.06614 286.86350
 274.56986 262.46122 250.46457 239.75993 229.87629 220.97465 213.15100 206.14736
 199.97572 194.90807 191.48443 189.52079 188.55215 188.61050 189.43986 190.74222
 192.46158 194.55093 196.80829 199.16165 201.60101 204.07536 206.15772 207.99408
 209.61444 210.75379 210.97715 211.19951 211.13086 210.83022 210.45758 210.08194
 209.69329 209.39765 209.20001 209.05837 208.98072 209.30608 209.68644 210.06980
 210.85715 212.02951 213.27387 215.05122 216.97358 219.01094 221.10030 223.17765
 225.23201 227.31037 229.40173 231.50208 233.62544 235.79180 238.04216 240.40651
 243.02187 245.26723 247.26359 249.02294 250.43430 251.55166 252.36801 252.67837
 252.70973 252.47809 251.83244 250.77480 249.37516 247.53052 245.43387 243.26123
 241.04659 238.84495 236.65930 234.49266 232.34702 230.20837 228.22873 226.38009
 224.65745 223.12380 221.74816 220.51452 219.39088 218.34523 217.44359 216.57895
 215.81531 214.98966 214.08202 213.44038 212.88474 213.19208 213.95184 215.48232
 216.50035 217.71298 219.06824 220.38522 222.13234 224.36957 227.98540 231.63470
 234.76782 237.78043 240.36119 242.75870 245.50882 248.77260 252.32904 255.83647
 259.11746 262.14825 264.95312 267.54114 269.91382 272.11014 274.18906 276.13791
 277.94653 279.54358 280.91544 282.20398 283.37881 284.41980 285.36929 286.24609
 287.09213 287.84555 288.50369 289.34244
 366.78100 356.32732 345.75164 334.60996 323.00527 311.19159 299.05391 286.84923
 274.55355 262.44287 250.44419 239.73750 229.85182 220.94814 213.12246 206.11678
 199.94310 194.87342 191.44774 189.48205 188.51137 188.56769 189.39501 190.69533
 192.41265 194.49997 196.75528 199.10660 201.54392 204.01624 206.09656 207.93088
 209.54920 210.68651 210.90783 211.12815 211.05747 210.75479 210.38011 210.00243
 209.61174 209.31406 209.11438 208.97070 208.89102 209.21434 209.59266 209.97398
 210.75929 211.92961 213.17193 214.94725 216.86757 218.90289 220.99021 223.06552
 225.11784 227.19416 229.28348 231.38180 233.50312 235.66744 237.91575 240.27807
 242.89139 245.13471 247.12903 248.88635 250.29567 251.41099 252.22530 252.53362
 252.56294 252.32926 251.68158 250.62190 249.22022 247.37353 245.27485 243.10017
 240.88349 238.67981 236.49213 234.32345 232.17576 230.03508 228.05340 226.20272
 224.47804 222.94236 221.56468 220.32899 219.20331 218.15563 217.25195 216.38527
 215.61959 214.79191 213.88223 213.23854 212.68086 213.11902 214.23293 215.69688
 216.60782 217.55278 219.00363 220.62807 222.41745 224.65019 228.08304 231.71927
 234.64038 237.51366 239.99138 242.38470 245.18623 248.52525 252.15187 255.71315
 259.02829 262.10028 264.94638 267.53525 269.86417 272.00803 274.05252 275.99667
 277.77951 279.42429 280.98071 282.38242 283.68210 284.88348 285.97958 286.97256
 287.86563 288.66095 289.35568 290.24106
 366.78100 356.32816 345.75331 334.61247 323.00862 311.19578 299.05893 286.85509
 274.56024 262.45040 250.45255 239.74671 229.86186 220.95902 213.13417 206.12933
 199.95648 194.88764 191.46279 189.49795 188.52811 188.58526 189.41342 190.71457
 192.43273 194.52088 196.77704 199.12919 201.56735 204.04050 206.12166 207.95681
 209.57597 210.71412 210.93628 211.15743 211.08759 210.78574 210.41190 210.03506
 209.64521 209.34837 209.14952 209.00668 208.92783 209.25199 209.63114 210.01330
 210.79945 211.97061 213.21376 214.98992 216.91107 218.94723 221.03538 223.11154
 225.16469 227.24185 229.33201 231.43116 233.55332 235.71847 237.96763 240.33078
 242.94494 245.18909 247.18425 248.94240 250.35256 251.46871 252.28387 252.59302
 252.62318 252.39033 251.74349 250.68464 249.28380 247.43796 245.34011 243.16627
 240.95042 238.74758 236.56073 234.39289 232.24604 230.10620 228.12535 226.27551
 224.55166 223.01682 221.63997 220.40513 219.28028 218.23344 217.33059 216.46475
 215.69991 214.87306 213.96422 213.32137 212.76453 213.19411 214.35742 215.83543
 216.75240 217.76886 219.26155 220.89903 222.57846 224.63126 228.18372 231.63937
 234.55635 237.31593 239.66879 241.99635 244.78445 248.16806 251.99706 255.71202
 259.13925 262.23007 265.01868 267.50003 269.69910 271.69968 273.70795 275.54871
 277.61456 279.53372 281.31091 282.87143 284.22192 285.41678 286.50687 287.49445
 288.38263 289.17358 289.86456 290.74509
 366.78100 356.32998 345.75697 334.61795 323.01594 311.20492 299.06991 286.86789
 274.57487 262.46686 250.47084 239.76683 229.88381 220.98280 213.15978 206.15677
 199.98575 194.91873 191.49572 189.53270 188.56469 188.62367 189.45366 190.75664
 192.47662 194.56661 196.82459 199.17858 201.61856 204.09355 206.17653 208.01351
 209.63450 210.77448 210.99847 211.22145 211.15344 210.85342 210.48140 210.10639
 209.71837 209.42336 209.22634 209.08533 209.00831 209.33430 209.71528 210.09926
 210.88725 212.06023 213.30522 215.08320 217.00619 219.04417 221.13415 223.21214
 225.26712 227.34611 229.43809 231.53908 233.66306 235.83004 238.08103 240.44601
 243.06200 245.30798 247.30497 249.06495 250.47693 251.59492 252.41190 252.72289
 252.75487 252.52386 251.87884 250.82183 249.42281 247.57879 245.48278 243.31076
 241.09675 238.89573 236.71072 234.54470 232.39968 230.26167 228.28265 226.43464
 224.71262 223.17961 221.80459 220.57157 219.44856 218.40354 217.50253 216.63851
 215.87550 215.05048 214.14346 213.50245 212.94743 213.30455 214.35291 215.89911
 216.81837 217.92728 219.43277 221.00099 222.63966 224.65991 228.22101 231.69655
 234.58200 237.21255 239.39687 241.62030 244.41740 247.95581 251.92641 255.72806
 259.18060 262.26620 265.04770 267.51822 269.68646 271.64606 273.60019 275.59708
 277.70956 279.73300 281.54965 283.14481 284.52527 285.74661 286.86090 287.87039
 288.77832 289.58682 290.29312 291.19321
 366.78100 356.33192 345.76085 334.62377 323.02370 311.21462 299.08155 286.88147
 274.59040 262.48432 250.49025 239.78817 229.90710 221.00802 213.18694 206.18587
 200.01679 194.95172 191.53064 189.56957 188.60349 188.66442 189.49634 190.80127
 192.52319 194.61512 196.87504 199.23097 201.67289 204.14981 206.23474 208.07366
 209.69659 210.83851 211.06444 211.28936 211.22329 210.92521 210.55514 210.18206
 209.79599 209.50291 209.30783 209.16876 209.09368 209.42161 209.80453 210.19046
 210.98038 212.15531 213.40223 215.18216 217.10708 219.14701 221.23893 223.31886
 225.37578 227.45670 229.55063 231.65355 233.77948 235.94840 238.20133 240.56825
 243.18618 245.43410 247.43303 249.19495 250.60888 251.72880 252.54772 252.86065
 252.89457 252.66550 252.02242 250.96735 249.57027 247.72820 245.63412 243.46405
 241.25197 239.05290 236.86982 234.70575 232.56267 230.42659 228.44952 226.60344
 224.88337 223.35229 221.97922 220.74814 219.62707 218.58399 217.68492 216.82284
 216.06177 215.23869 214.33361 213.69454 213.14146 213.41759 214.33241 215.97203
 216.87747 218.06784 219.53558 221.03937 222.82248 224.81921 228.31024 231.74245
 234.52519 236.98247 239.00372 241.16998 244.11591 247.87262 251.92995 255.71501
 259.13211 262.24133 265.09705 267.64072 269.84225 271.82333 273.79794 275.95718
 278.06897 280.03757 281.83200 283.40762 284.77118 285.97760 287.07825 288.07538
 288.97220 289.77081 290.46844 291.35751
 366.78100 356.33537 345.76774 334.63411 323.03748 311.23185 299.10222 286.90559
 274.61796 262.51533 250.52469 239.82606 229.94843 221.05280 213.23517 206.23754
 200.07191 195.01028 191.59265 189.63502 188.67239 188.73676 189.57213 190.88050
 192.60587 194.70124 196.96461 199.32398 201.76935 204.24971 206.33808 208.18045
 209.80682 210.95219 211.18156 211.40993 211.34730 211.05267 210.68604 210.31641
 209.93378 209.64415 209.45252 209.31689 209.24526 209.57663 209.96300 210.35236
 211.14573 212.32410 213.57447 215.35784 217.28621 219.32958 221.42495 223.50832
 225.56869 227.65306 229.75043 231.85680 233.98617 236.15854 238.41491 240.78528
 243.40665 245.65802 247.66038 249.42575 250.84312 251.96649 252.78886 253.10523
 253.14260 252.91697 252.27734 251.22571 249.83208 247.99345 245.90282 243.73619
 241.52756 239.33193 237.15230 234.99167 232.85204 230.71940 228.74577 226.90314
 225.18651 223.65888 222.28925 221.06162 219.94399 218.90436 218.00873 217.15010
 216.39247 215.57284 214.67121 214.03558 213.48595 213.60886 214.30629 216.05511
 217.02892 218.26572 219.65016 221.21638 222.91539 224.84447 228.29301 231.70682
 234.39134 236.70535 238.60118 240.75093 243.71999 247.78922 251.81685 255.57950
 259.03110 262.18741 265.13126 267.72073 269.83655 271.73096 274.20963 276.65067
 278.96323 281.13080 283.00647 284.65344 286.07874 287.33978 288.49030 289.53256
 290.47000 291.30475 292.03400 292.96335
 366.78100 356.33660 345.77020 334.63780 323.04240 311.23800 299.10960 286.91420
 274.62780 262.52640 250.53700 239.83960 229.96320 221.06880 213.25240 206.25600
 200.09160 195.03120 191.61480 189.65840 188.69700 188.76260 189.59920 190.90880
 192.63539 194.73199 196.99659 199.35719 201.80379 204.28539 206.37499 208.21859
 209.84619 210.99279 211.22339 211.45299 211.39159 211.09819 210.73279 210.36439
 209.98299 209.69459 209.50419 209.36979 209.29939 209.63199 210.01959 210.41019
 211.20479 212.38439 213.63599 215.42059 217.35019 219.39479 221.49139 223.57599
 225.63759 227.72319 229.82179 231.92939 234.05999 236.23359 238.49119 240.86279
 243.48539 245.73799 247.74159 249.50819 250.92679 252.05139 252.87498 253.19258
 253.23118 253.00678 252.36838 251.31798 249.92558 248.08818 245.99878 243.83338
 241.62598 239.43158 237.25318 235.09378 232.95538 230.82398 228.85158 227.01018
 225.29478 223.76838 222.39998 221.17358 220.05718 219.01878 218.12438 217.26698
 216.51058 215.69218 214.79178 214.15738 213.60898 213.69109 214.24585 216.12088
 217.20795 218.52628 220.01991 221.39209 222.84419 225.01781 228.25507 231.63817
 234.21945 236.33432 238.14226 240.32608 243.53734 247.58688 251.63478 255.43506
 258.90057 262.13452 265.11368 267.72455 269.93613 271.92099 273.93237 276.28043
 278.40686 280.35220 282.11902 283.67038 285.01294 286.20078 287.28452 288.26627
 289.14926 289.93558 290.62250 291.49789
 366.78100 356.33448 345.76597 334.63145 323.03393 311.22742 299.09690 286.89938
 274.61086 262.50735 250.51583 239.81631 229.93780 221.04128 213.22276 206.22425
 200.05773 194.99521 191.57670 189.61818 188.65466 188.71814 189.55263 190.86011
 192.58459 194.67908 196.94156 199.30004 201.74453 204.22401 206.31149 208.15298
 209.77846 210.92294 211.15142 211.37891 211.31539 211.01987 210.65236 210.28184
 209.89832 209.60781 209.41529 209.27877 209.20626 209.53674 209.92222 210.31070
 211.10319 212.28067 213.53015 215.31264 217.24012 219.28260 221.37709 223.45957
 225.51905 227.60254 229.69902 231.80450 233.93299 236.10447 238.35995 240.72943
 243.34992 245.60040 247.60188 249.36637 250.78285 251.90533 252.72682 253.04230
 253.07878 252.85227 252.21175 251.15923 249.76471 247.92520 245.83368 243.66616
 241.45665 239.26013 237.07961 234.91810 232.77758 230.64406 228.66955 226.82603
 225.10851 223.57999 222.20948 220.98096 219.86244 218.82193 217.92541 217.06589
 216.30738 215.48686 214.58434 213.94783 213.39731 213.59489 214.22618 216.21031
 217.36867 218.19305 220.20036 221.62872 223.01178 225.05647 228.29788 231.42542
 233.85820 235.93285 237.83023 240.16029 243.38422 247.38310 251.47365 255.30264
 258.82141 262.04871 265.03073 267.65671 269.94711 272.05612 274.13303 276.13791
 277.93961 279.57446 281.11572 282.50867 283.80511 285.06192 286.20859 287.24741
 288.18170 289.01367 289.74048 290.66672
 366.78100 356.33290 345.76279 334.62669 323.02759 311.21948 299.08738 286.88828
 274.59817 262.49307 250.49997 239.79886 229.91876 221.02066 213.20055 206.20045
 200.03235 194.96824 191.54814 189.58804 188.62293 188.68483 189.51773 190.82362
 192.54652 194.63942 196.90031 199.25721 201.70011 204.17800 206.26390 208.10380
 209.72769 210.87059 211.09749 211.32338 211.25828 210.96118 210.59207 210.21997
 209.83487 209.54276 209.34866 209.21055 209.13645 209.46535 209.84924 210.23614
 211.02704 212.20293 213.45083 215.23173 217.15762 219.19852 221.29142 223.37231
 225.43021 227.51211 229.60700 231.71090 233.83780 236.00769 238.26159 240.62949
 243.24838 245.49728 247.49718 249.26007 250.67497 251.79587 252.61576 252.92966
 252.96456 252.73645 252.09435 251.04025 249.64414 247.80304 245.70994 243.54083
 241.32973 239.13163 236.94952 234.78642 232.64432 230.50921 228.53311 226.68801
 224.96890 223.43880 222.06670 220.83659 219.71649 218.67439 217.77628 216.91518
 216.15508 215.33297 214.42887 213.79077 213.23866 213.52338 214.23027 216.28078
 217.76707 218.23848 220.14891 221.75023 223.08719 225.01308 228.33354 231.23749
 233.78873 235.67891 237.39877 239.69394 243.08000 247.18732 251.36121 255.25529
 258.79941 262.04092 265.01697 267.64191 269.92163 272.00516 274.04422 276.04370
 277.91220 279.56168 280.94446 282.16293 283.23959 283.99622 284.86652 285.74100
 286.58850 287.38388 288.07874 288.96420
 366.78100 356.33243 345.76186 334.62529 323.02572 311.21714 299.08457 286.88500
 274.59443 262.48886 250.49529 239.79372 229.91315 221.01458 213.19401 206.19343
 200.02486 194.96029 191.53972 189.57915 188.61358 188.67501 189.50744 190.81287
 192.53529 194.62772 196.88815 199.24458 201.68701 204.16444 206.24987 208.08930
 209.71273 210.85516 211.08158 211.30701 211.24144 210.94387 210.57430 210.20173
 209.81616 209.52359 209.32902 209.19044 209.11587 209.44430 209.82773 210.21416
 211.00459 212.18002 213.42745 215.20788 217.13331 219.17373 221.26616 223.34659
 225.40402 227.48545 229.57988 231.68331 233.80974 235.97917 238.23259 240.60002
 243.21845 245.46688 247.46631 249.22874 250.64317 251.76360 252.58303 252.89646
 252.93088 252.70231 252.05974 251.00517 249.60860 247.76703 245.67346 243.50389
 241.29232 239.09374 236.91117 234.74760 232.60503 230.46946 228.49289 226.64732
 224.92775 223.39718 222.02461 220.79403 219.67346 218.63089 217.73232 216.87075
 216.11018 215.28761 214.38304 213.74447 213.19189 213.50734 214.25259 216.41989
 217.98610 218.67819 220.22655 221.81396 223.21643 225.15611 228.35197 231.23528
 233.54657 235.39198 237.05576 239.40977 242.91740 247.07982 251.25372 255.18416
 258.75256 262.01804 265.00693 267.62152 269.86462 271.89865 273.92780 275.91776
 277.80927 279.47943 280.89236 282.09836 283.23483 284.21451 284.86328 285.37570
 286.14301 286.84393 287.48016 288.36234
 366.78100 356.33282 345.76264 334.62646 323.02728 311.21910 299.08692 286.88774
 274.59757 262.49239 250.49921 239.79803 229.91785 221.01967 213.19949 206.19931
 200.03113 194.96695 191.54677 189.58659 188.62141 188.68323 189.51605 190.82187
 192.54470 194.63752 196.89834 199.25516 201.69798 204.17580 206.26162 208.10144
 209.72526 210.86808 211.09490 211.32072 211.25554 210.95836 210.58918 210.21700
 209.83183 209.53965 209.34547 209.20729 209.13311 209.46193 209.84575 210.23257
 211.02339 212.19921 213.44703 215.22785 217.15367 219.19449 221.28731 223.36814
 225.42596 227.50778 229.60260 231.70642 233.83324 236.00306 238.25688 240.62470
 243.24352 245.49234 247.49216 249.25498 250.66980 251.79062 252.61044 252.92427
 252.95909 252.73091 252.08873 251.03455 249.63837 247.79719 245.70401 243.53483
 241.32365 239.12547 236.94329 234.78011 232.63793 230.50275 228.52657 226.68140
 224.96222 223.43204 222.05986 220.82968 219.70950 218.66732 217.76914 216.90796
 216.14778 215.32560 214.42142 213.78324 213.23106 213.53793 214.26295 216.55475
 218.13823 218.84207 220.37163 221.96646 223.32201 225.23923 228.35333 231.17505
 233.32652 235.01863 236.64772 239.06937 242.72627 246.96361 251.16016 255.12247
 258.71771 262.00073 264.98560 267.59241 269.82617 271.85248 273.86490 275.83331
 277.72424 279.39783 280.82236 282.03598 283.05191 284.08255 284.90686 285.44034
 286.19189 286.89273 287.53168 288.40256
 366.78100 356.33363 345.76425 334.62888 323.03051 311.22313 299.09176 286.89339
 274.60401 262.49964 250.50727 239.80689 229.92752 221.03015 213.21077 206.21140
 200.04403 194.98065 191.56128 189.60191 188.63754 188.70016 189.53379 190.84042
 192.56404 194.65767 196.91930 199.27692 201.72055 204.19918 206.28580 208.12643
 209.75106 210.89468 211.12231 211.34894 211.28456 210.98819 210.61982 210.24844
 209.86407 209.57270 209.37932 209.24195 209.16858 209.49820 209.88283 210.27046
 211.06208 212.23871 213.48734 215.26896 217.19559 219.23722 221.33085 223.41247
 225.47110 227.55373 229.64935 231.75398 233.88161 236.05223 238.30686 240.67549
 243.29511 245.54474 247.54537 249.30899 250.72462 251.84625 252.66687 252.98150
 253.01713 252.78975 252.14838 251.09501 249.69963 247.85926 245.76689 243.59851
 241.38814 239.19077 237.00939 234.84702 232.70565 230.57127 228.59590 226.75153
 225.03315 223.50378 222.13241 220.90304 219.78366 218.74229 217.84492 216.98454
 216.22517 215.40380 214.50042 213.86305 213.31168 213.59123 214.25175 216.68594
 218.30264 218.91312 220.50371 222.15323 223.49495 225.34004 228.34711 231.06308
 233.06885 234.63254 236.27301 238.79430 242.55573 246.84036 251.07228 255.07765
 258.70416 261.99536 264.97375 267.57535 269.81244 271.83255 273.80701 275.73337
 277.61697 279.29721 280.74475 281.96036 282.90320 283.95383 284.91290 285.50406
 286.27817 286.98422 287.62671 288.49731
 366.78100 356.33342 345.76384 334.62826 323.02968 311.22210 299.09052 286.89194
 274.60236 262.49778 250.50520 239.80462 229.92504 221.02746 213.20788 206.20830
 200.04072 194.97715 191.55757 189.59799 188.63341 188.69583 189.52925 190.83567
 192.55909 194.65251 196.91393 199.27135 201.71477 204.19319 206.27961 208.12003
 209.74445 210.88787 211.11529 211.34171 211.27713 210.98055 210.61197 210.24039
 209.85581 209.56423 209.37065 209.23307 209.15949 209.48891 209.87333 210.26075
 211.05217 212.22860 213.47702 215.25844 217.18486 219.22628 221.31970 223.40112
 225.45954 227.54196 229.63738 231.74180 233.86922 236.03964 238.29406 240.66248
 243.28190 245.53132 247.53174 249.29516 250.71058 251.83200 252.65242 252.96684
 253.00226 252.77468 252.13310 251.07952 249.68394 247.84336 245.75078 243.58220
 241.37162 239.17405 236.99247 234.82989 232.68831 230.55373 228.57815 226.73357
 225.01499 223.48541 222.11383 220.88425 219.76467 218.72309 217.82551 216.96493
 216.20535 215.38377 214.48019 213.84261 213.29103 213.59761 214.32196 216.70103
 218.48991 219.04158 220.65585 222.33334 223.62701 225.40440 228.32669 230.93069
 232.78961 234.22278 235.88972 238.53557 242.39760 246.73003 251.00140 255.04448
 258.70032 261.99814 264.96970 267.56616 269.80814 271.82144 273.74664 275.62570
 277.49744 279.18616 280.63220 281.84167 282.86765 283.91141 284.85858 285.66284
 286.39862 287.10904 287.76678 288.63724
 366.78100 356.33228 345.76157 334.62485 323.02514 311.21642 299.08370 286.88399
 274.59327 262.48756 250.49384 239.79212 229.91141 221.01269 213.19198 206.19126
 200.02254 194.95783 191.53711 189.57640 188.61068 188.67196 189.50425 190.80953
 192.53182 194.62410 196.88438 199.24067 201.68295 204.16024 206.24552 208.08480
 209.70809 210.85037 211.07666 211.30194 211.23622 210.93851 210.56879 210.19608
 209.81036 209.51764 209.32293 209.18421 209.10950 209.43778 209.82106 210.20735
 210.99763 212.17292 213.42020 215.20048 217.12577 219.16605 221.25834 223.33862
 225.39590 227.47719 229.57147 231.67476 233.80104 235.97032 238.22361 240.59089
 243.20918 245.45746 247.45674 249.21903 250.63331 251.75360 252.57288 252.88616
 252.92045 252.69173 252.04902 250.99430 249.59758 247.75587 245.66215 243.49243
 241.28072 239.08200 236.89929 234.73557 232.59285 230.45714 228.48042 226.63471
 224.91499 223.38427 222.01156 220.78084 219.66013 218.61741 217.71869 216.85698
 216.09626 215.27355 214.36883 213.73011 213.17740 213.55956 214.46245 216.64600
 218.56960 219.36658 220.85396 222.41975 223.66216 225.48720 228.37468 230.83037
 232.50180 233.78519 235.48701 238.29706 242.27066 246.63971 250.93736 255.00568
 258.68451 261.99432 264.96393 267.55890 269.80719 271.81561 273.68335 275.51907
 277.37405 279.04523 280.48010 281.76898 282.93680 283.99164 284.96228 285.82458
 286.59842 287.30862 287.97079 288.82584
 366.78100 356.33194 345.76088 334.62382 323.02376 311.21470 299.08165 286.88159
 274.59053 262.48447 250.49041 239.78835 229.90729 221.00823 213.18717 206.18611
 200.01706 194.95200 191.53094 189.56988 188.60382 188.66476 189.49670 190.80164
 192.52358 194.61552 196.87547 199.23141 201.67335 204.15029 206.23523 208.07417
 209.69711 210.83905 211.06499 211.28993 211.22387 210.92582 210.55576 210.18270
 209.79664 209.50358 209.30852 209.16946 209.09440 209.42234 209.80528 210.19123
 210.98117 212.15611 213.40305 215.18299 217.10793 219.14787 221.23981 223.31975
 225.37669 227.45764 229.55158 231.65452 233.78046 235.94940 238.20234 240.56928
 243.18722 245.43516 247.43410 249.19604 250.60999 251.72993 252.54887 252.86181
 252.89575 252.66669 252.02363 250.96857 249.57151 247.72945 245.63540 243.46534
 241.25328 239.05422 236.87116 234.70710 232.56404 230.42798 228.45092 226.60486
 224.88481 223.35375 221.98069 220.74963 219.62857 218.58551 217.68645 216.82439
 216.06333 215.24027 214.33521 213.69616 213.14310 213.55884 214.54108 216.68092
 218.62560 219.65707 221.02298 222.50313 223.77267 225.64220 228.47256 230.73917
 232.17073 233.32994 235.11226 238.11992 242.16794 246.55019 250.86377 254.94910
 258.64920 261.97217 264.93707 267.52408 269.77603 271.77948 273.60696 275.39407
 277.24588 278.89398 280.44086 281.80222 282.98499 284.04355 285.02521 285.91531
 286.70673 287.40894 288.04700 288.88739
 366.78100 356.33240 345.76180 334.62520 323.02560 311.21700 299.08440 286.88480
 274.59420 262.48861 250.49501 239.79341 229.91281 221.01421 213.19361 206.19301
 200.02441 194.95981 191.53921 189.57861 188.61301 188.67441 189.50681 190.81221
 192.53461 194.62701 196.88741 199.24382 201.68622 204.16362 206.24902 208.08842
 209.71182 210.85422 211.08062 211.30602 211.24042 210.94282 210.57322 210.20062
 209.81502 209.52242 209.32782 209.18922 209.11462 209.44303 209.82643 210.21283
 211.00323 212.17863 213.42603 215.20643 217.13183 219.17223 221.26463 223.34503
 225.40243 227.48383 229.57823 231.68163 233.80803 235.97743 238.23083 240.59824
 243.21664 245.46504 247.46444 249.22684 250.64124 251.76164 252.58104 252.89444
 252.92884 252.70024 252.05764 251.00304 249.60644 247.76484 245.67124 243.50164
 241.29005 239.09145 236.90885 234.74525 232.60265 230.46705 228.49045 226.64485
 224.92525 223.39465 222.02205 220.79145 219.67085 218.62825 217.72965 216.86805
 216.10745 215.28485 214.38026 213.74166 213.18906 213.59787 214.56372 216.75746
 218.69627 219.90417 221.20551 222.61626 223.92636 225.76711 228.52946 230.64639
 231.82553 232.85832 234.77071 237.96538 242.06723 246.46405 250.78989 254.88847
 258.60345 261.93143 264.88977 267.47501 269.74261 271.76541 273.58102 275.36313
 277.16321 278.79233 280.32956 281.69412 282.87640 283.92953 284.90961 285.80289
 286.61163 287.31174 287.93222 288.77991
 366.78100 356.33298 345.76296 334.62694 323.02792 311.21990 299.08788 286.88886
 274.59884 262.49382 250.50079 239.79977 229.91975 221.02173 213.20171 206.20169
 200.03367 194.96965 191.54963 189.58961 188.62459 188.68657 189.51955 190.82553
 192.54851 194.64149 196.90247 199.25945 201.70243 204.18040 206.26638 208.10636
 209.73034 210.87332 211.10030 211.32628 211.26126 210.96424 210.59522 210.22320
 209.83818 209.54616 209.35214 209.21412 209.14010 209.46908 209.85306 210.24004
 211.03102 212.20699 213.45497 215.23595 217.16193 219.20291 221.29589 223.37687
 225.43485 227.51683 229.61181 231.71579 233.84277 236.01275 238.26673 240.63471
 243.25369 245.50267 247.50265 249.26563 250.68060 251.80158 252.62156 252.93554
 252.97052 252.74250 252.10048 251.04646 249.65044 247.80942 245.71640 243.54738
 241.33636 239.13834 236.95632 234.79330 232.65128 230.51626 228.54024 226.69521
 224.97619 223.44617 222.07415 220.84413 219.72411 218.68209 217.78407 216.92305
 216.16303 215.34101 214.43699 213.79897 213.24695 213.64517 214.58604 216.81444
 218.75471 220.10887 221.42165 222.77252 224.07082 225.82620 228.53549 230.56636
 231.51212 232.39618 234.45618 237.81201 241.96921 246.38742 250.72498 254.83708
 258.56375 261.89078 264.83774 267.41785 269.69977 271.73877 273.53629 275.27753
 277.04904 278.70377 280.24347 281.60965 282.79135 283.84003 284.79858 285.68594
 286.51193 287.24612 287.87073 288.72824
 366.78100 356.33335 345.76371 334.62806 323.02941 311.22176 299.09012 286.89147
 274.60182 262.49718 250.50453 239.80388 229.92423 221.02659 213.20694 206.20729
 200.03965 194.97600 191.55635 189.59670 188.63206 188.69441 189.52776 190.83412
 192.55747 194.65082 196.91217 199.26953 201.71288 204.19123 206.27759 208.11794
 209.74229 210.88564 211.11300 211.33935 211.27470 210.97806 210.60941 210.23776
 209.85311 209.56147 209.36782 209.23017 209.15653 209.48588 209.87023 210.25758
 211.04894 212.22529 213.47364 215.25500 217.18135 219.22270 221.31605 223.39741
 225.45576 227.53811 229.63347 231.73782 233.86517 236.03552 238.28988 240.65823
 243.27758 245.52694 247.52729 249.29064 250.70599 251.82735 252.64770 252.96205
 252.99741 252.76976 252.12811 251.07446 249.67882 247.83817 245.74552 243.57688
 241.36623 239.16858 236.98693 234.82429 232.68264 230.54799 228.57235 226.72770
 225.00905 223.47940 222.10776 220.87811 219.75846 218.71682 217.81917 216.95852
 216.19888 215.37723 214.47358 213.83593 213.28429 213.68338 214.62628 216.84747
 218.80243 220.27907 221.65512 222.97070 224.22589 225.86446 228.52541 230.47459
 231.22701 231.98781 234.17619 237.66556 241.87860 246.31140 250.65544 254.77354
 258.50677 261.83304 264.77417 267.35858 269.66257 271.73331 273.51871 274.99866
 276.92929 278.67014 280.21881 281.58585 282.76987 283.81940 284.78247 285.66711
 286.48367 287.22238 287.85168 288.71329
 366.78100 356.33365 345.76430 334.62895 323.03059 311.22324 299.09189 286.89354
 274.60419 262.49984 250.50749 239.80714 229.92778 221.03043 213.21108 206.21173
 200.04438 194.98103 191.56168 189.60233 188.63797 188.70062 189.53427 190.84092
 192.56457 194.65822 196.91987 199.27752 201.72116 204.19981 206.28646 208.12711
 209.75176 210.89541 211.12306 211.34971 211.28535 210.98900 210.62065 210.24930
 209.86495 209.57360 209.38025 209.24290 209.16954 209.49919 209.88384 210.27149
 211.06314 212.23979 213.48844 215.27009 217.19673 219.23838 221.33203 223.41368
 225.47233 227.55498 229.65063 231.75528 233.88292 236.05357 238.30822 240.67687
 243.29652 245.54617 247.54682 249.31047 250.72611 251.84776 252.66841 252.98306
 253.01871 252.79136 252.15001 251.09665 249.70130 247.86095 245.76860 243.60025
 241.38990 239.19255 237.01120 234.84884 232.70749 230.57314 228.59779 226.75344
 225.03509 223.50574 222.13439 220.90503 219.78568 218.74433 217.84698 216.98663
 216.22728 215.40593 214.50258 213.86522 213.31387 213.71892 214.67587 216.86121
 218.85612 220.42885 221.87685 223.18617 224.40105 225.91695 228.49794 230.33836
 230.94347 231.62601 233.91660 237.53099 241.79890 246.24054 250.58495 254.70265
 258.43695 261.76300 264.70468 267.29321 269.60568 271.67099 273.38843 274.90134
 276.81131 278.60312 280.16498 281.53857 282.72885 283.78552 284.75220 285.64041
 286.45145 287.18524 287.82962 288.71890
 366.78100 356.33392 345.76485 334.62977 323.03170 311.22462 299.09355 286.89547
 274.60640 262.50232 250.51025 239.81017 229.93110 221.03402 213.21495 206.21587
 200.04880 194.98572 191.56665 189.60757 188.64350 188.70642 189.54035 190.84727
 192.57120 194.66512 196.92705 199.28497 201.72890 204.20782 206.29475 208.13567
 209.76060 210.90452 211.13245 211.35937 211.29530 210.99922 210.63115 210.26007
 209.87600 209.58492 209.39185 209.25477 209.18170 209.51162 209.89655 210.28447
 211.07640 212.25332 213.50225 215.28417 217.21110 219.25302 221.34695 223.42887
 225.48780 227.57072 229.66665 231.77157 233.89950 236.07042 238.32534 240.69427
 243.31419 245.56412 247.56504 249.32897 250.74489 251.86682 252.68774 253.00267
 253.03859 252.81152 252.17044 251.11737 249.72229 247.88222 245.79014 243.62207
 241.41199 239.21492 237.03384 234.87177 232.73069 230.59662 228.62154 226.77747
 225.05939 223.53032 222.15924 220.93017 219.81109 218.77002 217.87294 217.01287
 216.25379 215.43272 214.52964 213.89257 213.34149 213.75447 214.73016 216.86375
 218.91028 220.57135 222.08160 223.39790 224.58807 225.99629 228.45898 230.16371
 230.66434 231.30750 233.67734 237.40988 241.72675 246.17313 250.51294 254.62561
 258.35837 261.68341 264.62473 267.21689 269.53912 271.59668 273.25351 274.90625
 276.73685 278.52365 280.09149 281.47015 282.66290 283.72186 284.69095 285.57635
 286.38358 287.11099 287.75229 288.64130
 366.78100 356.33423 345.76545 334.63068 323.03291 311.22614 299.09536 286.89759
 274.60882 262.50505 250.51327 239.81350 229.93473 221.03796 213.21918 206.22041
 200.05364 194.99087 191.57209 189.61332 188.64955 188.71278 189.54700 190.85423
 192.57846 194.67269 196.93491 199.29314 201.73737 204.21660 206.30382 208.14505
 209.77028 210.91451 211.14273 211.36996 211.30619 211.01042 210.64264 210.27187
 209.88810 209.59733 209.40455 209.26778 209.19501 209.52524 209.91046 210.29869
 211.09092 212.26815 213.51737 215.29960 217.22683 219.26906 221.36328 223.44551
 225.50474 227.58797 229.68419 231.78942 233.91765 236.08888 238.34410 240.71333
 243.33356 245.58379 247.58501 249.34924 250.76547 251.88770 252.70892 253.02415
 253.06038 252.83361 252.19283 251.14006 249.74529 247.90552 245.81374 243.64597
 241.43620 239.23943 237.05865 234.89688 232.75611 230.62234 228.64756 226.80379
 225.08602 223.55725 222.18647 220.95770 219.83893 218.79816 217.90138 217.04161
 216.28284 215.46207 214.55929 213.92252 213.37175 213.79230 214.78586 216.86435
 218.95558 220.71065 222.27754 223.59784 224.76944 226.08943 228.42004 229.97166
 230.39452 231.02586 233.45886 237.30183 241.65990 246.10608 250.43741 254.53996
 258.26453 261.58328 264.52319 267.12411 269.46567 271.52792 273.14978 274.86139
 276.67642 278.46149 280.03107 281.41052 282.60510 283.66287 284.63412 285.51987
 286.32739 287.05408 287.69498 288.59061
 366.78100 356.33458 345.76616 334.63174 323.03433 311.22791 299.09749 286.90007
 274.61165 262.50823 250.51682 239.81740 229.93898 221.04256 213.22414 206.22572
 200.05931 194.99689 191.57847 189.62005 188.65663 188.72021 189.55480 190.86238
 192.58696 194.68154 196.94412 199.30270 201.74729 204.22687 206.31445 208.15603
 209.78161 210.92619 211.15478 211.38236 211.31894 211.02352 210.65610 210.28568
 209.90227 209.61185 209.41943 209.28301 209.21059 209.54117 209.92676 210.31534
 211.10792 212.28550 213.53508 215.31766 217.24525 219.28783 221.38241 223.46499
 225.52457 227.60815 229.70474 231.81032 233.93890 236.11048 238.36606 240.73564
 243.35623 245.60681 247.60839 249.37297 250.78955 251.91213 252.73372 253.04930
 253.08588 252.85946 252.21904 251.16662 249.77221 247.93279 245.84137 243.67395
 241.46453 239.26811 237.08770 234.92628 232.78586 230.65244 228.67802 226.83460
 225.11719 223.58877 222.21835 220.98993 219.87151 218.83109 217.93468 217.07526
 216.31684 215.49642 214.59400 213.95758 213.40717 213.83388 214.84206 216.86327
 218.98351 220.83986 222.46732 223.78961 224.94176 226.18773 228.38889 229.77797
 230.13542 230.77477 233.27158 237.21259 241.60376 246.04279 250.36029 254.44600
 258.15451 261.46295 264.40057 267.01459 269.37604 271.44125 273.06827 274.83459
 276.62915 278.41119 279.98218 281.36258 282.55911 283.61884 284.59201 285.47955
 286.28925 287.01755 287.66074 288.55524
 366.78100 356.33493 345.76686 334.63280 323.03573 311.22966 299.09959 286.90253
 274.61446 262.51139 250.52032 239.82126 229.94319 221.04712 213.22905 206.23098
 200.06492 195.00285 191.58478 189.62671 188.66365 188.72758 189.56251 190.87044
 192.59538 194.69031 196.95324 199.31217 201.75710 204.23704 206.32497 208.16690
 209.79283 210.93777 211.16670 211.39463 211.33156 211.03650 210.66943 210.29936
 209.91629 209.62622 209.43416 209.29809 209.22602 209.55695 209.94289 210.33182
 211.12475 212.30268 213.55262 215.33555 217.26348 219.30641 221.40134 223.48428
 225.54421 227.62814 229.72507 231.83101 233.95994 236.13187 238.38780 240.75774
 243.37867 245.62960 247.63153 249.39646 250.81340 251.93633 252.75826 253.07419
 253.11113 252.88506 252.24499 251.19292 249.79885 247.95979 245.86872 243.70165
 241.49258 239.29652 237.11645 234.95538 232.81531 230.68225 228.70818 226.86511
 225.14804 223.61997 222.24991 221.02184 219.90377 218.86370 217.96764 217.10857
 216.35050 215.53043 214.62837 213.99230 213.44223 213.87633 214.90195 216.86336
 218.99915 220.95161 222.64871 223.97934 225.10132 226.28011 228.36678 229.58929
 229.88010 230.54857 233.11147 237.13855 241.55669 245.98499 250.28452 254.34540
 258.03345 261.33035 264.27127 266.90445 269.28302 271.34308 272.98196 274.80771
 276.58945 278.37061 279.94238 281.32462 282.52274 283.58420 284.55759 285.44644
 286.25784 286.98920 287.63358 288.52823
 366.78100 356.33525 345.76749 334.63374 323.03698 311.23123 299.10147 286.90472
 274.61696 262.51421 250.52345 239.82470 229.94694 221.05119 213.23343 206.23568
 200.06992 195.00817 191.59041 189.63266 188.66990 188.73415 189.56939 190.87764
 192.60288 194.69813 196.96137 199.32062 201.76586 204.24611 206.33435 208.17660
 209.80284 210.94809 211.17733 211.40558 211.34282 211.04807 210.68131 210.31156
 209.92880 209.63905 209.44729 209.31154 209.23978 209.57103 209.95727 210.34652
 211.13977 212.31801 213.56826 215.35150 217.27975 219.32299 221.41824 223.50148
 225.56173 227.64597 229.74322 231.84946 233.97871 236.15095 238.40720 240.77744
 243.39869 245.64993 247.65218 249.41742 250.83467 251.95791 252.78016 253.09640
 253.13365 252.90789 252.26814 251.21638 249.82263 247.98387 245.89312 243.72636
 241.51761 239.32185 237.14210 234.98134 232.84159 230.70883 228.73508 226.89232
 225.17557 223.64781 222.27806 221.05030 219.93255 218.89279 217.99704 217.13829
 216.38053 215.56078 214.65902 214.02327 213.47351 213.91682 214.96417 216.86285
 219.01321 221.05330 222.82050 224.17122 225.26358 226.37524 228.34071 229.39777
 229.62590 230.33928 232.97008 237.07529 241.51634 245.93228 250.21123 254.24359
 257.90833 261.19373 264.13632 266.78503 269.17255 271.21924 272.88235 274.78418
 276.56125 278.34222 279.91470 281.29733 282.49597 283.55969 284.53308 285.42365
 286.23434 286.96570 287.60760 288.50259
 366.78100 356.33528 345.76757 334.63385 323.03713 311.23142 299.10170 286.90498
 274.61727 262.51455 250.52384 239.82512 229.94740 221.05169 213.23397 206.23625
 200.07054 195.00882 191.59110 189.63339 188.67067 188.73495 189.57024 190.87852
 192.60381 194.69909 196.96237 199.32166 201.76694 204.24722 206.33551 208.17779
 209.80407 210.94936 211.17864 211.40692 211.34421 211.04949 210.68278 210.31306
 209.93034 209.64063 209.44891 209.31319 209.24148 209.57276 209.95904 210.34833
 211.14161 212.31989 213.57018 215.35346 217.28175 219.32503 221.42031 223.50360
 225.56388 227.64816 229.74545 231.85173 233.98101 236.15330 238.40958 240.77986
 243.40115 245.65243 247.65471 249.42000 250.83728 251.96057 252.78285 253.09913
 253.13642 252.91070 252.27098 251.21927 249.82555 247.98683 245.89612 243.72940
 241.52068 239.32497 237.14525 234.98454 232.84482 230.71210 228.73839 226.89567
 225.17895 223.65124 222.28152 221.05380 219.93609 218.89637 218.00065 217.14194
 216.38422 215.56451 214.66279 214.02707 213.47736 213.94363 215.04527 216.86325
 219.01366 221.13203 222.97580 224.35542 225.42171 226.47816 228.32845 229.22000
 229.38487 230.15981 232.85542 237.02406 241.48018 245.87996 250.13222 254.12897
 257.76538 261.03839 263.99109 266.66974 269.07220 271.10559 272.77139 274.72900
 276.54712 278.32867 279.90021 281.28180 282.47949 283.54199 284.51584 285.40677
 286.21796 286.94754 287.59125 288.48276
 366.78100 356.33492 345.76685 334.63277 323.03570 311.22962 299.09955 286.90247
 274.61440 262.51132 250.52025 239.82117 229.94309 221.04702 213.22894 206.23087
 200.06479 195.00272 191.58464 189.62657 188.66349 188.72741 189.56234 190.87026
 192.59519 194.69011 196.95304 199.31196 201.75689 204.23681 206.32474 208.16666
 209.79258 210.93751 211.16643 211.39436 211.33128 211.03621 210.66913 210.29906
 209.91598 209.62591 209.43383 209.29775 209.22568 209.55660 209.94253 210.33145
 211.12438 212.30230 213.55223 215.33515 217.26308 219.30600 221.40092 223.48385
 225.54377 227.62770 229.72462 231.83055 233.95947 236.13140 238.38732 240.75724
 243.37817 245.62909 247.63102 249.39594 250.81287 251.93579 252.75772 253.07364
 253.11057 252.88449 252.24441 251.19234 249.79826 247.95919 245.86811 243.70104
 241.49196 239.29589 237.11581 234.95474 232.81466 230.68158 228.70751 226.86443
 225.14736 223.61928 222.24921 221.02113 219.90306 218.86298 217.96690 217.10783
 216.34975 215.52968 214.62760 213.99153 213.44145 213.94745 215.14290 216.87801
 218.99205 221.18669 223.11647 224.53210 225.57983 226.58611 228.30928 229.04413
 229.15552 230.00481 232.76660 236.98468 241.45082 245.83426 250.05922 254.02136
 257.63327 260.89868 263.85989 266.55521 268.94574 270.94888 272.63660 274.62595
 276.55722 278.34067 279.90375 281.28070 282.47806 283.53934 284.51227 285.40155
 286.21570 286.94949 287.59177 288.47842
 366.78100 356.33461 345.76623 334.63184 323.03446 311.22807 299.09768 286.90030
 274.61191 262.50853 250.51714 239.81776 229.93937 221.04298 213.22460 206.22621
 200.05983 194.99744 191.57905 189.62067 188.65728 188.72090 189.55551 190.86313
 192.58774 194.68235 196.94497 199.30358 201.74820 204.22781 206.31542 208.15704
 209.78265 210.92727 211.15588 211.38350 211.32011 211.02472 210.65734 210.28695
 209.90357 209.61318 209.42079 209.28441 209.21202 209.54264 209.92825 210.31687
 211.10948 212.28709 213.53671 215.31932 217.24694 219.28955 221.38416 223.46678
 225.52639 227.61001 229.70662 231.81224 233.94085 236.11246 238.36808 240.73769
 243.35831 245.60892 247.61053 249.37515 250.79176 251.91438 252.73599 253.05161
 253.08822 252.86183 252.22145 251.16906 249.77468 247.93529 245.84390 243.67652
 241.46713 239.27075 237.09036 234.92897 232.78859 230.65520 228.68082 226.83743
 225.12005 223.59166 222.22127 220.99289 219.87450 218.83412 217.93773 217.07834
 216.31996 215.49957 214.59719 213.96080 213.41042 213.95219 215.23219 216.90396
 218.98138 221.22623 223.23035 224.68510 225.73154 226.69087 228.29318 228.88423
 228.94670 229.87209 232.70036 236.95714 241.42618 245.78857 249.98065 253.90096
 257.47971 260.73001 263.70001 266.42453 268.83188 270.85471 272.63358 274.61826
 276.54791 278.33023 279.89056 281.26569 282.46036 283.52231 284.49420 285.38336
 286.19839 286.93130 287.57367 288.46109
 366.78100 356.33457 345.76614 334.63171 323.03428 311.22785 299.09742 286.89999
 274.61156 262.50813 250.51670 239.81727 229.93884 221.04241 213.22398 206.22555
 200.05912 194.99669 191.57826 189.61983 188.65640 188.71997 189.55454 190.86211
 192.58669 194.68126 196.94383 199.30240 201.74697 204.22654 206.31411 208.15568
 209.78125 210.92582 211.15439 211.38196 211.31853 211.02310 210.65567 210.28524
 209.90181 209.61138 209.41895 209.28252 209.21009 209.54066 209.92623 210.31480
 211.10737 212.28494 213.53451 215.31708 217.24465 219.28722 221.38179 223.46436
 225.52393 227.60750 229.70407 231.80964 233.93821 236.10978 238.36535 240.73492
 243.35549 245.60606 247.60763 249.37220 250.78877 251.91134 252.73291 253.04848
 253.08506 252.85863 252.21820 251.16577 249.77134 247.93191 245.84048 243.67305
 241.46362 239.26719 237.08676 234.92533 232.78490 230.65147 228.67704 226.83361
 225.11618 223.58775 222.21732 220.98889 219.87046 218.83003 217.93360 217.07417
 216.31574 215.49531 214.59288 213.95645 213.40602 213.97165 215.30798 216.93710
 218.99757 221.25655 223.31541 224.78595 225.83513 226.83319 228.30605 228.70876
 228.72520 229.76180 232.65976 236.94110 241.40843 245.74907 249.90935 253.78885
 257.33542 260.57263 263.55084 266.29349 268.68768 270.68341 272.50897 274.64636
 276.58667 278.35089 279.90372 281.27454 282.46512 283.52167 284.49197 285.37952
 286.19016 286.92258 287.56381 288.44119
 366.78100 356.33454 345.76608 334.63161 323.03415 311.22769 299.09723 286.89977
 274.61130 262.50784 250.51638 239.81692 229.93846 221.04199 213.22353 206.22507
 200.05861 194.99615 191.57768 189.61922 188.65576 188.71930 189.55384 190.86137
 192.58591 194.68045 196.94299 199.30153 201.74606 204.22560 206.31314 208.15468
 209.78022 210.92475 211.15329 211.38083 211.31737 211.02191 210.65444 210.28398
 209.90052 209.61006 209.41760 209.28113 209.20867 209.53921 209.92475 210.31329
 211.10582 212.28336 213.53290 215.31544 217.24298 219.28551 221.38005 223.46259
 225.52213 227.60567 229.70220 231.80774 233.93628 236.10782 238.36336 240.73289
 243.35343 245.60397 247.60551 249.37005 250.78659 251.90912 252.73066 253.04620
 253.08274 252.85628 252.21581 251.16335 249.76889 247.92943 245.83797 243.67050
 241.46104 239.26458 237.08412 234.92266 232.78219 230.64873 228.67427 226.83081
 225.11335 223.58488 222.21442 220.98596 219.86750 218.82704 217.93057 217.07111
 216.31265 215.49219 214.58973 213.95326 213.40280 213.98956 215.37587 216.98112
 219.02103 221.29253 223.39188 224.86449 225.88008 226.92870 228.33362 228.57655
 228.52080 229.65860 232.63297 236.93460 241.40025 245.72177 249.85291 253.69371
 257.20850 260.42761 263.40265 266.13458 268.47336 270.45844 272.70950 274.56985
 276.58124 278.35379 279.90204 281.26889 282.45715 283.51202 284.47903 285.36359
 286.17053 286.90076 287.54224 288.40781
 366.78100 356.33428 345.76556 334.63084 323.03312 311.22640 299.09568 286.89796
 274.60924 262.50553 250.51381 239.81409 229.93537 221.03865 213.21993 206.22121
 200.05449 194.99177 191.57305 189.61433 188.65061 188.71389 189.54817 190.85545
 192.57973 194.67401 196.93630 199.29458 201.73886 204.21814 206.30542 208.14670
 209.77198 210.91626 211.14454 211.37182 211.30810 211.01238 210.64466 210.27394
 209.89022 209.59950 209.40679 209.27007 209.19735 209.52763 209.91291 210.30119
 211.09347 212.27075 213.52003 215.30231 217.22959 219.27187 221.36615 223.44843
 225.50771 227.59099 229.68727 231.79256 233.92084 236.09212 238.34740 240.71668
 243.33696 245.58724 247.58852 249.35280 250.76908 251.89136 252.71264 253.02792
 253.06420 252.83748 252.19676 251.14404 249.74933 247.90961 245.81789 243.65017
 241.44045 239.24373 237.06301 234.90129 232.76057 230.62685 228.65213 226.80841
 225.09069 223.56197 222.19125 220.96253 219.84382 218.80310 217.90638 217.04666
 216.28794 215.46722 214.56450 213.92778 213.37706 213.99239 215.44617 217.04762
 219.03023 221.32469 223.45810 224.94038 225.91487 226.98105 228.33986 228.48615
 228.36562 229.56361 232.61090 236.93600 241.39923 245.70100 249.80426 253.61058
 257.09967 260.30914 263.28656 266.01016 268.30927 270.30298 272.62772 274.54135
 276.55365 278.31918 279.86734 281.23425 282.42157 283.47754 284.44315 285.32581
 286.13181 286.85690 287.49539 288.35751
 366.78100 356.33388 345.76477 334.62965 323.03153 311.22442 299.09330 286.89519
 274.60607 262.50195 250.50984 239.80972 229.93060 221.03349 213.21437 206.21526
 200.04814 194.98502 191.56591 189.60679 188.64267 188.70556 189.53944 190.84633
 192.57021 194.66409 196.92598 199.28386 201.72774 204.20663 206.29351 208.13440
 209.75928 210.90316 211.13105 211.35793 211.29381 210.99770 210.62958 210.25847
 209.87435 209.58323 209.39012 209.25300 209.17988 209.50977 209.89465 210.28253
 211.07442 212.25130 213.50019 215.28207 217.20895 219.25084 221.34472 223.42660
 225.48549 227.56837 229.66426 231.76914 233.89702 236.06791 238.32279 240.69167
 243.31156 245.56144 247.56233 249.32621 250.74209 251.86398 252.68486 252.99974
 253.03563 252.80851 252.16740 251.11428 249.71916 247.87905 245.78693 243.61881
 241.40870 239.21158 237.03046 234.86835 232.72723 230.59312 228.61800 226.77388
 225.05577 223.52665 222.15553 220.92642 219.80730 218.76619 217.86907 217.00895
 216.24984 215.42872 214.52560 213.88849 213.33737 213.98540 215.51643 217.13972
 219.04147 221.33597 223.49306 225.00626 225.96819 227.02254 228.31554 228.40735
 228.25157 229.47845 232.59102 236.94127 241.40115 245.68446 249.76157 253.53838
 257.00677 260.20825 263.18445 265.90506 268.20129 270.19455 272.45450 274.54895
 276.52084 278.26941 279.81589 281.18286 282.36942 283.42288 284.38602 285.26788
 286.07083 286.79529 287.43173 288.28833
 366.78100 356.33361 345.76423 334.62884 323.03045 311.22307 299.09168 286.89329
 274.60390 262.49952 250.50713 239.80674 229.92736 221.02997 213.21058 206.21120
 200.04381 194.98042 191.56103 189.60165 188.63726 188.69987 189.53349 190.84010
 192.56371 194.65733 196.91894 199.27655 201.72016 204.19878 206.28539 208.12600
 209.75062 210.89423 211.12184 211.34846 211.28407 210.98768 210.61930 210.24791
 209.86352 209.57213 209.37875 209.24136 209.16797 209.49759 209.88220 210.26981
 211.06143 212.23804 213.48665 215.26826 217.19488 219.23649 221.33010 223.41172
 225.47033 227.55294 229.64856 231.75317 233.88078 236.05139 238.30601 240.67462
 243.29423 245.54385 247.54446 249.30807 250.72369 251.84530 252.66591 252.98052
 253.01614 252.78875 252.14736 251.09398 249.69859 247.85820 245.76582 243.59743
 241.38704 239.18966 237.00827 234.84588 232.70449 230.57011 228.59472 226.75033
 225.03195 223.50256 222.13117 220.90179 219.78240 218.74101 217.84362 216.98324
 216.22385 215.40246 214.49908 213.86169 213.31030 213.98329 215.57332 217.24236
 219.08734 221.34074 223.48842 225.03978 226.02647 227.06296 228.27225 228.33127
 228.16415 229.41058 232.58133 236.95251 241.40607 245.67102 249.72148 253.46797
 256.91107 260.09946 263.07217 265.79605 268.11295 270.19467 272.43823 274.52194
 276.46063 278.20242 279.74768 281.11285 282.29846 283.35080 284.31375 285.19305
 285.99347 286.71692 287.35141 288.20200
 366.78100 356.33341 345.76383 334.62824 323.02966 311.22207 299.09049 286.89190
 274.60232 262.49773 250.50515 239.80456 229.92498 221.02739 213.20781 206.20822
 200.04064 194.97705 191.55747 189.59788 188.63330 188.69571 189.52913 190.83554
 192.55896 194.65237 196.91379 199.27120 201.71462 204.19303 206.27945 208.11986
 209.74428 210.88769 211.11511 211.34152 211.27694 210.98035 210.61177 210.24018
 209.85560 209.56401 209.37043 209.23284 209.15926 209.48867 209.87309 210.26050
 211.05192 212.22833 213.47675 215.25816 217.18458 219.22599 221.31941 223.40082
 225.45924 227.54165 229.63707 231.74148 233.86890 236.03931 238.29373 240.66214
 243.28156 245.53097 247.53139 249.29480 250.71022 251.83163 252.65205 252.96646
 253.00188 252.77429 252.13271 251.07912 249.68354 247.84295 245.75037 243.58178
 241.37120 239.17361 236.99203 234.82944 232.68786 230.55327 228.57769 226.73310
 225.01452 223.48493 222.11335 220.88376 219.76418 218.72259 217.82501 216.96442
 216.20484 215.38325 214.47967 213.84208 213.29050 213.98317 215.61967 217.34572
 219.16748 221.35689 223.46069 225.03789 226.07033 227.09616 228.21832 228.24757
 228.07791 229.35597 232.58673 236.97118 241.41779 245.66696 249.69505 253.41457
 256.83484 260.00812 262.97025 265.68411 268.00327 270.14798 272.45679 274.48309
 276.40564 278.13699 279.67673 281.04071 282.22458 283.27509 284.23694 285.11227
 285.91046 286.62949 287.26331 288.10843
 366.78100 356.33317 345.76334 334.62751 323.02868 311.22085 299.08902 286.89019
 274.60036 262.49553 250.50270 239.80187 229.92204 221.02421 213.20438 206.20455
 200.03672 194.97289 191.55306 189.59323 188.62840 188.69056 189.52373 190.82990
 192.55307 194.64624 196.90741 199.26458 201.70775 204.18592 206.27209 208.11226
 209.73643 210.87960 211.10677 211.33294 211.26811 210.97128 210.60245 210.23062
 209.84579 209.55396 209.36013 209.22230 209.14847 209.47764 209.86181 210.24898
 211.04015 212.21632 213.46449 215.24566 217.17183 219.21300 221.30617 223.38734
 225.44551 227.52768 229.62285 231.72702 233.85419 236.02436 238.27853 240.64669
 243.26586 245.51503 247.51520 249.27837 250.69354 251.81471 252.63488 252.94905
 252.98422 252.75639 252.11456 251.06073 249.66490 247.82407 245.73124 243.56241
 241.35158 239.15375 236.97192 234.80909 232.66726 230.53243 228.55660 226.71177
 224.99294 223.46311 222.09128 220.86145 219.74162 218.69979 217.80196 216.94113
 216.18130 215.35947 214.45564 213.81781 213.26598 213.97800 215.66022 217.45631
 219.27090 221.38300 223.41919 225.00371 226.08438 227.11429 228.16214 228.16260
 227.99277 229.31409 232.60382 236.99602 241.43553 245.67188 249.68341 253.38268
 256.78375 259.93927 262.88284 265.58063 267.90472 270.08987 272.42905 274.43781
 276.34647 278.06775 279.60284 280.96445 282.14664 283.19467 284.15341 285.02786
 285.82376 286.54169 287.17325 288.01367
 366.78100 356.33298 345.76297 334.62695 323.02794 311.21992 299.08791 286.88889
 274.59888 262.49386 250.50085 239.79983 229.91982 221.02180 213.20179 206.20177
 200.03376 194.96974 191.54973 189.58971 188.62470 188.68668 189.51967 190.82565
 192.54864 194.64162 196.90261 199.25959 201.70258 204.18056 206.26654 208.10653
 209.73051 210.87350 211.10048 211.32647 211.26145 210.96444 210.59542 210.22341
 209.83839 209.54638 209.35236 209.21435 209.14033 209.46932 209.85330 210.24029
 211.03127 212.20726 213.45524 215.23623 217.16221 219.20320 221.29618 223.37717
 225.43515 227.51713 229.61212 231.71610 233.84309 236.01307 238.26706 240.63504
 243.25403 245.50301 247.50300 249.26598 250.68097 251.80195 252.62194 252.93592
 252.97091 252.74289 252.10088 251.04686 249.65085 247.80983 245.71682 243.54780
 241.33679 239.13877 236.95676 234.79374 232.65173 230.51671 228.54069 226.69568
 224.97666 223.44665 222.07463 220.84462 219.72460 218.68259 217.78457 216.92356
 216.16354 215.34153 214.43751 213.79950 213.24748 213.97308 215.68741 217.57991
 219.39316 221.42125 223.36873 224.93777 226.06494 227.11176 228.09967 228.08029
 227.91711 229.28432 232.62762 237.02513 241.46173 245.68903 249.68678 253.36818
 256.74936 259.88181 262.79959 265.48001 267.81638 270.02765 272.37296 274.38776
 276.28314 277.99426 279.52133 280.87784 282.05731 283.10410 284.05862 284.93250
 285.72855 286.44867 287.08090 287.89893
 366.78100 356.33291 345.76282 334.62673 323.02764 311.21955 299.08746 286.88837
 274.59828 262.49319 250.50009 239.79900 229.91891 221.02082 213.20073 206.20064
 200.03255 194.96846 191.54837 189.58828 188.62319 188.68510 189.51801 190.82392
 192.54683 194.63974 196.90065 199.25756 201.70046 204.17837 206.26428 208.10419
 209.72810 210.87101 211.09792 211.32383 211.25874 210.96165 210.59256 210.22047
 209.83538 209.54329 209.34920 209.21111 209.13702 209.46593 209.84983 210.23674
 211.02765 212.20356 213.45147 215.23238 217.15829 219.19920 221.29211 223.37302
 225.43093 227.51284 229.60775 231.71166 233.83857 236.00848 238.26239 240.63030
 243.24920 245.49811 247.49802 249.26093 250.67584 251.79675 252.61666 252.93057
 252.96548 252.73739 252.09530 251.04121 249.64512 247.80403 245.71094 243.54185
 241.33076 239.13267 236.95057 234.78748 232.64539 230.51030 228.53421 226.68912
 224.97003 223.43994 222.06785 220.83776 219.71767 218.67558 217.77749 216.91640
 216.15631 215.33422 214.43013 213.79204 213.23994 213.97191 215.70128 217.71216
 219.53691 221.47514 223.31105 224.84749 226.01846 227.08656 228.01715 227.98764
 227.84381 229.26385 232.65846 237.06610 241.50220 245.72313 249.71117 253.37730
 256.73642 259.84140 262.72406 265.37930 267.70847 269.94028 272.29401 274.32025
 276.20190 277.90610 279.42319 280.77338 281.94601 282.98853 283.94125 284.81412
 285.61438 286.33749 286.96439 287.78528
 366.78100 356.33307 345.76313 334.62720 323.02826 311.22033 299.08839 286.88946
 274.59953 262.49459 250.50166 239.80072 229.92079 221.02285 213.20292 206.20299
 200.03505 194.97112 191.55118 189.59125 188.62631 188.68838 189.52145 190.82751
 192.55058 194.64364 196.90471 199.26177 201.70484 204.18291 206.26897 208.10904
 209.73310 210.87617 211.10323 211.32930 211.26437 210.96743 210.59850 210.22656
 209.84163 209.54969 209.35576 209.21782 209.14389 209.47296 209.85702 210.24409
 211.03515 212.21122 213.45928 215.24035 217.16642 219.20748 221.30055 223.38161
 225.43968 227.52174 229.61681 231.72088 233.84794 236.01801 238.27207 240.64014
 243.25920 245.50827 247.50834 249.27140 250.68647 251.80753 252.62760 252.94166
 252.97673 252.74880 252.10686 251.05293 249.65699 247.81606 245.72312 243.55419
 241.34326 239.14532 236.96339 234.80045 232.65852 230.52358 228.54765 226.70272
 224.98378 223.45385 222.08191 220.85198 219.73204 218.69011 217.79218 216.93124
 216.17131 215.34937 214.44544 213.80750 213.25557 213.98216 215.69882 217.82687
 219.71124 221.55957 223.24806 224.72543 225.93855 227.01869 227.88690 227.87648
 227.76050 229.25078 232.70009 237.12651 241.57401 245.78831 249.76669 253.42384
 256.76291 259.83719 262.67938 265.31284 267.62039 269.87943 272.20627 274.22446
 276.09192 277.79828 279.31555 280.66635 281.84119 282.88480 283.84042 284.71701
 285.52350 286.24850 286.88531 287.71085
 366.78100 356.33352 345.76404 334.62856 323.03008 311.22260 299.09112 286.89264
 274.60316 262.49868 250.50620 239.80572 229.92624 221.02876 213.20928 206.20980
 200.04232 194.97884 191.55936 189.59988 188.63540 188.69792 189.53144 190.83796
 192.56148 194.65499 196.91651 199.27403 201.71755 204.19607 206.28259 208.12311
 209.74763 210.89115 211.11867 211.34519 211.28071 210.98423 210.61575 210.24427
 209.85979 209.56831 209.37483 209.23735 209.16387 209.49339 209.87791 210.26543
 211.05695 212.23347 213.48199 215.26351 217.19003 219.23155 221.32507 223.40659
 225.46511 227.54763 229.64315 231.74767 233.87519 236.04571 238.30023 240.66875
 243.28827 245.53779 247.53831 249.30183 250.71735 251.83887 252.65939 252.97391
 253.00943 252.78195 252.14046 251.08698 249.69150 247.85102 245.75854 243.59006
 241.37958 239.18210 237.00062 234.83814 232.69666 230.56218 228.58670 226.74222
 225.02374 223.49426 222.12278 220.89330 219.77382 218.73234 217.83486 216.97438
 216.21490 215.39342 214.48994 213.85246 213.30098 214.00565 215.67050 217.93985
 219.90720 221.67719 223.22163 224.62460 225.85193 226.93369 227.74594 227.70671
 227.65031 229.24474 232.75500 237.19521 241.65138 245.86815 249.84377 253.49530
 256.82129 259.87006 262.67969 265.29535 267.58698 269.87109 272.15268 274.14496
 275.99286 277.68994 279.19788 280.53006 281.67935 282.70715 283.65100 284.52585
 285.34048 286.06857 286.69693 287.52066
 366.78100 356.33438 345.76575 334.63113 323.03350 311.22688 299.09626 286.89863
 274.61001 262.50638 250.51476 239.81514 229.93651 221.03989 213.22126 206.22264
 200.05602 194.99339 191.57477 189.61614 188.65252 188.71590 189.55027 190.85765
 192.58202 194.67640 196.93878 199.29715 201.74153 204.22090 206.30828 208.14965
 209.77503 210.91941 211.14778 211.37516 211.31153 211.01591 210.64829 210.27766
 209.89404 209.60341 209.41079 209.27417 209.20154 209.53192 209.91729 210.30567
 211.09805 212.27542 213.52480 215.30717 217.23455 219.27693 221.37130 223.45368
 225.51305 227.59643 229.69281 231.79818 233.92656 236.09793 238.35331 240.72269
 243.34306 245.59344 247.59481 249.35919 250.77557 251.89794 252.71932 253.03469
 253.07107 252.84445 252.20382 251.15120 249.75657 247.91695 245.82533 243.65770
 241.44808 239.25145 237.07083 234.90921 232.76858 230.63496 228.66033 226.81671
 225.09909 223.57046 222.19984 220.97121 219.85259 218.81196 217.91534 217.05572
 216.29709 215.47647 214.57384 213.93722 213.38660 214.04996 215.61723 218.05759
 220.13557 221.82182 223.22417 224.54877 225.79910 226.85887 227.57030 227.46698
 227.49477 229.22717 232.80946 237.26318 241.73064 245.94647 249.91658 253.56430
 256.87506 259.90204 262.69269 265.30453 267.60471 269.80280 272.11969 274.10202
 275.93829 277.60645 279.08746 280.40512 281.56161 282.60260 283.56290 284.43863
 285.22253 285.91910 286.52722 287.34595
 366.78100 356.33536 345.76773 334.63409 323.03745 311.23182 299.10218 286.90554
 274.61791 262.51527 250.52463 239.82600 229.94836 221.05272 213.23509 206.23745
 200.07181 195.01018 191.59254 189.63490 188.67227 188.73663 189.57199 190.88036
 192.60572 194.70108 196.96445 199.32381 201.76917 204.24954 206.33790 208.18026
 209.80663 210.95199 211.18135 211.40972 211.34708 211.05244 210.68581 210.31617
 209.93353 209.64390 209.45226 209.31662 209.24499 209.57635 209.96271 210.35208
 211.14544 212.32380 213.57417 215.35753 217.28589 219.32926 221.42462 223.50798
 225.56835 227.65271 229.75008 231.85644 233.98580 236.15817 238.41453 240.78489
 243.40626 245.65762 247.65998 249.42535 250.84271 251.96607 252.78844 253.10480
 253.14216 252.91653 252.27689 251.22525 249.83162 247.99298 245.90234 243.73571
 241.52707 239.33143 237.15180 234.99116 232.85152 230.71889 228.74525 226.90261
 225.18598 223.65834 222.28870 221.06107 219.94343 218.90379 218.00816 217.14952
 216.39188 215.57225 214.67061 214.03497 213.48534 214.10478 215.56827 218.13280
 220.36259 221.98209 223.25095 224.49689 225.69992 226.72253 227.38440 227.25307
 227.34483 229.20531 232.86002 237.33331 241.81160 246.03088 249.99664 253.63800
 256.93512 259.93726 262.69946 265.28561 267.53516 269.83490 272.02689 274.01273
 275.83038 277.49115 278.96777 280.28790 281.45187 282.49341 283.45477 284.32675
 285.10651 285.79984 286.40973 287.22406
 366.78100 356.33571 345.76843 334.63514 323.03885 311.23357 299.10428 286.90799
 274.62070 262.51842 250.52813 239.82984 229.95256 221.05727 213.23998 206.24270
 200.07741 195.01612 191.59884 189.64155 188.67926 188.74397 189.57969 190.88840
 192.61411 194.70983 196.97354 199.33325 201.77897 204.25968 206.34839 208.19111
 209.81782 210.96353 211.19325 211.42196 211.35967 211.06538 210.69910 210.32981
 209.94752 209.65824 209.46695 209.33166 209.26038 209.59209 209.97880 210.36852
 211.16223 212.34094 213.59165 215.37537 217.30408 219.34779 221.44351 223.52722
 225.58793 227.67265 229.77036 231.87707 234.00679 236.17950 238.43621 240.80692
 243.42864 245.68035 247.68306 249.44878 250.86649 251.99020 252.81292 253.12963
 253.16734 252.94206 252.30277 251.25148 249.85820 248.01991 245.92962 243.76333
 241.55505 239.35976 237.18047 235.02019 232.88090 230.74861 228.77533 226.93304
 225.21675 223.68947 222.32018 221.09289 219.97560 218.93632 218.04103 217.18274
 216.42546 215.60617 214.70488 214.06960 213.52031 214.12735 215.56154 218.17093
 220.54494 222.17894 223.32031 224.38634 225.55952 226.59572 227.22832 227.08075
 227.21729 229.17690 232.89995 237.39757 241.88510 246.10933 250.06653 253.70111
 256.98605 259.96606 262.70737 265.28931 267.51202 269.80609 271.96512 273.94244
 275.73398 277.36755 278.82977 280.14636 281.27011 282.29810 283.25040 284.11136
 284.86676 285.55966 286.18011 287.01288
 366.78100 356.33449 345.76597 334.63146 323.03394 311.22743 299.09691 286.89940
 274.61088 262.50737 250.51585 239.81634 229.93782 221.04131 213.22279 206.22428
 200.05776 194.99525 191.57673 189.61822 188.65470 188.71819 189.55267 190.86016
 192.58465 194.67913 196.94162 199.30010 201.74459 204.22407 206.31156 208.15304
 209.77853 210.92301 211.15150 211.37898 211.31547 211.01995 210.65244 210.28192
 209.89841 209.60789 209.41538 209.27886 209.20635 209.53683 209.92232 210.31081
 211.10329 212.28078 213.53026 215.31275 217.24023 219.28272 221.37720 223.45969
 225.51917 227.60266 229.69914 231.80463 233.93311 236.10460 238.36008 240.72957
 243.35005 245.60054 247.60202 249.36651 250.78299 251.90548 252.72697 253.04245
 253.07894 252.85242 252.21191 251.15939 249.76488 247.92536 245.83385 243.66633
 241.45682 239.26030 237.07979 234.91827 232.77776 230.64424 228.66973 226.82621
 225.10870 223.58018 222.20967 220.98115 219.86264 218.82213 217.92561 217.06610
 216.30758 215.48707 214.58455 213.94804 213.39752 214.06851 215.65382 218.15385
 220.70282 222.38216 223.37827 224.33498 225.53427 226.53795 227.01105 226.75108
 226.98116 229.13631 232.94255 237.46410 241.97714 246.21622 250.17949 253.81567
 257.09146 260.03400 262.72720 265.30139 267.53036 269.80499 271.77850 273.82736
 275.61667 277.27005 278.71280 279.94757 280.98441 281.98770 282.93555 283.72177
 284.37549 285.03824 285.61224 286.33078
 366.78100 356.33336 345.76372 334.62808 323.02945 311.22181 299.09017 286.89153
 274.60189 262.49725 250.50461 239.80398 229.92434 221.02670 213.20706 206.20742
 200.03978 194.97614 191.55651 189.59687 188.63223 188.69459 189.52795 190.83431
 192.55767 194.65104 196.91240 199.26976 201.71312 204.19148 206.27784 208.11820
 209.74257 210.88593 211.11329 211.33965 211.27501 210.97837 210.60973 210.23809
 209.85346 209.56182 209.36818 209.23054 209.15690 209.48626 209.87062 210.25799
 211.04935 212.22571 213.47407 215.25543 217.18179 219.22315 221.31652 223.39788
 225.45624 227.53860 229.63396 231.73832 233.86568 236.03605 238.29041 240.65877
 243.27813 245.52749 247.52785 249.29121 250.70658 251.82794 252.64830 252.96266
 252.99802 252.77038 252.12874 251.07511 249.67947 247.83883 245.74619 243.57755
 241.36691 239.16927 236.98764 234.82500 232.68336 230.54872 228.57308 226.72844
 225.00980 223.48017 222.10853 220.87889 219.75925 218.71761 217.81997 216.95933
 216.19970 215.37806 214.47442 213.83678 213.28514 214.01941 215.77158 218.16888
 220.72008 222.37837 223.33469 224.23459 225.53189 226.57431 226.90425 226.79628
 226.69582 228.87195 232.81906 237.48311 242.08347 246.37248 250.35875 254.00137
 257.26465 260.16898 262.84152 265.29446 267.52203 269.80426 271.81461 273.75522
 275.29422 276.76978 278.17316 279.41281 280.44913 281.30164 282.12363 282.82471
 283.42053 283.94907 284.41077 284.99918
 366.78100 356.33656 345.77013 334.63769 323.04226 311.23782 299.10939 286.91395
 274.62752 262.52608 250.53665 239.83921 229.96278 221.06834 213.25191 206.25547
 200.09104 195.03060 191.61417 189.65773 188.69630 188.76186 189.59843 190.90799
 192.63456 194.73112 196.99569 199.35625 201.80282 204.28438 206.37395 208.21751
 209.84507 210.99164 211.22220 211.45177 211.39033 211.09690 210.73146 210.36303
 209.98159 209.69316 209.50272 209.36829 209.29785 209.63042 210.01798 210.40855
 211.20311 212.38268 213.63424 215.41881 217.34837 219.39294 221.48950 223.57407
 225.63563 227.72120 229.81976 231.92733 234.05789 236.23146 238.48902 240.86058
 243.48315 245.73571 247.73928 249.50584 250.92441 252.04897 252.87254 253.19010
 253.22867 253.00423 252.36580 251.31536 249.92293 248.08549 245.99606 243.83062
 241.62319 239.42875 237.25032 235.09088 232.95245 230.82101 228.84858 227.00714
 225.29171 223.76527 222.39684 221.17040 220.05397 219.01553 218.12109 217.26366
 216.50722 215.68879 214.78835 214.15392 213.60548 214.19754 215.73518 218.33224
 220.73611 222.26743 223.42020 224.33540 225.48318 226.50334 226.89844 227.04875
 226.97353 229.01854 232.82635 237.39676 241.99304 246.33939 250.35989 254.03598
 257.32724 260.17203 262.84570 265.06137 267.48752 269.87805 271.87088 273.73111
 275.15558 276.42636 277.66037 278.82104 279.96445 281.00793 281.95996 282.82242
 283.59811 284.28885 284.89227 285.66129
 366.78100 356.34066 345.77833 334.64999 323.05865 311.25832 299.13398 286.94264
 274.66030 262.56297 250.57763 239.88429 230.01196 221.12162 213.30928 206.31695
 200.15661 195.10027 191.68793 189.73560 188.77826 188.84792 189.68859 191.00225
 192.73291 194.83358 197.10224 199.46690 201.91757 204.40323 206.49689 208.34455
 209.97622 211.12688 211.36154 211.59521 211.53787 211.24853 210.88720 210.52286
 210.14552 209.86118 209.67485 209.54451 209.47817 209.81484 210.20650 210.60116
 211.39983 212.58349 213.83915 215.62782 217.56148 219.61014 221.71080 223.79947
 225.86513 227.95479 230.05746 232.16912 234.30378 236.48145 238.74311 241.11877
 243.74543 246.00210 248.00976 249.78042 251.20309 252.33175 253.15941 253.48108
 253.52374 253.30340 252.66907 251.62273 250.23439 248.40105 246.31572 244.15438
 241.95104 239.76071 237.58637 235.43103 233.29670 231.16936 229.20102 227.36368
 225.65235 224.13001 222.76567 221.54334 220.43100 219.39666 218.50633 217.65299
 216.90065 216.08632 215.18998 214.55964 214.01530 214.42407 215.64310 218.34984
 220.97076 222.56873 223.63977 224.40390 225.38554 226.22118 226.88527 226.72955
 226.94925 229.11380 232.93086 237.47432 242.05127 246.36705 250.38347 254.08295
 257.40207 260.29449 263.00873 265.11823 267.43430 269.88235 271.87656 273.69855
 275.09277 276.32877 277.79962 279.26370 280.53073 281.65173 282.67450 283.60101
 284.43433 285.17642 285.82468 286.65079
 366.78100 356.33930 345.77561 334.64591 323.05322 311.25152 299.12583 286.93313
 274.64944 262.55074 250.56405 239.86935 229.99566 221.10396 213.29027 206.29657
 200.13488 195.07718 191.66348 189.70979 188.75109 188.81940 189.65870 190.97101
 192.70031 194.79962 197.06692 199.43023 201.87953 204.36384 206.45614 208.30245
 209.93275 211.08206 211.31536 211.54766 211.48897 211.19827 210.83558 210.46988
 210.09119 209.80549 209.61780 209.48610 209.41841 209.75371 210.14402 210.53732
 211.33463 212.51693 213.77124 215.55854 217.49084 219.53815 221.63745 223.72476
 225.78906 227.87737 229.97867 232.08898 234.22228 236.39859 238.65889 241.03320
 243.65850 245.91381 247.92011 249.68942 251.11072 252.23802 253.06433 253.38463
 253.42594 253.20424 252.56855 251.52085 250.13116 248.29646 246.20977 244.04707
 241.84238 239.65068 237.47499 235.31829 233.18260 231.05390 229.08420 227.24551
 225.53281 224.00912 222.64342 221.41973 220.30603 219.27034 218.37864 217.52395
 216.77025 215.95456 215.05686 214.42517 213.87947 214.37474 215.70992 218.23088
 221.03528 222.79297 223.86072 224.50549 225.26845 226.08217 226.46037 226.30180
 226.70621 229.07100 233.01625 237.59288 242.14656 246.48212 250.51134 254.22281
 257.60605 260.56763 263.24960 265.71243 267.46378 269.62155 271.69846 273.65860
 275.21768 276.55020 277.94226 279.38965 280.79169 282.03217 283.16388 284.18918
 285.11130 285.93243 286.64978 287.56396
 366.78100 356.33562 345.76824 334.63486 323.03848 311.23309 299.10371 286.90733
 274.61995 262.51757 250.52719 239.82881 229.95143 221.05604 213.23866 206.24128
 200.07590 195.01452 191.59714 189.63976 188.67738 188.74199 189.57761 190.88623
 192.61185 194.70747 196.97109 199.33071 201.77633 204.25695 206.34556 208.18818
 209.81480 210.96042 211.19004 211.41866 211.35628 211.06190 210.69551 210.32613
 209.94375 209.65437 209.46299 209.32761 209.25623 209.58785 209.97446 210.36408
 211.15770 212.33632 213.58694 215.37056 217.29918 219.34280 221.43841 223.52203
 225.58265 227.66727 229.76489 231.87151 234.00113 236.17375 238.43037 240.80098
 243.42260 245.67422 247.67684 249.44246 250.86008 251.98370 252.80632 253.12293
 253.16055 252.93517 252.29579 251.24441 249.85103 248.01265 245.92227 243.75588
 241.54750 239.35212 237.17274 235.01236 232.87298 230.74060 228.76722 226.92484
 225.20845 223.68107 222.31169 221.08431 219.96693 218.92755 218.03217 217.17379
 216.41640 215.59702 214.69564 214.06026 213.51088 214.19044 215.86826 218.23421
 220.78555 222.77254 223.93555 224.60555 225.35330 226.20424 226.55661 225.90048
 226.28584 228.75558 232.88463 237.49680 242.05667 246.37350 250.42221 254.15604
 257.54309 260.55954 263.27737 265.87344 267.95258 269.64743 271.63245 273.68613
 275.38077 276.72397 278.02634 279.33051 280.53476 281.65121 282.72379 283.69550
 284.56940 285.34766 286.02750 286.89389
 366.78100 356.33536 345.76771 334.63407 323.03742 311.23178 299.10214 286.90549
 274.61785 262.51520 250.52456 239.82592 229.94827 221.05263 213.23498 206.23734
 200.07170 195.01005 191.59241 189.63476 188.67212 188.73648 189.57183 190.88019
 192.60554 194.70090 196.96426 199.32361 201.76897 204.24933 206.33768 208.18004
 209.80639 210.95175 211.18111 211.40946 211.34682 211.05217 210.68553 210.31589
 209.93324 209.64360 209.45195 209.31631 209.24467 209.57602 209.96238 210.35173
 211.14509 212.32345 213.57380 215.35716 217.28551 219.32887 221.42423 223.50758
 225.56794 227.65229 229.74965 231.85601 233.98536 236.15772 238.41407 240.78443
 243.40579 245.65714 247.65950 249.42485 250.84221 251.96557 252.78792 253.10428
 253.14163 252.91599 252.27635 251.22470 249.83106 247.99241 245.90177 243.73513
 241.52648 239.33084 237.15120 234.99055 232.85091 230.71826 228.74462 226.90198
 225.18533 223.65769 222.28804 221.06040 219.94276 218.90311 218.00747 217.14882
 216.39118 215.57154 214.66989 214.03425 213.48460 214.17419 215.85541 218.40138
 220.78758 222.69418 223.85602 224.52419 225.35492 226.27742 226.77873 225.88550
 226.13641 228.59744 232.81718 237.42097 241.95631 246.26787 250.28578 254.00943
 257.37759 260.39932 263.15384 265.71936 267.89111 269.66562 271.58945 273.62933
 275.39322 276.79926 278.02563 279.31265 280.49115 281.53119 282.50427 283.46454
 284.32819 285.09729 285.76917 286.62537
 366.78100 356.33722 345.77143 334.63965 323.04486 311.24108 299.11329 286.91851
 274.63272 262.53194 250.54315 239.84637 229.97058 221.07680 213.26101 206.26523
 200.10145 195.04166 191.62588 189.67009 188.70931 188.77552 189.61274 190.92295
 192.65017 194.74738 197.01260 199.37381 201.82103 204.30324 206.39346 208.23767
 209.86589 211.01311 211.24432 211.47454 211.41375 211.12097 210.75618 210.38840
 210.00761 209.71983 209.53004 209.39626 209.32647 209.65969 210.04790 210.43912
 211.23434 212.41455 213.66677 215.45198 217.38220 219.42741 221.52463 223.60984
 225.67206 227.75827 229.85749 231.96570 234.09692 236.27113 238.52935 240.90157
 243.52478 245.77800 247.78221 249.54943 250.96864 252.09386 252.91807 253.23629
 253.27550 253.05172 252.41393 251.36415 249.97236 248.13558 246.04680 243.88201
 241.67523 239.48144 237.30366 235.14487 233.00709 230.87630 228.90452 227.06373
 225.34895 223.82316 222.45538 221.22959 220.11381 219.07602 218.18224 217.32546
 216.56967 215.75189 214.85210 214.21832 213.67053 214.27924 215.76543 218.44115
 221.06308 222.82126 223.74252 224.37329 225.24207 226.18187 226.73032 225.89276
 226.20798 228.65570 232.85043 237.45741 241.97260 246.26259 250.30942 254.02904
 257.40100 260.39841 263.13794 265.70105 267.91705 269.75516 271.59296 273.54822
 275.32541 276.76517 278.01770 279.28287 280.43362 281.43246 282.37256 283.29810
 284.15704 284.92194 285.59012 286.44165
 366.78100 356.33823 345.77345 334.64268 323.04890 311.24613 299.11936 286.92558
 274.64081 262.54103 250.55326 239.85749 229.98271 221.08994 213.27516 206.28039
 200.11762 195.05884 191.64407 189.68930 188.72952 188.79675 189.63497 190.94620
 192.67443 194.77265 197.03888 199.40110 201.84933 204.33256 206.42378 208.26901
 209.89823 211.04646 211.27869 211.50991 211.45014 211.15836 210.79459 210.42782
 210.04804 209.76127 209.57249 209.43972 209.37095 209.70517 210.09440 210.48663
 211.28285 212.46408 213.71730 215.50353 217.43476 219.48098 221.57921 223.66543
 225.72866 227.81589 229.91611 232.02534 234.15756 236.33279 238.59202 240.96524
 243.58947 245.84369 247.84892 249.61715 251.03737 252.16360 252.98882 253.30805
 253.34828 253.12550 252.48873 251.43995 250.04918 248.21341 246.12563 243.96186
 241.75609 239.56331 237.38654 235.22876 233.09199 230.96222 228.99144 227.15167
 225.43789 223.91312 222.54635 221.32157 220.20680 219.17002 218.27725 217.42148
 216.66670 215.84993 214.95115 214.31838 213.77161 214.34778 215.78633 218.46039
 221.09575 222.74670 223.66719 224.34090 225.25583 226.24136 226.67609 225.95992
 226.05305 228.63589 232.84334 237.44244 241.98557 246.29152 250.34048 254.08331
 257.47900 260.48767 263.19632 265.74225 267.99451 269.84589 271.59628 273.47198
 275.18268 276.60284 277.79990 279.06064 280.22107 281.28073 282.31567 283.29242
 284.17090 284.95319 285.63657 286.50745
 366.78100 356.34006 345.77711 334.64817 323.05622 311.25528 299.13034 286.93839
 274.65545 262.55751 250.57156 239.87762 230.00467 221.11373 213.30079 206.30784
 200.14690 195.08996 191.67701 189.72407 188.76612 188.83518 189.67524 190.98829
 192.71835 194.81841 197.08646 199.45052 201.90057 204.38563 206.47869 208.32574
 209.95680 211.10685 211.34091 211.57397 211.51602 211.22608 210.86414 210.49919
 210.12125 209.83630 209.64936 209.51842 209.45147 209.78753 210.17859 210.57264
 211.37070 212.55375 213.80881 215.59687 217.52992 219.57798 221.67803 223.76609
 225.83115 227.92020 230.02226 232.13332 234.26737 236.44443 238.70548 241.08054
 243.70660 245.96265 247.96971 249.73977 251.16182 252.28988 253.11693 253.43799
 253.48005 253.25910 252.62416 251.57722 250.18827 248.35433 246.26838 244.10644
 241.90250 239.71155 237.53661 235.38066 233.24572 231.11778 229.14883 227.31089
 225.59895 224.07600 222.71106 221.48811 220.37517 219.34023 218.44928 217.59534
 216.84240 216.02745 215.13051 214.49956 213.95462 214.46555 215.81917 218.46973
 221.15532 222.82016 223.86954 224.59993 225.40823 226.21120 226.41917 226.01065
 226.16640 228.70180 232.82362 237.41969 241.96573 246.29224 250.36247 254.13477
 257.57321 260.61288 263.30835 265.82013 268.03680 269.88309 271.60678 273.36237
 275.02454 276.30939 277.61893 278.97626 280.26605 281.50064 282.62701 283.64746
 284.56522 285.38248 286.09644 287.00629
 366.78100 356.34111 345.77923 334.65134 323.06046 311.26057 299.13668 286.94580
 274.66391 262.56703 250.58214 239.88926 230.01737 221.12748 213.31560 206.32371
 200.16383 195.10794 191.69605 189.74417 188.78728 188.85740 189.69851 191.01262
 192.74374 194.84485 197.11397 199.47908 201.93019 204.41631 206.51042 208.35854
 209.99065 211.14177 211.37688 211.61099 211.55411 211.26522 210.90434 210.54045
 210.16356 209.87968 209.69379 209.56391 209.49802 209.83513 210.22725 210.62236
 211.42148 212.60559 213.86170 215.65082 217.58493 219.63405 221.73516 223.82428
 225.89039 227.98050 230.08362 232.19573 234.33085 236.50896 238.77107 241.14719
 243.77430 246.03142 248.03953 249.81064 251.23376 252.36287 253.19099 253.51310
 253.55621 253.33633 252.70244 251.65656 250.26867 248.43579 246.35090 244.19001
 241.98713 239.79724 237.62336 235.46847 233.33458 231.20770 229.23981 227.40293
 225.69204 224.17015 222.80627 221.58438 220.47250 219.43861 218.54872 217.69584
 216.94395 216.13007 215.23418 214.60430 214.06041 214.55554 215.88919 218.36472
 221.19547 223.00754 224.14595 224.83574 225.50626 226.10919 226.18422 225.69678
 226.03900 228.67233 232.83406 237.45509 242.00485 246.34883 250.45801 254.26358
 257.73953 260.82465 263.54779 266.04358 268.25781 270.09442 271.75000 273.40359
 274.95721 276.25476 277.72952 279.26733 280.73151 282.02692 283.20877 284.27945
 285.24240 286.09995 286.84906 287.80371
 366.78100 356.34009 345.77717 334.64826 323.05635 311.25544 299.13052 286.93861
 274.65570 262.55779 250.57187 239.87796 230.00505 221.11414 213.30122 206.30831
 200.14740 195.09048 191.67757 189.72466 188.76675 188.83583 189.67592 190.98901
 192.71910 194.81918 197.08727 199.45136 201.90145 204.38653 206.47962 208.32671
 209.95779 211.10788 211.34197 211.57506 211.51714 211.22723 210.86532 210.50041
 210.12249 209.83758 209.65067 209.51976 209.45284 209.78893 210.18002 210.57410
 211.37219 212.55528 213.81037 215.59845 217.53154 219.57963 221.67972 223.76780
 225.83289 227.92198 230.02407 232.13515 234.26924 236.44633 238.70741 241.08250
 243.70859 245.96468 247.97176 249.74185 251.16394 252.29203 253.11911 253.44020
 253.48229 253.26138 252.62646 251.57955 250.19064 248.35672 246.27081 244.10890
 241.90499 239.71407 237.53916 235.38325 233.24834 231.12042 229.15151 227.31360
 225.60169 224.07877 222.71386 221.49095 220.37803 219.34312 218.45221 217.59830
 216.84538 216.03047 215.13356 214.50265 213.95773 214.53262 216.01106 218.29807
 221.04005 223.10829 224.33643 224.95457 225.52423 226.14395 226.15823 225.49577
 225.78586 228.47508 232.74156 237.39305 241.94510 246.31892 250.47264 254.33578
 257.86899 261.05054 263.86008 266.39804 268.68286 270.59558 272.23730 273.74023
 275.22601 276.45786 277.95599 279.44455 280.97458 282.32825 283.56329 284.68213
 285.68842 286.58453 287.36734 288.36496
 366.78100 356.33931 345.77562 334.64593 323.05324 311.25155 299.12586 286.93317
 274.64949 262.55080 250.56411 239.86942 229.99573 221.10404 213.29035 206.29666
 200.13497 195.07728 191.66359 189.70990 188.75121 188.81952 189.65883 190.97115
 192.70046 194.79977 197.06708 199.43039 201.87970 204.36401 206.45632 208.30263
 209.93294 211.08225 211.31556 211.54787 211.48918 211.19849 210.83581 210.47012
 210.09143 209.80574 209.61805 209.48636 209.41867 209.75398 210.14429 210.53760
 211.33491 212.51722 213.77153 215.55884 217.49115 219.53846 221.63778 223.72509
 225.78940 227.87771 229.97902 232.08933 234.22264 236.39895 238.65926 241.03357
 243.65888 245.91419 247.92050 249.68981 251.11112 252.23844 253.06475 253.38506
 253.42637 253.20468 252.56899 251.52130 250.13161 248.29692 246.21023 244.04754
 241.84285 239.65116 237.47547 235.31878 233.18310 231.05441 229.08472 227.24603
 225.53334 224.00965 222.64396 221.42027 220.30658 219.27089 218.37920 217.52451
 216.77082 215.95513 215.05744 214.42576 213.88007 214.50409 216.06427 218.35339
 220.84160 223.00278 224.25839 224.88425 225.56871 226.37733 226.42047 225.44400
 225.63103 228.25293 232.57059 237.21121 241.75323 246.12869 250.29257 254.17064
 257.72824 260.97342 263.88568 266.50665 268.87030 270.92245 272.67941 274.20084
 275.59470 276.86954 278.16040 279.54175 280.79681 282.07867 283.27344 284.35583
 285.32932 286.19620 286.95352 287.91861
 366.78100 356.33985 345.77670 334.64755 323.05539 311.25424 299.12909 286.93694
 274.65379 262.55564 250.56949 239.87534 230.00218 221.11103 213.29788 206.30473
 200.14358 195.08643 191.67328 189.72012 188.76197 188.83082 189.67067 190.98352
 192.71337 194.81322 197.08107 199.44491 201.89476 204.37961 206.47246 208.31931
 209.95016 211.10001 211.33386 211.56670 211.50855 211.21840 210.85625 210.49110
 210.11295 209.82780 209.64064 209.50949 209.44234 209.77819 210.16904 210.56289
 211.36074 212.54359 213.79843 215.58628 217.51913 219.56698 221.66683 223.75468
 225.81953 227.90837 230.01022 232.12107 234.25492 236.43177 238.69262 241.06747
 243.69332 245.94916 247.95601 249.72586 251.14771 252.27556 253.10241 253.42326
 253.46511 253.24395 252.60880 251.56165 250.17250 248.33835 246.25220 244.09005
 241.88589 239.69474 237.51959 235.36344 233.22829 231.10014 229.13099 227.29284
 225.58068 224.05753 222.69238 221.46923 220.35608 219.32093 218.42978 217.57562
 216.82247 216.00732 215.11017 214.47902 213.93387 214.54504 216.05754 218.39964
 220.80208 222.88007 224.12624 224.79128 225.53625 226.40521 226.63402 225.40836
 225.60167 228.17293 232.51518 237.14363 241.67529 246.04335 250.21675 254.10051
 257.65881 260.87994 263.78290 266.41714 268.80750 270.90784 272.72577 274.31207
 275.73032 277.02243 278.29953 279.65408 280.85406 281.95364 283.08762 284.12070
 285.04987 285.87729 286.60010 287.52127
 366.78100 356.34004 345.77708 334.64812 323.05616 311.25520 299.13024 286.93828
 274.65532 262.55735 250.57139 239.87743 230.00447 221.11351 213.30055 206.30759
 200.14663 195.08967 191.67671 189.72375 188.76579 188.83483 189.67487 190.98791
 192.71795 194.81799 197.08602 199.45006 201.90010 204.38514 206.47818 208.32522
 209.95626 211.10630 211.34034 211.57338 211.51542 211.22546 210.86350 210.49854
 210.12058 209.83562 209.64866 209.51770 209.45073 209.78677 210.17781 210.57185
 211.36989 212.55293 213.80797 215.59601 217.52905 219.57709 221.67713 223.76517
 225.83021 227.91925 230.02129 232.13233 234.26637 236.44340 238.70444 241.07948
 243.70552 245.96156 247.96860 249.73864 251.16068 252.28872 253.11576 253.43680
 253.47884 253.25788 252.62292 251.57596 250.18700 248.35304 246.26707 244.10511
 241.90115 239.71019 237.53523 235.37927 233.24431 231.11635 229.14739 227.30943
 225.59747 224.07451 222.70955 221.48659 220.37363 219.33867 218.44771 217.59374
 216.84078 216.02582 215.12886 214.49790 213.95294 214.58173 216.14322 218.38606
 220.73956 222.92378 224.27464 224.88670 225.53796 226.31445 226.46323 225.43671
 225.63354 228.20767 232.49016 237.11110 241.65707 246.04678 250.25070 254.18576
 257.79950 261.06119 263.96487 266.55466 268.89383 270.97003 272.77307 274.33307
 275.71753 276.99109 278.42242 279.79956 281.03342 282.24036 283.39291 284.43704
 285.37613 286.21240 286.94293 287.87390
 366.78100 356.33879 345.77459 334.64438 323.05118 311.24897 299.12277 286.92956
 274.64536 262.54615 250.55895 239.86374 229.98954 221.09733 213.28313 206.28892
 200.12672 195.06851 191.65431 189.70010 188.74090 188.80869 189.64749 190.95928
 192.68808 194.78687 197.05367 199.41646 201.86526 204.34905 206.44085 208.28664
 209.91644 211.06523 211.29803 211.52982 211.47062 211.17941 210.81621 210.45000
 210.07080 209.78459 209.59639 209.46418 209.39598 209.73077 210.12057 210.51336
 211.31016 212.49195 213.74575 215.53254 217.46434 219.51113 221.60993 223.69672
 225.76052 227.84831 229.94910 232.05890 234.19169 236.36749 238.62728 241.00108
 243.62587 245.88067 247.88646 249.65526 251.07605 252.20285 253.02864 253.34844
 253.38923 253.16703 252.53082 251.48262 250.09241 248.25721 246.17000 244.00680
 241.80159 239.60939 237.43318 235.27598 233.13977 231.01057 229.04036 227.20116
 225.48795 223.96375 222.59754 221.37334 220.25913 219.22293 218.33072 217.47552
 216.72131 215.90511 215.00690 214.37470 213.82849 214.53842 216.28310 218.42996
 220.52928 222.86093 224.41069 225.01819 225.58214 226.32324 226.54384 225.46783
 225.54997 228.09889 232.37364 236.99136 241.53467 245.94591 250.19304 254.19139
 257.88116 261.22784 264.19739 266.81461 269.16019 271.26392 273.09146 274.64642
 275.98004 277.19614 278.62289 280.01352 281.26477 282.51566 283.67645 284.72803
 285.67380 286.51602 287.25177 288.18939
 366.78100 356.33831 345.77363 334.64294 323.04926 311.24657 299.11989 286.92620
 274.64151 262.54183 250.55414 239.85846 229.98377 221.09109 213.27640 206.28171
 200.11903 195.06034 191.64566 189.69097 188.73129 188.79860 189.63691 190.94823
 192.67654 194.77486 197.04117 199.40349 201.85180 204.33511 206.42643 208.27174
 209.90106 211.04937 211.28168 211.51300 211.45331 211.16163 210.79794 210.43126
 210.05157 209.76488 209.57620 209.44351 209.37483 209.70914 210.09846 210.49077
 211.28708 212.46840 213.72171 215.50803 217.43934 219.48566 221.58397 223.67028
 225.73360 227.82091 229.92123 232.03054 234.16286 236.33817 238.59748 240.97080
 243.59511 245.84943 247.85474 249.62306 251.04337 252.16968 252.99500 253.31431
 253.35463 253.13194 252.49526 251.44657 250.05588 248.22020 246.13251 243.96883
 241.76314 239.57046 237.39377 235.23608 233.09940 230.96971 228.99903 227.15934
 225.44565 223.92097 222.55428 221.32960 220.21491 219.17823 218.28554 217.42985
 216.67517 215.85848 214.95980 214.32711 213.78043 214.51282 216.28223 218.59998
 220.42734 222.46613 224.29590 225.13600 225.68503 226.43491 226.89369 225.38303
 225.37849 227.86594 232.20802 236.79955 241.33978 245.75967 250.03368 254.06381
 257.79340 261.19644 264.24802 266.94196 269.34445 271.51462 273.42203 275.06009
 276.47223 277.67947 278.79333 280.06824 281.25000 282.31857 283.33167 284.33533
 285.23804 286.04190 286.74411 287.63904
 366.78100 356.34037 345.77774 334.64912 323.05749 311.25686 299.13223 286.94060
 274.65798 262.56035 250.57472 239.88109 230.00846 221.11783 213.30521 206.31258
 200.15195 195.09532 191.68269 189.73007 188.77244 188.84181 189.68218 190.99555
 192.72593 194.82630 197.09467 199.45904 201.90941 204.39479 206.48816 208.33553
 209.96690 211.11727 211.35164 211.58502 211.52739 211.23776 210.87613 210.51150
 210.13388 209.84925 209.66262 209.53199 209.46536 209.80174 210.19311 210.58748
 211.38585 212.56922 213.82460 215.61297 217.54634 219.59471 221.69508 223.78345
 225.84883 227.93820 230.04057 232.15194 234.28631 236.46369 238.72506 241.10043
 243.72680 245.98317 247.99055 249.76092 251.18329 252.31166 253.13903 253.46041
 253.50278 253.28215 252.64752 251.60089 250.21227 248.37864 246.29301 244.13138
 241.92775 239.73712 237.56250 235.40687 233.27224 231.14461 229.17598 227.33836
 225.62673 224.10410 222.73947 221.51684 220.40422 219.36959 218.47896 217.62533
 216.87270 216.05808 215.16145 214.53082 213.98619 214.62439 216.13319 218.67888
 220.73448 222.47133 224.09322 225.06126 225.69421 226.47073 226.97556 225.62292
 225.60173 227.96846 232.12584 236.66704 241.19788 245.62167 249.90944 253.96365
 257.71786 261.14252 264.21832 266.93253 269.35272 271.54556 273.47504 275.13647
 276.58789 277.87140 279.01743 280.13004 281.29465 282.34814 283.32935 284.24213
 285.08865 285.90771 286.62323 287.53510
 366.78100 356.34259 345.78218 334.65576 323.06635 311.26794 299.14553 286.95612
 274.67570 262.58029 250.59688 239.90547 230.03506 221.14664 213.33623 206.34582
 200.18741 195.13300 191.72258 189.77217 188.81676 188.88835 189.73093 191.04652
 192.77911 194.88170 197.15229 199.51887 201.97146 204.45905 206.55464 208.40423
 210.03781 211.19040 211.42699 211.66258 211.60717 211.31975 210.96034 210.59793
 210.22252 209.94011 209.75569 209.62728 209.56287 209.90146 210.29505 210.69163
 211.49222 212.67781 213.93540 215.72599 217.66157 219.71216 221.81475 223.90534
 225.97292 228.06451 230.16910 232.28269 234.41928 236.59886 238.86245 241.24004
 243.86863 246.12722 248.13680 249.90939 251.33398 252.46457 253.29416 253.61774
 253.66233 253.44392 252.81151 251.76710 250.38068 248.54927 246.46586 244.30645
 242.10504 239.91662 237.74421 235.59080 233.45839 231.33298 229.36656 227.53115
 225.82174 224.30133 222.93891 221.71850 220.60809 219.57568 218.68727 217.83585
 217.08544 216.27303 215.37862 214.75021 214.20779 214.75888 216.06087 218.62883
 220.93217 222.58063 224.00041 224.86790 225.50128 226.37199 227.05309 225.88945
 225.73701 228.02817 232.11014 236.62196 241.13985 245.56361 249.85164 253.91487
 257.68170 261.12219 264.21231 266.92734 269.35278 271.57285 273.51266 275.15369
 276.58408 277.86475 279.03247 280.17133 281.30304 282.35394 283.31815 284.22061
 285.04733 285.83719 286.54645 287.45029
 366.78100 356.34304 345.78308 334.65713 323.06817 311.27021 299.14825 286.95929
 274.67933 262.58438 250.60142 239.91046 230.04050 221.15254 213.34258 206.35263
 200.19467 195.14071 191.73075 189.78079 188.82583 188.89788 189.74092 191.05696
 192.79000 194.89304 197.16409 199.53113 201.98417 204.47221 206.56825 208.41829
 210.05234 211.20538 211.44242 211.67846 211.62350 211.33654 210.97759 210.61563
 210.24067 209.95871 209.77475 209.64679 209.58284 209.92188 210.31592 210.71296
 211.51400 212.70005 213.95809 215.74913 217.68517 219.73621 221.83925 223.93030
 225.99834 228.09038 230.19542 232.30946 234.44650 236.62655 238.89059 241.26863
 243.89767 246.15671 248.16675 249.93980 251.36484 252.49588 253.32592 253.64996
 253.69501 253.47705 252.84509 251.80113 250.41517 248.58421 246.50126 244.34230
 242.14134 239.95338 237.78142 235.62846 233.49651 231.37155 229.40559 227.57063
 225.86167 224.34171 222.97976 221.75980 220.64984 219.61788 218.72992 217.87897
 217.12901 216.31705 215.42309 214.79513 214.25317 214.80185 216.09814 218.56956
 220.98158 222.70357 224.01994 224.75696 225.32428 226.19557 227.01053 226.09132
 225.88376 228.11012 232.12445 236.62199 241.12617 245.54738 249.83322 253.89381
 257.65845 261.09952 264.19656 266.91553 269.35495 271.60153 273.56329 275.21567
 276.64032 277.91092 279.07135 280.17880 281.31345 282.36075 283.32474 284.21164
 285.03827 285.79483 286.47125 287.34125
 366.78100 356.34254 345.78207 334.65561 323.06614 311.26768 299.14521 286.95575
 274.67528 262.57982 250.59635 239.90489 230.03442 221.14596 213.33549 206.34503
 200.18656 195.13210 191.72164 189.77117 188.81571 188.88724 189.72978 191.04531
 192.77785 194.88038 197.15092 199.51745 201.96999 204.45752 206.55306 208.40259
 210.03613 211.18866 211.42520 211.66074 211.60527 211.31781 210.95834 210.59588
 210.22041 209.93795 209.75348 209.62502 209.56055 209.89909 210.29262 210.68916
 211.48969 212.67523 213.93276 215.72330 217.65884 219.70937 221.81191 223.90244
 225.96998 228.06151 230.16605 232.27958 234.41612 236.59565 238.85919 241.23672
 243.86526 246.12379 248.13333 249.90587 251.33040 252.46094 253.29047 253.61401
 253.65854 253.44008 252.80761 251.76315 250.37668 248.54522 246.46175 244.30229
 242.10082 239.91236 237.73989 235.58643 233.45397 231.32850 229.36204 227.52657
 225.81711 224.29664 222.93418 221.71371 220.60325 219.57078 218.68232 217.83085
 217.08039 216.26792 215.37346 214.74499 214.20253 214.78957 216.17648 218.54831
 220.91901 222.76985 224.07597 224.73584 225.24057 226.06873 226.90221 226.14754
 225.95000 228.16212 232.13831 236.63527 241.13692 245.56352 249.85294 253.91516
 257.67709 261.11008 264.19492 266.89120 269.32458 271.56934 273.53195 275.20410
 276.65350 277.93503 279.10016 280.19467 281.32968 282.37729 283.33963 284.22369
 285.04852 285.80975 286.46585 287.30801
 366.78100 356.34222 345.78144 334.65465 323.06487 311.26609 299.14331 286.95353
 274.67274 262.57696 250.59318 239.90140 230.03062 221.14183 213.33105 206.34027
 200.18149 195.12671 191.71593 189.76514 188.80936 188.88058 189.72280 191.03802
 192.77023 194.87245 197.14267 199.50889 201.96111 204.44832 206.54354 208.39276
 210.02598 211.17820 211.41441 211.64963 211.59385 211.30607 210.94629 210.58350
 210.20772 209.92494 209.74016 209.61138 209.54660 209.88481 210.27803 210.67425
 211.47447 212.65969 213.91690 215.70712 217.64234 219.69256 221.79478 223.88499
 225.95221 228.04343 230.14765 232.26087 234.39708 236.57630 238.83952 241.21674
 243.84496 246.10317 248.11239 249.88461 251.30883 252.43905 253.26826 253.59148
 253.63570 253.41692 252.78414 251.73936 250.35257 248.52079 246.43701 244.27723
 242.07545 239.88666 237.71388 235.56010 233.42732 231.30154 229.33475 227.49897
 225.78919 224.26841 222.90563 221.68484 220.57406 219.54128 218.65250 217.80072
 217.04993 216.23715 215.34237 214.71359 214.17081 214.78400 216.23270 218.56076
 220.83623 222.74913 224.09999 224.72780 225.19113 226.00014 226.82648 226.14767
 225.99559 228.19347 232.14964 236.64508 241.15196 245.58835 249.88692 253.95517
 257.72061 261.15137 264.22586 266.89783 269.30847 271.53677 273.48422 275.15576
 276.61401 277.90668 279.08124 280.20197 281.35501 282.40683 283.37299 284.26462
 285.08884 285.85211 286.49982 287.34595
 366.78100 356.34220 345.78139 334.65459 323.06479 311.26598 299.14318 286.95337
 274.67257 262.57677 250.59296 239.90116 230.03036 221.14155 213.33075 206.33995
 200.18114 195.12634 191.71554 189.76473 188.80893 188.88012 189.72232 191.03752
 192.76971 194.87191 197.14211 199.50830 201.96050 204.44770 206.54289 208.39209
 210.02528 211.17748 211.41368 211.64887 211.59307 211.30527 210.94546 210.58266
 210.20686 209.92405 209.73925 209.61045 209.54564 209.88384 210.27703 210.67323
 211.47343 212.65862 213.91582 215.70602 217.64121 219.69141 221.79361 223.88380
 225.95100 228.04219 230.14639 232.25959 234.39578 236.57498 238.83818 241.21537
 243.84357 246.10177 248.11096 249.88316 251.30736 252.43755 253.26675 253.58994
 253.63414 253.41534 252.78253 251.73773 250.35093 248.51912 246.43532 244.27552
 242.07371 239.88491 237.71210 235.55830 233.42550 231.29969 229.33289 227.49709
 225.78728 224.26648 222.90368 221.68287 220.57207 219.53927 218.65046 217.79866
 217.04785 216.23505 215.34025 214.71144 214.16864 214.79356 216.27005 218.56912
 220.80850 222.70085 224.07768 224.70314 225.14488 225.94116 226.76552 226.16716
 226.06090 228.23250 232.15945 236.64720 241.16113 245.60709 249.91124 253.98181
 257.74945 261.17953 264.24823 266.91022 269.31036 271.52710 273.45874 275.12427
 276.58859 277.89127 279.07520 280.21185 281.36859 282.42166 283.38852 284.27948
 285.10278 285.86322 286.51700 287.36072
 366.78100 356.34233 345.78165 334.65498 323.06530 311.26663 299.14396 286.95428
 274.67361 262.57793 250.59426 239.90259 230.03191 221.14324 213.33256 206.34189
 200.18322 195.12854 191.71787 189.76719 188.81152 188.88284 189.72517 191.04050
 192.77282 194.87515 197.14547 199.51180 201.96413 204.45145 206.54678 208.39610
 210.02943 211.18176 211.41808 211.65341 211.59773 211.31006 210.95039 210.58771
 210.21204 209.92936 209.74469 209.61602 209.55134 209.88967 210.28299 210.67932
 211.47965 212.66497 213.92230 215.71262 217.64795 219.69828 221.80060 223.89093
 225.95825 228.04958 230.15391 232.26723 234.40356 236.58288 238.84621 241.22353
 243.85186 246.11019 248.11951 249.89184 251.31616 252.44649 253.27582 253.59914
 253.64347 253.42479 252.79212 251.74745 250.36077 248.52910 246.44542 244.28575
 242.08408 239.89540 237.72273 235.56905 233.43638 231.31071 229.34403 227.50836
 225.79868 224.27801 222.91534 221.69466 220.58399 219.55131 218.66264 217.81097
 217.06029 216.24762 215.35294 214.72427 214.18159 214.81129 216.29901 218.56477
 220.81139 222.66634 224.03467 224.66008 225.08307 225.86180 226.70506 226.19980
 226.13982 228.28468 232.17535 236.65364 241.17268 245.62675 249.93518 254.00294
 257.76599 261.18799 264.24637 266.90451 269.30692 271.52246 273.44360 275.10013
 276.56094 277.87234 279.06937 280.21176 281.36801 282.42191 283.38785 284.27780
 285.10034 285.86069 286.52026 287.36411
 366.78100 356.34256 345.78211 334.65567 323.06622 311.26778 299.14533 286.95589
 274.67544 262.58000 250.59655 239.90511 230.03467 221.14622 213.33578 206.34533
 200.18689 195.13244 191.72200 189.77155 188.81611 188.88766 189.73022 191.04578
 192.77833 194.88089 197.15144 199.51800 201.97055 204.45811 206.55366 208.40322
 210.03677 211.18933 211.42588 211.66144 211.60600 211.31855 210.95911 210.59666
 210.22122 209.93877 209.75433 209.62588 209.56144 209.89999 210.29355 210.69011
 211.49066 212.67622 213.93377 215.72433 217.65988 219.71044 221.81299 223.90355
 225.97110 228.06266 230.16722 232.28077 234.41733 236.59688 238.86044 241.23799
 243.86655 246.12510 248.13466 249.90721 251.33177 252.46233 253.29188 253.61544
 253.65999 253.44155 252.80910 251.76466 250.37821 248.54677 246.46332 244.30388
 242.10244 239.91399 237.74155 235.58810 233.45566 231.33021 229.36377 227.52832
 225.81888 224.29843 222.93599 221.71555 220.60510 219.57266 218.68421 217.83277
 217.08232 216.26988 215.37543 214.74699 214.20454 214.83353 216.31956 218.56602
 220.80563 222.65508 223.99629 224.60356 225.00374 225.75212 226.61412 226.24963
 226.25684 228.35086 232.19569 236.66960 241.19682 245.66107 249.97330 254.03442
 257.78531 261.18970 264.23083 266.88412 269.29507 271.51651 273.43472 275.08255
 276.53384 277.84775 279.05856 280.20502 281.36221 282.41583 283.38312 284.27295
 285.09433 285.85156 286.51071 287.35638
 366.78100 356.34271 345.78243 334.65614 323.06685 311.26857 299.14628 286.95699
 274.67671 262.58142 250.59814 239.90685 230.03656 221.14828 213.33799 206.34770
 200.18942 195.13513 191.72484 189.77456 188.81927 188.89098 189.73370 191.04941
 192.78212 194.88484 197.15555 199.52227 201.97498 204.46269 206.55841 208.40812
 210.04183 211.19455 211.43126 211.66697 211.61169 211.32440 210.96511 210.60283
 210.22754 209.94525 209.76097 209.63268 209.56839 209.90711 210.30082 210.69754
 211.49825 212.68396 213.94168 215.73239 217.66810 219.71882 221.82153 223.91224
 225.97996 228.07167 230.17638 232.29010 234.42681 236.60652 238.87024 241.24795
 243.87667 246.13538 248.14509 249.91781 251.34252 252.47323 253.30295 253.62666
 253.67137 253.45309 252.82080 251.77651 250.39023 248.55894 246.47565 244.31637
 242.11508 239.92680 237.75451 235.60122 233.46894 231.34365 229.37736 227.54208
 225.83279 224.31250 222.95022 221.72993 220.61964 219.58736 218.69907 217.84778
 217.09750 216.28521 215.39093 214.76264 214.22035 214.85194 216.34418 218.56158
 220.79352 222.66748 223.97179 224.52881 224.89072 225.62663 226.52541 226.26489
 226.34892 228.44226 232.23663 236.69281 241.23134 245.70935 250.02621 254.07808
 257.81140 261.19110 264.20749 266.85574 269.27478 271.50430 273.42355 275.06940
 276.50885 277.81870 279.04041 280.19672 281.35626 282.41122 283.37921 284.26898
 285.08716 285.84033 286.49591 287.34628
 366.78100 356.34263 345.78226 334.65588 323.06651 311.26814 299.14577 286.95639
 274.67602 262.58065 250.59728 239.90591 230.03553 221.14716 213.33679 206.34642
 200.18804 195.13367 191.72330 189.77293 188.81756 188.88918 189.73181 191.04744
 192.78007 194.88269 197.15332 199.51995 201.97258 204.46021 206.55583 208.40546
 210.03909 211.19172 211.42834 211.66397 211.60860 211.32123 210.96186 210.59948
 210.22411 209.94174 209.75737 209.62899 209.56462 209.90325 210.29688 210.69351
 211.49413 212.67976 213.93739 215.72802 217.66364 219.71427 221.81690 223.90753
 225.97515 228.06678 230.17141 232.28504 234.42167 236.60129 238.86492 241.24255
 243.87118 246.12980 248.13943 249.91206 251.33669 252.46732 253.29694 253.62057
 253.66520 253.44683 252.81445 251.77008 250.38371 248.55234 246.46897 244.30959
 242.10822 239.91985 237.74748 235.59410 233.46173 231.33636 229.36999 227.53462
 225.82524 224.30487 222.94250 221.72213 220.61175 219.57938 218.69101 217.83964
 217.08927 216.27689 215.38252 214.75415 214.21178 214.85849 216.38644 218.53658
 220.78186 222.69489 223.97195 224.46188 224.75018 225.43858 226.39299 226.36493
 226.51859 228.50493 232.26021 236.72112 241.27589 245.77032 250.09290 254.13280
 257.84415 261.19415 264.18362 266.82532 269.25174 271.48605 273.40750 275.05521
 276.48599 277.79202 279.01770 280.19080 281.35434 282.40942 283.37961 284.26822
 285.08344 285.83078 286.48508 287.33490
 366.78100 356.34242 345.78184 334.65526 323.06568 311.26710 299.14452 286.95494
 274.67436 262.57878 250.59519 239.90361 230.03303 221.14445 213.33387 206.34329
 200.18471 195.13013 191.71955 189.76897 188.81339 188.88481 189.72723 191.04265
 192.77507 194.87749 197.14791 199.51433 201.96675 204.45417 206.54958 208.39900
 210.03242 211.18484 211.42126 211.65668 211.60110 211.31352 210.95394 210.59136
 210.21578 209.93320 209.74862 209.62004 209.55546 209.89388 210.28730 210.68372
 211.48414 212.66955 213.92697 215.71739 217.65281 219.70323 221.80565 223.89607
 225.96349 228.05491 230.15933 232.27275 234.40917 236.58859 238.85201 241.22943
 243.85785 246.11627 248.12569 249.89811 251.32252 252.45294 253.28236 253.60578
 253.65020 253.43162 252.79904 251.75446 250.36788 248.53630 246.45272 244.29314
 242.09156 239.90298 237.73040 235.57682 233.44424 231.31866 229.35208 227.51650
 225.80691 224.28633 222.92375 221.70317 220.59259 219.56001 218.67143 217.81985
 217.06927 216.25669 215.36211 214.73353 214.19095 214.85934 216.43849 218.50691
 220.75990 222.72079 223.99454 224.42844 224.62408 225.23074 226.22008 226.43390
 226.67659 228.56592 232.29036 236.75987 241.32971 245.84157 250.17064 254.19791
 257.88422 261.20160 264.16080 266.79745 269.22891 271.46725 273.39066 275.03940
 276.46487 277.76898 278.99429 280.18732 281.35513 282.41031 283.37863 284.26831
 285.08130 285.82281 286.47925 287.32239
 366.78100 356.34232 345.78165 334.65497 323.06530 311.26662 299.14395 286.95427
 274.67359 262.57792 250.59424 239.90257 230.03189 221.14322 213.33254 206.34186
 200.18319 195.12851 191.71784 189.76716 188.81149 188.88281 189.72513 191.04046
 192.77278 194.87511 197.14543 199.51176 201.96408 204.45140 206.54673 208.39605
 210.02938 211.18170 211.41803 211.65335 211.59767 211.31000 210.95032 210.58765
 210.21197 209.92930 209.74462 209.61594 209.55127 209.88959 210.28292 210.67924
 211.47956 212.66489 213.92221 215.71254 217.64786 219.69819 221.80051 223.89083
 225.95816 228.04948 230.15381 232.26713 234.40346 236.58278 238.84610 241.22343
 243.85175 246.11008 248.11940 249.89173 251.31605 252.44637 253.27570 253.59902
 253.64335 253.42467 252.79200 251.74732 250.36064 248.52897 246.44529 244.28562
 242.08394 239.89527 237.72259 235.56891 233.43624 231.31056 229.34389 227.50821
 225.79854 224.27786 222.91518 221.69451 220.58383 219.55116 218.66248 217.81081
 217.06013 216.24745 215.35278 214.72410 214.18143 214.86536 216.48119 218.49332
 220.72043 222.73708 224.02257 224.41187 224.51566 225.02875 226.03198 226.45422
 226.79953 228.63521 232.32622 236.80692 241.39432 245.92418 250.26004 254.27316
 257.93106 261.21396 264.14215 266.77328 269.21002 271.45300 273.37903 275.02869
 276.44809 277.75125 278.97598 280.18814 281.35739 282.41434 283.38358 284.27219
 285.08276 285.82120 286.47351 287.32382
 366.78100 356.34241 345.78182 334.65523 323.06564 311.26706 299.14447 286.95488
 274.67429 262.57870 250.59511 239.90352 230.03293 221.14435 213.33376 206.34317
 200.18458 195.12999 191.71940 189.76881 188.81322 188.88464 189.72705 191.04246
 192.77487 194.87728 197.14769 199.51410 201.96651 204.45393 206.54934 208.39875
 210.03216 211.18457 211.42098 211.65639 211.60080 211.31322 210.95363 210.59104
 210.21545 209.93286 209.74827 209.61968 209.55509 209.89351 210.28692 210.68333
 211.48374 212.66915 213.92656 215.71697 217.65238 219.70280 221.80521 223.89562
 225.96303 228.05444 230.15885 232.27226 234.40867 236.58809 238.85150 241.22891
 243.85732 246.11573 248.12514 249.89755 251.32196 252.45238 253.28179 253.60520
 253.64961 253.43102 252.79843 251.75384 250.36725 248.53567 246.45208 244.29249
 242.09090 239.90231 237.72972 235.57613 233.44354 231.31796 229.35137 227.51578
 225.80619 224.28560 222.92301 221.70242 220.59183 219.55925 218.67066 217.81907
 217.06848 216.25589 215.36130 214.73271 214.19012 214.88011 216.51030 218.49580
 220.66920 222.74394 224.04706 224.39487 224.41501 224.83777 225.84207 226.43404
 226.88968 228.71397 232.37672 236.86064 241.46686 246.01610 250.35768 254.35521
 257.98349 261.22992 264.12708 266.75345 269.19711 271.44516 273.37619 275.02771
 276.44150 277.74219 278.96451 280.19040 281.36322 282.41824 283.38785 284.27548
 285.08337 285.81866 286.46838 287.32010
 366.78100 356.34257 345.78213 334.65570 323.06626 311.26783 299.14539 286.95596
 274.67552 262.58009 250.59665 239.90522 230.03478 221.14635 213.33591 206.34548
 200.18704 195.13261 191.72217 189.77174 188.81630 188.88787 189.73043 191.04600
 192.77856 194.88113 197.15170 199.51826 201.97083 204.45839 206.55396 208.40352
 210.03709 211.18965 211.42622 211.66178 211.60635 211.31891 210.95948 210.59704
 210.22161 209.93917 209.75474 209.62630 209.56187 209.90043 210.29400 210.69056
 211.49113 212.67670 213.93426 215.72483 217.66039 219.71096 221.81352 223.90409
 225.97165 228.06322 230.16778 232.28135 234.41791 236.59748 238.86104 241.23861
 243.86717 246.12574 248.13530 249.90787 251.33243 252.46300 253.29256 253.61613
 253.66069 253.44226 252.80983 251.76539 250.37896 248.54752 246.46409 244.30465
 242.10322 239.91478 237.74235 235.58891 233.45648 231.33104 229.36461 227.52917
 225.81974 224.29930 222.93687 221.71643 220.60600 219.57356 218.68513 217.83369
 217.08326 216.27083 215.37639 214.74796 214.20552 214.89844 216.53551 218.50282
 220.61876 222.74016 224.06508 224.37346 224.31717 224.65666 225.65581 226.38190
 226.94923 228.79597 232.43970 236.92258 241.54683 246.11423 250.46025 254.44136
 258.03891 261.25024 264.11774 266.74011 269.19159 271.44513 273.38208 275.03503
 276.44376 277.74008 278.96082 280.19800 281.37259 282.42761 283.39563 284.28085
 285.08786 285.81992 286.46649 287.31195
 366.78100 356.34268 345.78237 334.65605 323.06674 311.26842 299.14610 286.95679
 274.67647 262.58115 250.59784 239.90652 230.03621 221.14789 213.33757 206.34726
 200.18894 195.13462 191.72431 189.77399 188.81868 188.89036 189.73304 191.04873
 192.78141 194.88409 197.15478 199.52146 201.97415 204.46183 206.55751 208.40720
 210.04088 211.19356 211.43025 211.66593 211.61062 211.32330 210.96398 210.60167
 210.22635 209.94403 209.75972 209.63140 209.56709 209.90577 210.29945 210.69614
 211.49682 212.68250 213.94019 215.73087 217.66656 219.71724 221.81992 223.91061
 225.97829 228.06997 230.17466 232.28834 234.42503 236.60471 238.86839 241.24608
 243.87476 246.13344 248.14313 249.91581 251.34050 252.47118 253.30086 253.62455
 253.66923 253.45091 252.81860 251.77428 250.38797 248.55665 246.47333 244.31402
 242.11270 239.92439 237.75207 235.59875 233.46644 231.34112 229.37480 227.53949
 225.83017 224.30986 222.94754 221.72722 220.61691 219.58459 218.69627 217.84496
 217.09464 216.28233 215.38801 214.75969 214.21738 214.91510 216.56354 218.50758
 220.57628 222.72256 224.07498 224.34972 224.22285 224.48506 225.47575 226.30869
 226.98459 228.87668 232.50818 236.99113 241.63319 246.21664 250.56558 254.52940
 258.09677 261.27533 264.11703 266.73788 269.19724 271.45450 273.39429 275.04932
 276.45148 277.74332 278.94254 280.22845 281.40082 282.44882 283.41220 284.29337
 285.09814 285.82724 286.47128 287.31393
 366.78100 356.34277 345.78254 334.65631 323.06708 311.26884 299.14661 286.95738
 274.67715 262.58192 250.59869 239.90746 230.03723 221.14900 213.33876 206.34853
 200.19030 195.13607 191.72584 189.77561 188.82038 188.89215 189.73492 191.05068
 192.78345 194.88622 197.15699 199.52376 201.97653 204.46430 206.56007 208.40984
 210.04361 211.19637 211.43314 211.66891 211.61368 211.32645 210.96722 210.60499
 210.22976 209.94753 209.76329 209.63506 209.57083 209.90960 210.30337 210.70014
 211.50091 212.68668 213.94445 215.73521 217.67098 219.72175 221.82452 223.91529
 225.98306 228.07483 230.17960 232.29337 234.43013 236.60990 238.87367 241.25144
 243.88021 246.13898 248.14875 249.92152 251.34629 252.47705 253.30682 253.63059
 253.67536 253.45713 252.82490 251.78067 250.39444 248.56321 246.47998 244.32074
 242.11951 239.93128 237.75905 235.60582 233.47359 231.34836 229.38213 227.54690
 225.83766 224.31743 222.95520 221.73497 220.62474 219.59251 218.70428 217.85305
 217.10282 216.29058 215.39635 214.76812 214.22589 214.93036 216.59476 218.51051
 220.54155 222.69183 224.07314 224.32062 224.13095 224.32419 225.30446 226.22256
 227.00171 228.95279 232.57826 237.06581 241.72479 246.32111 250.67018 254.61641
 258.15546 261.30548 264.12592 266.74792 269.21313 271.47211 273.41266 275.06656
 276.46298 277.75290 278.93820 280.24713 281.42804 282.47711 283.44141 284.32196
 285.12289 285.84833 286.48969 287.32941
 366.78100 356.34290 345.78280 334.65670 323.06760 311.26950 299.14739 286.95829
 274.67819 262.58309 250.59999 239.90889 230.03879 221.15069 213.34059 206.35049
 200.19239 195.13828 191.72818 189.77808 188.82298 188.89488 189.73778 191.05368
 192.78658 194.88948 197.16038 199.52727 201.98017 204.46807 206.56397 208.41387
 210.04777 211.20067 211.43757 211.67347 211.61837 211.33127 210.97216 210.61006
 210.23496 209.95286 209.76876 209.64066 209.57656 209.91546 210.30936 210.70626
 211.50716 212.69305 213.95095 215.74185 217.67775 219.72865 221.83155 223.92245
 225.99035 228.08225 230.18715 232.30105 234.43794 236.61784 238.88174 241.25964
 243.88854 246.14744 248.15734 249.93024 251.35514 252.48604 253.31593 253.63983
 253.68473 253.46663 252.83453 251.79043 250.40433 248.57323 246.49013 244.33103
 242.12993 239.94182 237.76972 235.61662 233.48452 231.35942 229.39332 227.55822
 225.84912 224.32902 222.96692 221.74682 220.63671 219.60461 218.71651 217.86541
 217.11531 216.30321 215.40911 214.78101 214.23891 214.94872 216.62570 218.51312
 220.51160 222.65120 224.05792 224.28218 224.03786 224.17070 225.14227 226.13475
 227.00809 229.02238 232.65056 237.14610 241.82037 246.42503 250.77133 254.70050
 258.21387 261.34012 264.14612 266.77036 269.23953 271.49832 273.43643 275.08600
 276.47656 277.76501 278.95276 280.27209 281.45807 282.51083 283.47580 284.35632
 285.15656 285.88153 286.52057 287.35898
 366.78100 356.34310 345.78319 334.65729 323.06839 311.27048 299.14858 286.95967
 274.67977 262.58487 250.60196 239.91106 230.04116 221.15325 213.34335 206.35345
 200.19554 195.14164 191.73173 189.78183 188.82693 188.89902 189.74212 191.05822
 192.79131 194.89441 197.16551 199.53260 201.98570 204.47379 206.56989 208.41999
 210.05408 211.20718 211.44428 211.68037 211.62547 211.33857 210.97966 210.61776
 210.24285 209.96095 209.77705 209.64914 209.58524 209.92434 210.31843 210.71553
 211.51663 212.70272 213.96082 215.75191 217.68801 219.73911 221.84220 223.93330
 226.00140 228.09349 230.19859 232.31269 234.44978 236.62988 238.89397 241.27207
 243.90117 246.16026 248.17036 249.94346 251.36855 252.49965 253.32975 253.65384
 253.69894 253.48103 252.84913 251.80523 250.41932 248.58842 246.50552 244.34661
 242.14571 239.95781 237.78590 235.63300 233.50109 231.37619 229.41029 227.57538
 225.86648 224.34658 222.98467 221.76477 220.65487 219.62296 218.73506 217.88415
 217.13425 216.32235 215.42844 214.80054 214.25864 214.97131 216.65508 218.51465
 220.48271 222.60690 224.03111 224.23322 223.94287 224.02460 224.98520 226.04813
 227.00943 229.08463 232.72528 237.23302 241.91997 246.52890 250.86865 254.78023
 258.27005 261.37735 264.17551 266.80316 269.27478 271.52994 273.46286 275.10687
 276.49411 277.78281 278.98886 280.31216 281.49991 282.55347 283.51950 284.40033
 285.20093 285.92502 286.56555 287.40341
 366.78100 356.34337 345.78373 334.65810 323.06946 311.27183 299.15020 286.96156
 274.68193 262.58729 250.60466 239.91402 230.04439 221.15676 213.34712 206.35749
 200.19985 195.14622 191.73659 189.78695 188.83232 188.90468 189.74805 191.06441
 192.79778 194.90115 197.17251 199.53988 201.99324 204.48161 206.57798 208.42834
 210.06271 211.21607 211.45344 211.68980 211.63517 211.34854 210.98990 210.62827
 210.25363 209.97200 209.78837 209.66073 209.59710 209.93646 210.33083 210.72819
 211.52956 212.71593 213.97429 215.76566 217.70202 219.75339 221.85676 223.94812
 226.01649 228.10885 230.21422 232.32858 234.46595 236.64632 238.91068 241.28905
 243.91841 246.17778 248.18815 249.96151 251.38688 252.51824 253.34861 253.67297
 253.71834 253.50071 252.86907 251.82544 250.43980 248.60917 246.52654 244.36790
 242.16727 239.97963 237.80800 235.65536 233.52373 231.39910 229.43346 227.59883
 225.89019 224.37056 223.00893 221.78929 220.67966 219.64802 218.76039 217.90975
 217.16012 216.34849 215.45485 214.82722 214.28558 214.99783 216.68060 218.51704
 220.45164 222.55872 223.99718 224.17853 223.84712 223.88205 224.83099 225.95766
 227.00397 229.14201 232.80342 237.32765 242.02409 246.63147 250.96062 254.85469
 258.32214 261.41522 264.21222 266.84424 269.31592 271.56387 273.48672 275.12411
 276.51175 277.80780 279.03955 280.36728 281.55438 282.61063 283.57642 284.45813
 285.25937 285.98370 286.62280 287.46481
 366.78100 356.34370 345.78441 334.65911 323.07082 311.27352 299.15223 286.96393
 274.68464 262.59034 250.60804 239.91775 230.04845 221.16116 213.35186 206.36257
 200.20527 195.15198 191.74268 189.79338 188.83909 188.91179 189.75550 191.07220
 192.80591 194.90961 197.18132 199.54902 202.00272 204.49143 206.58813 208.43884
 210.07354 211.22725 211.46495 211.70165 211.64736 211.36106 211.00277 210.64147
 210.26718 209.98588 209.80259 209.67529 209.61199 209.95170 210.34640 210.74411
 211.54581 212.73252 213.99122 215.78293 217.71963 219.77133 221.87504 223.96674
 226.03545 228.12815 230.23386 232.34856 234.48627 236.66697 238.93167 241.31038
 243.94008 246.19979 248.21049 249.98420 251.40990 252.54161 253.37231 253.69701
 253.74272 253.52542 252.89413 251.85083 250.46554 248.63524 246.55295 244.39465
 242.19435 240.00706 237.83576 235.68347 233.55217 231.42788 229.46258 227.62829
 225.91999 224.40069 223.03940 221.82010 220.71081 219.67951 218.79222 217.94192
 217.19263 216.38133 215.48803 214.86074 214.31944 215.02779 216.70134 218.52116
 220.42171 222.50610 223.95297 224.12050 223.75708 223.74683 224.67371 225.85445
 226.98917 229.19775 232.88916 237.43271 242.13307 246.73108 251.04568 254.92201
 258.36896 261.45288 264.25510 266.89291 269.35956 271.59711 273.50568 275.13293
 276.52728 277.83621 279.10114 280.43506 281.62387 282.68079 283.64749 284.53000
 285.33148 286.05698 286.69647 287.53589
 366.78100 356.34401 345.78503 334.66004 323.07206 311.27507 299.15409 286.96610
 274.68712 262.59313 250.61114 239.92116 230.05217 221.16519 213.35620 206.36722
 200.21023 195.15725 191.74826 189.79928 188.84529 188.91830 189.76232 191.07933
 192.81335 194.91736 197.18938 199.55739 202.01141 204.50042 206.59743 208.44845
 210.08346 211.23748 211.47549 211.71251 211.65852 211.37254 211.01455 210.65356
 210.27958 209.99859 209.81561 209.68862 209.62564 209.96565 210.36067 210.75868
 211.56070 212.74771 214.00672 215.79874 217.73575 219.78777 221.89178 223.98380
 226.05281 228.14583 230.25184 232.36685 234.50487 236.68588 238.95090 241.32991
 243.95993 246.21994 248.23096 250.00497 251.43099 252.56300 253.39401 253.71903
 253.76504 253.54806 252.91707 251.87409 250.48910 248.65912 246.57713 244.41914
 242.21916 240.03217 237.86119 235.70920 233.57822 231.45423 229.48925 227.65526
 225.94727 224.42829 223.06730 221.84832 220.73933 219.70835 218.82136 217.97138
 217.22239 216.41141 215.51842 214.89143 214.35045 215.05664 216.72511 218.52333
 220.39113 222.45747 223.90155 224.05292 223.66328 223.61674 224.52777 225.73738
 226.95500 229.25475 232.98346 237.54459 242.24245 246.82494 251.12306 254.98305
 258.41312 261.49234 264.30444 266.94702 269.40515 271.62665 273.51651 275.13193
 276.53699 277.86276 279.17349 280.51611 281.70493 282.76276 283.73114 284.61496
 285.41577 286.14133 286.77805 287.62381
 366.78100 356.34431 345.78562 334.66093 323.07324 311.27655 299.15587 286.96818
 274.68949 262.59580 250.61411 239.92442 230.05573 221.16904 213.36035 206.37166
 200.21498 195.16229 191.75360 189.80491 188.85122 188.92453 189.76884 191.08615
 192.82046 194.92477 197.19709 199.56540 202.01971 204.50902 206.60633 208.45764
 210.09295 211.24726 211.48557 211.72288 211.66919 211.38351 211.02582 210.66513
 210.29144 210.01075 209.82806 209.70137 209.63868 209.97899 210.37430 210.77262
 211.57493 212.76224 214.02155 215.81386 217.75117 219.80348 221.90779 224.00010
 226.06941 228.16272 230.26904 232.38435 234.52266 236.70397 238.96928 241.34859
 243.97890 246.23921 248.25052 250.02483 251.45115 252.58346 253.41477 253.74008
 253.78639 253.56970 252.93901 251.89632 250.51163 248.68194 246.60026 244.44257
 242.24288 240.05619 237.88550 235.73381 233.60312 231.47943 229.51474 227.68105
 225.97336 224.45468 223.09399 221.87530 220.76661 219.73592 218.84923 217.99954
 217.25085 216.44016 215.54747 214.92079 214.38010 215.08505 216.75058 218.52545
 220.35410 222.40582 223.85397 223.99304 223.57309 223.47659 224.36551 225.64192
 226.93124 229.29797 233.08023 237.66309 242.35217 246.91496 251.19574 255.04213
 258.45755 261.53464 264.35867 267.00290 269.44699 271.64685 273.51395 275.11868
 276.54355 277.89890 279.25241 280.60147 281.79379 282.85162 283.82101 284.70428
 285.50711 286.23297 286.87177 287.71249
 366.78100 356.34475 345.78650 334.66226 323.07501 311.27876 299.15851 286.97127
 274.69302 262.59977 250.61852 239.92928 230.06103 221.17478 213.36653 206.37829
 200.22204 195.16979 191.76154 189.81330 188.86005 188.93380 189.77855 191.09631
 192.83106 194.93581 197.20856 199.57731 202.03207 204.52182 206.61957 208.47132
 210.10708 211.26183 211.50058 211.73833 211.68509 211.39984 211.04259 210.68234
 210.30910 210.02885 209.84660 209.72035 209.65811 209.99886 210.39461 210.79336
 211.59612 212.78387 214.04362 215.83637 217.77412 219.82688 221.93163 224.02438
 226.09413 228.18789 230.29464 232.41039 234.54914 236.73090 238.99665 241.37640
 244.00715 246.26791 248.27966 250.05441 251.48116 252.61392 253.44567 253.77142
 253.81817 253.60193 252.97168 251.92943 250.54518 248.71593 246.63469 244.47744
 242.27819 240.09194 237.92170 235.77045 233.64020 231.51695 229.55271 227.71946
 226.01221 224.49396 223.13372 221.91547 220.80722 219.77697 218.89073 218.04148
 217.29323 216.48298 215.59074 214.96449 214.42424 215.12027 216.76472 218.53424
 220.31976 222.33673 223.79356 223.94624 223.51372 223.36214 224.19426 225.45496
 226.86349 229.38040 233.19804 237.78601 242.46205 247.00288 251.26639 255.10023
 258.50098 261.57687 264.41309 267.05634 269.48276 271.65826 273.49869 275.09097
 276.53818 277.89346 279.34912 280.71045 281.89966 282.95688 283.92477 284.80621
 285.60919 286.33597 286.97360 287.81656
 366.78100 356.34536 345.78771 334.66407 323.07743 311.28178 299.16214 286.97550
 274.69785 262.60521 250.62456 239.93592 230.06828 221.18263 213.37499 206.38735
 200.23170 195.18006 191.77242 189.82477 188.87213 188.94649 189.79184 191.11020
 192.84556 194.95091 197.22427 199.59363 202.04898 204.53934 206.63769 208.49005
 210.12641 211.28176 211.52112 211.75948 211.70683 211.42219 211.06555 210.70590
 210.33326 210.05362 209.87197 209.74633 209.68469 210.02604 210.42240 210.82176
 211.62511 212.81347 214.07382 215.86718 217.80554 219.85889 221.96425 224.05761
 226.12796 228.22232 230.32968 232.44603 234.58539 236.76775 239.03410 241.41446
 244.04582 246.30717 248.31953 250.09489 251.52224 252.65560 253.48795 253.81431
 253.86167 253.64602 253.01638 251.97474 250.59109 248.76245 246.68181 244.52516
 242.32652 240.14088 237.97123 235.82059 233.69095 231.56830 229.60466 227.77202
 226.06537 224.54773 223.18808 221.97044 220.86280 219.83315 218.94751 218.09887
 217.35122 216.54158 215.64994 215.02429 214.48465 215.16240 216.76366 218.54675
 220.29973 222.26094 223.70645 223.88321 223.46347 223.27116 224.03693 225.25917
 226.77997 229.45381 233.31593 237.91147 242.57277 247.09004 251.33649 255.15775
 258.54437 261.61957 264.46805 267.10663 269.51254 271.65656 273.46994 275.06165
 276.53494 277.92371 279.43222 280.80368 281.99622 283.05505 284.02383 284.90808
 285.70950 286.43530 287.07227 287.91672
 366.78100 356.34597 345.78894 334.66591 323.07988 311.28485 299.16582 286.97979
 274.70276 262.61072 250.63069 239.94266 230.07563 221.19060 213.38357 206.39654
 200.24151 195.19048 191.78345 189.83642 188.88439 188.95936 189.80533 191.12430
 192.86027 194.96624 197.24021 199.61017 202.06614 204.55711 206.65608 208.50905
 210.14602 211.30199 211.54196 211.78093 211.72890 211.44487 211.08884 210.72981
 210.35778 210.07875 209.89772 209.77269 209.71166 210.05362 210.45059 210.85056
 211.65453 212.84350 214.10447 215.89844 217.83741 219.89138 221.99735 224.09132
 226.16229 228.25726 230.36523 232.48220 234.62217 236.80514 239.07211 241.45307
 244.08504 246.34701 248.35998 250.13595 251.56392 252.69789 253.53086 253.85783
 253.90580 253.69077 253.06174 252.02071 250.63768 248.80965 246.72962 244.57359
 242.37556 240.19052 238.02149 235.87146 233.74243 231.62040 229.65737 227.82534
 226.11931 224.60228 223.24325 222.02622 220.91919 219.89016 219.00513 218.15710
 217.41007 216.60104 215.71001 215.08497 214.54594 215.20367 216.75763 218.55296
 220.29329 222.19714 223.60410 223.79364 223.39899 223.18678 223.89114 225.07574
 226.69380 229.51114 233.43225 238.04305 242.68904 247.18149 251.41115 255.21771
 258.58859 261.66086 264.52005 267.15039 269.53192 271.64554 273.42786 275.00443
 276.50909 277.99463 279.52139 280.89813 282.09457 283.15585 284.12662 285.01062
 285.81250 286.53757 287.17374 288.01828
 366.78100 356.34647 345.78994 334.66742 323.08189 311.28736 299.16883 286.98330
 274.70677 262.61525 250.63572 239.94819 230.08166 221.19713 213.39060 206.40408
 200.24955 195.19902 191.79249 189.84596 188.89444 188.96991 189.81638 191.13585
 192.87232 194.97879 197.25327 199.62374 202.08021 204.57168 206.67115 208.52462
 210.16210 211.31857 211.55904 211.79851 211.74698 211.46346 211.10793 210.74940
 210.37787 210.09934 209.91881 209.79429 209.73376 210.07623 210.47370 210.87417
 211.67864 212.86812 214.12959 215.92406 217.86353 219.91800 222.02448 224.11895
 226.19042 228.28589 230.39436 232.51183 234.65231 236.83578 239.10325 241.48472
 244.11719 246.37966 248.39314 250.16961 251.59808 252.73255 253.56602 253.89350
 253.94197 253.72744 253.09891 252.05838 250.67585 248.84833 246.76880 244.61327
 242.41574 240.23121 238.06268 235.91316 233.78463 231.66310 229.70057 227.86904
 226.16352 224.64699 223.28846 222.07193 220.96540 219.93687 219.05235 218.20482
 217.45829 216.64976 215.75923 215.13470 214.59618 215.23882 216.75713 218.54570
 220.28967 222.15337 223.50589 223.68480 223.31046 223.09396 223.74852 224.90688
 226.61107 229.55821 233.55005 238.18158 242.81126 247.27879 251.49074 255.28163
 258.63510 261.70261 264.56747 267.18524 269.53473 271.60648 273.36316 274.96902
 276.52234 278.05112 279.58563 280.96640 282.16776 283.23160 284.20480 285.08868
 285.89154 286.61600 287.25113 288.09567
 366.78100 356.34686 345.79072 334.66858 323.08344 311.28930 299.17117 286.98603
 274.70989 262.61875 250.63961 239.95247 230.08633 221.20219 213.39605 206.40991
 200.25577 195.20563 191.79950 189.85336 188.90222 188.97808 189.82494 191.14480
 192.88166 194.98852 197.26338 199.63424 202.09110 204.58296 206.68283 208.53669
 210.17455 211.33141 211.57227 211.81213 211.76099 211.47785 211.12271 210.76457
 210.39343 210.11530 209.93516 209.81102 209.75088 210.09374 210.49160 210.89246
 211.69732 212.88718 214.14904 215.94390 217.88376 219.93863 222.04549 224.14035
 226.21221 228.30807 230.41693 232.53479 234.67565 236.85951 239.12737 241.50923
 244.14210 246.40496 248.41882 250.19568 251.62454 252.75940 253.59326 253.92112
 253.96998 253.75584 253.12770 252.08756 250.70543 248.87829 246.79915 244.64401
 242.44687 240.26273 238.09459 235.94545 233.81731 231.69617 229.73403 227.90289
 226.19776 224.68162 223.32348 222.10734 221.00120 219.97306 219.08892 218.24178
 217.49564 216.68750 215.79736 215.17323 214.63509 215.26825 216.76419 218.52701
 220.27759 222.12259 223.42480 223.57240 223.19713 222.97672 223.59512 224.75238
 226.54076 229.60910 233.67648 238.32825 242.93732 247.37842 251.57178 255.34488
 258.67905 261.73990 264.60693 267.20773 269.52881 271.56992 273.29968 274.86899
 276.43594 278.15613 279.70605 281.07678 282.26993 283.32828 284.29700 285.17963
 285.97821 286.70065 287.33432 288.18213
 366.78100 356.34726 345.79152 334.66978 323.08503 311.29129 299.17355 286.98881
 274.71307 262.62233 250.64358 239.95684 230.09110 221.20736 213.40162 206.41588
 200.26213 195.21239 191.80665 189.86091 188.91017 188.98643 189.83368 191.15394
 192.89120 194.99846 197.27372 199.64498 202.10223 204.59449 206.69475 208.54901
 210.18727 211.34453 211.58578 211.82604 211.77530 211.49256 211.13782 210.78008
 210.40933 210.13159 209.95185 209.82811 209.76837 210.11163 210.50988 210.91114
 211.71640 212.90666 214.16892 215.96418 217.90443 219.95969 222.06695 224.16221
 226.23447 228.33073 230.43998 232.55824 234.69950 236.88376 239.15202 241.53428
 244.16753 246.43079 248.44505 250.22231 251.65157 252.78683 253.62108 253.94934
 253.99860 253.78486 253.15712 252.11738 250.73563 248.90889 246.83015 244.67541
 242.47867 240.29493 238.12718 235.97844 233.85070 231.72996 229.76822 227.93748
 226.23273 224.71699 223.35925 222.14351 221.03777 220.01003 219.12629 218.27954
 217.53380 216.72606 215.83632 215.21258 214.67484 215.29765 216.76910 218.50835
 220.26019 222.09039 223.35645 223.47122 223.07921 222.83977 223.42340 224.59598
 226.47054 229.66531 233.81230 238.48318 243.07187 247.49066 251.66757 255.42351
 258.73724 261.78488 264.64267 267.21204 269.48422 271.46866 273.19421 274.86948
 276.41791 278.17520 279.74615 281.12924 282.32755 283.38943 284.35928 285.23959
 286.03781 286.75729 287.38696 288.23203
 366.78100 356.34769 345.79237 334.67106 323.08674 311.29343 299.17612 286.99180
 274.71649 262.62617 250.64786 239.96154 230.09623 221.21292 213.40760 206.42229
 200.26897 195.21966 191.81435 189.86903 188.91872 188.99540 189.84309 191.16378
 192.90146 195.00915 197.28483 199.65652 202.11421 204.60689 206.70758 208.56226
 210.20095 211.35863 211.60032 211.84101 211.79069 211.50838 211.15406 210.79675
 210.42644 210.14912 209.96981 209.84649 209.78718 210.13087 210.52955 210.93124
 211.73692 212.92761 214.19030 215.98598 217.92667 219.98235 222.09004 224.18572
 226.25841 228.35510 230.46478 232.58347 234.72515 236.90984 239.17853 241.56121
 244.19490 246.45858 248.47327 250.25096 251.68064 252.81633 253.65101 253.97970
 254.02939 253.81607 253.18876 252.14944 250.76813 248.94181 246.86350 244.70919
 242.51287 240.32956 238.16224 236.01393 233.88662 231.76630 229.80499 227.97467
 226.27036 224.75505 223.39773 222.18242 221.07710 220.04979 219.16647 218.32016
 217.57485 216.76753 215.87822 215.25490 214.71759 215.32602 216.76352 218.49249
 220.24696 222.05144 223.27882 223.36903 222.96759 222.70601 223.25261 224.44383
 226.39754 229.71661 233.94456 238.63234 243.20143 247.60226 251.76747 255.50496
 258.79312 261.82693 264.67886 267.22821 269.46899 271.42175 273.10315 274.57224
 276.48428 278.25949 279.81036 281.18085 282.37125 283.42764 284.39365 285.27161
 286.06503 286.78293 287.40805 288.25253
 366.78100 356.34811 345.79321 334.67232 323.08843 311.29553 299.17864 286.99475
 274.71985 262.62996 250.65207 239.96617 230.10128 221.21839 213.41349 206.42860
 200.27571 195.22681 191.82192 189.87703 188.92713 189.00424 189.85235 191.17346
 192.91156 195.01967 197.29578 199.66788 202.12599 204.61910 206.72020 208.57531
 210.21442 211.37252 211.61463 211.85574 211.80584 211.52395 211.17006 210.81316
 210.44327 210.16638 209.98748 209.86459 209.80570 210.14980 210.54891 210.95102
 211.75712 212.94823 214.21134 216.00744 217.94855 220.00466 222.11276 224.20887
 226.28198 228.37908 230.48919 232.60830 234.75040 236.93551 239.20462 241.58772
 244.22183 246.48594 248.50104 250.27915 251.70926 252.84537 253.68047 254.00958
 254.05969 253.84679 253.21990 252.18101 250.80011 248.97422 246.89633 244.74243
 242.54654 240.36365 238.19675 236.04886 233.92197 231.80207 229.84118 228.01129
 226.30739 224.79250 223.43561 222.22071 221.11582 220.08893 219.20603 218.36014
 217.61525 216.80835 215.91946 215.29657 214.75967 215.35216 216.75195 218.46683
 220.24286 222.02446 223.19489 223.24603 222.83740 222.55890 223.09084 224.32057
 226.34753 229.77629 234.07887 238.77693 243.32861 247.71829 251.87759 255.59836
 258.85504 261.85104 264.66302 267.16122 269.35785 271.29083 273.00613 274.87787
 276.51318 278.27365 279.83035 281.20319 282.39389 283.44778 284.41254 285.28766
 286.08420 286.79816 287.42889 288.27222
 366.78100 356.34845 345.79390 334.67335 323.08980 311.29725 299.18070 286.99715
 274.72259 262.63304 250.65549 239.96994 230.10539 221.22284 213.41829 206.43374
 200.28119 195.23264 191.82809 189.88354 188.93399 189.01144 189.85988 191.18133
 192.91978 195.02823 197.30468 199.67713 202.13558 204.62903 206.73048 208.58593
 210.22538 211.38383 211.62628 211.86773 211.81817 211.53662 211.18307 210.82652
 210.45697 210.18042 210.00187 209.87932 209.82077 210.16522 210.56467 210.96712
 211.77357 212.96502 214.22847 216.02491 217.96636 220.02281 222.13126 224.22771
 226.30116 228.39861 230.50906 232.62851 234.77096 236.95641 239.22586 241.60931
 244.24376 246.50820 248.52365 250.30210 251.73255 252.86900 253.70445 254.03390
 254.08435 253.87180 253.24525 252.20670 250.82615 249.00060 246.92305 244.76949
 242.57394 240.39139 238.22484 236.07729 233.95074 231.83119 229.87064 228.04109
 226.33754 224.82299 223.46644 222.25189 221.14734 220.12078 219.23823 218.39268
 217.64813 216.84158 215.95303 215.33048 214.79393 215.37450 216.74617 218.43143
 220.23744 222.01663 223.12517 223.10185 222.65994 222.37195 222.92436 224.20859
 226.32378 229.86201 234.22331 238.92255 243.46252 247.84792 252.00633 255.72139
 258.96582 261.93991 264.71417 267.15433 269.26263 271.04922 272.70898 274.66397
 276.56989 278.31326 279.85413 281.21872 282.40375 283.45453 284.41510 285.28976
 286.08298 286.80103 287.43420 288.27652
 366.78100 356.34868 345.79435 334.67403 323.09070 311.29838 299.18205 286.99873
 274.72440 262.63508 250.65775 239.97243 230.10810 221.22578 213.42145 206.43713
 200.28480 195.23648 191.83215 189.88783 188.93850 189.01618 189.86485 191.18653
 192.92520 195.03388 197.31055 199.68323 202.14190 204.63558 206.73725 208.59293
 210.23260 211.39128 211.63395 211.87563 211.82630 211.54498 211.19165 210.83533
 210.46601 210.18968 210.01136 209.88903 209.83071 210.17538 210.57506 210.97773
 211.78441 212.97608 214.23976 216.03643 217.97811 220.03478 222.14346 224.24013
 226.31381 228.41148 230.52216 232.64183 234.78451 236.97018 239.23986 241.62353
 244.25821 246.52288 248.53856 250.31723 251.74791 252.88458 253.72026 254.04993
 254.10061 253.88828 253.26196 252.22363 250.84331 249.01799 246.94066 244.78734
 242.59201 240.40969 238.24336 236.09604 233.96971 231.85039 229.89006 228.06074
 226.35741 224.84309 223.48676 222.27244 221.16811 220.14179 219.25946 218.41414
 217.66981 216.86349 215.97516 215.35284 214.81651 215.39035 216.74609 218.39769
 220.22040 222.02104 223.08301 222.95663 222.44536 222.13997 222.73170 224.10048
 226.32286 229.98048 234.38548 239.08174 243.61201 247.98607 252.12451 255.81854
 259.05380 262.01837 264.77908 267.19052 269.22833 270.90643 272.88443 274.60431
 276.49283 278.17920 279.69629 281.05261 282.22980 283.27554 284.23065 285.10190
 285.89813 286.62186 287.25336 288.07968
 366.78100 356.34880 345.79459 334.67439 323.09118 311.29898 299.18277 286.99957
 274.72536 262.63616 250.65895 239.97375 230.10954 221.22734 213.42313 206.43893
 200.28672 195.23852 191.83431 189.89011 188.94090 189.01870 189.86749 191.18929
 192.92808 195.03688 197.31367 199.68647 202.14526 204.63906 206.74085 208.59665
 210.23644 211.39524 211.63803 211.87983 211.83062 211.54942 211.19621 210.84001
 210.47080 210.19460 210.01639 209.89419 209.83598 210.18078 210.58057 210.98337
 211.79016 212.98196 214.24575 216.04255 217.98434 220.04114 222.14993 224.24673
 226.32052 228.41832 230.52911 232.64891 234.79170 236.97750 239.24729 241.63109
 244.26588 246.53068 248.54647 250.32527 251.75606 252.89286 253.72865 254.05845
 254.10924 253.89704 253.27083 252.23263 250.85242 249.02722 246.95002 244.79681
 242.60161 240.41940 238.25320 236.10599 233.97979 231.86058 229.90038 228.07117
 226.36797 224.85376 223.49756 222.28335 221.17915 220.15294 219.27074 218.42553
 217.68133 216.87512 215.98692 215.36471 214.82851 215.39742 216.74153 218.37479
 220.19615 222.01082 223.06432 222.85318 222.23817 221.87445 222.49461 223.96988
 226.32126 230.10469 234.56934 239.26469 243.78842 248.15195 252.26428 255.93134
 259.14514 262.08994 264.83133 267.23917 269.29080 271.02127 272.65750 274.56378
 276.34741 277.98602 279.45389 280.77014 281.91336 282.93753 283.88177 284.74667
 285.55057 286.29245 286.91129 287.74142
 366.78100 356.34889 345.79479 334.67468 323.09157 311.29947 299.18336 287.00025
 274.72615 262.63704 250.65993 239.97483 230.11072 221.22861 213.42451 206.44040
 200.28829 195.24019 191.83608 189.89197 188.94287 189.02076 189.86965 191.19155
 192.93044 195.03933 197.31623 199.68912 202.14801 204.64191 206.74380 208.59969
 210.23959 211.39848 211.64137 211.88327 211.83416 211.55305 211.19995 210.84384
 210.47473 210.19863 210.02052 209.89841 209.84031 210.18520 210.58509 210.98799
 211.79488 212.98677 214.25067 216.04756 217.98945 220.04635 222.15524 224.25213
 226.32603 228.42392 230.53481 232.65471 234.79760 236.98349 239.25339 241.63728
 244.27217 246.53707 248.55296 250.33185 251.76275 252.89964 253.73553 254.06543
 254.11632 253.90421 253.27811 252.24000 250.85989 249.03479 246.95768 244.80457
 242.60947 240.42736 238.26125 236.11415 233.98804 231.86893 229.90883 228.07972
 226.37661 224.86251 223.50640 222.29229 221.18819 220.16208 219.27997 218.43487
 217.69076 216.88465 215.99655 215.37444 214.83833 215.40123 216.73116 218.35822
 220.16599 221.99104 223.03474 222.75905 222.07393 221.62125 222.23532 223.78021
 226.28944 230.22781 234.76883 239.47070 243.97452 248.32178 252.40688 256.04135
 259.23300 262.16208 264.87326 267.27460 269.35776 271.16373 272.74051 274.51398
 276.23141 277.79288 279.19186 280.46442 281.60583 282.64151 283.60306 284.47989
 285.27557 285.97910 286.59387 287.41699
 366.78100 356.34862 345.79424 334.67386 323.09049 311.29811 299.18173 286.99835
 274.72397 262.63459 250.65721 239.97184 230.10746 221.22508 213.42070 206.43632
 200.28394 195.23556 191.83119 189.88681 188.93743 189.01505 189.86367 191.18529
 192.92391 195.03254 197.30916 199.68178 202.14040 204.63402 206.73564 208.59126
 210.23089 211.38951 211.63213 211.87375 211.82437 211.54299 211.18961 210.83324
 210.46386 210.18748 210.00910 209.88672 209.82834 210.17296 210.57259 210.97521
 211.78183 212.97345 214.23707 216.03369 217.97531 220.03194 222.14056 224.23718
 226.31080 228.40842 230.51904 232.63866 234.78129 236.96691 239.23653 241.62015
 244.25477 246.51939 248.53501 250.31364 251.74426 252.88088 253.71650 254.04612
 254.09674 253.88436 253.25799 252.21961 250.83923 249.01385 246.93647 244.78309
 242.58771 240.40533 238.23896 236.09158 233.96520 231.84582 229.88544 228.05606
 226.35268 224.83831 223.48193 222.26755 221.16317 220.13679 219.25441 218.40903
 217.66466 216.85828 215.96990 215.34752 214.81114 215.38512 216.74121 218.31870
 220.15079 221.98024 222.97739 222.64867 221.88892 221.37416 221.99072 223.63528
 226.27753 230.34846 234.97105 239.66943 244.15891 248.49519 252.55608 256.15295
 259.30643 262.20416 264.89615 267.29388 269.40891 271.27518 272.92987 274.56577
 276.20300 277.68915 279.03284 280.26202 281.33127 282.34497 283.30014 284.16534
 284.90527 285.56686 286.17383 286.99826
 366.78100 356.34903 345.79506 334.67508 323.09211 311.30014 299.18417 287.00120
 274.72723 262.63825 250.66128 239.97631 230.11234 221.23037 213.42640 206.44242
 200.29045 195.24248 191.83851 189.89454 188.94556 189.02359 189.87262 191.19465
 192.93368 195.04271 197.31973 199.69276 202.15179 204.64582 206.74785 208.60387
 210.24390 211.40293 211.64596 211.88799 211.83902 211.55804 211.20507 210.84910
 210.48013 210.20416 210.02619 209.90421 209.84624 210.19127 210.59130 210.99433
 211.80135 212.99338 214.25741 216.05444 217.99647 220.05350 222.16252 224.25955
 226.33358 228.43161 230.54264 232.66266 234.80569 236.99172 239.26175 241.64578
 244.28081 246.54583 248.56186 250.34089 251.77192 252.90895 253.74498 254.07500
 254.12603 253.91406 253.28809 252.25012 250.87014 249.04517 246.96820 244.81523
 242.62026 240.43829 238.27231 236.12534 233.99937 231.88040 229.92043 228.09146
 226.38848 224.87451 223.51854 222.30457 221.20060 220.17462 219.29265 218.44768
 217.70371 216.89774 216.00977 215.38779 214.85182 215.40443 216.71007 218.31778
 220.09882 221.89816 222.95251 222.53189 221.71100 221.16501 221.70111 223.39592
 226.22089 230.44228 235.16396 239.87315 244.36307 248.69368 252.74695 256.31232
 259.42670 262.26367 264.91293 267.29205 269.40900 271.29944 273.02686 274.65314
 276.21606 277.64517 278.94275 280.14520 281.17957 282.08771 282.99139 283.83719
 284.58112 285.27277 285.93173 286.78876
 366.78100 356.34835 345.79370 334.67305 323.08940 311.29675 299.18010 286.99646
 274.72181 262.63216 250.65451 239.96886 230.10421 221.22156 213.41691 206.43226
 200.27961 195.23096 191.82631 189.88166 188.93201 189.00937 189.85772 191.17907
 192.91742 195.02577 197.30212 199.67447 202.13282 204.62617 206.72752 208.58287
 210.22222 211.38057 211.62292 211.86428 211.81463 211.53298 211.17933 210.82268
 210.45303 210.17638 209.99773 209.87508 209.81643 210.16078 210.56013 210.96248
 211.76883 212.96019 214.22354 216.01989 217.96124 220.01759 222.12594 224.22229
 226.29564 228.39299 230.50334 232.62269 234.76504 236.95039 239.21975 241.60310
 244.23745 246.50180 248.51715 250.29550 251.72585 252.86220 253.69755 254.02690
 254.07725 253.86460 253.23795 252.19930 250.81866 248.99301 246.91536 244.76171
 242.56606 240.38341 238.21676 236.06911 233.94246 231.82281 229.86216 228.03251
 226.32886 224.81421 223.45757 222.24292 221.13827 220.11162 219.22897 218.38332
 217.63867 216.83202 215.94337 215.32072 214.78407 215.36790 216.74727 218.24825
 220.11003 221.86511 222.75459 222.44519 221.64647 220.73892 221.40012 223.33687
 226.31659 230.57742 235.35286 240.09331 244.59496 248.90822 252.94534 256.50583
 259.60162 262.37436 264.95343 267.31134 269.43411 271.36276 273.13437 274.77225
 276.27127 277.64264 278.89886 280.04541 281.00555 281.91635 282.85434 283.66464
 284.29645 284.89740 285.42596 286.09955
 366.78100 356.34798 345.79297 334.67195 323.08794 311.29492 299.17791 286.99389
 274.71888 262.62886 250.65085 239.96483 230.09981 221.21680 213.41178 206.42677
 200.27375 195.22474 191.81972 189.87471 188.92469 189.00167 189.84966 191.17064
 192.90863 195.01661 197.29260 199.66458 202.12257 204.61555 206.71654 208.57152
 210.21050 211.36849 211.61047 211.85146 211.80144 211.51943 211.16541 210.80840
 210.43838 210.16137 209.98235 209.85933 209.80032 210.14430 210.54329 210.94527
 211.75126 212.94224 214.20523 216.00121 217.94219 219.99818 222.10616 224.20215
 226.27513 228.37212 230.48210 232.60109 234.74307 236.92806 239.19704 241.58002
 244.21401 246.47799 248.49298 250.27096 251.70095 252.83693 253.67192 254.00090
 254.05089 253.83787 253.21085 252.17184 250.79082 248.96481 246.88679 244.73278
 242.53676 240.35375 238.18673 236.03871 233.91170 231.79168 229.83067 228.00065
 226.29664 224.78162 223.42461 222.20959 221.10458 220.07756 219.19454 218.34853
 217.60351 216.79650 215.90748 215.28447 214.74745 215.35893 216.81635 218.21631
 219.99409 221.25879 222.71655 222.84892 221.53799 220.04152 220.92361 223.24860
 226.44382 230.71526 235.53757 240.31020 244.83275 249.11685 253.11076 256.66608
 259.75873 262.51114 265.02008 267.32382 269.44424 271.39447 273.19672 274.84839
 276.33569 277.67038 278.92676 280.17389 281.29990 282.24118 283.12833 283.93585
 284.66214 285.30890 285.87387 286.59390
 366.78100 356.34726 345.79152 334.66978 323.08505 311.29131 299.17357 286.98883
 274.71309 262.62235 250.64361 239.95687 230.09114 221.20740 213.40166 206.41592
 200.26218 195.21244 191.80670 189.86096 188.91023 188.98649 189.83375 191.15401
 192.89127 194.99853 197.27379 199.64505 202.10232 204.59458 206.69484 208.54910
 210.18736 211.34462 211.58588 211.82614 211.77541 211.49267 211.13793 210.78019
 210.40945 210.13171 209.95197 209.82823 209.76850 210.11176 210.51002 210.91128
 211.71654 212.90680 214.16906 215.96432 217.90459 219.95985 222.06711 224.16237
 226.23463 228.33089 230.44015 232.55841 234.69968 236.88394 239.15220 241.53446
 244.16772 246.43098 248.44524 250.22250 251.65177 252.78703 253.62129 253.94955
 253.99881 253.78507 253.15733 252.11759 250.73586 248.90912 246.83038 244.67564
 242.47890 240.29516 238.12742 235.97868 233.85095 231.73021 229.76847 227.93773
 226.23299 224.71725 223.35951 222.14377 221.03804 220.01030 219.12656 218.27982
 217.53408 216.72634 215.83660 215.21286 214.67513 215.33968 216.90535 218.21207
 220.00464 221.50116 223.06932 222.77489 221.14082 219.97012 220.64014 223.13165
 226.43993 230.87645 235.76082 240.56308 245.07977 249.36644 253.34935 256.88007
 259.96185 262.69147 265.16794 267.46667 269.58170 271.52078 273.30066 274.89932
 276.36142 277.82172 279.31854 280.83759 282.15219 283.31528 284.37640 285.33774
 286.20233 286.97226 287.64484 288.50198
 366.78100 356.34630 345.78960 334.66690 323.08120 311.28649 299.16779 286.98209
 274.70539 262.61369 250.63399 239.94629 230.07959 221.19489 213.38818 206.40148
 200.24678 195.19608 191.78938 189.84268 188.89098 188.96628 189.81258 191.13187
 192.86817 194.97447 197.24877 199.61907 202.07537 204.56667 206.66597 208.51927
 210.15656 211.31286 211.55316 211.79246 211.74076 211.45706 211.10136 210.74266
 210.37096 210.09225 209.91155 209.78685 209.72615 210.06845 210.46575 210.86605
 211.67035 212.85965 214.12094 215.91524 217.85454 219.90884 222.01514 224.10944
 226.18074 228.27604 230.38434 232.50163 234.64193 236.82523 239.09253 241.47383
 244.10613 246.36843 248.38173 250.15802 251.58632 252.72062 253.55392 253.88122
 253.92952 253.71482 253.08612 252.04542 250.66271 248.83501 246.75531 244.59961
 242.40191 240.21721 238.04851 235.89881 233.77011 231.64840 229.68570 227.85400
 226.14830 224.63160 223.27290 222.05620 220.94950 219.92080 219.03609 218.18839
 217.44169 216.63299 215.74229 215.11759 214.57889 215.29808 216.94717 218.18484
 219.97754 221.68687 222.97331 222.53688 221.03955 219.84489 220.21745 222.85472
 226.36816 230.96745 235.91420 240.73640 245.27399 249.54222 253.48459 257.01318
 260.12289 262.86160 265.37146 267.70740 269.86484 271.83286 273.51794 274.78204
 276.11380 277.91177 279.71210 281.29291 282.66095 283.87134 284.97562 285.97604
 286.87579 287.67703 288.37698 289.26898
 366.78100 356.34611 345.78921 334.66632 323.08043 311.28553 299.16664 286.98075
 274.70385 262.61196 250.63207 239.94417 230.07728 221.19239 213.38549 206.39860
 200.24371 195.19282 191.78592 189.83903 188.88714 188.96224 189.80835 191.12746
 192.86356 194.96967 197.24378 199.61388 202.06999 204.56110 206.66020 208.51331
 210.15042 211.30652 211.54663 211.78574 211.73384 211.44995 211.09406 210.73516
 210.36327 210.08438 209.90348 209.77859 209.71770 210.05980 210.45691 210.85702
 211.66113 212.85023 214.11134 215.90545 217.84455 219.89866 222.00477 224.09887
 226.16998 228.26509 230.37319 232.49030 234.63041 236.81351 239.08062 241.46173
 244.09383 246.35594 248.36905 250.14515 251.57326 252.70737 253.54047 253.86758
 253.91569 253.70079 253.07190 252.03101 250.64811 248.82022 246.74033 244.58443
 242.38654 240.20165 238.03276 235.88286 233.75397 231.63208 229.66918 227.83729
 226.13140 224.61450 223.25561 222.03872 220.93182 219.90293 219.01804 218.17014
 217.42325 216.61436 215.72346 215.09857 214.55968 215.27155 216.92690 218.15746
 219.94194 221.62454 222.74072 222.17613 221.02838 219.90154 220.11470 222.82208
 226.44861 231.06059 236.02747 240.86742 245.35890 249.53912 253.39572 256.88943
 260.03311 262.88199 265.51886 267.99020 270.24109 272.21857 273.82217 274.92200
 275.61688 276.79431 278.37460 279.91965 281.25671 282.43970 283.51895 284.49673
 285.37610 286.15921 286.84329 287.71509
 366.78100 356.34630 345.78960 334.66690 323.08121 311.28651 299.16781 286.98211
 274.70541 262.61371 250.63402 239.94632 230.07962 221.19492 213.38822 206.40152
 200.24683 195.19613 191.78943 189.84273 188.89103 188.96633 189.81264 191.13194
 192.86824 194.97454 197.24884 199.61914 202.07545 204.56675 206.66605 208.51935
 210.15665 211.31295 211.55326 211.79256 211.74086 211.45716 211.10146 210.74276
 210.37107 210.09237 209.91167 209.78697 209.72627 210.06857 210.46587 210.86618
 211.67048 212.85978 214.12108 215.91538 217.85468 219.90899 222.01529 224.10959
 226.18089 228.27619 230.38449 232.50180 234.64210 236.82540 239.09270 241.47400
 244.10630 246.36861 248.38191 250.15821 251.58651 252.72081 253.55411 253.88142
 253.92972 253.71502 253.08632 252.04562 250.66292 248.83523 246.75553 244.59983
 242.40213 240.21743 238.04873 235.89903 233.77034 231.64864 229.68594 227.85424
 226.14854 224.63184 223.27315 222.05645 220.94975 219.92105 219.03635 218.18865
 217.44196 216.63326 215.74256 215.11786 214.57916 215.25380 216.85640 218.19380
 219.82945 221.35587 222.65433 221.87971 220.84720 219.76924 220.09940 222.81615
 226.55379 231.15808 236.12215 240.97105 245.46146 249.58682 253.35886 256.78387
 259.90393 262.77963 265.45987 267.98279 270.28491 272.30313 273.96875 275.20557
 275.98123 276.38751 277.13864 278.17947 279.40366 280.56650 281.62744 282.58856
 283.45300 284.22278 284.89523 285.75223
 354.97500 345.04800 334.58700 324.11500 313.32600 302.53700 291.65000 280.76700
 269.93100 259.19300 248.62200 238.61700 229.08700 220.35500 212.54000 205.53500
 199.46400 194.49300 191.14300 189.19000 188.08900 188.01400 188.72400 189.90600
 191.46900 193.38200 195.40300 197.55600 199.80700 202.06000 204.28800 206.47900
 208.55200 210.37800 212.02500 213.65900 214.99800 216.11800 217.17200 218.25900
 219.49400 220.64500 221.67900 222.61400 223.54500 224.98200 226.57100 228.19000
 229.79700 231.81100 233.86500 235.97200 238.24200 240.55300 242.89900 245.25300
 247.48800 249.53500 251.36600 252.84800 254.09800 255.16700 256.02700 256.25300
 256.09500 255.54300 253.93500 252.56600 251.38400 250.24500 249.05200 247.70100
 246.01600 243.99600 241.78400 239.39300 236.81300 234.22300 231.65800 229.14400
 226.74000 224.47300 222.33500 220.32500 218.44000 216.67700 214.96200 213.47200
 212.20000 211.10800 210.26000 209.63900 209.24400 209.03100 209.05800 209.33300
 209.78400 210.62600 211.33100 212.39100 213.62500 214.84668 217.72949 219.47640
 220.32566 220.86828 220.88710 220.27371 219.43733 218.84250 219.04934 220.86203
 222.60583 225.72206 229.03064 232.61777 236.12270 239.51333 242.70767 245.68587
 248.41061 250.90679 253.19353 254.91714 256.48655 257.94920 259.39966 260.69384
 261.81714 262.77997 263.71679 264.54570 265.26305 265.89772 266.47676 267.00133
 267.47312 267.89325 268.26027 268.72800
