|-------------------------------------------------------------------------|
|   File Name : in_temp.dat
|   Subject   : temperature profiles used for initial guess atmosphere
|   File Type : input of gmtr
|   Data Type : atmospherical data
|   Author/s  : WRF-Chem
|   Date      : Fri Jul 26 15:39:24 2024
|-------------------------------------------------------------------------|

 WRF-Chem temperature
#
 values of T (K)    (8f10.5)
#
 354.97500 345.04800 334.58700 324.11500 313.32600 302.53700 291.65000 280.76700
 269.93100 259.19300 248.62200 238.61700 229.08700 220.35500 212.54000 205.53500
 199.46400 194.49300 191.14300 189.19000 188.08900 188.01400 188.72400 189.90600
 191.46900 193.38200 195.40300 197.55600 199.80700 202.06000 204.28800 206.47900
 208.55200 210.37800 212.02500 213.65900 214.99800 216.11800 217.17200 218.25900
 219.49400 220.64500 221.67900 222.61400 223.54500 224.98200 226.57100 228.19000
 229.79700 231.81100 233.86500 235.97200 238.24200 240.55300 242.89900 245.25300
 247.48800 249.53500 251.36600 252.84800 254.09800 255.16700 256.02700 256.25300
 256.09500 255.54300 253.93500 252.56600 251.38400 250.24500 249.05200 247.70100
 246.01600 243.99600 241.78400 239.39300 236.81300 234.22300 231.65800 229.14400
 226.74000 224.47300 222.33500 220.32500 218.44000 216.67700 214.96200 213.47200
 212.20000 211.10800 210.26000 209.63900 209.24400 209.03100 209.05800 209.33300
 209.78400 210.62600 211.33100 212.39100 213.62500 214.84668 217.72949 219.47640
 220.32566 220.86828 220.88710 220.27371 219.43733 218.84250 219.04934 220.86203
 222.60583 225.72206 229.03064 232.61777 236.12270 239.51333 242.70767 245.68587
 248.41061 250.90679 253.19353 254.91714 256.48655 257.94920 259.39966 260.69384
 261.81714 262.77997 263.71679 264.54570 265.26305 265.89772 266.47676 267.00133
 267.47312 267.89325 268.26027 268.72800
 366.78100 356.33500 345.76700 334.63300 323.03600 311.23000 299.10000 286.90300
 274.61500 262.51200 250.52100 239.82200 229.94400 221.04800 213.23000 206.23200
 200.06600 195.00400 191.58600 189.62800 188.66500 188.72900 189.56400 190.87200
 192.59700 194.69200 196.95500 199.31400 201.75900 204.23900 206.32700 208.16900
 209.79500 210.94000 211.16900 211.39700 211.33400 211.03900 210.67200 210.30200
 209.91900 209.62900 209.43700 209.30100 209.22900 209.56000 209.94600 210.33500
 211.12800 212.30600 213.55600 215.33900 217.26700 219.31000 221.40500 223.48800
 225.54800 227.63200 229.72900 231.83500 233.96400 236.13600 238.39200 240.76200
 243.38300 245.63400 247.63600 249.40100 250.81800 251.94100 252.76300 253.07900
 253.11600 252.89000 252.25000 251.19800 249.80400 247.96500 245.87400 243.70700
 241.49800 239.30200 237.12200 234.96100 232.82100 230.68800 228.71400 226.87100
 225.15400 223.62600 222.25600 221.02800 219.91000 218.87000 217.97400 217.11500
 216.35700 215.53700 214.63500 213.99900 213.44900 212.85855 212.01316 212.61654
 214.26826 216.08686 218.14273 220.53346 223.40855 226.78828 231.49734 235.90155
 239.42278 243.28576 247.23140 251.11907 254.80144 258.23331 261.38913 264.27520
 266.89312 269.26852 271.44504 273.08845 274.58484 275.98591 277.39845 278.65879
 279.75272 280.69038 281.56708 282.34086 283.01050 283.60295 284.14348 284.63317
 285.07358 285.46577 285.80838 286.24500
 381.81900 372.39900 361.20600 349.77600 337.62200 324.85300 311.81000 298.35300
 284.86000 271.32400 258.56100 246.30400 236.08700 226.79600 218.44800 211.29000
 205.52200 200.89400 197.38100 194.84800 193.01500 192.31500 192.25000 192.43100
 192.91200 193.53700 194.13600 194.71200 195.26200 195.83100 196.39300 196.97600
 197.60400 198.14900 198.58400 199.05700 199.69500 200.37800 201.05400 201.70800
 202.31300 202.85700 203.35500 203.86200 204.56900 205.29700 206.02600 206.98700
 208.19300 209.44100 210.96900 212.57600 214.46200 216.51300 218.63000 220.85300
 223.34100 225.96200 228.73900 231.69700 234.70600 237.70600 240.69200 243.65700
 246.73700 249.69900 252.52100 255.06300 257.29000 259.23300 260.63300 261.68000
 262.46100 262.79800 262.69100 262.22400 261.06900 259.52500 257.70700 255.50700
 253.00100 250.30200 247.39800 244.45200 241.65400 239.05400 236.73300 234.59000
 232.59500 230.72500 228.83400 226.82600 224.66600 222.38700 220.10400 217.71500
 215.45900 213.06600 210.54600 208.09300 205.35400 202.08130 196.05959 200.71215
 209.01611 216.90438 223.84126 229.78593 235.00632 240.20838 245.98943 250.68668
 254.32982 257.93487 261.55666 264.96801 268.15192 271.06452 273.76717 276.25691
 278.57680 280.74479 282.77456 284.60533 286.27232 287.81705 289.31715 290.65561
 291.81734 292.81312 293.70701 294.49387 295.17482 295.77730 296.32696 296.82492
 297.27278 297.67160 298.02000 298.46400
 399.33000 389.90700 379.81300 368.66800 357.52200 345.30100 333.07400 320.22700
 307.21600 293.84800 280.37600 267.29600 254.61000 242.98700 232.15100 221.97700
 212.67200 204.28600 197.66900 192.82100 189.48600 187.45200 186.81400 187.08900
 187.78100 189.05400 190.64800 192.54200 194.63000 196.75200 198.67100 200.15800
 201.53500 202.48700 202.97500 203.34000 203.53900 203.49700 203.38500 203.24700
 203.00500 202.78600 202.60300 202.43700 202.42600 202.88800 203.42000 203.95100
 204.89500 205.99200 207.30100 208.95800 210.73800 213.10000 215.56400 218.18000
 220.96600 223.91800 226.96100 230.09200 233.29300 236.55700 239.95500 243.53700
 246.84500 249.39000 251.54200 253.47400 255.19500 256.48400 257.43100 258.05900
 258.21200 258.04000 257.58200 256.64300 255.23900 253.50700 251.40800 249.05600
 246.57600 243.99400 241.38900 238.83000 236.34400 233.98600 231.96900 230.11800
 228.42300 226.89900 225.54800 224.29700 223.10500 221.96500 220.95800 220.11300
 219.49000 218.92000 218.32500 217.88100 217.42300 216.96366 216.35568 216.80261
 217.73415 218.28582 218.64258 219.10077 220.44626 222.53987 226.38451 230.35736
 233.59734 237.39164 241.29814 245.22796 248.98002 252.51130 255.78595 258.80109
 261.54781 264.05210 266.34239 268.04198 269.58951 271.01303 272.35754 273.55718
 274.59842 275.49092 276.28989 276.99307 277.60161 278.14001 278.63122 279.07623
 279.47646 279.83287 280.14422 280.54100
 399.73800 389.78500 379.66200 368.15100 356.64100 344.35000 331.79200 318.88800
 305.72600 292.49300 279.20900 266.73800 254.69600 244.21100 234.45700 225.43300
 217.56900 210.45100 204.30000 199.30600 195.45800 192.57600 191.02700 190.38600
 190.23900 190.53400 191.16600 191.92500 192.79500 193.76600 194.73200 195.31200
 195.80000 196.05200 196.11500 196.11500 196.03900 195.72300 195.34000 194.98900
 194.75100 194.79200 195.13300 195.59800 196.50600 198.13600 199.85800 201.56600
 204.17900 206.82300 209.89300 213.28400 216.82800 220.60500 224.38700 228.20900
 232.03200 235.82500 239.56000 243.25800 246.84500 250.20100 253.70900 257.46800
 261.53000 264.22100 266.60100 268.68100 270.32900 271.74100 272.83600 273.47400
 273.89800 274.00200 273.75700 273.28800 272.37100 271.10000 269.58900 267.77900
 265.81600 263.72100 261.39300 258.91600 256.29800 253.42300 250.33100 247.11400
 243.83700 240.52900 237.24900 233.99900 230.72800 227.51500 224.25400 220.95200
 217.62700 213.65600 210.12100 206.78900 204.01000 201.99491 199.07309 198.76551
 199.40006 200.48994 201.46112 202.31912 203.45100 204.96110 207.47502 210.85391
 213.70530 217.29629 220.99574 224.72316 228.28753 231.64854 234.68024 237.40893
 239.70644 241.60899 243.46854 245.67368 247.68154 249.52395 251.24767 252.78566
 254.12057 255.26479 256.23740 257.09036 257.82852 258.48160 259.07744 259.61723
 260.10271 260.53504 260.91270 261.39400
 399.73800 389.78500 379.66200 368.15100 356.64100 344.35000 331.79200 318.88800
 305.72600 292.49300 279.20900 266.73800 254.69600 244.21100 234.45700 225.43300
 217.56900 210.45100 204.30000 199.30600 195.45800 192.57600 191.02700 190.38600
 190.23900 190.53400 191.16600 191.92500 192.79500 193.76600 194.73200 195.31200
 195.80000 196.05200 196.11500 196.11500 196.03900 195.72300 195.34000 194.98900
 194.75100 194.79200 195.13300 195.59800 196.50600 198.13600 199.85800 201.56600
 204.17900 206.82300 209.89300 213.28400 216.82800 220.60500 224.38700 228.20900
 232.03200 235.82500 239.56000 243.25800 246.84500 250.20100 253.70900 257.46800
 261.53000 264.22100 266.60100 268.68100 270.32900 271.74100 272.83600 273.47400
 273.89800 274.00200 273.75700 273.28800 272.37100 271.10000 269.58900 267.77900
 265.81600 263.72100 261.39300 258.91600 256.29800 253.42300 250.33100 247.11400
 243.83700 240.52900 237.24900 233.99900 230.72800 227.51500 224.25400 220.95200
 217.62700 213.65600 210.12100 206.78900 204.01000 201.99491 199.07309 198.76551
 199.40006 200.48994 201.46112 202.31912 203.45100 204.96110 207.47502 210.85391
 213.70530 217.29629 220.99574 224.72316 228.28753 231.64854 234.68024 237.40893
 239.70644 241.60899 243.46854 245.67368 247.68154 249.52395 251.24767 252.78566
 254.12057 255.26479 256.23740 257.09036 257.82852 258.48160 259.07744 259.61723
 260.10271 260.53504 260.91270 261.39400
 399.33000 389.90700 379.81300 368.66800 357.52200 345.30100 333.07400 320.22700
 307.21600 293.84800 280.37600 267.29600 254.61000 242.98700 232.15100 221.97700
 212.67200 204.28600 197.66900 192.82100 189.48600 187.45200 186.81400 187.08900
 187.78100 189.05400 190.64800 192.54200 194.63000 196.75200 198.67100 200.15800
 201.53500 202.48700 202.97500 203.34000 203.53900 203.49700 203.38500 203.24700
 203.00500 202.78600 202.60300 202.43700 202.42600 202.88800 203.42000 203.95100
 204.89500 205.99200 207.30100 208.95800 210.73800 213.10000 215.56400 218.18000
 220.96600 223.91800 226.96100 230.09200 233.29300 236.55700 239.95500 243.53700
 246.84500 249.39000 251.54200 253.47400 255.19500 256.48400 257.43100 258.05900
 258.21200 258.04000 257.58200 256.64300 255.23900 253.50700 251.40800 249.05600
 246.57600 243.99400 241.38900 238.83000 236.34400 233.98600 231.96900 230.11800
 228.42300 226.89900 225.54800 224.29700 223.10500 221.96500 220.95800 220.11300
 219.49000 218.92000 218.32500 217.88100 217.42300 216.96366 216.35568 216.80261
 217.73415 218.28582 218.64258 219.10077 220.44626 222.53987 226.38451 230.35736
 233.59734 237.39164 241.29814 245.22796 248.98002 252.51130 255.78595 258.80109
 261.54781 264.05210 266.34239 268.04198 269.58951 271.01303 272.35754 273.55718
 274.59842 275.49092 276.28989 276.99307 277.60161 278.14001 278.63122 279.07623
 279.47646 279.83287 280.14422 280.54100
 381.81900 372.39900 361.20600 349.77600 337.62200 324.85300 311.81000 298.35300
 284.86000 271.32400 258.56100 246.30400 236.08700 226.79600 218.44800 211.29000
 205.52200 200.89400 197.38100 194.84800 193.01500 192.31500 192.25000 192.43100
 192.91200 193.53700 194.13600 194.71200 195.26200 195.83100 196.39300 196.97600
 197.60400 198.14900 198.58400 199.05700 199.69500 200.37800 201.05400 201.70800
 202.31300 202.85700 203.35500 203.86200 204.56900 205.29700 206.02600 206.98700
 208.19300 209.44100 210.96900 212.57600 214.46200 216.51300 218.63000 220.85300
 223.34100 225.96200 228.73900 231.69700 234.70600 237.70600 240.69200 243.65700
 246.73700 249.69900 252.52100 255.06300 257.29000 259.23300 260.63300 261.68000
 262.46100 262.79800 262.69100 262.22400 261.06900 259.52500 257.70700 255.50700
 253.00100 250.30200 247.39800 244.45200 241.65400 239.05400 236.73300 234.59000
 232.59500 230.72500 228.83400 226.82600 224.66600 222.38700 220.10400 217.71500
 215.45900 213.06600 210.54600 208.09300 205.35400 202.08130 196.05959 200.71215
 209.01611 216.90438 223.84126 229.78593 235.00632 240.20838 245.98943 250.68668
 254.32982 257.93487 261.55666 264.96801 268.15192 271.06452 273.76717 276.25691
 278.57680 280.74479 282.77456 284.60533 286.27232 287.81705 289.31715 290.65561
 291.81734 292.81312 293.70701 294.49387 295.17482 295.77730 296.32696 296.82492
 297.27278 297.67160 298.02000 298.46400
 366.78100 356.33082 345.75863 334.62045 323.01926 311.20908 299.07490 286.87371
 274.58153 262.47434 250.47916 239.77598 229.89379 220.99361 213.17142 206.16924
 199.99906 194.93287 191.51069 189.54850 188.58132 188.64113 189.47195 190.77577
 192.49658 194.58740 196.84621 199.20103 201.64185 204.11766 206.20148 208.03929
 209.66111 210.80193 211.02674 211.25056 211.18337 210.88419 210.51301 210.13882
 209.75164 209.45745 209.26127 209.12109 209.04490 209.37172 209.75353 210.13835
 210.92717 212.10098 213.34680 215.12561 217.04943 219.08824 221.17906 223.25788
 225.31369 227.39351 229.48632 231.58814 233.71296 235.88077 238.13259 240.49840
 243.11522 245.36204 247.35985 249.12067 250.53348 251.65230 252.47012 252.78193
 252.81475 252.58456 251.94038 250.88420 249.48601 247.64283 245.54764 243.37646
 241.16328 238.96309 236.77891 234.61372 232.46954 230.33235 228.35417 226.50699
 224.78580 223.25362 221.87943 220.64725 219.52507 218.48088 217.58070 216.71751
 215.95533 215.13115 214.22496 213.58478 213.03059 212.76279 212.14397 213.37817
 215.11232 216.92096 217.92674 218.14214 219.24707 222.85387 228.34375 233.07181
 236.83348 240.59244 244.28999 247.87332 251.27106 254.06654 256.53802 259.21399
 262.26611 264.88049 266.97784 268.89749 270.84988 272.82788 274.52878 276.08826
 277.62305 279.21552 280.74777 282.11273 283.29883 284.35022 285.31384 286.19461
 286.99057 287.70526 288.33633 289.17542
 366.78100 356.33037 345.75774 334.61911 323.01749 311.20686 299.07223 286.87060
 274.57797 262.47034 250.47471 239.77109 229.88846 220.98783 213.16520 206.16257
 199.99194 194.92531 191.50269 189.54006 188.57243 188.63180 189.46217 190.76554
 192.48591 194.57629 196.83466 199.18903 201.62940 204.10477 206.18814 208.02551
 209.64689 210.78726 211.01163 211.23500 211.16737 210.86774 210.49612 210.12149
 209.73386 209.43923 209.24260 209.10197 209.02534 209.35172 209.73309 210.11746
 210.90583 212.07920 213.32457 215.10294 217.02632 219.06469 221.15506 223.23343
 225.28880 227.36817 229.46054 231.56192 233.68629 235.85366 238.10503 240.47040
 243.08677 245.33314 247.33052 249.09089 250.50326 251.62163 252.43900 252.75037
 252.78274 252.55212 251.90749 250.85086 249.45223 247.60860 245.51297 243.34134
 241.12772 238.92709 236.74246 234.57683 232.43220 230.29457 228.31594 226.46832
 224.74669 223.21406 221.83943 220.60680 219.48417 218.43954 217.53892 216.67529
 215.91266 215.08803 214.18140 213.54077 212.98615 212.76367 212.25012 213.50192
 215.19873 216.99817 218.01816 218.27463 219.38239 222.88553 228.29037 232.96530
 236.70511 240.46342 244.16801 247.74249 251.08052 253.82747 256.33575 259.10291
 262.12244 264.68637 266.78421 268.73901 270.71771 272.70126 274.39047 275.94699
 277.48801 279.13467 280.67166 282.03741 283.22205 284.27438 285.23917 286.11804
 286.91565 287.62823 288.25870 289.09888
 366.78100 356.33019 345.75739 334.61858 323.01678 311.20597 299.07117 286.86936
 274.57655 262.46875 250.47294 239.76914 229.88633 220.98553 213.16272 206.15991
 199.98911 194.92230 191.49950 189.53669 188.56889 188.62808 189.45827 190.76147
 192.48166 194.57186 196.83005 199.18425 201.62444 204.09963 206.18283 208.02002
 209.64122 210.78141 211.00561 211.22880 211.16099 210.86119 210.48938 210.11458
 209.72677 209.43197 209.23516 209.09435 209.01755 209.34374 209.72494 210.10913
 210.89733 212.07052 213.31571 215.09391 217.01710 219.05530 221.14549 223.22369
 225.27888 227.35807 229.45027 231.55146 233.67566 235.84285 238.09405 240.45924
 243.07543 245.32163 247.31882 249.07902 250.49121 251.60941 252.42660 252.73779
 252.76999 252.53918 251.89438 250.83757 249.43877 247.59496 245.49916 243.32735
 241.11354 238.91274 236.72793 234.56213 232.41732 230.27952 228.30071 226.45290
 224.73110 223.19829 221.82349 220.59068 219.46788 218.42307 217.52226 216.65846
 215.89565 215.07085 214.16404 213.52324 212.96843 212.78058 212.34721 213.62614
 215.29012 217.04909 218.12303 218.41646 219.51709 222.92380 228.24913 232.86209
 236.57300 240.32916 244.04317 247.60612 250.88246 253.58380 256.13202 258.98706
 261.97363 264.48709 266.58423 268.57565 270.58405 272.57465 274.25287 275.80600
 277.35632 279.05957 280.60071 281.96506 283.14966 284.20154 285.16437 286.04364
 286.84085 287.55353 288.18356 289.02362
 366.78100 356.33022 345.75745 334.61867 323.01689 311.20611 299.07134 286.86956
 274.57678 262.46901 250.47323 239.76945 229.88667 220.98590 213.16312 206.16034
 199.98957 194.92279 191.50001 189.53723 188.56946 188.62868 189.45890 190.76213
 192.48235 194.57257 196.83079 199.18502 201.62524 204.10046 206.18368 208.02091
 209.64213 210.78235 211.00658 211.22980 211.16202 210.86224 210.49047 210.11569
 209.72791 209.43314 209.23636 209.09558 209.01880 209.34503 209.72625 210.11047
 210.89870 212.07192 213.31714 215.09536 217.01859 219.05681 221.14703 223.22526
 225.28048 227.35970 229.45192 231.55315 233.67737 235.84459 238.09582 240.46104
 243.07726 245.32348 247.32071 249.08093 250.49315 251.61138 252.42860 252.73982
 252.77204 252.54127 251.89649 250.83971 249.44094 247.59716 245.50138 243.32960
 241.11583 238.91505 236.73027 234.56449 232.41972 230.28194 228.30316 226.45539
 224.73361 223.20083 221.82605 220.59328 219.47050 218.42572 217.52495 216.66117
 215.89839 215.07361 214.16684 213.52606 212.97128 212.80971 212.43695 213.75734
 215.37001 217.09145 218.22714 218.57013 219.66536 222.96896 228.21066 232.76060
 236.43759 240.19283 243.91647 247.46188 250.67668 253.33875 255.92818 258.86584
 261.82007 264.28387 266.37836 268.40662 270.44681 272.44699 274.11789 275.66171
 277.25003 278.97946 280.52567 281.89182 283.07684 284.12930 285.09320 285.97186
 286.76807 287.48212 288.11243 288.95319
 366.78100 356.33023 345.75747 334.61870 323.01693 311.20617 299.07140 286.86963
 274.57687 262.46910 250.47334 239.76957 229.88680 220.98604 213.16327 206.16050
 199.98974 194.92297 191.50020 189.53744 188.56967 188.62890 189.45914 190.76237
 192.48260 194.57284 196.83107 199.18530 201.62554 204.10077 206.18401 208.02124
 209.64247 210.78271 211.00694 211.23017 211.16241 210.86264 210.49087 210.11611
 209.72834 209.43357 209.23681 209.09604 209.01927 209.34551 209.72674 210.11098
 210.89921 212.07244 213.31768 215.09591 217.01914 219.05738 221.14761 223.22584
 225.28108 227.36031 229.45254 231.55378 233.67801 235.84524 238.09648 240.46171
 243.07794 245.32418 247.32141 249.08165 250.49388 251.61211 252.42935 252.74058
 252.77281 252.54205 251.89728 250.84051 249.44175 247.59798 245.50221 243.33045
 241.11668 238.91591 236.73115 234.56538 232.42061 230.28285 228.30408 226.45632
 224.73455 223.20178 221.82702 220.59425 219.47148 218.42672 217.52595 216.66218
 215.89942 215.07465 214.16788 213.52712 212.97235 212.83939 212.53270 213.88718
 215.43575 217.13075 218.32922 218.73486 219.83206 223.02052 228.17276 232.66219
 236.30382 240.05801 243.78381 247.30411 250.46216 253.09438 255.72580 258.73755
 261.66043 264.07794 266.16727 268.23184 270.30914 272.32193 273.98831 275.52393
 277.15872 278.89667 280.44519 281.81168 282.99832 284.05154 285.01523 285.89612
 286.69156 287.40488 288.03702 288.87848
 366.78100 356.33024 345.75748 334.61872 323.01696 311.20620 299.07145 286.86969
 274.57693 262.46917 250.47341 239.76965 229.88689 220.98613 213.16337 206.16061
 199.98985 194.92309 191.50034 189.53758 188.56982 188.62906 189.45930 190.76254
 192.48278 194.57302 196.83126 199.18550 201.62574 204.10098 206.18423 208.02147
 209.64271 210.78295 211.00719 211.23043 211.16267 210.86291 210.49115 210.11639
 209.72863 209.43387 209.23712 209.09636 209.01960 209.34584 209.72708 210.11132
 210.89956 212.07280 213.31804 215.09628 217.01952 219.05776 221.14801 223.22625
 225.28149 227.36073 229.45297 231.55421 233.67845 235.84569 238.09693 240.46217
 243.07841 245.32465 247.32190 249.08214 250.49438 251.61262 252.42986 252.74110
 252.77334 252.54258 251.89782 250.84106 249.44230 247.59854 245.50279 243.33103
 241.11727 238.91651 236.73175 234.56599 232.42123 230.28347 228.30471 226.45695
 224.73519 223.20243 221.82768 220.59492 219.47216 218.42740 217.52664 216.66288
 215.90012 215.07536 214.16860 213.52784 212.97308 212.87039 212.63362 214.01320
 215.49341 217.16531 218.43117 218.90498 220.01398 223.07878 228.13921 232.56839
 236.17888 239.92812 243.64421 247.13231 250.23805 252.84991 255.52264 258.59933
 261.49203 263.86728 265.95236 268.05307 270.16907 272.19736 273.86621 275.39774
 277.07135 278.81201 280.36084 281.72769 282.91525 283.96841 284.93350 285.81116
 286.60876 287.32397 287.95496 288.79681
 366.78100 356.33028 345.75756 334.61884 323.01712 311.20640 299.07168 286.86996
 274.57725 262.46953 250.47381 239.77009 229.88737 220.98665 213.16393 206.16121
 199.99049 194.92377 191.50105 189.53833 188.57061 188.62989 189.46017 190.76346
 192.48374 194.57402 196.83230 199.18658 201.62686 204.10214 206.18542 208.02270
 209.64398 210.78426 211.00854 211.23182 211.16410 210.86438 210.49267 210.11795
 209.73023 209.43551 209.23879 209.09807 209.02135 209.34763 209.72891 210.11319
 210.90147 212.07475 213.32003 215.09831 217.02159 219.05988 221.15016 223.22844
 225.28372 227.36300 229.45528 231.55656 233.68084 235.84812 238.09940 240.46468
 243.08096 245.32724 247.32452 249.08480 250.49708 251.61537 252.43265 252.74393
 252.77621 252.54549 251.90077 250.84405 249.44533 247.60161 245.50589 243.33417
 241.12045 238.91973 236.73501 234.56929 232.42458 230.28686 228.30814 226.46042
 224.73870 223.20598 221.83126 220.59854 219.47582 218.43110 217.53038 216.66666
 215.90394 215.07922 214.17250 213.53179 212.97707 212.90431 212.73674 214.13344
 215.54463 217.19810 218.53725 219.07135 220.20438 223.14494 228.11105 232.47903
 236.06328 239.80583 243.50186 246.94824 250.00327 252.60291 255.31717 258.44928
 261.31458 263.65350 265.73798 267.87454 270.02972 272.07510 273.75241 275.28754
 276.98257 278.72467 280.27261 281.63895 282.82693 283.88055 284.84512 285.72470
 286.52090 287.23660 287.86786 288.71036
 366.78100 356.33031 345.75763 334.61894 323.01726 311.20657 299.07189 286.87020
 274.57752 262.46983 250.47414 239.77046 229.88777 220.98709 213.16440 206.16172
 199.99103 194.92434 191.50166 189.53897 188.57129 188.63060 189.46092 190.76423
 192.48455 194.57486 196.83317 199.18749 201.62780 204.10312 206.18643 208.02375
 209.64506 210.78537 211.00969 211.23300 211.16532 210.86563 210.49395 210.11926
 209.73158 209.43689 209.24020 209.09952 209.02283 209.34915 209.73046 210.11478
 210.90309 212.07640 213.32172 215.10003 217.02335 219.06166 221.15198 223.23029
 225.28561 227.36492 229.45723 231.55855 233.68286 235.85018 238.10149 240.46681
 243.08312 245.32943 247.32675 249.08706 250.49938 251.61769 252.43501 252.74632
 252.77864 252.54795 251.90326 250.84658 249.44789 247.60421 245.50852 243.33684
 241.12315 238.92246 236.73778 234.57209 232.42741 230.28972 228.31104 226.46335
 224.74167 223.20898 221.83429 220.60161 219.47892 218.43424 217.53355 216.66987
 215.90718 215.08250 214.17581 213.53512 212.98044 212.93907 212.84410 214.24484
 215.58807 217.23569 218.65031 219.23083 220.39827 223.21715 228.08679 232.39670
 235.95369 239.69104 243.36081 246.75635 249.75945 252.35378 255.10957 258.28659
 261.12772 263.43857 265.52826 267.69958 269.89255 271.95554 273.64676 275.19125
 276.89273 278.63379 280.18118 281.54797 282.73611 283.78949 284.75467 285.63391
 286.43018 287.14676 287.77759 288.62210
 366.78100 356.33034 345.75769 334.61903 323.01737 311.20672 299.07206 286.87040
 274.57774 262.47009 250.47443 239.77077 229.88812 220.98746 213.16480 206.16215
 199.99149 194.92483 191.50218 189.53952 188.57186 188.63120 189.46155 190.76489
 192.48523 194.57558 196.83392 199.18826 201.62861 204.10395 206.18729 208.02464
 209.64598 210.78632 211.01066 211.23401 211.16635 210.86669 210.49504 210.12038
 209.73272 209.43807 209.24141 209.10075 209.02410 209.35044 209.73178 210.11612
 210.90447 212.07781 213.32315 215.10150 217.02484 219.06318 221.15353 223.23187
 225.28721 227.36655 229.45890 231.56024 233.68458 235.85193 238.10327 240.46861
 243.08496 245.33130 247.32864 249.08899 250.50133 251.61967 252.43701 252.74836
 252.78070 252.55004 251.90539 250.84873 249.45007 247.60642 245.51076 243.33910
 241.12545 238.92479 236.74013 234.57447 232.42982 230.29216 228.31350 226.46585
 224.74419 223.21153 221.83688 220.60422 219.48156 218.43691 217.53625 216.67259
 215.90993 215.08528 214.17862 213.53796 212.98331 212.97455 212.95517 214.34798
 215.62477 217.27968 218.77022 219.38631 220.59152 223.29430 228.06325 232.32626
 235.85236 239.58353 243.22211 246.55750 249.50731 252.10258 254.89923 258.11261
 260.93393 263.22379 265.32480 267.53073 269.75900 271.84079 273.55060 275.11185
 276.80096 278.53967 280.08707 281.45367 282.64120 283.69580 284.66144 285.54111
 286.33798 287.05496 287.68793 288.53119
 366.78100 356.33037 345.75774 334.61911 323.01748 311.20685 299.07222 286.87059
 274.57797 262.47034 250.47471 239.77108 229.88845 220.98782 213.16519 206.16256
 199.99193 194.92530 191.50267 189.54004 188.57241 188.63178 189.46216 190.76553
 192.48590 194.57627 196.83464 199.18901 201.62938 204.10475 206.18812 208.02549
 209.64686 210.78723 211.01160 211.23497 211.16734 210.86772 210.49609 210.12146
 209.73383 209.43920 209.24257 209.10194 209.02531 209.35168 209.73305 210.11742
 210.90579 212.07916 213.32453 215.10291 217.02628 219.06465 221.15502 223.23339
 225.28876 227.36813 229.46050 231.56187 233.68624 235.85361 238.10498 240.47035
 243.08672 245.33309 247.33047 249.09084 250.50321 251.62158 252.43895 252.75032
 252.78269 252.55206 251.90743 250.85080 249.45217 247.60854 245.51291 243.34128
 241.12765 238.92703 236.74240 234.57677 232.43214 230.29451 228.31588 226.46825
 224.74662 223.21399 221.83936 220.60673 219.48410 218.43947 217.53884 216.67522
 215.91259 215.08796 214.18133 213.54070 212.98607 213.01050 213.06819 214.44450
 215.65651 217.32538 218.89841 219.54340 220.78889 223.36891 228.04251 232.25890
 235.75456 239.48001 243.08546 246.35391 249.25177 251.85243 254.68805 257.92734
 260.72861 263.00293 265.12460 267.36978 269.63321 271.73514 273.46906 275.05304
 276.70807 278.44354 279.99133 281.35889 282.54669 283.60226 284.56686 285.44772
 286.24649 286.96338 287.59671 288.44183
 366.78100 356.33053 345.75806 334.61959 323.01812 311.20764 299.07317 286.87170
 274.57923 262.47176 250.47629 239.77282 229.89035 220.98987 213.16740 206.16493
 199.99446 194.92799 191.50552 189.54305 188.57558 188.63510 189.46563 190.76916
 192.48969 194.58022 196.83875 199.19328 201.63381 204.10933 206.19286 208.03039
 209.65192 210.79245 211.01698 211.24051 211.17304 210.87356 210.50209 210.12762
 209.74015 209.44568 209.24921 209.10874 209.03227 209.35879 209.74032 210.12485
 210.91338 212.08691 213.33244 215.11097 217.03450 219.07302 221.16355 223.24208
 225.29761 227.37714 229.46967 231.57120 233.69573 235.86325 238.11478 240.48031
 243.09684 245.34337 247.34090 249.10143 250.51396 251.63249 252.45001 252.76154
 252.79407 252.56360 251.91913 250.86266 249.46419 247.62072 245.52524 243.35377
 241.14030 238.93983 236.75536 234.58989 232.44542 230.30795 228.32947 226.48200
 224.76053 223.22806 221.85359 220.62112 219.49865 218.45418 217.55370 216.69023
 215.92776 215.10329 214.19682 213.55635 213.00188 213.05293 213.17358 214.54356
 215.68430 217.37093 219.02809 219.70692 220.97762 223.45642 228.01395 232.19675
 235.67445 239.39302 242.95590 246.14592 248.98573 251.59256 254.46706 257.72491
 260.50729 262.78049 264.93741 267.22379 269.52060 271.64291 273.40201 275.00461
 276.62048 278.35010 279.89743 281.26508 282.45300 283.50827 284.47513 285.35568
 286.15460 286.87317 287.50635 288.35239
 366.78100 356.33093 345.75887 334.62080 323.01973 311.20967 299.07560 286.87453
 274.58247 262.47540 250.48033 239.77727 229.89520 220.99513 213.17307 206.17100
 200.00093 194.93487 191.51280 189.55074 188.58367 188.64360 189.47454 190.77847
 192.49940 194.59034 196.84927 199.20420 201.64514 204.12107 206.20500 208.04294
 209.66487 210.80580 211.03074 211.25467 211.18760 210.88854 210.51747 210.14340
 209.75634 209.46227 209.26620 209.12614 209.05007 209.37700 209.75894 210.14387
 210.93280 212.10674 213.35267 215.13161 217.05554 219.09447 221.18541 223.26434
 225.32027 227.40021 229.49314 231.59507 233.72001 235.88794 238.13987 240.50581
 243.12274 245.36967 247.36761 249.12854 250.54147 251.66041 252.47834 252.79027
 252.82321 252.59314 251.94907 250.89301 249.49494 247.65187 245.55681 243.38574
 241.17267 238.97261 236.78854 234.62347 232.47941 230.34234 228.36428 226.51721
 224.79614 223.26408 221.89001 220.65794 219.53588 218.49181 217.59174 216.72868
 215.96661 215.14254 214.23648 213.59641 213.04234 213.10776 213.26233 214.64983
 215.72385 217.39401 219.15837 219.86247 221.21120 223.53400 228.00566 232.15019
 235.59909 239.30351 242.81404 245.91910 248.70088 251.31886 254.23749 257.51312
 260.28641 262.57333 264.77045 267.09283 269.41913 271.55960 273.34348 274.95941
 276.54013 278.25897 279.80450 281.17114 282.36032 283.41553 284.38251 285.26328
 286.06308 286.78265 287.41608 288.26361
 366.78100 356.33113 345.75925 334.62138 323.02050 311.21063 299.07676 286.87588
 274.58401 262.47713 250.48226 239.77939 229.89751 220.99764 213.17576 206.17389
 200.00402 194.93814 191.51627 189.55439 188.58752 188.64765 189.47877 190.78290
 192.50402 194.59515 196.85428 199.20940 201.65053 204.12665 206.21078 208.04891
 209.67103 210.81216 211.03728 211.26141 211.19454 210.89566 210.52479 210.15091
 209.76404 209.47017 209.27429 209.13442 209.05854 209.38567 209.76780 210.15292
 210.94205 212.11617 213.36230 215.14143 217.06555 219.10468 221.19580 223.27493
 225.33106 227.41118 229.50431 231.60643 233.73156 235.89969 238.15181 240.51794
 243.13506 245.38219 247.38032 249.14144 250.55457 251.67369 252.49182 252.80395
 252.83707 252.60720 251.96332 250.90745 249.50958 247.66670 245.57183 243.40095
 241.18808 238.98821 236.80433 234.63946 232.49558 230.35871 228.38084 226.53396
 224.81309 223.28121 221.90734 220.67547 219.55359 218.50972 217.60984 216.74697
 215.98510 215.16122 214.25535 213.61547 213.06160 213.15227 213.36652 214.72789
 215.79663 217.41245 219.22443 220.10696 221.40237 223.68768 227.98424 232.05789
 235.50162 239.20119 242.66122 245.68204 248.40671 251.04190 254.00854 257.30399
 260.07788 262.38297 264.61801 266.97583 269.32684 271.48611 273.29471 274.92133
 276.46808 278.16980 279.71255 281.07870 282.26755 283.32239 284.29150 285.17093
 285.97333 286.69135 287.32578 288.17755
 366.78100 356.33128 345.75955 334.62183 323.02111 311.21138 299.07766 286.87693
 274.58521 262.47849 250.48376 239.78104 229.89932 220.99959 213.17787 206.17614
 200.00642 194.94070 191.51897 189.55725 188.59053 188.65080 189.48208 190.78635
 192.50763 194.59891 196.85818 199.21346 201.65474 204.13101 206.21529 208.05357
 209.67584 210.81712 211.04239 211.26667 211.19995 210.90122 210.53050 210.15678
 209.77005 209.47633 209.28060 209.14088 209.06516 209.39243 209.77471 210.15999
 210.94926 212.12354 213.36981 215.14909 217.07337 219.11264 221.20392 223.28320
 225.33947 227.41975 229.51303 231.61530 233.74058 235.90885 238.16113 240.52741
 243.14468 245.39196 247.39024 249.15151 250.56479 251.68406 252.50234 252.81462
 252.84789 252.61817 251.97445 250.91872 249.52100 247.67827 245.58355 243.41283
 241.20010 239.00038 236.81666 234.65193 232.50821 230.37149 228.39376 226.54704
 224.82631 223.29459 221.92087 220.68914 219.56742 218.52370 217.62397 216.76125
 215.99952 215.17580 214.27008 213.63035 213.07663 213.19371 213.47032 214.80373
 215.86945 217.45999 219.30098 220.33920 221.54984 223.83307 227.94891 231.96597
 235.41588 239.11234 242.51353 245.43948 248.10365 250.76176 253.78169 257.09781
 259.87701 262.20328 264.47882 266.87027 269.24557 271.42136 273.25638 274.89343
 276.40717 278.08368 279.62286 280.98932 282.17761 283.23422 284.20111 285.08304
 285.88342 286.60324 287.23917 288.09027
 366.78100 356.33152 345.76004 334.62256 323.02207 311.21259 299.07911 286.87863
 274.58715 262.48067 250.48619 239.78370 229.90222 221.00274 213.18126 206.17978
 200.01030 194.94482 191.52333 189.56185 188.59537 188.65589 189.48741 190.79193
 192.51345 194.60497 196.86448 199.22000 201.66152 204.13804 206.22256 208.06108
 209.68360 210.82511 211.05063 211.27515 211.20867 210.91019 210.53971 210.16623
 209.77974 209.48626 209.29078 209.15130 209.07582 209.40334 209.78586 210.17137
 210.96089 212.13541 213.38193 215.16145 217.08597 219.12549 221.21700 223.29652
 225.35304 227.43356 229.52708 231.62960 233.75512 235.92363 238.17615 240.54267
 243.16019 245.40771 247.40623 249.16775 250.58127 251.70078 252.51930 252.83182
 252.86534 252.63586 251.99238 250.93690 249.53941 247.69693 245.60245 243.43197
 241.21949 239.02001 236.83653 234.67204 232.52856 230.39208 228.41460 226.56812
 224.84764 223.31616 221.94267 220.71119 219.58971 218.54623 217.64675 216.78427
 216.02279 215.19930 214.29382 213.65434 213.10086 213.23813 213.56242 214.88998
 215.93718 217.51549 219.39662 220.55635 221.70874 223.95197 227.91461 231.89473
 235.34290 239.02167 242.34825 245.17430 247.78987 250.48170 253.55927 256.89444
 259.68207 262.03580 264.35464 266.77872 269.17383 271.36536 273.22501 274.87521
 276.35855 278.00464 279.53769 280.90347 282.09155 283.14667 284.11493 284.99811
 285.79797 286.51791 287.15488 288.00565
 366.78100 356.33167 345.76033 334.62300 323.02266 311.21333 299.08000 286.87966
 274.58833 262.48200 250.48766 239.78533 229.90399 221.00466 213.18333 206.18199
 200.01266 194.94732 191.52599 189.56466 188.59832 188.65899 189.49066 190.79532
 192.51699 194.60865 196.86832 199.22399 201.66565 204.14232 206.22698 208.06565
 209.68832 210.82998 211.05565 211.28032 211.21398 210.91565 210.54531 210.17198
 209.78565 209.49231 209.29698 209.15764 209.08231 209.40998 209.79264 210.17831
 210.96798 212.14264 213.38931 215.16897 217.09364 219.13331 221.22497 223.30464
 225.36130 227.44197 229.53564 231.63830 233.76397 235.93264 238.18530 240.55197
 243.16963 245.41730 247.41597 249.17763 250.59130 251.71096 252.52963 252.84230
 252.87596 252.64663 252.00330 250.94796 249.55063 247.70829 245.61396 243.44363
 241.23129 239.03196 236.84862 234.68429 232.54096 230.40462 228.42729 226.58096
 224.86062 223.32929 221.95595 220.72462 219.60329 218.55995 217.66062 216.79829
 216.03695 215.21362 214.30828 213.66895 213.11562 213.27634 213.65605 214.97781
 215.99930 217.59331 219.50446 220.75558 221.87875 224.05019 227.89392 231.83435
 235.26262 238.90475 242.15192 244.89226 247.47597 250.20801 253.34390 256.69519
 259.49515 261.88190 264.24509 266.70068 269.11273 271.31650 273.19897 274.86673
 276.36163 277.91568 279.44269 280.81198 282.00183 283.05972 284.02905 284.91278
 285.71671 286.43686 287.07547 287.93002
 366.78100 356.33159 345.76017 334.62276 323.02234 311.21293 299.07952 286.87910
 274.58769 262.48127 250.48686 239.78444 229.90303 221.00362 213.18220 206.18079
 200.01137 194.94596 191.52455 189.56313 188.59672 188.65730 189.48889 190.79348
 192.51506 194.60665 196.86623 199.22182 201.66341 204.13999 206.22458 208.06316
 209.68575 210.82733 211.05292 211.27751 211.21109 210.91268 210.54226 210.16885
 209.78244 209.48902 209.29361 209.15419 209.07878 209.40637 209.78895 210.17454
 210.96412 212.13871 213.38529 215.16488 217.08947 219.12905 221.22064 223.30022
 225.35681 227.43740 229.53098 231.63357 233.75915 235.92774 238.18033 240.54691
 243.16450 245.41208 247.41067 249.17226 250.58584 251.70543 252.52401 252.83660
 252.87018 252.64077 251.99736 250.94194 249.54453 247.70211 245.60770 243.43729
 241.22487 239.02546 236.84204 234.67763 232.53422 230.39780 228.42039 226.57397
 224.85356 223.32214 221.94873 220.71732 219.59590 218.55249 217.65307 216.79066
 216.02925 215.20583 214.30042 213.66100 213.10759 213.30148 213.75960 215.06236
 216.05879 217.69449 219.62459 220.93359 222.05084 224.14563 227.88927 231.76941
 235.16698 238.76028 241.92961 244.60059 247.16141 249.93613 253.13271 256.50244
 259.32065 261.74307 264.15073 266.63489 269.06198 271.27722 273.17773 274.84900
 276.32608 277.85077 279.37341 280.74234 281.93375 282.99149 283.96063 284.84485
 285.64813 286.37021 287.00952 287.86496
 366.78100 356.33132 345.75965 334.62197 323.02130 311.21162 299.07794 286.87727
 274.58559 262.47892 250.48424 239.78156 229.89989 221.00021 213.17853 206.17686
 200.00718 194.94151 191.51983 189.55815 188.59148 188.65180 189.48313 190.78745
 192.50877 194.60010 196.85942 199.21475 201.65607 204.13239 206.21672 208.05504
 209.67736 210.81869 211.04401 211.26834 211.20166 210.90298 210.53231 210.15863
 209.77196 209.47828 209.28260 209.14293 209.06725 209.39458 209.77690 210.16222
 210.95155 212.12587 213.37220 215.15152 217.07584 219.11517 221.20649 223.28581
 225.34214 227.42246 229.51579 231.61811 233.74343 235.91176 238.16408 240.53041
 243.14773 245.39505 247.39338 249.15470 250.56803 251.68735 252.50567 252.81800
 252.85132 252.62164 251.97797 250.92229 249.52462 247.68194 245.58726 243.41659
 241.20391 239.00424 236.82056 234.65588 232.51221 230.37553 228.39786 226.55118
 224.83050 223.29883 221.92515 220.69348 219.57180 218.52812 217.62845 216.76577
 216.00409 215.18042 214.27474 213.63507 213.08139 213.31564 213.86909 215.14519
 216.12561 217.80516 219.75502 221.09612 222.22627 224.24414 227.89197 231.69679
 235.05965 238.59747 241.68561 244.29250 246.83769 249.66313 252.92586 256.31824
 259.16016 261.62079 264.07156 266.58298 269.02145 271.24350 273.15887 274.83655
 276.30237 277.79315 279.31110 280.68015 281.87054 282.92883 283.89816 284.78256
 285.58624 286.30777 286.94778 287.80246
 366.78100 356.33097 345.75894 334.62091 323.01988 311.20985 299.07582 286.87479
 274.58276 262.47573 250.48070 239.77767 229.89564 220.99561 213.17358 206.17155
 200.00152 194.93549 191.51346 189.55143 188.58440 188.64437 189.47534 190.77931
 192.50028 194.59125 196.85022 199.20519 201.64616 204.12213 206.20610 208.04407
 209.66604 210.80701 211.03198 211.25595 211.18892 210.88989 210.51886 210.14483
 209.75780 209.46377 209.26774 209.12771 209.05168 209.37865 209.76062 210.14559
 210.93456 212.10853 213.35449 215.13346 217.05743 219.09640 221.18737 223.26634
 225.32231 227.40228 229.49525 231.59722 233.72219 235.89016 238.14213 240.50810
 243.12507 245.37204 247.37001 249.13098 250.54395 251.66292 252.48089 252.79286
 252.82583 252.59580 251.95177 250.89574 249.49771 247.65468 245.55965 243.38862
 241.17559 238.97556 236.79153 234.62650 232.48247 230.34544 228.36741 226.52038
 224.79935 223.26732 221.89329 220.66126 219.53923 218.49520 217.59517 216.73214
 215.97011 215.14608 214.24005 213.60002 213.04599 213.32298 213.97737 215.22827
 216.20738 217.91975 219.88281 221.25095 222.40720 224.34256 227.89447 231.62675
 234.94698 238.41658 241.41698 243.96375 246.50525 249.39284 252.72520 256.14282
 259.00873 261.50763 264.00174 266.54037 268.99194 271.22290 273.15274 274.83948
 276.29443 277.73981 279.25183 280.61993 281.81000 282.86850 283.83667 284.71948
 285.52097 286.24295 286.88251 287.73996
 366.78100 356.33052 345.75805 334.61957 323.01810 311.20762 299.07315 286.87167
 274.57919 262.47172 250.47624 239.77277 229.89029 220.98981 213.16734 206.16486
 199.99439 194.92791 191.50544 189.54296 188.57548 188.63501 189.46553 190.76906
 192.48958 194.58010 196.83863 199.19315 201.63368 204.10920 206.19273 208.03025
 209.65177 210.79230 211.01682 211.24035 211.17287 210.87340 210.50192 210.12744
 209.73997 209.44549 209.24902 209.10854 209.03206 209.35859 209.74011 210.12464
 210.91316 212.08669 213.33221 215.11073 217.03426 219.07278 221.16331 223.24183
 225.29735 227.37688 229.46940 231.57093 233.69545 235.86298 238.11450 240.48002
 243.09655 245.34307 247.34060 249.10112 250.51364 251.63217 252.44969 252.76122
 252.79374 252.56327 251.91879 250.86231 249.46384 247.62036 245.52489 243.35341
 241.13994 238.93946 236.75498 234.58951 232.44503 230.30756 228.32908 226.48160
 224.76013 223.22765 221.85318 220.62070 219.49823 218.45375 217.55327 216.68980
 215.92732 215.10285 214.19637 213.55589 213.00142 213.32376 214.08536 215.31535
 216.30153 218.03973 220.00049 221.39830 222.59631 224.44800 227.89699 231.56752
 234.82986 238.20975 241.11473 243.61140 246.16945 249.13026 252.53551 255.98308
 258.87430 261.40729 263.93591 266.49683 268.95541 271.18961 273.12744 274.82956
 276.29758 277.72256 279.23203 280.60162 281.79385 282.85431 283.82568 284.71573
 285.53055 286.26071 286.90408 287.76245
 366.78100 356.32990 345.75681 334.61771 323.01562 311.20452 299.06943 286.86733
 274.57424 262.46614 250.47004 239.76595 229.88285 220.98176 213.15866 206.15557
 199.98447 194.91737 191.49428 189.53118 188.56309 188.62199 189.45190 190.75480
 192.47471 194.56461 196.82251 199.17642 201.61632 204.09123 206.17413 208.01104
 209.63194 210.77184 210.99575 211.21865 211.15056 210.85046 210.47837 210.10327
 209.71518 209.42008 209.22298 209.08189 209.00479 209.33070 209.71160 210.09551
 210.88341 212.05631 213.30122 215.07912 217.00203 219.03993 221.12984 223.20774
 225.26265 227.34155 229.43345 231.53436 233.65826 235.82517 238.07607 240.44098
 243.05688 245.30278 247.29969 249.05959 250.47150 251.58940 252.40631 252.71721
 252.74912 252.51802 251.87292 250.81583 249.41673 247.57264 245.47654 243.30445
 241.09035 238.88925 236.70416 234.53806 232.39297 230.25487 228.27578 226.42768
 224.70559 223.17249 221.79739 220.56430 219.44120 218.39611 217.49501 216.63092
 215.86782 215.04272 214.13563 213.49453 212.93944 213.31303 214.19572 215.41287
 216.39894 218.15839 220.10745 221.53250 222.78630 224.57240 227.90712 231.52232
 234.71176 237.97594 240.77219 243.23521 245.83392 248.87744 252.35574 255.83627
 258.75830 261.32489 263.88409 266.46231 268.92215 271.15088 273.08914 274.79318
 276.27170 277.71393 279.22610 280.59610 281.78882 282.84970 283.82263 284.71378
 285.52939 286.26309 286.90768 287.76874
 366.78100 356.32922 345.75544 334.61567 323.01289 311.20111 299.06533 286.86256
 274.56878 262.46000 250.46322 239.75845 229.87467 220.97289 213.14911 206.14534
 199.97356 194.90578 191.48200 189.51823 188.54945 188.60767 189.43689 190.73912
 192.45834 194.54756 196.80478 199.15801 201.59723 204.07145 206.15367 207.98990
 209.61012 210.74934 210.97256 211.19479 211.12601 210.82523 210.45245 210.07668
 209.68790 209.39212 209.19434 209.05257 208.97479 209.30001 209.68023 210.06346
 210.85068 212.02290 213.26712 215.04435 216.96657 219.00379 221.09301 223.17024
 225.22446 227.30268 229.39390 231.49413 233.61735 235.78357 238.03379 240.39802
 243.01324 245.25846 247.25468 249.01391 250.42513 251.54235 252.35857 252.66879
 252.70002 252.46824 251.82246 250.76468 249.36491 247.52013 245.42335 243.25057
 241.03580 238.83402 236.64824 234.48146 232.33569 230.19691 228.21713 226.36835
 224.64558 223.11180 221.73602 220.50224 219.37847 218.33269 217.43091 216.56613
 215.80236 214.97658 214.06880 213.42702 212.87125 213.29628 214.30046 215.52243
 216.50879 218.27760 220.20918 221.64948 222.96426 224.71777 227.93213 231.47888
 234.58685 237.71198 240.38690 242.83066 245.49150 248.62640 252.17867 255.70157
 258.64813 261.25500 263.84369 266.44077 268.90195 271.12213 273.05209 274.74377
 276.16129 277.72031 279.24380 280.60947 281.79926 282.85883 283.82932 284.71912
 285.53564 286.26984 286.91553 287.76944
 366.78100 356.32811 345.75323 334.61234 323.00846 311.19557 299.05868 286.85480
 274.55991 262.45003 250.45214 239.74625 229.86137 220.95848 213.13359 206.12871
 199.95582 194.88694 191.46205 189.49716 188.52728 188.58439 189.41251 190.71362
 192.43173 194.51985 196.77596 199.12808 201.56619 204.03930 206.12042 207.95553
 209.57465 210.71276 210.93487 211.15599 211.08610 210.78421 210.41033 210.03344
 209.64356 209.34667 209.14778 209.00490 208.92601 209.25013 209.62924 210.01135
 210.79747 211.96858 213.21170 214.98781 216.90892 218.94504 221.03315 223.10927
 225.16238 227.23949 229.32961 231.42872 233.55083 235.71595 237.96506 240.32818
 242.94229 245.18640 247.18152 248.93963 250.34975 251.46586 252.28097 252.59009
 252.62020 252.38732 251.74043 250.68154 249.28066 247.43477 245.33689 243.16300
 240.94711 238.74423 236.55734 234.38945 232.24257 230.10268 228.12180 226.27191
 224.54802 223.01314 221.63625 220.40137 219.27648 218.22959 217.32671 216.46082
 215.69594 214.86905 213.96016 213.31728 212.76039 213.25429 214.42116 215.65767
 216.61098 218.37534 220.30019 221.75333 223.12541 224.87648 227.97495 231.45129
 234.46368 237.43433 239.98894 242.42834 245.16524 248.39825 252.02219 255.56589
 258.56244 261.19162 263.79688 266.41449 268.87723 271.08893 273.01138 274.71289
 276.19272 277.67938 279.20792 280.57742 281.76852 282.82922 283.80200 284.69614
 285.51340 286.25052 286.89932 287.75714
 366.78100 356.32796 345.75293 334.61189 323.00785 311.19482 299.05778 286.85374
 274.55871 262.44867 250.45063 239.74460 229.85956 220.95652 213.13149 206.12645
 199.95342 194.88438 191.45934 189.49431 188.52427 188.58123 189.40920 190.71016
 192.42812 194.51609 196.77205 199.12401 201.56198 204.03494 206.11590 207.95087
 209.56983 210.70779 210.92976 211.15072 211.08068 210.77865 210.40461 210.02757
 209.63754 209.34050 209.14147 208.99843 208.91939 209.24336 209.62232 210.00428
 210.79025 211.96121 213.20417 214.98014 216.90110 218.93706 221.02503 223.10099
 225.15395 227.23092 229.32088 231.41984 233.54181 235.70677 237.95573 240.31870
 242.93266 245.17662 247.17159 248.92955 250.33952 251.45548 252.27044 252.57941
 252.60937 252.37633 251.72930 250.67026 249.26922 247.42319 245.32515 243.15111
 240.93508 238.73204 236.54500 234.37697 232.22993 230.08989 228.10886 226.25882
 224.53478 222.99975 221.62271 220.38767 219.26264 218.21560 217.31257 216.44653
 215.68149 214.85446 213.94542 213.30238 212.74535 213.26204 214.48608 215.80098
 216.77408 218.47694 220.35744 221.79385 223.21225 224.96399 227.95937 231.40302
 234.29993 237.09822 239.52364 241.96985 244.80132 248.14549 251.83670 255.54605
 258.59644 261.24255 263.83392 266.42624 268.86533 271.03262 272.90891 274.55096
 276.04221 277.64774 279.15698 280.52036 281.70532 282.75842 283.72180 284.60464
 285.41068 286.14493 286.80313 287.64194
 366.78100 356.32946 345.75593 334.61639 323.01385 311.20232 299.06678 286.86424
 274.57070 262.46217 250.46563 239.76109 229.87756 220.97602 213.15248 206.14895
 199.97741 194.90987 191.48634 189.52280 188.55426 188.61272 189.44219 190.74465
 192.46411 194.55358 196.81104 199.16450 201.60397 204.07843 206.16089 207.99736
 209.61782 210.75728 210.98075 211.20321 211.13467 210.83413 210.46160 210.08606
 209.69752 209.40199 209.20445 209.06291 208.98538 209.31084 209.69130 210.07477
 210.86223 212.03469 213.27915 215.05662 216.97908 219.01654 221.10601 223.18347
 225.23793 227.31640 229.40786 231.50832 233.63179 235.79825 238.04871 240.41317
 243.02864 245.27410 247.27056 249.03003 250.44149 251.55895 252.37542 252.68588
 252.71734 252.48581 251.84027 250.78273 249.38320 247.53866 245.44212 243.26958
 241.05505 238.85351 236.66797 234.50144 232.35590 230.21736 228.23783 226.38929
 224.66675 223.13322 221.75768 220.52414 219.40060 218.35507 217.45353 216.58899
 215.82546 214.99992 214.09238 213.45085 212.89531 213.35881 214.46716 215.85994
 217.04561 218.69322 220.45593 221.82941 223.26230 225.03313 227.93187 231.34248
 234.11266 236.72578 239.01237 241.48666 244.43408 247.88882 251.77939 255.54114
 258.63110 261.31366 263.88449 266.43484 268.82297 270.93152 272.77448 274.40955
 275.96933 277.53857 279.04282 280.40463 281.58920 282.63965 283.60666 284.49121
 285.32483 286.10440 286.78540 287.65326
 366.78100 356.32816 345.75331 334.61247 323.00862 311.19578 299.05893 286.85509
 274.56024 262.45040 250.45255 239.74671 229.86186 220.95902 213.13417 206.12933
 199.95648 194.88764 191.46279 189.49795 188.52811 188.58526 189.41342 190.71457
 192.43273 194.52088 196.77704 199.12919 201.56735 204.04050 206.12166 207.95681
 209.57597 210.71412 210.93628 211.15743 211.08759 210.78574 210.41190 210.03506
 209.64521 209.34837 209.14952 209.00668 208.92783 209.25199 209.63114 210.01330
 210.79945 211.97061 213.21376 214.98992 216.91107 218.94723 221.03538 223.11154
 225.16469 227.24185 229.33201 231.43116 233.55332 235.71847 237.96763 240.33078
 242.94494 245.18909 247.18425 248.94240 250.35256 251.46871 252.28387 252.59302
 252.62318 252.39033 251.74349 250.68464 249.28380 247.43796 245.34011 243.16627
 240.95042 238.74758 236.56073 234.39289 232.24604 230.10620 228.12535 226.27551
 224.55166 223.01682 221.63997 220.40513 219.28028 218.23344 217.33059 216.46475
 215.69991 214.87306 213.96422 213.32137 212.76453 213.31371 214.62108 215.87813
 217.17099 218.86461 220.54373 221.90465 223.44283 225.20518 227.96736 231.36749
 233.96484 236.35497 238.51208 241.05237 244.15662 247.69897 251.71390 255.52740
 258.64468 261.31784 263.87363 266.40625 268.77359 270.84076 272.66504 274.31128
 275.88828 277.48553 279.00925 280.37207 281.55801 282.61307 283.58398 284.47726
 285.34488 286.12192 286.80072 287.66580
 366.78100 356.32554 345.74807 334.60461 322.99814 311.18268 299.04321 286.83675
 274.53929 262.42682 250.42636 239.71789 229.83043 220.92497 213.09750 206.09004
 199.91457 194.84311 191.41564 189.44818 188.47572 188.53025 189.35579 190.65432
 192.36986 194.45539 196.70893 199.05847 201.49400 203.96454 206.04307 207.87561
 209.49215 210.62768 210.84722 211.06575 210.99329 210.68882 210.31236 209.93290
 209.54043 209.24097 209.03950 208.89404 208.81257 209.13411 209.51065 209.89018
 210.67372 211.84225 213.08279 214.85633 216.77486 218.80840 220.89393 222.96747
 225.01800 227.09254 229.18008 231.27661 233.39615 235.55868 237.80522 240.16575
 242.77729 245.01883 247.01136 248.76690 250.17443 251.28797 252.10051 252.40704
 252.43458 252.19911 251.54965 250.48818 249.08472 247.23626 245.13579 242.95933
 240.74086 238.53540 236.34593 234.17547 232.02601 229.88354 227.90008 226.04761
 224.32115 222.78369 221.40422 220.16676 219.03929 217.98983 217.08436 216.21590
 215.44844 214.61897 213.70751 213.06204 212.50258 213.19591 214.83678 216.05324
 217.10153 218.71921 220.57591 222.12657 223.66782 225.51656 228.19527 231.36816
 233.73537 235.99626 238.12308 240.67355 243.83865 247.57741 251.59720 255.36713
 258.58716 261.31128 263.86591 266.37543 268.70551 270.72357 272.54608 274.19083
 275.83029 277.37073 278.86044 280.23282 281.44534 282.55151 283.62906 284.60526
 285.48322 286.26508 286.94806 287.81848
 366.78100 356.32474 345.74648 334.60222 322.99496 311.17870 299.03844 286.83119
 274.53293 262.41967 250.41841 239.70915 229.82089 220.91463 213.08637 206.07811
 199.90185 194.82959 191.40133 189.43308 188.45982 188.51356 189.33830 190.63604
 192.35078 194.43552 196.68826 199.03700 201.47174 203.94148 206.01922 207.85096
 209.46671 210.60145 210.82019 211.03793 210.96467 210.65941 210.28215 209.90189
 209.50863 209.20837 209.00611 208.85985 208.77760 209.09834 209.47408 209.85282
 210.63556 211.80330 213.04304 214.81578 216.73352 218.76626 220.85100 222.92374
 224.97349 227.04723 229.13397 231.22971 233.34845 235.51019 237.75593 240.11567
 242.72641 244.96715 246.95889 248.71363 250.12037 251.23312 252.04486 252.35060
 252.37734 252.14108 251.49082 250.42856 249.02430 247.17504 245.07378 242.89652
 240.67726 238.47101 236.28075 234.10949 231.95923 229.81597 227.83171 225.97845
 224.25119 222.71293 221.33267 220.09441 218.96615 217.91589 217.00964 216.14038
 215.37212 214.54186 213.62960 212.98334 212.42308 213.17679 214.95659 216.19655
 217.24968 218.94563 220.82854 222.38980 223.93347 225.71776 228.45911 231.35728
 233.59489 235.69135 237.73799 240.24841 243.49370 247.34386 251.39992 255.24075
 258.39154 261.26132 263.89972 266.42197 268.73083 270.74609 272.53668 274.16925
 275.73495 277.43387 279.02466 280.58304 281.99982 283.25330 284.39688 285.43292
 286.36472 287.19446 287.91934 288.84311
 366.78100 356.32481 345.74662 334.60242 322.99523 311.17904 299.03885 286.83165
 274.53346 262.42027 250.41908 239.70988 229.82169 220.91550 213.08731 206.07911
 199.90292 194.83073 191.40254 189.43435 188.46115 188.51496 189.33977 190.63758
 192.35238 194.43719 196.69000 199.03881 201.47361 203.94342 206.02123 207.85304
 209.46884 210.60365 210.82246 211.04027 210.96707 210.66188 210.28469 209.90450
 209.51131 209.21111 209.00892 208.86273 208.78054 209.10134 209.47715 209.85596
 210.63877 211.80657 213.04638 214.81919 216.73700 218.76980 220.85461 222.92742
 224.97723 227.05104 229.13784 231.23365 233.35246 235.51427 237.76007 240.11988
 242.73069 244.97150 246.96330 248.71811 250.12492 251.23773 252.04953 252.35534
 252.38215 252.14596 251.49577 250.43357 249.02938 247.18019 245.07900 242.90180
 240.68261 238.47642 236.28623 234.11503 231.96484 229.82165 227.83746 225.98426
 224.25707 222.71888 221.33869 220.10050 218.97230 217.92211 217.01592 216.14673
 215.37853 214.54834 213.63615 212.98996 212.42976 213.19067 215.00188 216.30699
 217.35251 219.08606 220.93480 222.50264 224.10577 225.86353 228.61198 231.37390
 233.55136 235.44591 237.32045 239.82497 243.22543 247.20398 251.32687 255.09297
 258.33295 261.30334 263.95612 266.52911 268.88324 270.91553 272.63318 274.17407
 275.88828 277.68915 279.40860 281.13712 282.63300 283.95648 285.16397 286.25784
 287.24170 288.11780 288.88315 289.85849
 366.78100 356.32506 345.74712 334.60318 322.99623 311.18029 299.04035 286.83341
 274.53547 262.42253 250.42159 239.71265 229.82470 220.91876 213.09082 206.08288
 199.90694 194.83500 191.40706 189.43911 188.46617 188.52023 189.34529 190.64335
 192.35841 194.44347 196.69652 199.04558 201.48064 203.95070 206.02876 207.86082
 209.47688 210.61194 210.83099 211.04905 210.97611 210.67117 210.29423 209.91429
 209.52135 209.22140 209.01946 208.87352 208.79158 209.11264 209.48870 209.86776
 210.65081 211.81887 213.05893 214.83199 216.75005 218.78311 220.86817 222.94123
 224.99128 227.06534 229.15240 231.24846 233.36752 235.52958 237.77564 240.13569
 242.74675 244.98781 246.97987 248.73493 250.14199 251.25505 252.06711 252.37316
 252.40022 252.16428 251.51434 250.45240 249.04846 247.19952 245.09857 242.92163
 240.70269 238.49675 236.30681 234.13587 231.98593 229.84298 227.85904 226.00610
 224.27916 222.74122 221.36128 220.12334 218.99540 217.94545 217.03951 216.17057
 215.40263 214.57269 213.66075 213.01481 212.45486 213.19983 214.99850 216.46121
 217.52547 219.16634 220.97423 222.53891 224.16856 225.94974 228.60632 231.36021
 233.36650 235.08690 236.91975 239.53004 243.03192 247.10677 251.26814 255.14317
 258.37698 261.31046 263.96564 266.53055 268.87500 270.90628 272.66910 274.31122
 275.84268 277.62732 279.25061 280.91138 282.39331 283.70447 284.90070 285.98441
 286.95908 287.82703 288.58524 289.55148
 366.78100 356.32423 345.74546 334.60070 322.99293 311.17616 299.03539 286.82762
 274.52885 262.41509 250.41332 239.70355 229.81478 220.90801 213.07924 206.07048
 199.89371 194.82094 191.39217 189.42340 188.44964 188.50287 189.32710 190.62433
 192.33856 194.42279 196.67503 199.02326 201.45749 203.92672 206.00395 207.83518
 209.45042 210.58465 210.80288 211.02011 210.94634 210.64058 210.26281 209.88204
 209.48827 209.18750 208.98473 208.83797 208.75520 209.07543 209.45066 209.82889
 210.61113 211.77836 213.01759 214.78982 216.70705 218.73928 220.82352 222.89575
 224.94498 227.01821 229.10444 231.19967 233.31791 235.47914 237.72437 240.08360
 242.69383 244.93407 246.92530 248.67953 250.08576 251.19799 252.00922 252.31446
 252.34069 252.10392 251.45315 250.39038 248.98561 247.13585 245.03408 242.85631
 240.63654 238.42977 236.23901 234.06724 231.91647 229.77270 227.78793 225.93416
 224.20640 222.66763 221.28686 220.04809 218.91932 217.86855 216.96179 216.09202
 215.32325 214.49248 213.57971 212.93295 212.37218 213.16461 215.06473 216.56754
 217.68233 219.26637 221.04013 222.61742 224.23885 226.02011 228.60988 231.32057
 233.14406 234.70493 236.51288 239.21294 242.86172 247.06865 251.25679 255.17464
 258.43088 261.35440 263.98605 266.50504 268.79486 270.77194 272.53558 274.21075
 275.79797 277.49780 279.09924 280.68051 282.15616 283.46176 284.65289 285.73199
 286.70251 287.56680 288.32178 289.28397
 366.78100 356.32515 345.74729 334.60344 322.99659 311.18074 299.04088 286.83403
 274.53618 262.42333 250.42247 239.71362 229.82577 220.91991 213.09206 206.08421
 199.90836 194.83650 191.40865 189.44080 188.46795 188.52209 189.34724 190.64539
 192.36054 194.44568 196.69883 199.04798 201.48312 203.95327 206.03142 207.86357
 209.47971 210.61486 210.83401 211.05216 210.97930 210.67445 210.29760 209.91774
 209.52489 209.22504 209.02319 208.87733 208.79548 209.11663 209.49278 209.87192
 210.65507 211.82322 213.06336 214.83651 216.75466 218.78781 220.87295 222.94610
 224.99625 227.07040 229.15754 231.25369 233.37284 235.53499 237.78113 240.14128
 242.75243 244.99357 246.98572 248.74087 250.14802 251.26116 252.07331 252.37946
 252.40661 252.17075 251.52090 250.45905 249.05519 247.20634 245.10549 242.92864
 240.70978 238.50393 236.31408 234.14323 231.99337 229.85052 227.86667 226.01381
 224.28696 222.74911 221.36926 220.13140 219.00355 217.95370 217.04785 216.17899
 215.41114 214.58129 213.66944 213.02358 212.46373 213.21385 215.04504 216.71712
 217.81482 219.36282 221.14673 222.71735 224.31462 226.10172 228.66251 231.33240
 233.00487 234.38367 236.08423 238.86566 242.67615 246.99652 251.22342 255.18642
 258.50012 261.46228 264.08386 266.60211 268.92279 270.88141 272.60541 274.20822
 275.79480 277.37057 278.94949 280.45718 281.94592 283.26309 284.46478 285.55347
 286.53259 287.40451 288.16620 289.13690
 366.78100 356.32427 345.74554 334.60081 322.99307 311.17634 299.03561 286.82788
 274.52915 262.41542 250.41369 239.70395 229.81522 220.90849 213.07976 206.07103
 199.89430 194.82157 191.39283 189.42410 188.45037 188.50364 189.32791 190.62518
 192.33945 194.42371 196.67598 199.02425 201.45852 203.92779 206.00506 207.83632
 209.45159 210.58586 210.80413 211.02140 210.94767 210.64194 210.26420 209.88347
 209.48974 209.18901 208.98628 208.83955 208.75682 209.07708 209.45235 209.83062
 210.61289 211.78016 213.01943 214.79170 216.70896 218.74123 220.82550 222.89777
 224.94704 227.02031 229.10658 231.20184 233.32011 235.48138 237.72665 240.08592
 242.69619 244.93646 246.92772 248.68199 250.08826 251.20053 252.01180 252.31707
 252.34334 252.10660 251.45587 250.39314 248.98841 247.13868 245.03695 242.85922
 240.63948 238.43275 236.24202 234.07029 231.91956 229.77583 227.79109 225.93736
 224.20963 222.67090 221.29017 220.05144 218.92271 217.87197 216.96524 216.09551
 215.32678 214.49605 213.58332 212.93659 212.37585 213.17583 215.10687 216.82874
 217.89038 219.48404 221.26115 222.75655 224.29675 226.13812 228.69009 231.26468
 232.79654 234.03371 235.63594 238.46884 242.46596 246.88779 251.10965 255.02940
 258.43549 261.42453 264.13721 266.73090 269.12961 271.19571 272.95078 274.49982
 276.00797 277.49335 279.00525 280.39801 281.67377 282.92856 284.07333 285.11044
 286.04318 286.87381 287.59943 288.52414
 366.78100 356.32047 345.73794 334.58941 322.97788 311.15735 299.01282 286.80129
 274.49877 262.38124 250.37571 239.66218 229.76965 220.85912 213.02659 206.01406
 199.83353 194.75700 191.32447 189.35194 188.37441 188.42388 189.24435 190.53782
 192.24830 194.32877 196.57724 198.92171 201.35218 203.81765 205.89112 207.71859
 209.33006 210.46053 210.67500 210.88847 210.81094 210.50141 210.11988 209.73535
 209.33783 209.03330 208.82677 208.67624 208.58971 208.90618 209.27765 209.65212
 210.43059 211.59406 212.82953 214.59800 216.51147 218.53994 220.62041 222.68888
 224.73436 226.80383 228.88630 230.97777 233.09224 235.24971 237.49118 239.84665
 242.45312 244.68959 246.67706 248.42753 249.83000 250.93847 251.74594 252.04741
 252.06989 251.82936 251.17483 250.10830 248.69977 246.84624 244.74071 242.55918
 240.33565 238.12512 235.93059 233.75506 231.60053 229.45300 227.46447 225.60695
 223.87542 222.33289 220.94836 219.70583 218.57330 217.51877 216.60824 215.73471
 214.96218 214.12765 213.21112 212.56059 211.99606 212.97925 215.30707 217.05289
 217.84592 219.40588 221.30644 222.81932 224.32890 226.18097 228.84065 231.21323
 232.68404 233.69078 235.12880 238.05061 242.22346 246.65218 250.84023 254.69714
 258.13748 261.20569 264.04047 266.69971 269.14407 271.29877 273.14923 274.79578
 276.32562 277.76144 279.09875 280.43909 281.63132 282.70544 283.72195 284.74588
 285.69629 286.54266 287.28201 288.22424
 366.78100 356.31917 345.73533 334.58550 322.97266 311.15083 299.00499 286.79216
 274.48833 262.36949 250.36266 239.64782 229.75399 220.84215 213.00832 205.99449
 199.81265 194.73482 191.30098 189.32715 188.34831 188.39648 189.21565 190.50781
 192.21698 194.29614 196.54331 198.88647 201.31564 203.77981 205.85197 207.67814
 209.28830 210.41747 210.63063 210.84280 210.76397 210.45313 210.07030 209.68446
 209.28563 208.97979 208.77196 208.62013 208.53229 208.84746 209.21762 209.59079
 210.36795 211.53012 212.76429 214.53145 216.44362 218.47078 220.54995 222.61711
 224.66128 226.72944 228.81061 230.90078 233.01394 235.17011 237.41027 239.76444
 242.36960 244.60477 246.59094 248.34010 249.74127 250.84843 251.65460 251.95476
 251.97593 251.73410 251.07826 250.01043 248.60059 246.74576 244.63892 242.45609
 240.23126 238.01942 235.82359 233.64675 231.49092 229.34208 227.35225 225.49342
 223.76058 222.21675 220.83091 219.58708 218.45324 217.39741 216.48558 215.61074
 214.83691 214.00107 213.08324 212.43140 211.86557 212.90918 215.37552 217.27220
 218.09354 219.57309 221.40807 222.92276 224.45006 226.27838 228.92416 231.10593
 232.40811 233.35645 234.86392 237.90247 242.12970 246.52182 250.70464 254.57497
 258.01596 261.07837 263.91980 266.58325 269.02682 271.17340 273.04590 274.73776
 276.33820 277.82697 279.17831 280.44739 281.61646 282.67178 283.65073 284.54697
 285.36621 286.12625 286.82397 287.71313
 366.78100 356.31897 345.73493 334.58490 322.97186 311.14983 299.00379 286.79076
 274.48672 262.36769 250.36065 239.64562 229.75158 220.83955 213.00551 205.99148
 199.80945 194.73141 191.29738 189.32334 188.34431 188.39227 189.21124 190.50320
 192.21217 194.29113 196.53810 198.88106 201.31003 203.77400 205.84596 207.67193
 209.28189 210.41086 210.62382 210.83579 210.75675 210.44572 210.06268 209.67665
 209.27761 208.97158 208.76354 208.61151 208.52348 208.83844 209.20841 209.58137
 210.35834 211.52030 212.75427 214.52123 216.43320 218.46016 220.53913 222.60609
 224.65006 226.71803 228.79899 230.88896 233.00192 235.15789 237.39785 239.75182
 242.35678 244.59175 246.57771 248.32668 249.72764 250.83461 251.64057 251.94054
 251.96151 251.71947 251.06344 249.99540 248.58537 246.73033 244.62330 242.44026
 240.21523 238.00319 235.80716 233.63012 231.47409 229.32505 227.33502 225.47599
 223.74295 222.19892 220.81288 219.56885 218.43481 217.37878 216.46674 215.59171
 214.81767 213.98164 213.06360 212.41157 211.84554 212.90628 215.41237 217.32837
 218.36757 219.87775 221.51355 222.94278 224.47668 226.26959 228.85229 230.96063
 232.11870 232.98586 234.62360 237.82771 242.07329 246.47415 250.67245 254.56499
 258.01379 261.07050 263.87802 266.52695 268.95532 271.07657 272.87851 274.52008
 276.16672 277.71838 279.10846 280.41071 281.58835 282.64050 283.61343 284.50055
 285.30124 286.01294 286.64648 287.50293
 366.78100 356.31884 345.73468 334.58452 322.97136 311.14921 299.00305 286.78989
 274.48573 262.36657 250.35941 239.64425 229.75009 220.83793 213.00378 205.98962
 199.80746 194.72930 191.29514 189.32098 188.34182 188.38966 189.20851 190.50035
 192.20919 194.28803 196.53487 198.87771 201.30655 203.77039 205.84223 207.66808
 209.27792 210.40676 210.61960 210.83144 210.75228 210.44112 210.05796 209.67180
 209.27265 208.96649 208.75833 208.60617 208.51801 208.83285 209.20269 209.57553
 210.35238 211.51422 212.74806 214.51490 216.42674 218.45358 220.53242 222.59926
 224.64310 226.71095 228.79179 230.88163 232.99447 235.15031 237.39015 239.74399
 242.34883 244.58367 246.56952 248.31836 249.71920 250.82604 251.63188 251.93172
 251.95256 251.71040 251.05424 249.98609 248.57593 246.72077 244.61361 242.43045
 240.20529 237.99313 235.79697 233.61982 231.46366 229.31450 227.32434 225.46518
 223.73202 222.18786 220.80170 219.55754 218.42339 217.36723 216.45507 215.57991
 214.80575 213.96959 213.05143 212.39927 211.83311 212.90623 215.44162 217.45238
 218.52655 220.05052 221.62154 222.98729 224.52777 226.26137 228.80353 230.82906
 231.84393 232.60266 234.34573 237.71677 242.00366 246.43121 250.64659 254.56291
 258.02948 261.08835 263.87350 266.50833 268.92828 271.04584 272.79044 274.37366
 276.03702 277.61533 279.07758 280.42392 281.60422 282.65143 283.60791 284.49072
 285.30753 286.02048 286.64288 287.49600
 366.78100 356.31830 345.73360 334.58291 322.96921 311.14651 298.99981 286.78612
 274.48142 262.36172 250.35402 239.63833 229.74363 220.83093 212.99623 205.98154
 199.79884 194.72014 191.28544 189.31074 188.33105 188.37835 189.19665 190.48795
 192.19626 194.27456 196.52086 198.86316 201.29147 203.75477 205.82607 207.65137
 209.26068 210.38898 210.60128 210.81258 210.73288 210.42119 210.03749 209.65079
 209.25109 208.94440 208.73570 208.58300 208.49430 208.80861 209.17791 209.55021
 210.32651 211.48782 212.72112 214.48742 216.39872 218.42502 220.50333 222.56963
 224.61293 226.68023 228.76054 230.84984 232.96214 235.11744 237.35675 239.71005
 242.31435 244.54865 246.53396 248.28226 249.68256 250.78886 251.59417 251.89347
 251.91377 251.67107 251.01437 249.94568 248.53498 246.67928 244.57158 242.38789
 240.16219 237.94949 235.75279 233.57510 231.41840 229.26870 227.27800 225.41831
 223.68461 222.13991 220.75321 219.50851 218.37382 217.31712 216.40442 215.52872
 214.75403 213.91733 212.99863 212.34593 211.77924 212.88309 215.49106 217.61998
 218.64330 220.11455 221.71295 223.08487 224.62425 226.31104 228.80583 230.68704
 231.54610 232.21616 234.07265 237.56744 241.91190 246.36980 250.59579 254.53259
 258.02621 261.10101 263.88077 266.49854 268.90607 271.01837 272.72864 274.29214
 275.97177 277.58835 279.10748 280.46689 281.64880 282.69855 283.65579 284.53720
 285.35251 286.07468 286.69672 287.55490
 366.78100 356.31732 345.73164 334.57997 322.96529 311.14161 298.99393 286.77926
 274.47358 262.35290 250.34422 239.62755 229.73187 220.81819 212.98251 205.96684
 199.78316 194.70348 191.26780 189.29213 188.31145 188.35777 189.17509 190.46542
 192.17274 194.25006 196.49538 198.83671 201.26403 203.72635 205.79667 207.62100
 209.22932 210.35664 210.56796 210.77829 210.69761 210.38493 210.00025 209.61258
 209.21190 208.90422 208.69454 208.54086 208.45119 208.76451 209.13283 209.50415
 210.27948 211.43980 212.67212 214.43744 216.34777 218.37309 220.45041 222.51573
 224.55806 226.62438 228.70370 230.79202 232.90335 235.05767 237.29599 239.64831
 242.25164 244.48496 246.46928 248.21660 249.61593 250.72125 251.52557 251.82389
 251.84322 251.59954 250.94186 249.87218 248.46051 246.60383 244.49515 242.31047
 240.08380 237.87012 235.67244 233.49376 231.33608 229.18541 227.19373 225.33305
 223.59837 222.05270 220.66502 219.41934 218.28366 217.22599 216.31231 215.43563
 214.65995 213.82228 212.90260 212.24892 211.68124 212.83878 215.57359 217.76192
 218.75452 220.18439 221.77176 223.14906 224.76137 226.43399 228.84210 230.50533
 231.21019 231.83983 233.75891 237.39986 241.83865 246.31738 250.55087 254.49635
 258.00989 261.10355 263.88708 266.48624 268.88251 271.00116 272.70740 274.27432
 275.95242 277.60623 279.13593 280.49670 281.68021 282.73068 283.69171 284.57434
 285.38983 286.11819 286.74365 287.60678
 366.78100 356.31663 345.73027 334.57790 322.96254 311.13817 298.98981 286.77444
 274.46808 262.34671 250.33735 239.61998 229.72362 220.80925 212.97289 205.95652
 199.77216 194.69179 191.25543 189.27906 188.29769 188.34333 189.15996 190.44960
 192.15623 194.23287 196.47750 198.81814 201.24477 203.70641 205.77604 207.59968
 209.20731 210.33395 210.54458 210.75422 210.67285 210.35948 209.97412 209.58575
 209.18439 208.87602 208.66566 208.51129 208.42093 208.73356 209.10120 209.47183
 210.24647 211.40610 212.63774 214.40237 216.31201 218.33664 220.41328 222.47791
 224.51954 226.58518 228.66381 230.75145 232.86208 235.01572 237.25335 239.60499
 242.20762 244.44026 246.42389 248.17053 249.56916 250.67380 251.47743 251.77507
 251.79370 251.54933 250.89097 249.82060 248.40824 246.55087 244.44151 242.25614
 240.02878 237.81441 235.61605 233.43668 231.27832 229.12695 227.13459 225.27322
 223.53786 221.99149 220.60313 219.35676 218.22039 217.16203 216.24766 215.37030
 214.59393 213.75557 212.83520 212.18084 211.61247 212.81210 215.64635 217.89343
 218.85072 220.28842 221.86179 223.25653 224.79103 226.45520 228.91170 230.51279
 230.86472 231.25545 233.50273 237.33623 241.80353 246.28317 250.51254 254.45387
 257.97888 261.09415 263.89139 266.47635 268.87082 271.01233 272.72443 274.27997
 275.93704 277.62341 279.15460 280.51572 281.69992 282.75162 283.71277 284.59851
 285.41296 286.15039 286.77701 287.64523
 366.78100 356.31655 345.73010 334.57766 322.96221 311.13776 298.98931 286.77387
 274.46742 262.34597 250.33652 239.61908 229.72263 220.80818 212.97173 205.95528
 199.77084 194.69039 191.25394 189.27749 188.29605 188.34160 189.15815 190.44770
 192.15426 194.23081 196.47536 198.81591 201.24247 203.70402 205.77357 207.59712
 209.20467 210.33123 210.54178 210.75133 210.66988 210.35644 209.97099 209.58254
 209.18109 208.87265 208.66220 208.50775 208.41730 208.72985 209.09741 209.46796
 210.24251 211.40206 212.63362 214.39817 216.30772 218.33227 220.40883 222.47338
 224.51493 226.58048 228.65904 230.74659 232.85714 235.01069 237.24824 239.59980
 242.20235 244.43490 246.41845 248.16501 249.56356 250.66811 251.47166 251.76922
 251.78777 251.54332 250.88487 249.81442 248.40198 246.54453 244.43508 242.24963
 240.02219 237.80774 235.60929 233.42984 231.27140 229.11995 227.12750 225.26605
 223.53060 221.98416 220.59571 219.34926 218.21281 217.15437 216.23992 215.36247
 214.58602 213.74758 212.82713 212.17268 211.60423 212.81984 215.69182 218.01224
 218.95230 220.40480 222.00575 223.41791 224.81075 226.40208 228.88553 230.45349
 230.56149 230.77348 233.30301 237.28526 241.76509 246.24323 250.46382 254.40121
 257.94128 261.08316 263.89914 266.47275 268.86862 271.03528 272.74420 274.27878
 275.91620 277.63333 279.17200 280.53381 281.71838 282.77112 283.73355 284.62149
 285.43399 286.17285 286.80405 287.68045
 366.78100 356.31669 345.73038 334.57808 322.96277 311.13846 298.99015 286.77484
 274.46853 262.34723 250.33792 239.62061 229.72430 220.80999 212.97369 205.95738
 199.77307 194.69276 191.25645 189.28014 188.29884 188.34453 189.16122 190.45091
 192.15760 194.23429 196.47899 198.81968 201.24637 203.70806 205.77775 207.60145
 209.20914 210.33583 210.54652 210.75621 210.67490 210.36160 209.97629 209.58798
 209.18667 208.87836 208.66806 208.51375 208.42344 208.73613 209.10382 209.47451
 210.24921 211.40890 212.64059 214.40528 216.31497 218.33967 220.41636 222.48105
 224.52274 226.58843 228.66712 230.75482 232.86551 235.01920 237.25689 239.60858
 242.21127 244.44397 246.42766 248.17435 249.57304 250.67773 251.48143 251.77912
 251.79781 251.55350 250.89519 249.82488 248.41258 246.55527 244.44596 242.26065
 240.03334 237.81904 235.62073 233.44142 231.28311 229.13180 227.13949 225.27819
 223.54288 221.99657 220.60826 219.36195 218.22564 217.16734 216.25303 215.37572
 214.59941 213.76110 212.84080 212.18649 211.61818 212.84184 215.73289 218.10152
 219.08485 220.50742 222.12622 223.60735 224.91913 226.38179 228.78035 230.24713
 230.24698 230.41882 233.12566 237.22043 241.71967 246.20573 250.41917 254.35316
 257.90714 261.07495 263.90918 266.47012 268.86533 271.05084 272.75293 274.27112
 275.90561 277.63638 279.18176 280.54651 281.73096 282.78595 283.75186 284.63846
 285.45212 286.18875 286.82947 287.70712
 366.78100 356.31681 345.73063 334.57844 322.96325 311.13907 298.99088 286.77569
 274.46951 262.34832 250.33913 239.62195 229.72576 220.81157 212.97539 205.95920
 199.77501 194.69483 191.25864 189.28245 188.30127 188.34708 189.16389 190.45371
 192.16052 194.23734 196.48215 198.82296 201.24978 203.71159 205.78140 207.60522
 209.21303 210.33984 210.55066 210.76047 210.67928 210.36610 209.98091 209.59272
 209.19154 208.88335 208.67316 208.51898 208.42879 208.74160 209.10942 209.48023
 210.25504 211.41486 212.64667 214.41148 216.32130 218.34611 220.42292 222.48774
 224.52955 226.59536 228.67418 230.76199 232.87280 235.02662 237.26443 239.61624
 242.21906 244.45187 246.43568 248.18250 249.58131 250.68612 251.48994 251.78775
 251.80657 251.56238 250.90419 249.83401 248.42182 246.56463 244.45545 242.27026
 240.04307 237.82889 235.63070 233.45151 231.29333 229.14214 227.14995 225.28877
 223.55358 222.00739 220.61921 219.37302 218.23683 217.17865 216.26446 215.38727
 214.61109 213.77290 212.85271 212.19853 211.63034 212.86429 215.77963 218.16933
 219.22366 220.61865 222.21179 223.76845 225.07315 226.41550 228.65565 229.96118
 229.92014 230.14592 232.95485 237.14496 241.68112 246.17340 250.37675 254.30908
 257.87717 261.06720 263.91675 266.46375 268.85638 271.05267 272.74371 274.24728
 275.90720 277.64926 279.20157 280.56918 281.75754 282.81485 283.78461 284.67313
 285.48926 286.23264 286.88419 287.78619
 366.78100 356.31693 345.73087 334.57880 322.96374 311.13967 298.99161 286.77654
 274.47047 262.34941 250.34034 239.62328 229.72721 220.81315 212.97708 205.96101
 199.77695 194.69688 191.26082 189.28475 188.30369 188.34962 189.16655 190.45649
 192.16342 194.24036 196.48529 198.82622 201.25316 203.71509 205.78503 207.60896
 209.21690 210.34383 210.55476 210.76470 210.68363 210.37057 209.98550 209.59744
 209.19637 208.88830 208.67824 208.52417 208.43411 208.74704 209.11498 209.48591
 210.26084 211.42078 212.65271 214.41765 216.32758 218.35252 220.42945 222.49438
 224.53632 226.60225 228.68119 230.76912 232.88006 235.03399 237.27192 239.62386
 242.22679 244.45973 246.44366 248.19060 249.58953 250.69446 251.49840 251.79633
 251.81527 251.57120 250.91313 249.84307 248.43100 246.57394 244.46487 242.27981
 240.05274 237.83867 235.64061 233.46154 231.30348 229.15241 227.16035 225.29928
 223.56421 222.01815 220.63008 219.38402 218.24795 217.18989 216.27582 215.39875
 214.62269 213.78462 212.86456 212.21049 211.64243 212.88750 215.82910 218.23709
 219.33847 220.74533 222.30518 223.88773 225.21312 226.47421 228.53955 229.66956
 229.59503 229.90640 232.79182 237.07118 241.65196 246.14066 250.33212 254.26291
 257.84598 261.05780 263.92355 266.45673 268.84747 271.05002 272.73380 274.23181
 275.91629 277.66415 279.21906 280.58871 281.77853 282.83856 283.80911 284.69852
 285.51721 286.25769 286.91330 287.82315
 366.78100 356.31709 345.73118 334.57928 322.96437 311.14046 298.99255 286.77765
 274.47174 262.35083 250.34192 239.62501 229.72911 220.81520 212.97929 205.96338
 199.77947 194.69957 191.26366 189.28775 188.30684 188.35294 189.17003 190.46012
 192.16721 194.24430 196.48940 198.83049 201.25758 203.71967 205.78977 207.61386
 209.22195 210.34904 210.56013 210.77023 210.68932 210.37641 209.99150 209.60360
 209.20269 208.89478 208.68487 208.53096 208.44106 208.75415 209.12224 209.49333
 210.26842 211.42852 212.66061 214.42570 216.33579 218.36089 220.43798 222.50307
 224.54516 226.61125 228.69035 230.77844 232.88953 235.04362 237.28172 239.63381
 242.23690 244.46999 246.45408 248.20118 249.60027 250.70536 251.50945 251.80755
 251.82664 251.58273 250.92482 249.85491 248.44301 246.58610 244.47719 242.29228
 240.06537 237.85147 235.65356 233.47465 231.31674 229.16584 227.17393 225.31302
 223.57811 222.03220 220.64430 219.39839 218.26248 217.20457 216.29067 215.41376
 214.63785 213.79994 212.88003 212.22613 211.65822 212.91351 215.87929 218.30923
 219.43289 220.86847 222.42276 223.98535 225.32286 226.53157 228.43636 229.39900
 229.27658 229.68182 232.64375 237.00575 241.62585 246.10440 250.28500 254.21320
 257.80966 261.04480 263.92798 266.45309 268.84351 271.05267 272.73697 274.24005
 275.92010 277.66943 279.22614 280.59610 281.78714 282.84665 283.81812 284.70956
 285.52472 286.26578 286.91882 287.83508
 366.78100 356.31726 345.73153 334.57979 322.96506 311.14132 298.99358 286.77885
 274.47311 262.35237 250.34364 239.62690 229.73117 220.81743 212.98169 205.96596
 199.78222 194.70249 191.26675 189.29101 188.31028 188.35654 189.17380 190.46407
 192.17133 194.24860 196.49386 198.83512 201.26239 203.72465 205.79492 207.61918
 209.22744 210.35471 210.56597 210.77623 210.69550 210.38276 209.99803 209.61029
 209.20955 208.90182 208.69208 208.53835 208.44861 208.76187 209.13014 209.50140
 210.27666 211.43693 212.66919 214.43446 216.34472 218.36998 220.44725 222.51251
 224.55478 226.62104 228.70030 230.78857 232.89983 235.05409 237.29236 239.64462
 242.24789 244.48115 246.46541 248.21268 249.61194 250.71721 251.52147 251.81973
 251.83900 251.59526 250.93752 249.86779 248.45605 246.59932 244.49058 242.30584
 240.07911 237.86537 235.66764 233.48890 231.33116 229.18043 227.18869 225.32795
 223.59322 222.04748 220.65975 219.41401 218.27827 217.22054 216.30680 215.43007
 214.65433 213.81659 212.89686 212.24312 211.67538 212.94135 215.93233 218.37663
 219.52339 220.98372 222.55231 224.07802 225.41058 226.57605 228.34628 229.14525
 228.96448 229.47609 232.51228 236.94461 241.59538 246.06651 250.23979 254.16347
 257.76932 261.02783 263.93021 266.45184 268.84366 271.05667 272.74460 274.25806
 275.91925 277.66705 279.22449 280.59436 281.78577 282.84515 283.81747 284.70551
 285.52127 286.25818 286.91064 287.83102
 366.78100 356.31745 345.73190 334.58035 322.96580 311.14225 298.99470 286.78015
 274.47460 262.35405 250.34550 239.62896 229.73341 220.81986 212.98431 205.96876
 199.78521 194.70566 191.27011 189.29456 188.31401 188.36046 189.17791 190.46836
 192.17581 194.25326 196.49871 198.84016 201.26761 203.73006 205.80051 207.62496
 209.23341 210.36087 210.57232 210.78277 210.70222 210.38967 210.00512 209.61757
 209.21702 208.90947 208.69992 208.54637 208.45682 208.77027 209.13872 209.51017
 210.28562 211.44607 212.67852 214.44397 216.35442 218.37987 220.45732 222.52278
 224.56523 226.63168 228.71113 230.79958 232.91103 235.06548 237.30393 239.65638
 242.25983 244.49328 246.47773 248.22518 249.62463 250.73008 251.53453 251.83298
 251.85243 251.60888 250.95133 249.88178 248.47023 246.61369 244.50514 242.32059
 240.09404 237.88049 235.68294 233.50439 231.34684 229.19629 227.20474 225.34419
 223.60964 222.06409 220.67654 219.43099 218.29544 217.23789 216.32434 215.44779
 214.67224 213.83469 212.91515 212.26160 211.69405 212.97098 215.98788 218.43512
 219.61238 221.10014 222.68100 224.17006 225.48537 226.60492 228.26544 228.89703
 228.66360 229.29709 232.39531 236.88026 241.55774 246.02896 250.19962 254.11763
 257.72794 261.00549 263.92795 266.45273 268.84592 271.05914 272.74750 274.26666
 275.91800 277.66522 279.22256 280.59317 281.78439 282.84387 283.81470 284.70474
 285.51959 286.25723 286.90878 287.83350
 366.78100 356.31769 345.73238 334.58107 322.96676 311.14344 298.99613 286.78182
 274.47651 262.35620 250.34789 239.63158 229.73627 220.82296 212.98765 205.97233
 199.78902 194.70971 191.27440 189.29909 188.31878 188.36547 189.18316 190.47385
 192.18153 194.25922 196.50491 198.84660 201.27429 203.73698 205.80767 207.63236
 209.24105 210.36874 210.58042 210.79111 210.71080 210.39849 210.01418 209.62687
 209.22656 208.91925 208.70994 208.55663 208.46731 208.78100 209.14969 209.52138
 210.29707 211.45776 212.69045 214.45614 216.36683 218.39251 220.47020 222.53589
 224.57858 226.64527 228.72496 230.81365 232.92534 235.08003 237.31872 239.67140
 242.27509 244.50878 246.49347 248.24116 249.64085 250.74654 251.55123 251.84992
 251.86960 251.62629 250.96898 249.89967 248.48836 246.63205 244.52374 242.33943
 240.11312 237.89981 235.70249 233.52418 231.36687 229.21656 227.22525 225.36494
 223.63063 222.08532 220.69801 219.45269 218.31738 217.26007 216.34676 215.47045
 214.69514 213.85783 212.93852 212.28521 211.71790 213.00391 216.04227 218.48505
 219.69836 221.21895 222.80513 224.26662 225.54761 226.62025 228.18913 228.64568
 228.37892 229.14658 232.28998 236.81207 241.51468 245.99216 250.16432 254.07735
 257.68814 260.97983 263.92096 266.45386 268.84744 271.05524 272.74582 274.26602
 275.92062 277.66840 279.22552 280.59726 281.78900 282.84924 283.82083 284.71075
 285.52579 286.26514 286.91904 287.84546
 366.78100 356.31803 345.73305 334.58208 322.96810 311.14513 298.99816 286.78418
 274.47921 262.35923 250.35126 239.63529 229.74031 220.82734 212.99236 205.97739
 199.79442 194.71544 191.28047 189.30549 188.32552 188.37255 189.19057 190.48160
 192.18962 194.26765 196.51368 198.85570 201.28373 203.74675 205.81778 207.64281
 209.25183 210.37986 210.59188 210.80291 210.72294 210.41096 210.02699 209.64001
 209.24004 208.93307 208.72409 208.57112 208.48214 208.79617 209.16520 209.53722
 210.31325 211.47428 212.70730 214.47333 216.38435 218.41038 220.48841 222.55443
 224.59746 226.66448 228.74451 230.83354 232.94556 235.10059 237.33961 239.69264
 242.29667 244.53069 246.51572 248.26374 249.66377 250.76980 251.57482 251.87385
 251.89387 251.65090 250.99393 249.92495 248.51398 246.65800 244.55003 242.36606
 240.14008 237.92711 235.73013 233.55216 231.39519 229.24521 227.25424 225.39426
 223.66029 222.11532 220.72834 219.48337 218.34839 217.29142 216.37845 215.50247
 214.72750 213.89052 212.97155 212.31858 211.75160 213.04247 216.09225 218.52931
 219.78435 221.33910 222.92555 224.36809 225.60263 226.62755 228.11143 228.39502
 228.11143 229.01703 232.19505 236.74490 241.47015 245.95462 250.13168 254.04201
 257.65115 260.95139 263.90863 266.45532 268.84921 271.04807 272.74176 274.23706
 275.93314 277.68582 279.24213 280.61237 281.80417 282.86407 283.83600 284.72681
 285.54141 286.28256 286.93869 287.86517
 366.78100 356.31848 345.73395 334.58343 322.96991 311.14738 299.00086 286.78733
 274.48281 262.36329 250.35576 239.64024 229.74572 220.83319 212.99867 205.98414
 199.80162 194.72310 191.28857 189.31405 188.33453 188.38200 189.20048 190.49196
 192.20043 194.27891 196.52538 198.86786 201.29634 203.75981 205.83129 207.65677
 209.26624 210.39472 210.60719 210.81867 210.73915 210.42762 210.04410 209.65758
 209.25805 208.95153 208.74300 208.59048 208.50196 208.81643 209.18591 209.55839
 210.33486 211.49634 212.72982 214.49629 216.40777 218.43424 220.51272 222.57920
 224.62267 226.69015 228.77063 230.86010 232.97258 235.12805 237.36753 239.72101
 242.32548 244.55996 246.54544 248.29391 249.69439 250.80087 251.60634 251.90582
 251.92629 251.68377 251.02725 249.95872 248.54820 246.69268 244.58515 242.40163
 240.17610 237.96358 235.76706 233.58953 231.43301 229.28349 227.29296 225.43344
 223.69992 222.15539 220.76887 219.52434 218.38982 217.33330 216.42077 215.54525
 214.77073 213.93420 213.01568 212.36315 211.79663 213.08687 216.13518 218.57065
 219.87073 221.45488 223.04523 224.47325 225.64452 226.63573 228.03479 228.14713
 227.85927 228.90584 232.11334 236.67833 241.42059 245.91360 250.09926 254.00842
 257.61432 260.92084 263.89194 266.45676 268.84894 271.02997 272.72598 274.23492
 275.94180 277.69693 279.25467 280.62598 281.81815 282.87860 283.85101 284.74197
 285.55817 286.29877 286.95386 287.88565
 366.78100 356.31913 345.73526 334.58538 322.97251 311.15064 299.00477 286.79190
 274.48803 262.36915 250.36228 239.64741 229.75354 220.84167 213.00779 205.99392
 199.81205 194.73418 191.30031 189.32644 188.34756 188.39569 189.21482 190.50695
 192.21608 194.29520 196.54233 198.88546 201.31459 203.77872 205.85084 207.67697
 209.28710 210.41623 210.62936 210.84149 210.76261 210.45174 210.06887 209.68300
 209.28413 208.97825 208.77038 208.61851 208.53064 208.84577 209.21590 209.58902
 210.36615 211.52828 212.76241 214.52954 216.44166 218.46879 220.54792 222.61505
 224.65918 226.72731 228.80843 230.89856 233.01169 235.16782 237.40795 239.76207
 242.36720 244.60233 246.58846 248.33759 249.73872 250.84584 251.65197 251.95210
 251.97323 251.73136 251.07548 250.00761 248.59774 246.74287 244.63600 242.45312
 240.22825 238.01638 235.82051 233.64364 231.48777 229.33889 227.34902 225.49015
 223.75728 222.21341 220.82753 219.58366 218.44979 217.39392 216.48205 215.60718
 214.83330 213.99743 213.07956 212.42769 211.86182 213.14143 216.16470 218.61627
 219.95554 221.56670 223.16316 224.57031 225.68742 226.64253 227.95146 227.91649
 227.62692 228.80807 232.04326 236.61542 241.37091 245.87267 250.06635 253.97511
 257.57715 260.88751 263.87167 266.45700 268.84402 271.00208 272.69839 274.23605
 275.95129 277.71088 279.27032 280.64206 281.83554 282.89609 283.86862 284.75940
 285.57526 286.31625 286.97028 287.90210
 366.78100 356.31979 345.73659 334.58738 322.97518 311.15397 299.00877 286.79656
 274.49336 262.37515 250.36895 239.65474 229.76154 220.85033 213.01713 206.00392
 199.82272 194.74551 191.31231 189.33910 188.36090 188.40969 189.22949 190.52228
 192.23208 194.31187 196.55967 198.90346 201.33326 203.79805 205.87085 207.69764
 209.30844 210.43823 210.65203 210.86482 210.78662 210.47641 210.09421 209.70900
 209.31080 209.00559 208.79839 208.64718 208.55998 208.87577 209.24657 209.62036
 210.39816 211.56095 212.79575 214.56354 216.47634 218.50413 220.58393 222.65172
 224.69652 226.76531 228.84711 230.93790 233.05170 235.20849 237.44929 239.80408
 242.40988 244.64567 246.63247 248.38226 249.78406 250.89185 251.69865 251.99944
 252.02124 251.78003 251.12483 250.05762 248.64842 246.79421 244.68801 242.50580
 240.28160 238.07039 235.87519 233.69898 231.54378 229.39557 227.40637 225.54816
 223.81596 222.27275 220.88755 219.64434 218.51114 217.45593 216.54473 215.67052
 214.89732 214.06211 213.14491 212.49370 211.92850 213.19670 216.19295 218.65057
 220.05219 221.66966 223.27780 224.67276 225.72273 226.65602 227.87260 227.68604
 227.39377 228.71579 231.99051 236.55949 241.31848 245.82739 250.03285 253.94431
 257.54300 260.85504 263.85135 266.46011 268.84042 270.97299 272.67389 274.18304
 276.00647 277.73334 279.28555 280.65829 281.84985 282.91168 283.88449 284.77640
 285.59299 286.33295 286.98810 287.92389
 366.78100 356.32037 345.73775 334.58912 322.97749 311.15687 299.01224 286.80062
 274.49799 262.38036 250.37474 239.66111 229.76848 220.85786 213.02523 206.01261
 199.83198 194.75535 191.32273 189.35010 188.37247 188.42185 189.24222 190.53560
 192.24597 194.32634 196.57472 198.91909 201.34946 203.81484 205.88821 207.71559
 209.32696 210.45733 210.67171 210.88508 210.80745 210.49783 210.11620 209.73158
 209.33395 209.02932 208.82270 208.67207 208.58544 208.90182 209.27319 209.64757
 210.42594 211.58931 212.82469 214.59306 216.50643 218.53481 220.61518 222.68356
 224.72893 226.79830 228.88068 230.97205 233.08642 235.24380 237.48517 239.84055
 242.44692 244.68329 246.67067 248.42104 249.82341 250.93179 251.73916 252.04054
 252.06291 251.82228 251.16766 250.10103 248.69240 246.83878 244.73315 242.55153
 240.32790 238.11727 235.92265 233.74702 231.59239 229.44477 227.45614 225.59852
 223.86689 222.32426 220.93964 219.69701 218.56438 217.50976 216.59913 215.72551
 214.95288 214.11825 213.20163 212.55100 211.98637 213.24756 216.22726 218.67513
 220.13193 221.80339 223.39214 224.74657 225.78070 226.69641 227.78746 227.44183
 227.15620 228.63644 231.94316 236.50052 241.26227 245.78389 250.00476 253.91927
 257.51242 260.82187 263.82761 266.46124 268.83289 270.93604 272.63440 274.09369
 276.02930 277.79123 279.33350 280.69992 281.88776 282.94531 283.91602 284.80518
 285.61923 286.35818 287.01437 287.94675
 366.78100 356.32109 345.73919 334.59128 322.98037 311.16046 299.01656 286.80565
 274.50374 262.38683 250.38193 239.66902 229.77711 220.86721 213.03530 206.02339
 199.84348 194.76758 191.33567 189.36376 188.38685 188.43695 189.25804 190.55213
 192.26323 194.34432 196.59341 198.93850 201.36960 203.83569 205.90978 207.73787
 209.34997 210.48106 210.69615 210.91025 210.83334 210.52443 210.14352 209.75962
 209.36271 209.05880 208.85289 208.70299 208.61708 208.93417 209.30627 209.68136
 210.46045 211.62454 212.86064 214.62973 216.54382 218.57291 220.65401 222.72310
 224.76919 226.83929 228.92238 231.01447 233.12956 235.28766 237.52975 239.88584
 242.49293 244.73003 246.71812 248.46921 249.87231 250.98140 251.78949 252.09158
 252.11468 251.87477 251.22086 250.15495 248.74705 246.89414 244.78923 242.60833
 240.38542 238.17551 235.98160 233.80670 231.65279 229.50588 227.51798 225.66107
 223.93016 222.38825 221.00435 219.76244 218.63053 217.57662 216.66672 215.79381
 215.02190 214.18800 213.27209 212.62218 212.05827 213.30496 216.25040 218.71559
 220.18326 221.91913 223.53981 224.87079 225.82074 226.69385 227.69771 227.27586
 226.96599 228.51050 231.88440 236.45024 241.21126 245.74641 249.97778 253.89050
 257.47598 260.78250 263.79904 266.46149 268.82806 270.90878 272.61026 274.08899
 276.02197 277.80585 279.35913 280.72827 281.91629 282.97491 283.94592 284.83411
 285.64688 286.38531 287.03702 287.97186
 366.78100 356.32185 345.74070 334.59355 322.98340 311.16424 299.02109 286.81094
 274.50979 262.39364 250.38949 239.67734 229.78619 220.87703 213.04588 206.03473
 199.85558 194.78043 191.34928 189.37813 188.40198 188.45282 189.27467 190.56952
 192.28137 194.36322 196.61307 198.95892 201.39077 203.85762 205.93246 207.76131
 209.37416 210.50601 210.72186 210.93671 210.86056 210.55241 210.17225 209.78910
 209.39295 209.08980 208.88465 208.73550 208.65035 208.96820 209.34105 209.71689
 210.49674 211.66159 212.89844 214.66829 216.58314 218.61299 220.69484 222.76468
 224.81153 226.88238 228.96623 231.05908 233.17493 235.33378 237.57663 239.93347
 242.54132 244.77917 246.76802 248.51987 249.92372 251.03357 251.84242 252.14527
 252.16911 251.92996 251.27681 250.21166 248.80451 246.95236 244.84821 242.66806
 240.44590 238.23675 236.04360 233.86945 231.71630 229.57015 227.58300 225.72685
 223.99669 222.45554 221.07239 219.83124 218.70009 217.64694 216.73779 215.86564
 215.09449 214.26133 213.34618 212.69703 212.13388 213.36369 216.26927 218.75690
 220.25266 221.99185 223.69200 225.02109 225.85582 226.66949 227.60391 227.14084
 226.80614 228.39023 231.83830 236.41066 241.16611 245.70909 249.94611 253.85564
 257.43256 260.73376 263.75854 266.44815 268.80792 270.85989 272.55899 274.16901
 276.02267 277.80481 279.36716 280.74030 281.93326 282.99399 283.96509 284.85342
 285.66580 286.40182 287.05283 287.98666
 366.78100 356.32249 345.74197 334.59546 322.98594 311.16743 299.02492 286.81540
 274.51489 262.39937 250.39586 239.68435 229.79383 220.88532 213.05480 206.04429
 199.86578 194.79126 191.36075 189.39023 188.41472 188.46621 189.28869 190.58418
 192.29666 194.37915 196.62964 198.97612 201.40861 203.87609 205.95158 207.78107
 209.39455 210.52704 210.74352 210.95901 210.88350 210.57598 210.19647 209.81395
 209.41844 209.11593 208.91141 208.76290 208.67838 208.99687 209.37036 209.74684
 210.52733 211.69281 212.93030 214.70079 216.61627 218.64676 220.72924 222.79973
 224.84722 226.91870 229.00319 231.09667 233.21316 235.37265 237.61613 239.97362
 242.58210 244.82059 246.81008 248.56256 249.96705 251.07753 251.88702 252.19051
 252.21499 251.97648 251.32396 250.25945 248.85294 247.00142 244.89791 242.71840
 240.49688 238.28837 236.09585 233.92234 231.76983 229.62431 227.63780 225.78228
 224.05277 222.51226 221.12974 219.88923 218.75871 217.70620 216.79769 215.92617
 215.15566 214.32314 213.40863 212.76012 212.19760 213.41557 216.29314 218.78566
 220.34416 222.04913 223.79672 225.16478 225.93994 226.68233 227.49342 226.99352
 226.66023 228.28819 231.80682 236.37747 241.12222 245.66887 249.91135 253.82103
 257.38937 260.68442 263.71628 266.43243 268.78522 270.80960 272.50952 274.18387
 276.01984 277.80176 279.36691 280.74277 281.93765 282.99997 283.97137 284.85928
 285.67117 286.40768 287.05734 287.98782
 366.78100 356.32314 345.74328 334.59742 322.98855 311.17069 299.02883 286.81997
 274.52011 262.40525 250.40239 239.69152 229.80166 220.89380 213.06394 206.05408
 199.87622 194.80236 191.37250 189.40263 188.42777 188.47991 189.30305 190.59919
 192.31233 194.39547 196.64660 198.99374 201.42688 203.89502 205.97116 207.80130
 209.41544 210.54857 210.76571 210.98185 210.90699 210.60013 210.22127 209.83941
 209.44455 209.14268 208.93882 208.79096 208.70710 209.02624 209.40038 209.77752
 210.55865 211.72479 212.96293 214.73407 216.65021 218.68135 220.76449 222.83562
 224.88376 226.95590 229.04104 231.13518 233.25232 235.41246 237.65660 240.01473
 242.62387 244.86301 246.85315 248.60629 250.01143 251.12257 251.93270 252.23684
 252.26198 252.02412 251.37226 250.30840 248.90254 247.05167 244.94881 242.76995
 240.54909 238.34123 236.14937 233.97651 231.82465 229.67978 227.69392 225.83906
 224.11020 222.57034 221.18848 219.94862 218.81875 217.76689 216.85903 215.98817
 215.21831 214.38645 213.47259 212.82472 212.26286 213.46739 216.31322 218.81226
 220.43279 222.13199 223.86043 225.26280 226.05583 226.73862 227.36687 226.84320
 226.53954 228.19934 231.77866 236.34541 241.07748 245.62865 249.87967 253.79114
 257.35098 260.63855 263.67447 266.41434 268.75858 270.75369 272.45694 274.18362
 276.01022 277.79239 279.35953 280.73761 281.93326 282.99710 283.96854 284.85773
 285.66992 286.40445 287.05197 287.98843
 366.78100 356.32388 345.74476 334.59963 322.99151 311.17439 299.03327 286.82515
 274.52602 262.41190 250.40978 239.69966 229.81054 220.90341 213.07429 206.06517
 199.88805 194.81493 191.38581 189.41668 188.44256 188.49544 189.31932 190.61620
 192.33007 194.41395 196.66583 199.01371 201.44759 203.91646 205.99334 207.82422
 209.43910 210.57298 210.79085 211.00773 210.93361 210.62749 210.24937 209.86824
 209.47412 209.17300 208.96988 208.82276 208.73964 209.05951 209.43439 209.81227
 210.59415 211.76103 212.99990 214.77178 216.68866 218.72054 220.80442 222.87629
 224.92517 226.99805 229.08393 231.17881 233.29668 235.45756 237.70244 240.06132
 242.67120 244.91107 246.90195 248.65583 250.06171 251.17359 251.98447 252.28934
 252.31522 252.07810 251.42698 250.36386 248.95873 247.10861 245.00649 242.82837
 240.60825 238.40112 236.21000 234.03788 231.88676 229.74264 227.75751 225.90339
 224.17527 222.63615 221.25503 220.01590 218.88678 217.83566 216.92854 216.05842
 215.28929 214.45817 213.54505 212.89793 212.33681 213.52295 216.32535 218.84059
 220.51289 222.23528 223.91273 225.31862 226.17293 226.81598 227.24471 226.70529
 226.43813 228.11407 231.74768 236.31386 241.03386 245.59033 249.85023 253.76292
 257.31384 260.59204 263.62988 266.39160 268.72952 270.70053 272.39728 274.16873
 275.99643 277.77930 279.34857 280.72699 281.92392 282.98804 283.95956 284.84933
 285.65909 286.39270 287.04355 287.97726
 366.78100 356.32469 345.74638 334.60207 322.99476 311.17845 299.03814 286.83084
 274.53253 262.41922 250.41791 239.70860 229.82029 220.91398 213.08567 206.07736
 199.90105 194.82874 191.40043 189.43212 188.45882 188.51251 189.33720 190.63489
 192.34958 194.43427 196.68696 199.03565 201.47034 203.94003 206.01772 207.84941
 209.46510 210.59979 210.81849 211.03618 210.96287 210.65756 210.28025 209.89994
 209.50663 209.20632 209.00401 208.85770 208.77539 209.09608 209.47177 209.85047
 210.63316 211.80085 213.04054 214.81323 216.73092 218.76361 220.84830 222.92099
 224.97068 227.04437 229.13106 231.22675 233.34545 235.50714 237.75283 240.11252
 242.72321 244.96390 246.95559 248.71028 250.11697 251.22966 252.04135 252.34704
 252.37373 252.13743 251.48712 250.42481 249.02050 247.17119 245.06988 242.89257
 240.67326 238.46695 236.27664 234.10533 231.95502 229.81171 227.82740 225.97410
 224.24679 222.70848 221.32817 220.08986 218.96155 217.91124 217.00493 216.13562
 215.36731 214.53700 213.62469 212.97838 212.41808 213.58322 216.33600 218.86385
 220.59653 222.33832 223.96901 225.36113 226.27995 226.89336 227.14380 226.57509
 226.33154 228.02655 231.71500 236.28444 240.99399 245.55501 249.82306 253.73665
 257.27921 260.54559 263.58246 266.36032 268.69058 270.63379 272.32947 274.17053
 275.96759 277.74872 279.32010 280.70096 281.89948 282.96347 283.93704 284.82510
 285.63501 286.36771 287.01941 287.94769
 366.78100 356.32549 345.74797 334.60446 322.99794 311.18243 299.04291 286.83640
 274.53888 262.42637 250.42586 239.71734 229.82983 220.92431 213.09680 206.08928
 199.91377 194.84225 191.41474 189.44723 188.47471 188.52920 189.35468 190.65317
 192.36865 194.45414 196.70763 199.05711 201.49260 203.96308 206.04157 207.87405
 209.49054 210.62602 210.84551 211.06400 210.99148 210.68697 210.31045 209.93094
 209.53842 209.23891 209.03739 208.89188 208.81037 209.13185 209.50834 209.88782
 210.67131 211.83979 213.08028 214.85376 216.77225 218.80574 220.89122 222.96471
 225.01519 227.08968 229.17716 231.27365 233.39314 235.55562 237.80211 240.16259
 242.77408 245.01556 247.00805 248.76353 250.17102 251.28451 252.09699 252.40348
 252.43096 252.19545 251.54593 250.48442 249.08090 247.23239 245.13188 242.95536
 240.73685 238.53133 236.34182 234.17130 232.02179 229.87927 227.89576 226.04325
 224.31673 222.77922 221.39970 220.16219 219.03467 217.98516 217.07965 216.21113
 215.44362 214.61410 213.70259 213.05707 212.49756 213.64172 216.34492 218.88037
 220.68083 222.42662 224.02501 225.40421 226.37715 226.97017 227.08203 226.45810
 226.21216 227.93607 231.68141 236.25563 240.95547 245.51782 249.78951 253.70293
 257.23758 260.49475 263.53076 266.32477 268.65033 270.57645 272.25943 274.12518
 275.94040 277.72189 279.29236 280.67300 281.87036 282.93530 283.90714 284.79504
 285.60394 286.33698 286.98495 287.91644
 366.78100 356.32622 345.74944 334.60666 323.00088 311.18610 299.04732 286.84154
 274.54476 262.43298 250.43320 239.72541 229.83863 220.93385 213.10707 206.10029
 199.92551 194.85473 191.42795 189.46117 188.48939 188.54461 189.37083 190.67005
 192.38627 194.47249 196.72671 199.07693 201.51315 203.98437 206.06359 207.89681
 209.51403 210.65024 210.87046 211.08968 211.01790 210.71412 210.33834 209.95956
 209.56778 209.26900 209.06822 208.92344 208.84266 209.16488 209.54210 209.92232
 210.70654 211.87576 213.11698 214.89120 216.81042 218.84464 220.93085 223.00507
 225.05629 227.13151 229.21973 231.31695 233.43717 235.60039 237.84761 240.20883
 242.82105 245.06327 247.05649 248.81271 250.22093 251.33515 252.14837 252.45559
 252.48381 252.24903 251.60025 250.53947 249.13668 247.28890 245.18912 243.01334
 240.79556 238.59078 236.40200 234.23222 232.08344 229.94166 227.95888 226.10710
 224.38132 222.84454 221.46576 220.22898 219.10220 218.05342 217.14864 216.28086
 215.51408 214.68529 213.77451 213.12973 212.57095 213.69534 216.35182 218.89954
 220.76234 222.50085 224.07471 225.44145 226.45801 227.04442 227.05614 226.35724
 226.09108 227.85428 231.65407 236.23170 240.92157 245.48071 249.75240 253.66226
 257.18655 260.43182 263.46484 266.26691 268.58524 270.49539 272.20621 274.13684
 275.91556 277.68530 279.25455 280.63388 281.83121 282.89462 283.86685 284.75534
 285.56387 286.29858 286.94614 287.87503
 366.78100 356.32692 345.75084 334.60876 323.00368 311.18960 299.05151 286.84643
 274.55035 262.43927 250.44019 239.73311 229.84703 220.94295 213.11687 206.11079
 199.93671 194.86663 191.44054 189.47446 188.50338 188.55930 189.38622 190.68614
 192.40306 194.48998 196.74490 199.09582 201.53274 204.00466 206.08457 207.91849
 209.53641 210.67333 210.89425 211.11417 211.04309 210.74001 210.36493 209.98685
 209.59577 209.29769 209.09760 208.95352 208.87344 209.19636 209.57428 209.95520
 210.74012 211.91004 213.15196 214.92688 216.84680 218.88171 220.96863 223.04355
 225.09547 227.17139 229.26031 231.35823 233.47915 235.64307 237.89099 240.25291
 242.86583 245.10874 247.10266 248.85958 250.26850 251.38342 252.19734 252.50526
 252.53418 252.30010 251.65202 250.59194 249.18986 247.34277 245.24369 243.06861
 240.85153 238.64745 236.45937 234.29029 232.14221 230.00113 228.01905 226.16797
 224.44289 222.90680 221.52872 220.29264 219.16656 218.11848 217.21440 216.34732
 215.58124 214.75316 213.84308 213.19900 212.64091 213.74677 216.35945 218.92403
 220.84651 222.57211 224.11607 225.46732 226.52060 227.11508 227.05074 226.25975
 225.96350 227.77762 231.63133 236.21353 240.89299 245.44669 249.71684 253.62309
 257.13843 260.37311 263.40228 266.21442 268.53107 270.42917 272.04028 273.85474
 275.85297 277.64838 279.21103 280.58746 281.78369 282.84521 283.81769 284.70526
 285.51257 286.24789 286.89377 287.82779
 366.78100 356.32767 345.75234 334.61101 323.00668 311.19334 299.05601 286.85168
 274.55635 262.44602 250.44769 239.74136 229.85603 220.95269 213.12736 206.12203
 199.94870 194.87937 191.45404 189.48871 188.51838 188.57505 189.40271 190.70338
 192.42105 194.50872 196.76439 199.11606 201.55373 204.02640 206.10706 207.94173
 209.56040 210.69807 210.91974 211.14041 211.07008 210.76775 210.39341 210.01608
 209.62575 209.32842 209.12909 208.98576 208.90643 209.23010 209.60877 209.99043
 210.77610 211.94677 213.18944 214.96511 216.88578 218.92145 221.00912 223.08478
 225.13745 227.21412 229.30379 231.40246 233.52413 235.68880 237.93747 240.30014
 242.91380 245.15747 247.15214 248.90981 250.31948 251.43515 252.24982 252.55849
 252.58815 252.35482 251.70749 250.64816 249.24683 247.40050 245.30217 243.12784
 240.91151 238.70817 236.52084 234.35251 232.20518 230.06485 228.08352 226.23319
 224.50886 222.97352 221.59619 220.36086 219.23553 218.18820 217.28487 216.41854
 215.65321 214.82587 213.91654 213.27321 212.71588 213.79950 216.35965 218.94917
 220.92842 222.64352 224.15370 225.48386 226.57391 227.19153 227.06125 226.16560
 225.83342 227.70444 231.61012 236.19986 240.86899 245.41388 249.68048 253.58302
 257.08847 260.31140 263.33524 266.15805 268.47818 270.36880 271.93710 273.79446
 275.80905 277.60043 279.15891 280.53275 281.72702 282.78824 283.76016 284.64890
 285.45566 286.19119 286.83844 287.76718
 366.78100 356.32841 345.75382 334.61324 323.00965 311.19706 299.06047 286.85688
 274.56229 262.45271 250.45512 239.74953 229.86494 220.96235 213.13776 206.13318
 199.96059 194.89200 191.46741 189.50282 188.53324 188.59065 189.41906 190.72047
 192.43888 194.52729 196.78371 199.13612 201.57453 204.04794 206.12935 207.96476
 209.58418 210.72259 210.94500 211.16641 211.09682 210.79524 210.42165 210.04506
 209.65547 209.35888 209.16029 209.01771 208.93912 209.26353 209.64294 210.02535
 210.81176 211.98318 213.22659 215.00300 216.92441 218.96082 221.04924 223.12565
 225.17906 227.25647 229.34688 231.44629 233.56871 235.73412 237.98353 240.34694
 242.96135 245.20576 247.20118 248.95959 250.37000 251.48641 252.30182 252.61124
 252.64165 252.40906 251.76247 250.70388 249.30329 247.45771 245.36012 243.18653
 240.97094 238.76835 236.58176 234.41418 232.26759 230.12800 228.14741 226.29782
 224.57424 223.03965 221.66306 220.42847 219.30388 218.25729 217.35471 216.48912
 215.72453 214.89794 213.98935 213.34676 212.79018 213.85109 216.35764 218.96692
 221.01659 222.70839 224.18422 225.49651 226.61415 227.26942 227.08588 226.08508
 225.71468 227.63966 231.59116 236.18913 240.84634 245.37762 249.63658 253.53412
 257.02933 260.24023 263.25983 266.09354 268.41885 270.30481 271.92175 273.88797
 275.76132 277.53210 279.09183 280.46545 281.66049 282.72260 283.69482 284.58331
 285.39310 286.12860 286.77844 287.70334
 366.78100 356.32918 345.75537 334.61555 323.01274 311.20092 299.06511 286.86229
 274.56848 262.45966 250.46285 239.75803 229.87422 220.97240 213.14859 206.14477
 199.97296 194.90514 191.48133 189.51751 188.54870 188.60688 189.43607 190.73825
 192.45744 194.54662 196.80381 199.15699 201.59618 204.07036 206.15255 207.98873
 209.60892 210.74810 210.97129 211.19347 211.12466 210.82384 210.45103 210.07521
 209.68640 209.39058 209.19277 209.05095 208.97314 209.29832 209.67851 210.06169
 210.84888 212.02106 213.26525 215.04243 216.96462 219.00180 221.09099 223.16817
 225.22236 227.30054 229.39173 231.49191 233.61510 235.78128 238.03147 240.39565
 243.01084 245.25602 247.25221 249.01139 250.42258 251.53976 252.35594 252.66613
 252.69731 252.46550 251.81968 250.76187 249.36205 247.51724 245.42042 243.24761
 241.03279 238.83098 236.64516 234.47835 232.33253 230.19372 228.21390 226.36509
 224.64227 223.10846 221.73264 220.49883 219.37501 218.32920 217.42738 216.56257
 215.79875 214.97294 214.06512 213.42331 212.86749 213.90485 216.35573 218.98703
 221.10229 222.77888 224.19749 225.49481 226.65334 227.35370 227.11852 226.02003
 225.61087 227.57950 231.57060 236.17934 240.82487 245.33899 249.58917 253.47966
 256.96384 260.16046 263.17490 266.01752 268.34827 270.23752 271.94122 273.92947
 275.69174 277.45020 279.01367 280.39014 281.58572 282.64822 283.62183 284.51089
 285.32062 286.05942 286.70694 287.63577
 366.78100 356.33012 345.75724 334.61835 323.01647 311.20559 299.07071 286.86882
 274.57594 262.46806 250.47218 239.76830 229.88541 220.98453 213.16165 206.15877
 199.98789 194.92100 191.49812 189.53524 188.56736 188.62647 189.45659 190.75971
 192.47983 194.56995 196.82806 199.18218 201.62230 204.09742 206.18054 208.01765
 209.63877 210.77889 211.00301 211.22612 211.15824 210.85836 210.48648 210.11160
 209.72371 209.42883 209.23195 209.09107 209.01419 209.34030 209.72142 210.10554
 210.89366 212.06677 213.31189 215.09001 217.01313 219.05125 221.14136 223.21948
 225.27460 227.35372 229.44584 231.54695 233.67107 235.83819 238.08931 240.45442
 243.07054 245.31666 247.31378 249.07390 250.48601 251.60413 252.42125 252.73237
 252.76449 252.53360 251.88872 250.83184 249.43296 247.58907 245.49319 243.32131
 241.10743 238.90655 236.72166 234.55578 232.41090 230.27302 228.29414 226.44625
 224.72437 223.19149 221.81661 220.58372 219.46084 218.41596 217.51508 216.65120
 215.88831 215.06343 214.15655 213.51567 212.96078 213.96625 216.34181 219.01956
 221.18848 222.82297 224.22142 225.49352 226.67201 227.43944 227.16621 225.95953
 225.50679 227.52077 231.54982 236.17242 240.80667 245.30225 249.54297 253.42578
 256.89975 260.08392 263.09457 265.95245 268.29913 270.19421 271.89481 273.88000
 275.61584 277.36990 278.93274 280.30911 281.50491 282.56772 283.54218 284.43250
 285.24371 285.98203 286.63489 287.55533
 366.78100 356.33081 345.75863 334.62044 323.01926 311.20907 299.07488 286.87370
 274.58151 262.47433 250.47914 239.77595 229.89377 220.99358 213.17140 206.16921
 199.99902 194.93284 191.51065 189.54847 188.58128 188.64109 189.47191 190.77572
 192.49653 194.58735 196.84616 199.20098 201.64179 204.11760 206.20142 208.03923
 209.66105 210.80186 211.02667 211.25049 211.18330 210.88412 210.51293 210.13874
 209.75156 209.45737 209.26119 209.12100 209.04481 209.37163 209.75344 210.13826
 210.92707 212.10088 213.34670 215.12551 217.04933 219.08814 221.17895 223.25777
 225.31358 227.39340 229.48621 231.58802 233.71284 235.88065 238.13247 240.49828
 243.11509 245.36191 247.35972 249.12053 250.53335 251.65216 252.46998 252.78179
 252.81460 252.58442 251.94023 250.88405 249.48586 247.64267 245.54749 243.37630
 241.16312 238.96293 236.77874 234.61356 232.46937 230.33219 228.35400 226.50681
 224.78563 223.25344 221.87926 220.64707 219.52488 218.48070 217.58051 216.71733
 215.95514 215.13095 214.22477 213.58458 213.03040 214.01460 216.33994 219.02910
 221.30434 222.86877 224.16483 225.49371 226.75365 227.54199 227.19691 225.89937
 225.41545 227.46938 231.53249 236.17186 240.79428 245.26878 249.49812 253.37523
 256.84067 260.01236 263.01624 265.88770 268.24591 270.13803 271.79919 273.81204
 275.54279 277.29166 278.85150 280.22604 281.42111 282.48401 283.45743 284.34818
 285.15939 285.89847 286.55002 287.47086
 366.78100 356.33134 345.75967 334.62201 323.02135 311.21169 299.07802 286.87736
 274.58570 262.47904 250.48437 239.78171 229.90005 221.00039 213.17872 206.17706
 200.00740 194.94174 191.52007 189.55841 188.59175 188.65209 189.48342 190.78776
 192.50910 194.60044 196.85977 199.21511 201.65645 204.13279 206.21712 208.05546
 209.67780 210.81914 211.04447 211.26881 211.20215 210.90349 210.53282 210.15916
 209.77250 209.47884 209.28317 209.14351 209.06785 209.39519 209.77752 210.16286
 210.95220 212.12654 213.37287 215.15221 217.07655 219.11589 221.20722 223.28656
 225.34290 227.42324 229.51657 231.61891 233.74425 235.91259 238.16492 240.53126
 243.14860 245.39594 247.39427 249.15561 250.56895 251.68829 252.50662 252.81896
 252.85230 252.62264 251.97897 250.92331 249.52565 247.68299 245.58832 243.41766
 241.20500 239.00534 236.82167 234.65701 232.51335 230.37669 228.39902 226.55236
 224.83170 223.30004 221.92637 220.69471 219.57305 218.52939 217.62972 216.76706
 216.00540 215.18174 214.27607 213.63641 213.08275 214.05327 216.34622 219.03534
 221.39648 222.94804 224.15024 225.49394 226.79706 227.58858 227.20262 225.86938
 225.36792 227.43408 231.51871 236.17383 240.78334 245.23370 249.45044 253.32185
 256.77847 259.93570 262.93167 265.81387 268.18707 270.09961 271.80826 273.67551
 275.47916 277.22427 278.77188 280.14078 281.33096 282.39188 283.36295 284.25314
 285.06638 285.80630 286.46103 287.38107
 366.78100 356.33198 345.76096 334.62393 323.02391 311.21489 299.08187 286.88185
 274.59082 262.48480 250.49078 239.78876 229.90774 221.00871 213.18769 206.18667
 200.01765 194.95263 191.53160 189.57058 188.60456 188.66554 189.49752 190.80250
 192.52447 194.61645 196.87643 199.23241 201.67439 204.15136 206.23634 208.07532
 209.69830 210.84028 211.06625 211.29123 211.22521 210.92719 210.55717 210.18414
 209.79812 209.50510 209.31008 209.17106 209.09603 209.42401 209.80699 210.19297
 210.98295 212.15792 213.40490 215.18488 217.10986 219.14984 221.24181 223.32179
 225.37877 227.45975 229.55373 231.65670 233.78268 235.95166 238.20464 240.57162
 243.18960 245.43757 247.43655 249.19853 250.61251 251.73249 252.55146 252.86444
 252.89842 252.66940 252.02638 250.97135 249.57433 247.73231 245.63829 243.46827
 241.25624 239.05722 236.87420 234.71018 232.56716 230.43113 228.45411 226.60809
 224.88807 223.35705 221.98402 220.75300 219.63198 218.58896 217.68994 216.82791
 216.06689 215.24387 214.33885 213.69983 213.14680 214.09691 216.34161 219.06271
 221.46808 223.01706 224.16563 225.49220 226.80074 227.59647 227.21107 225.88095
 225.36165 227.40944 231.50410 236.17528 240.77203 245.19833 249.40396 253.27266
 256.72043 259.86108 262.84875 265.74289 268.13434 270.06879 271.82565 273.46716
 275.42502 277.12784 278.66028 280.02771 281.21704 282.27780 283.24973 284.13977
 284.95300 285.69763 286.35434 287.26855
 366.78100 356.33267 345.76235 334.62602 323.02670 311.21837 299.08604 286.88672
 274.59639 262.49107 250.49774 239.79642 229.91609 221.01776 213.19744 206.19711
 200.02879 194.96446 191.54413 189.58381 188.61848 188.68016 189.51283 190.81851
 192.54118 194.63385 196.89453 199.25120 201.69388 204.17155 206.25722 208.09690
 209.72057 210.86325 211.08992 211.31560 211.25027 210.95294 210.58362 210.21129
 209.82597 209.53364 209.33931 209.20099 209.12666 209.45534 209.83901 210.22569
 211.01636 212.19203 213.43971 215.22038 217.14606 219.18673 221.27940 223.36008
 225.41775 227.49943 229.59410 231.69778 233.82445 235.99412 238.24780 240.61547
 243.23415 245.48282 247.48249 249.24517 250.65984 251.78052 252.60019 252.91386
 252.94854 252.72021 252.07789 251.02356 249.62724 247.78591 245.69258 243.52326
 241.31193 239.11361 236.93128 234.76795 232.62563 230.49030 228.51398 226.66865
 224.94933 223.41900 222.04667 220.81635 219.69602 218.65370 217.75537 216.89404
 216.13372 215.31139 214.40707 213.76874 213.21642 214.14276 216.33138 219.09695
 221.54286 223.07298 224.17854 225.47804 226.78848 227.59511 227.22491 225.91252
 225.37511 227.38838 231.48657 236.17535 240.76239 245.16768 249.36423 253.23061
 256.66907 259.79318 262.76938 265.66898 268.06696 270.00232 271.78470 273.51111
 275.29758 277.00604 278.54474 279.91245 281.10129 282.16211 283.13470 284.02496
 284.83899 285.58188 286.23846 287.14856
 366.78100 356.33329 345.76359 334.62788 323.02918 311.22147 299.08976 286.89106
 274.60135 262.49665 250.50394 239.80324 229.92353 221.02582 213.20612 206.20641
 200.03871 194.97500 191.55529 189.59559 188.63088 188.69318 189.52647 190.83276
 192.55606 194.64935 196.91065 199.26794 201.71124 204.18953 206.27582 208.11612
 209.74041 210.88371 211.11100 211.33729 211.27259 210.97588 210.60718 210.23547
 209.85076 209.55906 209.36535 209.22765 209.15394 209.48324 209.86753 210.25482
 211.04612 212.22241 213.47071 215.25200 217.17829 219.21959 221.31288 223.39418
 225.45247 227.53476 229.63006 231.73435 233.86165 236.03194 238.28624 240.65453
 243.27382 245.52312 247.52341 249.28671 250.70200 251.82329 252.64359 252.95788
 252.99318 252.76547 252.12376 251.07006 249.67435 247.83365 245.74094 243.57224
 241.36153 239.16382 236.98212 234.81941 232.67771 230.54300 228.56729 226.72259
 225.00388 223.47418 222.10247 220.87276 219.75306 218.71135 217.81365 216.95294
 216.19324 215.37153 214.46782 213.83012 213.27841 214.18457 216.32549 219.12440
 221.62271 223.12680 224.18349 225.45073 226.77066 227.59279 227.23546 225.95161
 225.40305 227.37170 231.46724 236.17557 240.75681 245.14383 249.33223 253.19655
 256.62759 259.73438 262.69788 265.60217 268.00882 269.94620 271.73367 273.47665
 275.20590 276.90259 278.43887 279.80417 280.99396 282.05310 283.02505 283.91412
 284.72784 285.46982 286.12662 287.02985
 366.78100 356.33383 345.76466 334.62950 323.03133 311.22416 299.09299 286.89482
 274.60565 262.50149 250.50932 239.80915 229.92998 221.03281 213.21365 206.21448
 200.04731 194.98414 191.56497 189.60580 188.64164 188.70447 189.53830 190.84513
 192.56896 194.66280 196.92463 199.28246 201.72629 204.20512 206.29196 208.13279
 209.75762 210.90145 211.12928 211.35611 211.29195 210.99578 210.62761 210.25644
 209.87227 209.58111 209.38794 209.25077 209.17760 209.50743 209.89226 210.28010
 211.07193 212.24876 213.49759 215.27942 217.20626 219.24809 221.34192 223.42375
 225.48258 227.56541 229.66125 231.76608 233.89391 236.06474 238.31957 240.68841
 243.30824 245.55807 247.55890 249.32273 250.73857 251.86040 252.68123 252.99606
 253.03189 252.80472 252.16356 251.11039 249.71522 247.87505 245.78288 243.61472
 241.40455 239.20738 237.02621 234.86404 232.72287 230.58871 228.61354 226.76937
 225.05120 223.52203 222.15087 220.92170 219.80253 218.76136 217.86419 217.00402
 216.24486 215.42369 214.52052 213.88335 213.33218 214.22171 216.32333 219.14571
 221.70187 223.18425 224.18765 225.41751 226.74437 227.58093 227.23434 225.99521
 225.44852 227.36440 231.44974 236.17818 240.75719 245.12784 249.30774 253.16925
 256.59317 259.68369 262.63275 265.54031 267.95773 269.90387 271.68295 273.39880
 275.13272 276.80667 278.33536 279.69992 280.88788 281.94482 282.91638 283.80502
 284.61633 285.35614 286.01080 286.90891
 366.78100 356.33433 345.76565 334.63098 323.03331 311.22664 299.09596 286.89829
 274.60962 262.50594 250.51427 239.81460 229.93593 221.03925 213.22058 206.22191
 200.05523 194.99256 191.57389 189.61522 188.65154 188.71487 189.54920 190.85652
 192.58085 194.67518 196.93751 199.29583 201.74016 204.21949 206.30681 208.14814
 209.77347 210.91780 211.14612 211.37345 211.30978 211.01410 210.64643 210.27576
 209.89209 209.60141 209.40874 209.27207 209.19939 209.52972 209.91505 210.30338
 211.09570 212.27303 213.52236 215.30468 217.23201 219.27434 221.36867 223.45099
 225.51032 227.59365 229.68997 231.79530 233.92363 236.09496 238.35028 240.71961
 243.33994 245.59026 247.59159 249.35592 250.77225 251.89457 252.71590 253.03123
 253.06755 252.84088 252.20021 251.14754 249.75286 247.91319 245.82152 243.65384
 241.44417 239.24750 237.06683 234.90515 232.76448 230.63081 228.65613 226.81246
 225.09479 223.56612 222.19544 220.96677 219.84810 218.80742 217.91075 217.05108
 216.29241 215.47173 214.56906 213.93239 213.38171 214.25624 216.32242 219.16414
 221.77673 223.24701 224.19812 225.38637 226.70667 227.55034 227.21715 226.03818
 225.50742 227.36804 231.43604 236.18422 240.76399 245.11940 249.29047 253.15060
 256.56900 259.64285 262.57498 265.48123 267.90616 269.85699 271.63165 273.34106
 275.05734 276.70624 278.22574 279.58847 280.77478 281.83112 282.79962 283.68698
 284.49466 285.22968 285.88510 286.77124
 366.78100 356.33478 345.76655 334.63233 323.03511 311.22889 299.09866 286.90144
 274.61322 262.51000 250.51877 239.81955 229.94133 221.04510 213.22688 206.22866
 200.06244 195.00021 191.58199 189.62377 188.66055 188.72432 189.55910 190.86688
 192.59165 194.68643 196.94921 199.30799 201.75276 204.23254 206.32032 208.16210
 209.78787 210.93265 211.16143 211.38920 211.32598 211.03076 210.66354 210.29331
 209.91009 209.61987 209.42765 209.29142 209.21920 209.54998 209.93575 210.32453
 211.11731 212.29509 213.54486 215.32764 217.25542 219.29820 221.39297 223.47575
 225.53553 227.61930 229.71608 231.82186 233.95064 236.12241 238.37819 240.74797
 243.36875 245.61952 247.62130 249.38608 250.80285 251.92563 252.74741 253.06319
 253.09996 252.87374 252.23352 251.18130 249.78707 247.94785 245.85663 243.68940
 241.48018 239.28396 237.10374 234.94251 232.80229 230.66907 228.69485 226.85162
 225.13440 223.60618 222.23595 221.00773 219.88951 218.84929 217.95306 217.09384
 216.33562 215.51540 214.61317 213.97695 213.42673 214.28900 216.32622 219.18047
 221.84270 223.31412 224.22035 225.36456 226.66064 227.49695 227.18178 226.07097
 225.56625 227.38185 231.42995 236.19363 240.77733 245.12009 249.28273 253.14221
 256.55511 259.61298 262.52704 265.42731 267.85425 269.80249 271.57077 273.27911
 274.97806 276.61328 278.12872 279.49060 280.67523 281.73004 282.69971 283.58517
 284.39444 285.13611 285.79260 286.67993
 366.78100 356.33521 345.76743 334.63364 323.03686 311.23107 299.10128 286.90450
 274.61671 262.51393 250.52314 239.82436 229.94657 221.05078 213.23300 206.23521
 200.06943 195.00764 191.58985 189.63207 188.66928 188.73350 189.56871 190.87693
 192.60214 194.69735 196.96057 199.31978 201.76500 204.24521 206.33342 208.17564
 209.80185 210.94707 211.17628 211.40449 211.34171 211.04692 210.68014 210.31035
 209.92757 209.63778 209.44599 209.31021 209.23842 209.56964 209.95585 210.34506
 211.13828 212.31649 213.56671 215.34992 217.27813 219.32135 221.41656 223.49978
 225.55999 227.64421 229.74142 231.84763 233.97685 236.14906 238.40528 240.77549
 243.39670 245.64792 247.65013 249.41535 250.83256 251.95578 252.77799 253.09420
 253.13142 252.90563 252.26585 251.21406 249.82027 247.98149 245.89070 243.72392
 241.51513 239.31934 237.13956 234.97877 232.83899 230.70620 228.73242 226.88963
 225.17284 223.64506 222.27527 221.04749 219.92970 218.88991 217.99413 217.13534
 216.37756 215.55777 214.65598 214.02020 213.47041 214.32121 216.33133 219.19615
 221.90495 223.38306 224.25053 225.34959 226.60638 227.42169 227.12750 226.09123
 225.62314 227.40263 231.43010 236.20879 240.79910 245.13208 249.28741 253.14633
 256.55475 259.59442 262.48596 265.37430 267.79544 269.73730 271.50061 273.20767
 274.89990 276.52637 278.03680 279.39700 280.58121 281.63434 282.59906 283.48370
 284.29834 285.04465 285.70081 286.56641
 366.78100 356.33581 345.76862 334.63544 323.03925 311.23406 299.10487 286.90869
 274.62150 262.51931 250.52912 239.83094 229.95375 221.05856 213.24137 206.24418
 200.07900 195.01781 191.60062 189.64343 188.68125 188.74606 189.58187 190.89068
 192.61649 194.71231 196.97612 199.33593 201.78174 204.26256 206.35137 208.19418
 209.82099 210.96681 211.19662 211.42543 211.36324 211.06905 210.70287 210.33368
 209.95149 209.66230 209.47112 209.33593 209.26474 209.59655 209.98336 210.37318
 211.16699 212.34580 213.59661 215.38043 217.30924 219.35305 221.44886 223.53268
 225.59349 227.67830 229.77611 231.88292 234.01274 236.18555 238.44236 240.81317
 243.43499 245.68680 247.68961 249.45542 250.87323 251.99705 252.81986 253.13667
 253.17448 252.94930 252.31011 251.25892 249.86573 248.02755 245.93736 243.77117
 241.56298 239.36779 237.18861 235.02842 232.88923 230.75704 228.78386 226.94167
 225.22548 223.69829 222.32910 221.10192 219.98473 218.94554 218.05035 217.19217
 216.43498 215.61579 214.71460 214.07942 213.53023 214.36418 216.33446 219.19379
 221.97331 223.47148 224.29289 225.32896 226.52220 227.30257 227.05959 226.10637
 225.67888 227.44174 231.44154 236.22301 240.82529 245.15616 249.30394 253.15918
 256.56076 259.58792 262.46017 265.32657 267.73633 269.66870 271.41986 273.13226
 274.81842 276.42969 277.92642 279.27737 280.45816 281.50668 282.46411 283.34601
 284.17032 284.94009 285.57245 286.43167
 366.78100 356.33678 345.77057 334.63835 323.04313 311.23891 299.11070 286.91548
 274.62926 262.52804 250.53883 239.84161 229.96539 221.07118 213.25496 206.25874
 200.09452 195.03431 191.61809 189.66187 188.70065 188.76644 189.60322 190.91300
 192.63979 194.73657 197.00135 199.36213 201.80892 204.29070 206.38048 208.22426
 209.85205 210.99883 211.22961 211.45940 211.39818 211.10496 210.73974 210.37153
 209.99031 209.70209 209.51187 209.37766 209.30744 209.64022 210.02801 210.41879
 211.21357 212.39335 213.64514 215.42992 217.35970 219.40448 221.50127 223.58605
 225.64783 227.73362 229.83240 231.94018 234.07096 236.24475 238.50253 240.87431
 243.49710 245.74988 247.75366 249.52044 250.93923 252.06401 252.88779 253.20557
 253.24436 253.02014 252.38192 251.33171 249.93949 248.10227 246.01305 243.84784
 241.64062 239.44640 237.26818 235.10897 232.97075 230.83953 228.86732 227.02610
 225.31088 223.78466 222.41645 221.19023 220.07401 219.03579 218.14158 217.28436
 216.52814 215.70993 214.80971 214.17549 213.62727 214.42850 216.32149 219.16637
 222.05641 223.57405 224.33493 225.32912 226.46812 227.17838 226.91086 226.04353
 225.70757 227.49275 231.48297 236.27515 240.89961 245.23067 249.36818 253.22559
 256.62949 259.61841 262.42709 265.26743 267.65109 269.54715 271.29236 272.98746
 274.70239 276.33029 277.83627 279.19644 280.38037 281.43594 282.42010 283.32437
 284.14093 284.85071 285.47595 286.32550
 366.78100 356.33755 345.77210 334.64065 323.04620 311.24275 299.11530 286.92085
 274.63540 262.53496 250.54651 239.85006 229.97461 221.08116 213.26571 206.27026
 200.10681 195.04736 191.63191 189.67646 188.71601 188.78256 189.62011 190.93066
 192.65821 194.75576 197.02131 199.38287 201.83042 204.31297 206.40352 208.24807
 209.87662 211.02417 211.25572 211.48627 211.42582 211.13337 210.76892 210.40147
 210.02102 209.73357 209.54412 209.41067 209.34122 209.67478 210.06333 210.45488
 211.25043 212.43098 213.68353 215.46908 217.39963 219.44518 221.54273 223.62828
 225.69083 227.77738 229.87693 231.98548 234.11703 236.29158 238.55013 240.92269
 243.54624 245.79979 247.80434 249.57189 250.99144 252.11699 252.94154 253.26009
 253.29964 253.07619 252.43874 251.38929 249.99784 248.16139 246.07294 243.90849
 241.70204 239.50860 237.33115 235.17270 233.03525 230.90480 228.93335 227.09290
 225.37845 223.85300 222.48555 221.26010 220.14465 219.10720 218.21375 217.35730
 216.60185 215.78440 214.88495 214.25151 213.70406 214.48927 216.35648 219.11371
 221.99315 223.53731 224.32094 225.31561 226.46999 227.17664 226.81018 226.07382
 225.56107 227.40309 231.43571 236.32741 240.99905 245.33109 249.46501 253.33389
 256.76834 259.75629 262.53238 265.26501 267.59906 269.47192 271.18744 272.90244
 274.60010 276.22662 277.69855 279.02826 280.20364 281.25177 282.22281 283.10382
 283.85587 284.50247 285.06729 285.78714
 366.78100 356.33721 345.77142 334.63962 323.04483 311.24104 299.11325 286.91845
 274.63266 262.53187 250.54308 239.84629 229.97049 221.07670 213.26091 206.26512
 200.10133 195.04153 191.62574 189.66995 188.70916 188.77536 189.61257 190.92278
 192.64999 194.74720 197.01240 199.37361 201.82082 204.30303 206.39324 208.23744
 209.86565 211.01286 211.24407 211.47427 211.41348 211.12069 210.75590 210.38811
 210.00731 209.71952 209.52973 209.39594 209.32615 209.65935 210.04756 210.43877
 211.23398 212.41418 213.66639 215.45160 217.38181 219.42702 221.52422 223.60943
 225.67164 227.75785 229.85706 231.96526 234.09647 236.27068 238.52889 240.90109
 243.52430 245.77751 247.78172 249.54893 250.96813 252.09334 252.91755 253.23576
 253.27496 253.05117 252.41338 251.36359 249.97180 248.13500 246.04621 243.88142
 241.67463 239.48084 237.30304 235.14425 233.00646 230.87567 228.90387 227.06308
 225.34829 223.82250 222.45471 221.22891 220.11312 219.07533 218.18154 217.32475
 216.56895 215.75116 214.85137 214.21758 213.66978 214.48839 216.48250 219.12924
 221.77261 223.32953 224.25589 225.29716 226.56596 227.38907 226.89978 226.28996
 225.22391 227.19392 231.35841 236.27402 240.96028 245.33527 249.49442 253.35571
 256.80057 259.83554 262.67233 265.39282 267.69492 269.51694 271.15445 272.81693
 274.50366 276.07083 277.34482 278.64859 279.83142 280.92520 282.03314 283.06320
 283.98959 284.81458 285.53525 286.45367
 366.78100 356.33559 345.76818 334.63477 323.03836 311.23296 299.10355 286.90714
 274.61973 262.51732 250.52691 239.82850 229.95109 221.05569 213.23828 206.24087
 200.07546 195.01405 191.59664 189.63923 188.67682 188.74141 189.57701 190.88560
 192.61119 194.70678 196.97037 199.32996 201.77555 204.25614 206.34474 208.18733
 209.81392 210.95951 211.18910 211.41769 211.35528 211.06087 210.69446 210.32506
 209.94265 209.65324 209.46183 209.32642 209.25501 209.58660 209.97319 210.36279
 211.15638 212.33497 213.58556 215.36915 217.29774 219.34133 221.43692 223.52051
 225.58111 227.66570 229.76329 231.86988 233.99947 236.17206 238.42865 240.79924
 243.42084 245.67243 247.67502 249.44061 250.85820 251.98179 252.80438 253.12097
 253.15856 252.93316 252.29375 251.24234 249.84893 248.01052 245.92011 243.75370
 241.54529 239.34989 237.17048 235.01007 232.87066 230.73825 228.76484 226.92243
 225.20602 223.67861 222.30921 221.08180 219.96439 218.92498 218.02957 217.17116
 216.41375 215.59434 214.69294 214.05753 213.50812 214.40973 216.57979 219.14970
 221.76987 223.25024 224.21977 225.45746 226.68320 227.31573 226.92267 226.15784
 225.25746 227.11746 231.32036 236.25951 240.94962 245.33459 249.48053 253.32588
 256.76794 259.82901 262.68518 265.42450 267.77646 269.63959 271.22552 272.81140
 274.45734 275.96869 277.22214 278.47125 279.66440 280.74417 281.77982 282.77695
 283.67374 284.47232 285.16998 286.05902
 366.78100 356.33446 345.76592 334.63138 323.03383 311.22729 299.09675 286.89921
 274.61067 262.50713 250.51559 239.81605 229.93750 221.04096 213.22242 206.22388
 200.05734 194.99480 191.57626 189.61771 188.65417 188.71763 189.55209 190.85955
 192.58401 194.67847 196.94093 199.29938 201.74384 204.22330 206.31076 208.15222
 209.77768 210.92214 211.15059 211.37805 211.31451 211.01897 210.65143 210.28089
 209.89735 209.60681 209.41426 209.27772 209.20518 209.53564 209.92110 210.30956
 211.10202 212.27947 213.52893 215.31139 217.23885 219.28131 221.37577 223.45823
 225.51769 227.60114 229.69760 231.80306 233.93152 236.10298 238.35844 240.72790
 243.34835 245.59881 247.60027 249.36473 250.78119 251.90365 252.72511 253.04057
 253.07702 252.85048 252.20994 251.15740 249.76286 247.92332 245.83178 243.66423
 241.45469 239.25815 237.07761 234.91607 232.77553 230.64199 228.66745 226.82390
 225.10636 223.57782 222.20728 220.97874 219.86020 218.81966 217.92311 217.06357
 216.30503 215.48449 214.58195 213.94541 213.39487 214.35585 216.63823 219.21127
 221.75934 223.39636 224.44914 225.56523 226.51245 227.00435 226.88545 226.00819
 225.56100 227.38173 231.38347 236.22293 240.96056 245.33873 249.46672 253.29539
 256.71912 259.76630 262.60068 265.29144 267.65225 269.57880 271.25641 272.85788
 274.43076 275.92200 277.24326 278.46414 279.62125 280.67163 281.62198 282.48993
 283.31540 284.05917 284.70892 285.53699
 366.78100 356.33585 345.76870 334.63555 323.03940 311.23425 299.10510 286.90896
 274.62181 262.51966 250.52951 239.83136 229.95421 221.05906 213.24191 206.24476
 200.07961 195.01846 191.60131 189.64416 188.68201 188.74687 189.58272 190.89157
 192.61742 194.71327 196.97712 199.33697 201.78282 204.26367 206.35252 208.19537
 209.82222 210.96807 211.19792 211.42678 211.36463 211.07048 210.70433 210.33518
 209.95303 209.66388 209.47273 209.33758 209.26643 209.59828 209.98513 210.37498
 211.16883 212.34769 213.59854 215.38239 217.31124 219.35509 221.45094 223.53479
 225.59564 227.68049 229.77834 231.88519 234.01504 236.18789 238.44475 240.81560
 243.43745 245.68930 247.69215 249.45800 250.87585 251.99970 252.82255 253.13940
 253.17725 252.95210 252.31295 251.26180 249.86866 248.03051 245.94036 243.77421
 241.56606 239.37091 237.19176 235.03161 232.89246 230.76031 228.78716 226.94501
 225.22886 223.70171 222.33257 221.10542 219.98827 218.94912 218.05397 217.19582
 216.43867 215.61952 214.71837 214.08322 213.53407 214.43724 216.58594 219.28331
 221.72174 223.53198 224.58597 225.39407 226.24507 226.85756 226.98996 226.12988
 225.59109 227.36739 231.37607 236.19682 241.02086 245.38583 249.47485 253.27611
 256.65750 259.67929 262.54001 265.24542 267.59283 269.50626 271.16782 272.74146
 274.30597 275.78232 277.03326 278.07980 279.17276 280.17404 281.09515 281.98166
 282.83728 283.60760 284.28055 285.13815
 366.78100 356.33866 345.77433 334.64399 323.05065 311.24832 299.12198 286.92864
 274.64431 262.54497 250.55763 239.86230 229.98796 221.09562 213.28129 206.28695
 200.12461 195.06628 191.65194 189.69760 188.73827 188.80593 189.64459 190.95626
 192.68492 194.78358 197.05025 199.41291 201.86157 204.34524 206.43690 208.28256
 209.91223 211.06089 211.29355 211.52522 211.46588 211.17455 210.81121 210.44487
 210.06554 209.77920 209.59086 209.45853 209.39019 209.72485 210.11452 210.50718
 211.30384 212.48551 213.73917 215.52583 217.45750 219.50416 221.60282 223.68949
 225.75315 227.84081 229.94148 232.05114 234.18380 236.35947 238.61913 240.99279
 243.61746 245.87212 247.87778 249.64645 251.06711 252.19377 253.01944 253.33910
 253.37976 253.15743 252.52109 251.47275 250.08242 248.24708 246.15974 243.99641
 241.79107 239.59873 237.42240 235.26506 233.12872 230.99939 229.02905 227.18971
 225.47638 223.95204 222.58570 221.36137 220.24703 219.21069 218.31836 217.46302
 216.70868 215.89235 214.99401 214.36167 213.81534 214.60083 216.55478 219.31618
 221.70558 223.34805 224.59853 225.47931 226.32823 226.86461 226.87500 226.37433
 225.74214 227.53311 231.38049 236.13441 240.91327 245.34325 249.46790 253.23976
 256.59863 259.60376 262.44238 265.16199 267.51834 269.45959 271.12683 272.67908
 274.18213 275.56839 276.74796 277.92630 279.14767 280.33221 281.43152 282.42740
 283.32309 284.12070 284.81750 285.70547
 366.78100 356.33919 345.77539 334.64558 323.05278 311.25097 299.12517 286.93236
 274.64856 262.54975 250.56295 239.86814 229.99433 221.10253 213.28872 206.29492
 200.13311 195.07531 191.66150 189.70770 188.74889 188.81709 189.65628 190.96847
 192.69767 194.79686 197.06406 199.42725 201.87645 204.36064 206.45284 208.29903
 209.92923 211.07842 211.31161 211.54381 211.48500 211.19420 210.83139 210.46559
 210.08678 209.80098 209.61317 209.48137 209.41356 209.74875 210.13895 210.53214
 211.32934 212.51153 213.76573 215.55292 217.48512 219.53231 221.63151 223.71870
 225.78289 227.87109 229.97228 232.08248 234.21567 236.39187 238.65206 241.02626
 243.65145 245.90665 247.91284 249.68203 251.10323 252.23042 253.05662 253.37681
 253.41801 253.19620 252.56040 251.51259 250.12279 248.28798 246.20117 244.03837
 241.83356 239.64176 237.46595 235.30915 233.17334 231.04454 229.07473 227.23592
 225.52312 223.99931 222.63351 221.40970 220.29590 219.26009 218.36829 217.51348
 216.75968 215.94387 215.04606 214.41426 213.86845 214.65889 216.69449 219.26352
 221.74138 223.53612 224.92322 225.87811 226.45636 226.57401 226.68779 225.85500
 225.81853 227.78360 231.53908 236.21719 240.95540 245.42485 249.55569 253.30495
 256.62512 259.60620 262.41077 265.03247 267.33755 269.31311 271.11749 272.76147
 274.05804 275.56720 277.27371 278.78171 280.08676 281.24142 282.29483 283.24918
 284.10751 284.87183 285.53955 286.39047
 366.78100 356.33839 345.77378 334.64317 323.04957 311.24696 299.12035 286.92674
 274.64213 262.54252 250.55492 239.85931 229.98470 221.09209 213.27748 206.28287
 200.12027 195.06166 191.64705 189.69244 188.73283 188.80022 189.63862 190.95001
 192.67840 194.77679 197.04318 199.40557 201.85397 204.33736 206.42875 208.27414
 209.90353 211.05192 211.28432 211.51571 211.45610 211.16449 210.80088 210.43427
 210.05466 209.76806 209.57945 209.44684 209.37823 209.71262 210.10201 210.49441
 211.29080 212.47219 213.72558 215.51197 217.44336 219.48976 221.58815 223.67454
 225.73793 227.82532 229.92571 232.03511 234.16750 236.34289 238.60228 240.97567
 243.60006 245.85446 247.85985 249.62824 251.04863 252.17502 253.00041 253.31981
 253.36020 253.13759 252.50098 251.45237 250.06176 248.22615 246.13855 243.97494
 241.76933 239.57672 237.40011 235.24250 233.10590 230.97629 229.00568 227.16607
 225.45246 223.92785 222.56125 221.33664 220.22203 219.18542 218.29281 217.43720
 216.68260 215.86599 214.96738 214.33477 213.78816 214.64441 216.81859 219.24480
 221.66501 223.62595 225.07707 226.02708 226.51140 226.38745 226.96335 225.62498
 225.67139 227.77484 231.66058 236.32983 241.08124 245.59868 249.76457 253.53479
 256.87329 259.84241 262.57629 265.09198 267.30646 269.14005 270.59586 272.59006
 274.73770 277.02332 279.00116 280.73782 282.24078 283.57053 284.78369 285.88275
 286.87122 287.75146 288.52042 289.50037
 366.78100 356.33888 345.77476 334.64464 323.05152 311.24940 299.12327 286.93015
 274.64603 262.54691 250.55979 239.86467 229.99055 221.09843 213.28431 206.29019
 200.12807 195.06995 191.65582 189.70170 188.74258 188.81046 189.64934 190.96122
 192.69010 194.78898 197.05586 199.41874 201.86762 204.35150 206.44337 208.28925
 209.91913 211.06801 211.30089 211.53277 211.47365 211.18253 210.81941 210.45329
 210.07417 209.78804 209.59992 209.46780 209.39968 209.73456 210.12444 210.51732
 211.31420 212.49608 213.74996 215.53684 217.46872 219.51559 221.61447 223.70135
 225.76523 227.85311 229.95399 232.06387 234.19675 236.37263 238.63251 241.00639
 243.63127 245.88614 247.89202 249.66090 251.08178 252.20866 253.03454 253.35442
 253.39530 253.17318 252.53706 251.48894 250.09881 248.26369 246.17657 244.01345
 241.80833 239.61621 237.44009 235.28297 233.14685 231.01773 229.04761 227.20849
 225.49536 223.97124 222.60512 221.38100 220.26688 219.23076 218.33864 217.48352
 216.72940 215.91328 215.01516 214.38303 213.83691 214.67790 216.83856 219.26949
 221.65994 223.62321 225.00871 225.88583 226.40999 226.59535 227.12575 225.65894
 225.45609 227.51390 231.55794 236.31364 241.08315 245.61119 249.79471 253.59154
 256.96069 259.98334 262.79315 265.40356 267.62268 269.26868 270.72195 272.89487
 275.58786 278.05756 280.19470 282.07126 283.69525 285.13208 286.44296 287.63055
 288.69864 289.64978 290.48068 291.53955
 366.78100 356.33856 345.77413 334.64369 323.05025 311.24782 299.12138 286.92795
 274.64351 262.54407 250.55664 239.86120 229.98676 221.09433 213.27989 206.28546
 200.12302 195.06458 191.65015 189.69571 188.73627 188.80384 189.64240 190.95397
 192.68253 194.78109 197.04766 199.41022 201.85878 204.34235 206.43391 208.27948
 209.90904 211.05760 211.29017 211.52173 211.46229 211.17086 210.80742 210.44099
 210.06155 209.77511 209.58668 209.45424 209.38580 209.72037 210.10993 210.50250
 211.29906 212.48062 213.73419 215.52075 217.45231 219.49888 221.59744 223.68401
 225.74757 227.83513 229.93570 232.04526 234.17782 236.35339 238.61295 240.98652
 243.61108 245.86564 247.87121 249.63977 251.06033 252.18690 253.01246 253.33203
 253.37259 253.15015 252.51372 251.46528 250.07484 248.23941 246.15197 243.98854
 241.78310 239.59066 237.41423 235.25679 233.12035 230.99092 229.02048 227.18105
 225.46761 223.94317 222.57674 221.35230 220.23786 219.20143 218.30899 217.45356
 216.69912 215.88268 214.98425 214.35181 213.80537 214.67053 216.85048 219.24062
 221.65526 223.75294 225.04576 225.66719 226.07979 226.55698 226.67097 225.92198
 225.54004 227.38995 231.49577 236.24962 240.97850 245.44238 249.56674 253.31062
 256.67361 259.74695 262.64432 265.30551 267.59763 269.50171 271.12756 273.04816
 275.20468 277.28082 279.19559 280.87686 282.33188 283.61920 284.79367 285.85767
 286.81461 287.66678 288.41122 289.35992
 366.78100 356.33907 345.77514 334.64520 323.05227 311.25034 299.12441 286.93147
 274.64754 262.54861 250.56168 239.86675 229.99281 221.10088 213.28695 206.29302
 200.13108 195.07315 191.65922 189.70529 188.74635 188.81442 189.65349 190.96556
 192.69463 194.79369 197.06076 199.42383 201.87290 204.35696 206.44903 208.29510
 209.92517 211.07424 211.30730 211.53937 211.48044 211.18951 210.82657 210.46064
 210.08171 209.79578 209.60785 209.47591 209.40798 209.74305 210.13312 210.52618
 211.32325 212.50532 213.75939 215.54645 217.47852 219.52559 221.62466 223.71173
 225.77579 227.86386 229.96493 232.07500 234.20806 236.38413 238.64420 241.01827
 243.64334 245.89840 247.90447 249.67354 251.09461 252.22167 253.04774 253.36781
 253.40888 253.18694 252.55101 251.50308 250.11315 248.27822 246.19128 244.02835
 241.82342 239.63149 237.45555 235.29862 233.16269 231.03376 229.06383 227.22489
 225.51196 223.98803 222.62210 221.39816 220.28423 219.24830 218.35637 217.50144
 216.74750 215.93157 215.03364 214.40171 213.85577 214.71037 216.86018 219.23718
 221.62186 223.75766 225.17599 225.77016 225.99570 226.29962 226.34003 225.78343
 225.78381 227.67853 231.55771 236.30061 241.07214 245.55241 249.65836 253.36325
 256.64600 259.58859 262.39053 265.05313 267.39847 269.24402 270.69553 272.74088
 274.86957 276.79956 278.65405 280.28241 281.69162 282.93842 284.07593 285.10645
 286.03326 286.85861 287.57962 288.49844
 366.78100 356.34012 345.77724 334.64836 323.05649 311.25561 299.13073 286.93885
 274.65597 262.55809 250.57221 239.87833 230.00546 221.11458 213.30170 206.30882
 200.14794 195.09106 191.67818 189.72531 188.76743 188.83655 189.67667 190.98979
 192.71991 194.82003 197.08816 199.45228 201.90240 204.38752 206.48064 208.32776
 209.95888 211.10900 211.34313 211.57625 211.51837 211.22849 210.86661 210.50173
 210.12385 209.83898 209.65210 209.52122 209.45434 209.79046 210.18158 210.57570
 211.37383 212.55695 213.81207 215.60019 217.53331 219.58143 221.68155 223.76967
 225.83480 227.92392 230.02604 232.13716 234.27128 236.44840 238.70952 241.08465
 243.71077 245.96689 247.97401 249.74413 251.16625 252.29437 253.12150 253.44262
 253.48474 253.26386 252.62898 251.58210 250.19322 248.35934 246.27347 244.11159
 241.90771 239.71683 237.54195 235.38607 233.25119 231.12332 229.15444 227.31656
 225.60468 224.08180 222.71692 221.49404 220.38116 219.34629 218.45541 217.60153
 216.84865 216.03377 215.13689 214.50601 213.96114 214.78737 216.90163 219.24501
 221.62923 223.72418 225.12122 225.88905 226.12970 226.27393 226.50023 225.51073
 225.75128 227.88272 231.75400 236.40628 241.15364 245.67058 249.80557 253.52315
 256.80731 259.72858 262.42636 264.93332 267.13156 268.94177 270.79437 273.20837
 275.77704 278.02155 279.96378 281.66922 283.14511 284.45093 285.64227 286.72156
 287.69223 288.55664 289.31177 290.27408
 366.78100 356.34037 345.77774 334.64911 323.05748 311.25685 299.13222 286.94059
 274.65795 262.56032 250.57469 239.88106 230.00843 221.11780 213.30517 206.31254
 200.15191 195.09528 191.68265 189.73002 188.77239 188.84176 189.68212 190.99549
 192.72586 194.82623 197.09460 199.45897 201.90934 204.39471 206.48808 208.33545
 209.96682 211.11719 211.35156 211.58493 211.52730 211.23766 210.87603 210.51140
 210.13377 209.84914 209.66251 209.53188 209.46525 209.80162 210.19299 210.58736
 211.38573 212.56910 213.82447 215.61284 217.54620 219.59457 221.69494 223.78331
 225.84868 227.93805 230.04042 232.15179 234.28616 236.46353 238.72490 241.10027
 243.72664 245.98301 247.99037 249.76074 251.18311 252.31148 253.13885 253.46022
 253.50259 253.28196 252.64733 251.60070 250.21207 248.37844 246.29281 244.13118
 241.92755 239.73691 237.56228 235.40665 233.27202 231.14439 229.17576 227.33813
 225.62650 224.10387 222.73924 221.51661 220.40398 219.36935 218.47872 217.62508
 216.87245 216.05782 215.16119 214.53056 213.98593 214.80919 216.92764 219.26245
 221.58505 223.62570 224.98474 225.83237 226.26672 226.45068 226.63266 225.42221
 225.49881 227.64143 231.65758 236.40269 241.19833 245.72243 249.88863 253.65935
 257.00781 259.97040 262.68387 265.17764 267.39001 269.27771 271.25287 273.96103
 276.66107 278.97543 280.97812 282.73663 284.25848 285.60492 286.83334 287.94620
 288.94708 289.83841 290.61703 291.60928
 366.78100 356.33978 345.77657 334.64735 323.05514 311.25392 299.12870 286.93649
 274.65327 262.55506 250.56884 239.87462 230.00141 221.11019 213.29698 206.30376
 200.14254 195.08533 191.67211 189.71890 188.76068 188.82946 189.66925 190.98203
 192.71182 194.81160 197.07938 199.44317 201.89295 204.37774 206.47052 208.31730
 209.94809 211.09787 211.33166 211.56444 211.50622 211.21601 210.85379 210.48858
 210.11036 209.82514 209.63793 209.50671 209.43950 209.77528 210.16606 210.55985
 211.35763 212.54042 213.79520 215.58298 217.51577 219.56355 221.66334 223.75112
 225.81590 227.90469 230.00647 232.11726 234.25104 236.42782 238.68861 241.06339
 243.68918 245.94496 247.95174 249.72153 251.14331 252.27110 253.09788 253.41866
 253.46045 253.23923 252.60402 251.55680 250.16758 248.33337 246.24715 244.08493
 241.88072 239.68950 237.51429 235.35807 233.22285 231.09464 229.12542 227.28721
 225.57499 224.05177 222.68656 221.46334 220.35013 219.31491 218.42369 217.56948
 216.81626 216.00105 215.10383 214.47261 213.92740 214.77887 216.92795 219.25278
 221.57761 223.68044 225.05695 225.68712 226.00348 226.39636 226.31721 225.66789
 225.52071 227.51068 231.57855 236.30162 241.03149 245.50438 249.63745 253.40416
 256.78305 259.85156 262.68951 265.28644 267.58655 269.63016 271.56931 273.69107
 275.86295 277.99277 279.89053 281.55695 282.99905 284.27496 285.43906 286.49362
 287.44208 288.28671 289.02454 289.96484
 366.78100 356.34002 345.77704 334.64805 323.05607 311.25509 299.13011 286.93813
 274.65514 262.55716 250.57118 239.87720 230.00422 221.11323 213.30025 206.30727
 200.14629 195.08931 191.67633 189.72334 188.76536 188.83438 189.67440 190.98742
 192.71743 194.81745 197.08547 199.44949 201.89951 204.38452 206.47754 208.32456
 209.95558 211.10560 211.33961 211.57263 211.51465 211.22467 210.86269 210.49770
 210.11972 209.83474 209.64776 209.51678 209.44979 209.78581 210.17683 210.57085
 211.36887 212.55188 213.80690 215.59492 217.52794 219.57596 221.67598 223.76399
 225.82901 227.91803 230.02005 232.13107 234.26508 236.44210 238.70312 241.07814
 243.70416 245.96017 247.96719 249.73721 251.15923 252.28725 253.11426 253.43528
 253.47730 253.25632 252.62134 251.57435 250.18537 248.35139 246.26541 244.10343
 241.89944 239.70846 237.53348 235.37750 233.24252 231.11453 229.14555 227.30757
 225.59559 224.07261 222.70763 221.48464 220.37166 219.33668 218.44570 217.59172
 216.83873 216.02375 215.12677 214.49579 213.95081 214.80031 216.92543 219.24219
 221.53056 223.63820 225.13919 225.75769 225.89653 226.12224 226.00659 225.63298
 225.83762 227.77077 231.63286 236.33653 241.09860 245.56894 249.67268 253.39363
 256.70642 259.69278 262.49823 265.08545 267.34073 269.28055 271.18549 273.31714
 275.42273 277.32187 279.09576 280.66876 282.03009 283.23450 284.33334 285.32883
 286.22415 287.02142 287.71793 288.60553
 366.78100 356.34109 345.77917 334.65126 323.06035 311.26043 299.13652 286.94561
 274.66369 262.56678 250.58187 239.88895 230.01704 221.12713 213.31521 206.32330
 200.16339 195.10748 191.69556 189.74365 188.78674 188.85682 189.69791 191.01200
 192.74308 194.84417 197.11326 199.47834 201.92943 204.41552 206.50960 208.35769
 209.98978 211.14086 211.37595 211.61004 211.55312 211.26421 210.90330 210.53938
 210.16247 209.87856 209.69264 209.56273 209.49682 209.83391 210.22599 210.62108
 211.42017 212.60425 213.86034 215.64943 217.58351 219.63260 221.73369 223.82277
 225.88886 227.97895 230.08203 232.19412 234.32921 236.50729 238.76938 241.14547
 243.77255 246.02964 248.03773 249.80881 251.23190 252.36099 253.18907 253.51116
 253.55425 253.33434 252.70042 251.65451 250.26660 248.43368 246.34877 244.18786
 241.98494 239.79503 237.62112 235.46620 233.33229 231.20538 229.23746 227.40055
 225.68964 224.16772 222.80381 221.58190 220.46998 219.43607 218.54616 217.69324
 216.94133 216.12742 215.23150 214.60159 214.05768 214.87376 216.94316 219.23633
 221.56047 223.63902 225.08913 225.74622 225.89493 226.06267 226.09311 225.48744
 225.66048 227.80180 231.71098 236.38846 241.14810 245.65953 249.81001 253.56685
 256.84473 259.76016 262.45285 264.97339 267.20218 269.13760 271.07297 273.32040
 275.51160 277.62991 279.48273 281.10962 282.51758 283.76324 284.89972 285.92929
 286.85529 287.67990 288.40024 289.31824
 366.78100 356.34093 345.77887 334.65080 323.05974 311.25967 299.13561 286.94454
 274.66247 262.56541 250.58034 239.88728 230.01521 221.12514 213.31308 206.32101
 200.16095 195.10488 191.69282 189.74075 188.78368 188.85362 189.69455 191.00849
 192.73942 194.84035 197.10929 199.47422 201.92516 204.41109 206.50503 208.35296
 209.98489 211.13583 211.37076 211.60470 211.54763 211.25857 210.89750 210.53343
 210.15637 209.87230 209.68624 209.55617 209.49010 209.82704 210.21897 210.61391
 211.41284 212.59678 213.85271 215.64164 217.57558 219.62451 221.72545 223.81438
 225.88031 227.97025 230.07318 232.18512 234.32005 236.49799 238.75992 241.13585
 243.76279 246.01972 248.02766 249.79859 251.22153 252.35046 253.17839 253.50033
 253.54326 253.32320 252.68913 251.64306 250.25500 248.42193 246.33687 244.17580
 241.97274 239.78267 237.60860 235.45354 233.31947 231.19241 229.22434 227.38727
 225.67621 224.15414 222.79008 221.56801 220.45595 219.42188 218.53181 217.67875
 216.92668 216.11262 215.21655 214.58649 214.04242 214.88322 216.99675 219.21538
 221.54286 223.65244 225.05254 225.65741 225.81616 226.02036 226.39462 225.53137
 225.70479 227.81697 231.71043 236.39510 241.16286 245.69157 249.85930 253.62709
 256.94257 259.85394 262.49619 264.98547 267.22775 269.19092 271.12317 273.55585
 275.97406 278.16736 280.06528 281.73178 283.17401 284.45001 285.61417 286.66882
 287.61737 288.46204 289.19992 290.14029
 366.78100 356.34098 345.77896 334.65093 323.05991 311.25989 299.13587 286.94485
 274.66283 262.56580 250.58078 239.88776 230.01574 221.12572 213.31370 206.32167
 200.16165 195.10563 191.69361 189.74159 188.78457 188.85454 189.69552 191.00950
 192.74048 194.84146 197.11044 199.47541 201.92639 204.41237 206.50635 208.35433
 209.98631 211.13728 211.37226 211.60624 211.54922 211.26020 210.89918 210.53515
 210.15813 209.87411 209.68809 209.55807 209.49204 209.82902 210.22100 210.61598
 211.41496 212.59894 213.85491 215.64389 217.57787 219.62685 221.72783 223.81681
 225.88278 227.97276 230.07574 232.18772 234.32270 236.50068 238.76265 241.13863
 243.76561 246.02259 248.03057 249.80155 251.22452 252.35350 253.18148 253.50346
 253.54644 253.32642 252.69239 251.64637 250.25835 248.42533 246.34031 244.17929
 241.97626 239.78624 237.61222 235.45720 233.32318 231.19615 229.22813 227.39111
 225.68009 224.15807 222.79405 221.57202 220.46000 219.42598 218.53596 217.68294
 216.93092 216.11689 215.22087 214.59085 214.04683 214.89734 217.03627 219.21432
 221.48798 223.64575 225.08086 225.66092 225.70853 225.84048 226.25285 225.67010
 225.93280 227.90163 231.68816 236.34743 241.09229 245.60863 249.78682 253.60461
 256.98370 259.94641 262.60095 265.06979 267.29938 269.25266 271.36508 273.87628
 276.54776 278.89423 280.92474 282.70764 284.25061 285.61575 286.86124 287.98953
 289.00433 289.90802 290.69745 291.70349
 366.78100 356.34168 345.78035 334.65303 323.06270 311.26338 299.14005 286.94973
 274.66840 262.57208 250.58776 239.89543 230.02411 221.13478 213.32346 206.33213
 200.17281 195.11749 191.70616 189.75484 188.79851 188.86919 189.71086 191.02554
 192.75721 194.85889 197.12857 199.49424 201.94592 204.43259 206.52727 208.37594
 210.00862 211.16030 211.39597 211.63065 211.57432 211.28600 210.92567 210.56235
 210.18602 209.90270 209.71738 209.58805 209.52273 209.86040 210.25308 210.64875
 211.44843 212.63311 213.88978 215.67946 217.61413 219.66381 221.76548 223.85516
 225.92183 228.01251 230.11619 232.22886 234.36454 236.54321 238.80589 241.18256
 243.81024 246.06792 248.07659 249.84827 251.27194 252.40162 253.23029 253.55297
 253.59664 253.37732 252.74400 251.69867 250.31135 248.47902 246.39470 244.23437
 242.03205 239.84273 237.66940 235.51508 233.38175 231.25543 229.28810 227.45178
 225.74145 224.22013 222.85681 221.63548 220.52416 219.49083 218.60151 217.74918
 216.99786 216.18454 215.28921 214.65989 214.11656 214.93590 217.03082 219.24609
 221.42838 223.57027 225.10622 225.73665 225.71933 225.69029 225.75084 225.76949
 226.20474 228.03972 231.71725 236.33881 241.05922 245.54411 249.70924 253.54399
 256.95822 259.98840 262.70667 265.22504 267.48938 269.45367 271.51501 274.00946
 276.62851 278.95712 280.97220 282.74155 284.27280 285.62753 286.86356 287.98328
 288.99036 289.88718 290.67059 291.66898
 366.78100 356.34162 345.78025 334.65287 323.06249 311.26312 299.13974 286.94937
 274.66799 262.57161 250.58724 239.89486 230.02348 221.13411 213.32273 206.33135
 200.17198 195.11660 191.70522 189.75385 188.79747 188.86810 189.70972 191.02434
 192.75597 194.85759 197.12721 199.49284 201.94446 204.43108 206.52571 208.37433
 210.00695 211.15858 211.39420 211.62883 211.57245 211.28407 210.92370 210.56032
 210.18394 209.90057 209.71519 209.58581 209.52044 209.85806 210.25068 210.64631
 211.44593 212.63056 213.88718 215.67680 217.61143 219.66105 221.76267 223.85230
 225.91892 228.00954 230.11317 232.22579 234.36142 236.54004 238.80266 241.17929
 243.80691 246.06453 248.07316 249.84478 251.26840 252.39803 253.22665 253.54927
 253.59290 253.37352 252.74015 251.69477 250.30739 248.47502 246.39064 244.23026
 242.02789 239.83851 237.66513 235.51076 233.37738 231.25100 229.28363 227.44725
 225.73688 224.21550 222.85212 221.63075 220.51937 219.48599 218.59662 217.74424
 216.99286 216.17949 215.28411 214.65474 214.11136 214.93906 217.03963 219.25040
 221.40086 223.53133 225.07260 225.67363 225.67664 225.67326 225.40439 225.62370
 226.24226 228.11337 231.77043 236.38518 241.11528 245.60109 249.75166 253.51662
 256.87149 259.90234 262.68423 265.27179 267.59616 269.59360 271.56372 273.99234
 276.33066 278.58731 280.54007 282.25476 283.73865 285.05151 286.24933 287.33444
 288.31039 289.17947 289.93869 290.90622
 366.78100 356.34163 345.78025 334.65288 323.06251 311.26313 299.13976 286.94939
 274.66801 262.57164 250.58727 239.89489 230.02352 221.13415 213.32277 206.33140
 200.17203 195.11665 191.70528 189.75391 188.79753 188.86816 189.70979 191.02441
 192.75604 194.85767 197.12729 199.49292 201.94455 204.43117 206.52580 208.37443
 210.00705 211.15868 211.39431 211.62893 211.57256 211.28419 210.92381 210.56044
 210.18407 209.90069 209.71532 209.58595 209.52057 209.85820 210.25083 210.64645
 211.44608 212.63071 213.88733 215.67696 217.61159 219.66121 221.76284 223.85247
 225.91909 228.00972 230.11335 232.22597 234.36160 236.54022 238.80285 241.17948
 243.80710 246.06473 248.07336 249.84498 251.26861 252.39824 253.22686 253.54949
 253.59312 253.37374 252.74037 251.69500 250.30762 248.47525 246.39088 244.23050
 242.02813 239.83876 237.66538 235.51101 233.37764 231.25126 229.28389 227.44752
 225.73714 224.21577 222.85240 221.63102 220.51965 219.48628 218.59690 217.74453
 216.99316 216.17978 215.28441 214.65504 214.11166 214.95158 217.07115 219.23819
 221.36113 223.53366 225.06868 225.58832 225.52679 225.45811 225.54369 225.54715
 226.26410 228.19582 231.81180 236.41267 241.15404 245.67014 249.85567 253.61829
 256.93542 259.89398 262.64352 265.23215 267.54556 269.54150 271.68835 274.14822
 276.49463 278.71732 280.64069 282.32956 283.79114 285.08426 286.26404 287.33282
 288.29407 289.15009 289.89789 290.85086
 366.78100 356.34173 345.78046 334.65319 323.06292 311.26365 299.14038 286.95011
 274.66883 262.57256 250.58829 239.89602 230.02475 221.13548 213.32421 206.33294
 200.17367 195.11840 191.70713 189.75586 188.79959 188.87032 189.71205 191.02677
 192.75850 194.86023 197.12996 199.49569 201.94742 204.43415 206.52888 208.37761
 210.01034 211.16207 211.39780 211.63253 211.57626 211.28799 210.92771 210.56444
 210.18817 209.90490 209.71963 209.59036 209.52509 209.86282 210.25555 210.65128
 211.45101 212.63574 213.89247 215.68220 217.61693 219.66665 221.76838 223.85811
 225.92484 228.01557 230.11930 232.23203 234.36776 236.54649 238.80922 241.18595
 243.81368 246.07141 248.08014 249.85187 251.27559 252.40532 253.23405 253.55678
 253.60051 253.38124 252.74797 251.70270 250.31543 248.48316 246.39889 244.23862
 242.03635 239.84708 237.67381 235.51953 233.38626 231.25999 229.29272 227.45645
 225.74618 224.22491 222.86164 221.64037 220.52910 219.49583 218.60656 217.75429
 217.00302 216.18974 215.29447 214.66520 214.12193 214.96536 217.07967 219.22929
 221.31253 223.49762 225.07121 225.49397 225.34477 225.26057 225.54045 225.49638
 226.27428 228.24873 231.83105 236.44556 241.19080 245.69655 249.88617 253.70229
 257.03336 259.93289 262.64395 265.28125 267.60233 269.61298 271.83395 274.25784
 276.45242 278.58606 280.46451 282.11395 283.54138 284.80429 285.95651 287.00034
 287.93915 288.77518 289.50549 290.43622
 366.78100 356.34149 345.77999 334.65248 323.06198 311.26247 299.13897 286.94846
 274.66696 262.57045 250.58595 239.89344 230.02194 221.13243 213.32093 206.32942
 200.16991 195.11441 191.70290 189.75140 188.79489 188.86539 189.70688 191.02138
 192.75287 194.85437 197.12386 199.48936 201.94085 204.42734 206.52184 208.37033
 210.00283 211.15432 211.38982 211.62431 211.56781 211.27930 210.91880 210.55529
 210.17879 209.89528 209.70978 209.58027 209.51476 209.85226 210.24475 210.64025
 211.43974 212.62424 213.88073 215.67023 217.60472 219.65422 221.75571 223.84521
 225.91170 228.00220 230.10569 232.21818 234.35368 236.53217 238.79467 241.17116
 243.79866 246.05615 248.06465 249.83614 251.25964 252.38913 253.21763 253.54012
 253.58361 253.36411 252.73060 251.68510 250.29759 248.46509 246.38058 244.22008
 242.01757 239.82807 237.65456 235.50006 233.36655 231.24005 229.27254 227.43603
 225.72553 224.20402 222.84052 221.61901 220.50751 219.47400 218.58450 217.73199
 216.98049 216.16698 215.27148 214.64197 214.09846 214.95616 217.07396 219.22737
 221.21431 223.40408 225.00531 225.36639 225.19432 225.13530 225.29741 225.52293
 226.37364 228.45451 231.95992 236.51280 241.26414 245.75320 249.91362 253.69913
 257.06796 260.02011 262.65396 265.23434 267.57220 269.67014 271.86078 274.16785
 276.26715 278.10559 279.78870 281.35352 282.70773 283.90588 284.99899 285.98929
 286.87994 287.67310 288.36597 289.24893
 366.78100 356.34108 345.77917 334.65125 323.06033 311.26042 299.13650 286.94558
 274.66367 262.56675 250.58183 239.88892 230.01700 221.12708 213.31517 206.32325
 200.16333 195.10742 191.69550 189.74359 188.78667 188.85675 189.69784 191.01192
 192.74300 194.84409 197.11317 199.47825 201.92934 204.41542 206.50950 208.35759
 209.98967 211.14075 211.37584 211.60992 211.55300 211.26409 210.90317 210.53925
 210.16234 209.87842 209.69250 209.56259 209.49667 209.83375 210.22584 210.62092
 211.42000 212.60409 213.86017 215.64925 217.58334 219.63242 221.73350 223.82259
 225.88867 227.97876 230.08184 232.19392 234.32901 236.50709 238.76917 241.14526
 243.77234 246.02942 248.03751 249.80859 251.23167 252.36076 253.18884 253.51092
 253.55401 253.33409 252.70017 251.65426 250.26634 248.43342 246.34851 244.18759
 241.98467 239.79476 237.62084 235.46592 233.33201 231.20509 229.23717 227.40026
 225.68934 224.16742 222.80351 221.58159 220.46968 219.43576 218.54584 217.69293
 216.94101 216.12709 215.23118 214.60126 214.05734 214.93605 217.07272 219.25803
 221.06078 223.23163 224.89558 225.20807 225.07169 225.02896 225.14801 225.45084
 226.41974 228.54419 232.08733 236.60504 241.33327 245.83302 250.00299 253.79073
 257.12619 260.09299 262.77982 265.29678 267.62317 269.70547 271.81909 273.99283
 275.97003 277.69846 279.24963 280.64154 281.92361 283.08017 284.13538 285.09131
 285.95108 286.71671 287.38553 288.23788
 366.78100 356.34138 345.77977 334.65215 323.06154 311.26192 299.13831 286.94769
 274.66607 262.56946 250.58484 239.89223 230.02061 221.13099 213.31938 206.32776
 200.16815 195.11253 191.70092 189.74930 188.79268 188.86307 189.70445 191.01884
 192.75022 194.85160 197.12099 199.48637 201.93776 204.42414 206.51853 208.36691
 209.99929 211.15068 211.38606 211.62045 211.56383 211.27521 210.91460 210.55098
 210.17437 209.89075 209.70514 209.57552 209.50990 209.84729 210.23967 210.63506
 211.43444 212.61882 213.87521 215.66459 217.59898 219.64836 221.74975 223.83913
 225.90551 227.99590 230.09928 232.21167 234.34705 236.52543 238.78782 241.16420
 243.79159 246.04897 248.05736 249.82874 251.25212 252.38151 253.20989 253.53228
 253.57566 253.35604 252.72243 251.67681 250.28920 248.45658 246.37197 244.21135
 242.00873 239.81912 237.64550 235.49089 233.35727 231.23065 229.26304 227.42642
 225.71581 224.19419 222.83058 221.60896 220.49734 219.46373 218.57411 217.72150
 216.96988 216.15627 215.26065 214.63103 214.08742 214.95122 217.03194 219.32733
 220.97542 222.91757 224.73488 225.10788 225.01347 224.91508 224.97086 225.30086
 226.39639 228.50041 232.13129 236.67891 241.42680 245.92178 250.08983 253.86488
 257.18405 260.11871 262.81039 265.34671 267.70273 269.83334 271.90775 273.99710
 275.92343 277.51791 278.88458 280.19534 281.39078 282.47891 283.50641 284.43851
 285.27686 286.02341 286.67557 287.50668
 366.78100 356.34172 345.78045 334.65317 323.06289 311.26361 299.14034 286.95006
 274.66878 262.57250 250.58823 239.89595 230.02467 221.13539 213.32412 206.33284
 200.17356 195.11828 191.70701 189.75573 188.79945 188.87017 189.71190 191.02662
 192.75834 194.86007 197.12979 199.49551 201.94723 204.43396 206.52868 208.37740
 210.01012 211.16185 211.39757 211.63229 211.57601 211.28774 210.92746 210.56418
 210.18790 209.90463 209.71935 209.59007 209.52480 209.86252 210.25524 210.65096
 211.45069 212.63541 213.89213 215.68185 217.61658 219.66630 221.76802 223.85774
 225.92447 228.01519 230.11891 232.23163 234.36736 236.54608 238.80880 241.18552
 243.81325 246.07097 248.07969 249.85142 251.27514 252.40486 253.23358 253.55631
 253.60003 253.38075 252.74747 251.70220 250.31492 248.48264 246.39836 244.23809
 242.03581 239.84653 237.67325 235.51898 233.38570 231.25942 229.29214 227.45587
 225.74559 224.22431 222.86104 221.63976 220.52848 219.49520 218.60593 217.75365
 217.00237 216.18909 215.29382 214.66454 214.12126 214.97473 217.01080 219.32477
 221.08986 222.84880 224.59689 225.06612 224.92172 224.72720 224.83008 225.28456
 226.34148 228.49130 232.20618 236.77852 241.53400 246.03072 250.18530 253.94809
 257.25806 260.17722 262.84753 265.36450 267.70972 269.88318 271.99719 274.08359
 275.96912 277.55222 278.85736 279.97400 281.11215 282.16852 283.14618 284.06970
 284.91147 285.66107 286.31589 287.15042
 366.78100 356.34171 345.78042 334.65313 323.06283 311.26354 299.14025 286.94996
 274.66867 262.57238 250.58808 239.89579 230.02450 221.13521 213.32392 206.33263
 200.17333 195.11804 191.70675 189.75546 188.79917 188.86988 189.71159 191.02629
 192.75800 194.85971 197.12942 199.49513 201.94684 204.43354 206.52825 208.37696
 210.00967 211.16138 211.39709 211.63179 211.57550 211.28721 210.92692 210.56363
 210.18734 209.90405 209.71875 209.58946 209.52417 209.86188 210.25459 210.65030
 211.45000 212.63471 213.89142 215.68113 217.61584 219.66555 221.76725 223.85696
 225.92367 228.01438 230.11809 232.23080 234.36651 236.54521 238.80792 241.18463
 243.81234 246.07005 248.07876 249.85046 251.27417 252.40388 253.23259 253.55530
 253.59901 253.37972 252.74642 251.70113 250.31384 248.48155 246.39726 244.23697
 242.03467 239.84538 237.67209 235.51780 233.38451 231.25822 229.29092 227.45463
 225.74434 224.22305 222.85976 221.63847 220.52718 219.49388 218.60459 217.75230
 217.00101 216.18772 215.29243 214.66313 214.11984 214.98373 217.03540 219.27438
 221.16371 222.85002 224.48225 225.02136 224.80016 224.49680 224.65259 225.33632
 226.32396 228.59155 232.34509 236.89931 241.64281 246.14600 250.28731 254.03676
 257.32544 260.23373 262.89969 265.39981 267.71768 269.89471 272.06866 274.17749
 276.03583 277.57944 278.85034 279.91846 281.06790 282.12097 283.08734 283.98273
 284.81766 285.56116 286.21066 287.03842
 366.78100 356.34276 345.78252 334.65628 323.06704 311.26880 299.14656 286.95732
 274.67708 262.58184 250.59860 239.90736 230.03712 221.14887 213.33863 206.34839
 200.19015 195.13591 191.72567 189.77543 188.82019 188.89195 189.73471 191.05047
 192.78323 194.88599 197.15675 199.52351 201.97627 204.46403 206.55979 208.40955
 210.04331 211.19607 211.43283 211.66859 211.61335 211.32611 210.96686 210.60462
 210.22938 209.94714 209.76290 209.63466 209.57042 209.90918 210.30294 210.69970
 211.50046 212.68622 213.94398 215.73474 217.67050 219.72126 221.82402 223.91478
 225.98254 228.07430 230.17906 232.29282 234.42958 236.60934 238.87310 241.25086
 243.87961 246.13837 248.14813 249.92089 251.34565 252.47641 253.30617 253.62993
 253.67469 253.45645 252.82421 251.77997 250.39373 248.56249 246.47925 244.32001
 242.11877 239.93053 237.75829 235.60505 233.47281 231.34757 229.38133 227.54609
 225.83685 224.31660 222.95436 221.73412 220.62388 219.59164 218.70340 217.85216
 217.10192 216.28968 215.39544 214.76720 214.22496 215.04477 216.99339 219.31465
 221.14265 222.79355 224.42529 224.90714 224.66161 224.30911 224.46736 225.37595
 226.31711 228.64897 232.46213 237.03125 241.76262 246.26262 250.39087 254.12236
 257.39047 260.28348 262.94928 265.45023 267.74823 269.90933 272.11523 274.24973
 276.09641 277.61002 278.84430 279.89908 280.95120 282.01089 283.01749 283.92560
 284.75119 285.48639 286.12863 286.94711
 366.78100 356.34388 345.78475 334.65963 323.07150 311.27438 299.15325 286.96513
 274.68601 262.59188 250.60976 239.91963 230.05051 221.16339 213.35426 206.36514
 200.20801 195.15489 191.74576 189.79664 188.84252 188.91539 189.75927 191.07614
 192.81002 194.91389 197.18577 199.55365 202.00752 204.49640 206.59327 208.44415
 210.07903 211.23290 211.47078 211.70765 211.65353 211.36740 211.00928 210.64816
 210.27403 209.99291 209.80978 209.68266 209.61953 209.95941 210.35429 210.75216
 211.55404 212.74091 213.99979 215.79166 217.72854 219.78042 221.88429 223.97617
 226.04504 228.13792 230.24380 232.35867 234.49655 236.67742 238.94230 241.32117
 243.95105 246.21093 248.22180 249.99568 251.42155 252.55343 253.38430 253.70918
 253.75506 253.53793 252.90681 251.86368 250.47856 248.64844 246.56631 244.40819
 242.20806 240.02094 237.84981 235.69769 233.56657 231.44244 229.47732 227.64319
 225.93507 224.41594 223.05482 221.83570 220.72657 219.69545 218.80832 217.95820
 217.20908 216.39795 215.50483 214.87770 214.33658 215.10684 216.92876 219.37691
 221.13371 222.80969 224.38866 224.73392 224.48878 224.13821 224.33380 225.34071
 226.32338 228.76666 232.62468 237.18867 241.89853 246.38474 250.49245 254.20886
 257.45923 260.33926 263.00360 265.50439 267.80167 269.96338 272.17706 274.30798
 276.08530 277.50439 278.68277 279.80502 280.91248 281.95526 282.94604 283.85449
 284.65707 285.37991 286.01138 286.81613
 366.78100 356.34346 345.78392 334.65838 323.06985 311.27231 299.15077 286.96223
 274.68269 262.58815 250.60562 239.91508 230.04554 221.15800 213.34846 206.35892
 200.20139 195.14785 191.73831 189.78877 188.83423 188.90669 189.75016 191.06662
 192.80008 194.90354 197.17500 199.54246 201.99593 204.48439 206.58085 208.43131
 210.06577 211.21923 211.45670 211.69316 211.63862 211.35208 210.99354 210.63200
 210.25747 209.97593 209.79239 209.66485 209.60131 209.94077 210.33524 210.73270
 211.53416 212.72062 213.97908 215.77054 217.70701 219.75847 221.86193 223.95339
 226.02185 228.11431 230.21978 232.33424 234.47170 236.65216 238.91662 241.29508
 243.92455 246.18401 248.19447 249.96793 251.39339 252.52485 253.35532 253.67978
 253.72524 253.50770 252.87616 251.83262 250.44709 248.61655 246.53401 244.37547
 242.17493 239.98739 237.81586 235.66332 233.53178 231.40724 229.44170 227.60716
 225.89863 224.37909 223.01755 221.79801 220.68847 219.65693 218.76940 217.91886
 217.16932 216.35778 215.46424 214.83670 214.29517 215.09129 216.97223 219.34554
 221.17563 222.85341 224.30002 224.59880 224.34604 223.95673 224.20880 225.22128
 226.36305 228.88545 232.78885 237.34853 242.02327 246.48714 250.58388 254.29039
 257.52722 260.40320 263.06662 265.55496 267.85568 270.03094 272.25439 274.39041
 276.13809 277.50092 278.62991 279.65564 280.67355 281.71030 282.68878 283.58310
 284.36713 285.08838 285.72983 286.54727
 366.78100 356.34296 345.78292 334.65688 323.06784 311.26979 299.14775 286.95871
 274.67867 262.58363 250.60059 239.90955 230.03951 221.15147 213.34142 206.35138
 200.19334 195.13930 191.72926 189.77922 188.82418 188.89614 189.73910 191.05505
 192.78801 194.89097 197.16193 199.52889 201.98185 204.46981 206.56577 208.41573
 210.04968 211.20264 211.43960 211.67556 211.62052 211.33348 210.97444 210.61240
 210.23736 209.95531 209.77127 209.64323 209.57919 209.91815 210.31211 210.70907
 211.51003 212.69599 213.95394 215.74490 217.68086 219.73182 221.83478 223.92574
 225.99370 228.08566 230.19062 232.30457 234.44153 236.62149 238.88545 241.26341
 243.89237 246.15133 248.16129 249.93425 251.35920 252.49016 253.32012 253.64408
 253.68904 253.47100 252.83896 251.79492 250.40888 248.57783 246.49479 244.33575
 242.13471 239.94667 237.77463 235.62159 233.48955 231.36451 229.39846 227.56342
 225.85438 224.33434 222.97230 221.75226 220.64222 219.61018 218.72214 217.87109
 217.12105 216.30901 215.41497 214.78693 214.24489 215.07411 217.03323 219.28807
 221.22833 222.85088 224.15250 224.48557 224.25021 223.82664 224.03085 225.05653
 226.39696 228.99767 232.92778 237.49649 242.15149 246.59512 250.67444 254.35687
 257.58405 260.47021 263.13797 265.60434 267.88757 270.07925 272.33936 274.48004
 276.19299 277.50156 278.60678 279.60477 280.58008 281.58273 282.56808 283.45560
 284.23428 284.92963 285.57086 286.38803
 366.78100 356.34312 345.78323 334.65735 323.06846 311.27058 299.14870 286.95981
 274.67993 262.58505 250.60216 239.91128 230.04139 221.15351 213.34363 206.35374
 200.19586 195.14198 191.73209 189.78221 188.82732 188.89944 189.74256 191.05867
 192.79179 194.89491 197.16602 199.53314 201.98625 204.47437 206.57049 208.42060
 210.05472 211.20783 211.44495 211.68107 211.62618 211.33930 210.98042 210.61853
 210.24365 209.96176 209.77788 209.65000 209.58611 209.92523 210.31935 210.71646
 211.51758 212.70369 213.96181 215.75293 217.68904 219.74016 221.84327 223.93439
 226.00251 228.09462 230.19974 232.31386 234.45097 236.63109 238.89520 241.27332
 243.90244 246.16155 248.17167 249.94479 251.36990 252.50102 253.33113 253.65525
 253.70037 253.48248 252.85060 251.80672 250.42083 248.58995 246.50706 244.34818
 242.14730 239.95941 237.78753 235.63464 233.50276 231.37788 229.41199 227.57711
 225.86823 224.34834 222.98646 221.76657 220.65669 219.62481 218.73692 217.88604
 217.13616 216.32427 215.43039 214.80250 214.26062 215.09328 217.06053 219.25760
 221.26355 222.83948 224.00658 224.34039 224.11938 223.71045 223.87086 224.88762
 226.37514 229.12155 233.08609 237.65472 242.29213 246.71468 250.77443 254.43304
 257.65045 260.54446 263.21973 265.66766 267.93185 270.13654 272.42172 274.54852
 276.20404 277.45880 278.52863 279.52411 280.54501 281.59595 282.57358 283.47736
 284.28564 284.99533 285.61929 286.42706
 366.78100 356.34341 345.78383 334.65824 323.06966 311.27207 299.15048 286.96190
 274.68231 262.58773 250.60514 239.91455 230.04497 221.15738 213.34779 206.35821
 200.20062 195.14704 191.73745 189.78786 188.83328 188.90569 189.74911 191.06552
 192.79893 194.90235 197.17376 199.54118 201.99459 204.48300 206.57942 208.42983
 210.06424 211.21766 211.45507 211.69149 211.63690 211.35031 210.99173 210.63014
 210.25556 209.97397 209.79038 209.66280 209.59921 209.93863 210.33304 210.73045
 211.53187 212.71828 213.97670 215.76811 217.70452 219.75594 221.85935 223.95076
 226.01918 228.11159 230.21701 232.33142 234.46883 236.64925 238.91366 241.29208
 243.92149 246.18090 248.19132 249.96473 251.39015 252.52156 253.35197 253.67639
 253.72180 253.50421 252.87263 251.82904 250.44346 248.61287 246.53028 244.37170
 242.17111 239.98353 237.81194 235.65935 233.52777 231.40318 229.43760 227.60301
 225.89442 224.37484 223.01325 221.79366 220.68408 219.65249 218.76491 217.91432
 217.16473 216.35315 215.45956 214.83198 214.29039 215.11902 217.07678 219.24036
 221.26718 222.84019 223.89415 224.17809 223.95155 223.55589 223.73613 224.73990
 226.30908 229.23125 233.27272 237.82751 242.43726 246.83556 250.87477 254.51051
 257.71994 260.62448 263.30875 265.74603 267.99863 270.21387 272.50504 274.58582
 276.15173 277.33173 278.35623 279.45340 280.60919 281.66409 282.64633 283.54813
 284.35449 285.06781 285.68103 286.48181
 366.78100 356.34363 345.78426 334.65889 323.07052 311.27315 299.15178 286.96342
 274.68405 262.58968 250.60731 239.91694 230.04757 221.16020 213.35083 206.36146
 200.20409 195.15072 191.74135 189.79198 188.83761 188.91025 189.75388 191.07051
 192.80414 194.90777 197.17940 199.54703 202.00066 204.48929 206.58592 208.43655
 210.07118 211.22481 211.46244 211.69908 211.64471 211.35834 210.99997 210.63860
 210.26423 209.98286 209.79949 209.67212 209.60875 209.94838 210.34301 210.74064
 211.54227 212.72891 213.98754 215.77917 217.71580 219.76743 221.87106 223.96269
 226.03132 228.12395 230.22958 232.34421 234.48184 236.66247 238.92711 241.30574
 243.93537 246.19500 248.20563 249.97926 251.40489 252.53652 253.36715 253.69178
 253.73741 253.52004 252.88867 251.84530 250.45994 248.62957 246.54720 244.38883
 242.18846 240.00109 237.82972 235.67735 233.54598 231.42161 229.45624 227.62187
 225.91350 224.39413 223.03277 221.81340 220.70403 219.67266 218.78529 217.93492
 217.18555 216.37418 215.48081 214.85344 214.31207 215.13777 217.08858 219.22641
 221.25008 222.82979 223.80135 224.02130 223.78101 223.37167 223.58635 224.60605
 226.24373 229.32529 233.46204 238.00702 242.58340 246.95514 250.97231 254.58963
 257.79364 260.70770 263.40048 265.82837 268.07352 270.29340 272.59329 274.66653
 276.18491 277.32193 278.30585 279.36017 280.49890 281.54950 282.50980 283.39029
 284.19943 284.93918 285.56976 286.37601
 366.78100 356.34388 345.78477 334.65965 323.07154 311.27442 299.15331 286.96519
 274.68608 262.59196 250.60985 239.91973 230.05062 221.16350 213.35439 206.36527
 200.20816 195.15504 191.74593 189.79681 188.84270 188.91558 189.75947 191.07635
 192.81023 194.91412 197.18600 199.55389 202.00777 204.49666 206.59354 208.44443
 210.07931 211.23320 211.47108 211.70797 211.65385 211.36774 211.00962 210.64851
 210.27439 209.99328 209.81016 209.68305 209.61993 209.95982 210.35470 210.75258
 211.55447 212.74135 214.00024 215.79212 217.72901 219.78089 221.88478 223.97666
 226.04555 228.13843 230.24432 232.35920 234.49709 236.67797 238.94286 241.32174
 243.95163 246.21151 248.22240 249.99628 251.42217 252.55405 253.38494 253.70982
 253.75570 253.53859 252.90747 251.86436 250.47924 248.64913 246.56701 244.40890
 242.20878 240.02167 237.85055 235.69844 233.56732 231.44321 229.47809 227.64398
 225.93586 224.41675 223.05563 221.83652 220.72740 219.69629 218.80917 217.95905
 217.20994 216.39882 215.50571 214.87859 214.33748 215.15674 217.09232 219.22090
 221.23506 222.80934 223.71733 223.86253 223.60037 223.17252 223.41647 224.47473
 226.20009 229.42128 233.64378 238.18767 242.73433 247.08052 251.07742 254.67802
 257.87949 260.80261 263.50238 265.91589 268.14706 270.36353 272.66583 274.72430
 276.20059 277.30432 278.26672 279.33182 280.47452 281.52637 282.49265 283.37448
 284.18097 284.91226 285.55350 286.36319
 366.78100 356.34421 345.78542 334.66062 323.07283 311.27604 299.15525 286.96745
 274.68866 262.59487 250.61308 239.92329 230.05449 221.16770 213.35891 206.37012
 200.21333 195.16053 191.75174 189.80295 188.84916 188.92236 189.76657 191.08378
 192.81799 194.92220 197.19440 199.56261 202.01682 204.50603 206.60323 208.45444
 210.08965 211.24386 211.48207 211.71927 211.66548 211.37969 211.02190 210.66110
 210.28731 210.00652 209.82373 209.69694 209.63414 209.97435 210.36956 210.76777
 211.56998 212.75718 214.01639 215.80860 217.74581 219.79801 221.90222 223.99443
 226.06364 228.15685 230.26305 232.37826 234.51647 236.69768 238.96288 241.34209
 243.97230 246.23251 248.24372 250.01792 251.44413 252.57634 253.40755 253.73275
 253.77896 253.56217 252.93138 251.88859 250.50379 248.67400 246.59221 244.43442
 242.23463 240.04783 237.87704 235.72525 233.59446 231.47066 229.50587 227.67208
 225.96429 224.44550 223.08470 221.86591 220.75712 219.72633 218.83953 217.98974
 217.24095 216.43016 215.53737 214.91057 214.36978 215.17924 217.09169 219.22055
 221.22215 222.77834 223.63898 223.70473 223.40451 222.96439 223.23305 224.34856
 226.17635 229.52245 233.81914 238.36452 242.88751 247.21243 251.19193 254.77641
 257.97531 260.90860 263.61584 266.01425 268.22968 270.43417 272.72711 274.76331
 276.19974 277.27557 278.23090 279.33325 280.48547 281.53998 282.50732 283.39163
 284.19501 284.91965 285.55640 286.37164
 366.78100 356.34463 345.78626 334.66190 323.07453 311.27816 299.15779 286.97042
 274.69205 262.59869 250.61732 239.92795 230.05958 221.17321 213.36485 206.37648
 200.22011 195.16774 191.75937 189.81101 188.85764 188.93127 189.77590 191.09353
 192.82816 194.93280 197.20543 199.57406 202.02869 204.51832 206.61596 208.46759
 210.10322 211.25785 211.49648 211.73411 211.68075 211.39538 211.03801 210.67764
 210.30427 210.02391 209.84154 209.71517 209.65280 209.99343 210.38907 210.78770
 211.59033 212.77796 214.03759 215.83022 217.76786 219.82049 221.92512 224.01775
 226.08738 228.18102 230.28765 232.40328 234.54191 236.72354 238.98918 241.36881
 243.99944 246.26007 248.27170 250.04633 251.47297 252.60560 253.43723 253.76286
 253.80949 253.59313 252.96276 251.92039 250.53602 248.70665 246.62528 244.46792
 242.26855 240.08218 237.91181 235.76044 233.63008 231.50671 229.54234 227.70897
 226.00160 224.48324 223.12287 221.90450 220.79613 219.76576 218.87939 218.03003
 217.28166 216.47129 215.57892 214.95255 214.41219 215.20844 217.08966 219.21689
 221.20506 222.74107 223.56479 223.55141 223.19774 222.75053 223.04025 224.22215
 226.16072 229.62975 233.98874 238.53658 243.04143 247.34969 251.31583 254.88562
 258.08258 261.02020 263.72839 266.11923 268.31488 270.51013 272.78378 274.79730
 276.20486 277.26688 278.22000 279.34665 280.50351 281.55777 282.52808 283.41104
 284.21262 284.93414 285.56839 286.38187
 366.78100 356.34510 345.78719 334.66329 323.07639 311.28048 299.16058 286.97368
 274.69578 262.60287 250.62197 239.93307 230.06516 221.17926 213.37136 206.38345
 200.22755 195.17565 191.76775 189.81984 188.86694 188.94104 189.78613 191.10423
 192.83933 194.94442 197.21752 199.58662 202.04171 204.53181 206.62991 208.48201
 210.11810 211.27320 211.51230 211.75039 211.69749 211.41259 211.05568 210.69578
 210.32288 210.04297 209.86107 209.73517 209.67327 210.01436 210.41046 210.80956
 211.61265 212.80075 214.06085 215.85394 217.79204 219.84514 221.95024 224.04333
 226.11343 228.20753 230.31462 232.43072 234.56982 236.75191 239.01801 241.39811
 244.02920 246.29030 248.30240 250.07750 251.50459 252.63769 253.46979 253.79588
 253.84298 253.62708 252.99717 251.95527 250.57137 248.74246 246.66156 244.50466
 242.30576 240.11985 237.94995 235.79905 233.66914 231.54624 229.58234 227.74943
 226.04253 224.52463 223.16473 221.94682 220.83892 219.80902 218.92311 218.07421
 217.32631 216.51640 215.62450 214.99860 214.45869 215.24086 217.08879 219.20341
 221.18867 222.70975 223.49712 223.40332 222.98611 222.52695 222.82964 224.08446
 226.14288 229.73863 234.15836 238.70915 243.20055 247.49693 251.45314 255.01054
 258.20575 261.14407 263.84143 266.21939 268.40952 270.57944 272.82825 274.81598
 276.20367 277.26242 278.22165 279.38437 280.54831 281.60260 282.57352 283.45895
 284.26270 284.98499 285.62061 286.43246
 366.78100 356.34551 345.78802 334.66453 323.07804 311.28256 299.16307 286.97658
 274.69909 262.60660 250.62611 239.93762 230.07013 221.18465 213.37716 206.38967
 200.23418 195.18269 191.77520 189.82771 188.87522 188.94974 189.79525 191.11376
 192.84927 194.95478 197.22829 199.59780 202.05331 204.54383 206.64234 208.49485
 210.13136 211.28687 211.52638 211.76489 211.71240 211.42792 211.07143 210.71194
 210.33945 210.05996 209.87847 209.75298 209.69149 210.03300 210.42952 210.82903
 211.63254 212.82105 214.08156 215.87507 217.81358 219.86709 221.97261 224.06612
 226.13663 228.23114 230.33865 232.45516 234.59467 236.77718 239.04370 241.42421
 244.05572 246.31723 248.32974 250.10525 251.53276 252.66627 253.49879 253.82530
 253.87281 253.65732 253.02783 251.98634 250.60285 248.77436 246.69388 244.53739
 242.33890 240.15341 237.98392 235.83343 233.70394 231.58145 229.61796 227.78548
 226.07899 224.56150 223.20201 221.98452 220.87703 219.84754 218.96205 218.11357
 217.36608 216.55659 215.66510 215.03961 214.50012 215.26886 217.08510 219.18925
 221.17418 222.68613 223.42897 223.25447 222.76662 222.28990 222.60228 223.94215
 226.12863 229.84785 234.32855 238.88130 243.36607 247.65689 251.60417 255.14853
 258.33926 261.28165 263.97806 266.29440 268.52060 270.65280 272.86023 274.81531
 276.19458 277.26434 278.24124 279.44092 280.61237 281.66766 282.63840 283.52435
 284.32669 285.05362 285.68637 286.49643
 366.78100 356.34598 345.78896 334.66594 323.07992 311.28489 299.16587 286.97985
 274.70283 262.61081 250.63079 239.94277 230.07574 221.19072 213.38370 206.39668
 200.24166 195.19064 191.78362 189.83660 188.88457 188.95955 189.80553 191.12451
 192.86049 194.96647 197.24045 199.61043 202.06640 204.55738 206.65636 208.50934
 210.14632 211.30230 211.54228 211.78126 211.72923 211.44521 211.08919 210.73017
 210.35815 210.07913 209.89811 209.77309 209.71206 210.05404 210.45102 210.85100
 211.65498 212.84396 214.10494 215.89892 217.83790 219.89187 221.99785 224.09183
 226.16281 228.25779 230.36577 232.48275 234.62273 236.80570 239.07268 241.45366
 244.08564 246.34762 248.36060 250.13658 251.56456 252.69853 253.53151 253.85849
 253.90647 253.69145 253.06243 252.02141 250.63838 248.81036 246.73034 244.57432
 242.37630 240.19128 238.02226 235.87224 233.74321 231.62119 229.65817 227.82615
 226.12013 224.60311 223.24409 222.02707 220.92004 219.89102 219.00600 218.15798
 217.41096 216.60194 215.71092 215.08590 214.54688 215.29863 217.07472 219.17615
 221.16014 222.65788 223.36540 223.10818 222.55040 222.04987 222.36275 223.78622
 226.11382 229.95770 234.49179 239.05420 243.53621 247.82091 251.75772 255.28842
 258.48026 261.43472 264.14301 266.32642 268.62985 270.74686 272.90601 274.80713
 276.16495 277.24707 278.26804 279.50989 280.68503 281.74304 282.71527 283.60260
 284.40717 285.13171 285.76895 286.57819
 366.78100 356.34623 345.78946 334.66669 323.08092 311.28614 299.16737 286.98160
 274.70483 262.61306 250.63329 239.94552 230.07875 221.19398 213.38721 206.40043
 200.24566 195.19489 191.78812 189.84135 188.88958 188.96481 189.81104 191.13027
 192.86650 194.97272 197.24695 199.61718 202.07341 204.56464 206.66387 208.51710
 210.15433 211.31056 211.55079 211.79001 211.73824 211.45447 211.09870 210.73993
 210.36816 210.08939 209.90862 209.78385 209.72308 210.06530 210.46253 210.86276
 211.66699 212.85622 214.11745 215.91168 217.85091 219.90514 222.01137 224.10559
 226.17682 228.27205 230.38028 232.49751 234.63774 236.82097 239.08820 241.46943
 244.10166 246.36388 248.37711 250.15334 251.58157 252.71580 253.54903 253.87626
 253.92449 253.70972 253.08095 252.04017 250.65740 248.82963 246.74986 244.59409
 242.39632 240.21155 238.04278 235.89301 233.76424 231.64246 229.67969 227.84792
 226.14215 224.62538 223.26661 222.04984 220.94307 219.91430 219.02953 218.18175
 217.43498 216.62621 215.73544 215.11067 214.57190 215.31772 217.07980 219.15303
 221.14885 222.63803 223.29048 222.96442 222.33441 221.80380 222.10461 223.62842
 226.10123 230.05913 234.64999 239.22835 243.70683 247.98907 251.92325 255.44582
 258.64456 261.61258 264.33344 266.32205 268.68515 270.85355 272.97739 274.83127
 276.14624 277.21484 278.29691 279.57394 280.75601 281.81393 282.78696 283.67484
 284.48172 285.20908 285.84601 286.66071
 366.78100 356.34633 345.78967 334.66700 323.08133 311.28667 299.16800 286.98233
 274.70567 262.61400 250.63433 239.94667 230.08000 221.19533 213.38866 206.40200
 200.24733 195.19666 191.79000 189.84333 188.89166 188.96700 189.81333 191.13266
 192.86900 194.97533 197.24966 199.62000 202.07633 204.56766 206.66700 208.52033
 210.15766 211.31400 211.55433 211.79366 211.74200 211.45833 211.10266 210.74400
 210.37233 210.09366 209.91299 209.78833 209.72766 210.06999 210.46733 210.86766
 211.67199 212.86133 214.12266 215.91699 217.85633 219.91066 222.01699 224.11133
 226.18266 228.27799 230.38633 232.50366 234.64399 236.82733 239.09466 241.47599
 244.10833 246.37066 248.38399 250.16033 251.58866 252.72299 253.55632 253.88366
 253.93199 253.71732 253.08866 252.04799 250.66532 248.83766 246.75799 244.60232
 242.40466 240.21999 238.05132 235.90166 233.77299 231.65132 229.68866 227.85699
 226.15132 224.63466 223.27599 222.05932 220.95266 219.92399 219.03932 218.19166
 217.44499 216.63632 215.74565 215.12099 214.58232 215.32983 217.09590 219.12871
 221.11151 222.63631 223.24399 222.78687 222.10196 221.54611 221.85168 223.46518
 226.07632 230.15790 234.81931 239.42438 243.88936 248.15747 252.08879 255.61053
 258.81494 261.78735 264.49921 266.33188 268.72803 270.93655 273.04111 274.87637
 276.18539 277.24136 278.33105 279.61285 280.79453 281.85196 282.82477 283.71362
 284.52185 285.25235 285.89148 286.71603
 366.78100 356.34671 345.79041 334.66812 323.08282 311.28853 299.17024 286.98494
 274.70865 262.61735 250.63806 239.95077 230.08447 221.20018 213.39388 206.40759
 200.25330 195.20300 191.79671 189.85041 188.89912 188.97483 189.82153 191.14124
 192.87794 194.98465 197.25936 199.63006 202.08677 204.57847 206.67818 208.53189
 210.16959 211.32630 211.56700 211.80671 211.75542 211.47212 211.11683 210.75853
 210.38724 210.10895 209.92865 209.80436 209.74406 210.08677 210.48448 210.88518
 211.68989 212.87959 214.14130 215.93601 217.87571 219.93042 222.03712 224.13183
 226.20354 228.29924 230.40795 232.52565 234.66636 236.85007 239.11777 241.49948
 244.13218 246.39489 248.40859 250.18530 251.61401 252.74871 253.58242 253.91012
 253.95883 253.74454 253.11624 252.07595 250.69365 248.86636 246.78707 244.63177
 242.43448 240.25018 238.08189 235.93260 233.80430 231.68301 229.72071 227.88942
 226.18413 224.66783 223.30954 222.09324 220.98695 219.95866 219.07436 218.22707
 217.48077 216.67248 215.78219 215.15789 214.61960 215.35353 217.08752 219.12537
 221.06563 222.58948 223.25415 222.69940 221.79358 221.20561 221.57961 223.37070
 226.12852 230.26909 234.97060 239.62137 244.06961 248.31184 252.23155 255.75690
 258.98010 261.95938 264.66385 266.48999 268.70966 270.94397 273.08813 274.91611
 276.25806 277.35309 278.40894 279.64676 280.82056 281.87646 282.84915 283.73944
 284.55084 285.28604 285.92828 286.76437
 366.78100 356.34706 345.79112 334.66918 323.08424 311.29029 299.17235 286.98741
 274.71147 262.62053 250.64159 239.95465 230.08871 221.20477 213.39882 206.41288
 200.25894 195.20900 191.80306 189.85712 188.90618 188.98224 189.82930 191.14936
 192.88641 194.99347 197.26853 199.63959 202.09665 204.58871 206.68877 208.54283
 210.18089 211.33794 211.57900 211.81906 211.76812 211.48518 211.13024 210.77230
 210.40136 210.12342 209.94347 209.81953 209.75959 210.10265 210.50071 210.90177
 211.70683 212.89689 214.15895 215.95400 217.89406 219.94912 222.05618 224.15124
 226.22330 228.31936 230.42842 232.54648 234.68754 236.87159 239.13965 241.52171
 244.15477 246.41783 248.43189 250.20895 251.63801 252.77307 253.60712 253.93518
 253.98424 253.77030 253.14236 252.10242 250.72048 248.89354 246.81460 244.65965
 242.46271 240.27877 238.11083 235.96189 233.83395 231.71301 229.75107 227.92013
 226.21518 224.69924 223.34130 222.12536 221.01942 219.99148 219.10754 218.26060
 217.51466 216.70672 215.81677 215.19283 214.65489 215.37326 217.07050 219.12364
 221.04854 222.51901 223.17888 222.69827 221.70917 220.75906 221.18750 223.34720
 226.22675 230.37726 235.11749 239.81192 244.26405 248.46817 252.37709 255.90704
 259.13873 262.10657 264.78537 266.69360 268.72098 270.90479 273.09692 274.90710
 276.27881 277.44455 278.52966 279.69232 280.85431 281.91196 282.88620 283.77936
 284.59329 285.33408 285.98389 286.82968
 366.78100 356.34716 345.79131 334.66947 323.08463 311.29079 299.17294 286.98810
 274.71226 262.62142 250.64257 239.95573 230.08989 221.20605 213.40020 206.41436
 200.26052 195.21068 191.80483 189.85899 188.90815 188.98431 189.83146 191.15162
 192.88878 194.99594 197.27109 199.64225 202.09941 204.59157 206.69172 208.54588
 210.18404 211.34120 211.58235 211.82251 211.77167 211.48883 211.13398 210.77614
 210.40530 210.12746 209.94761 209.82377 209.76393 210.10709 210.50524 210.90640
 211.71156 212.90172 214.16387 215.95903 217.89919 219.95435 222.06150 224.15666
 226.22882 228.32498 230.43413 232.55229 234.69345 236.87761 239.14576 241.52792
 244.16108 246.42424 248.43839 250.21555 251.64471 252.77987 253.61402 253.94218
 253.99134 253.77750 253.14965 252.10981 250.72797 248.90113 246.82228 244.66744
 242.47060 240.28676 238.11891 235.97007 233.84223 231.72139 229.75954 227.92870
 226.22386 224.70802 223.35017 222.13433 221.02849 220.00065 219.11680 218.26996
 217.52412 216.71628 215.82643 215.20259 214.66475 215.38052 217.07159 219.10207
 221.03539 222.47472 223.04050 222.58549 221.66093 220.46901 220.86899 223.22545
 226.24812 230.49149 235.26463 239.98991 244.45795 248.62538 252.51357 256.04584
 259.28662 262.24329 264.87378 266.84885 268.77649 270.90378 273.08774 274.85822
 276.25140 277.47748 278.59012 279.74060 280.89951 281.95691 282.93146 283.82547
 284.64221 285.38504 286.03656 286.89185
 366.78100 356.34716 345.79133 334.66949 323.08465 311.29081 299.17298 286.98814
 274.71230 262.62146 250.64263 239.95579 230.08995 221.20611 213.40028 206.41444
 200.26060 195.21077 191.80493 189.85909 188.90825 188.98442 189.83158 191.15174
 192.88890 194.99607 197.27123 199.64239 202.09956 204.59172 206.69188 208.54604
 210.18421 211.34137 211.58253 211.82269 211.77186 211.48902 211.13418 210.77634
 210.40551 210.12767 209.94783 209.82400 209.76416 210.10732 210.50548 210.90665
 211.71181 212.90197 214.16413 215.95930 217.89946 219.95462 222.06178 224.15695
 226.22911 228.32527 230.43444 232.55260 234.69376 236.87792 239.14609 241.52825
 244.16141 246.42457 248.43874 250.21590 251.64506 252.78022 253.61439 253.94255
 253.99171 253.77788 253.15004 252.11020 250.72836 248.90153 246.82269 244.66785
 242.47101 240.28718 238.11934 235.97050 233.84267 231.72183 229.75999 227.92915
 226.22432 224.70848 223.35064 222.13480 221.02897 220.00113 219.11729 218.27045
 217.52462 216.71678 215.82694 215.20311 214.66527 215.38237 217.07661 219.07895
 221.02127 222.44757 222.91772 222.39252 221.52104 220.25793 220.61780 223.07213
 226.25308 230.62186 235.42252 240.15619 244.62955 248.78333 252.64806 256.18808
 259.41284 262.37711 264.98264 266.97156 268.84888 271.00223 273.08749 274.79813
 276.21683 277.44254 278.57614 279.75812 280.92200 281.97751 282.95139 283.84531
 284.66248 285.40588 286.06042 286.92380
 366.78100 356.34725 345.79151 334.66976 323.08501 311.29127 299.17352 286.98877
 274.71303 262.62228 250.64353 239.95678 230.09104 221.20729 213.40154 206.41580
 200.26205 195.21230 191.80656 189.86081 188.91006 188.98632 189.83357 191.15382
 192.89108 194.99833 197.27358 199.64484 202.10209 204.59434 206.69459 208.54885
 210.18710 211.34435 211.58561 211.82586 211.77511 211.49237 211.13762 210.77987
 210.40913 210.13138 209.95163 209.82789 209.76814 210.11139 210.50965 210.91090
 211.71615 212.90641 214.16866 215.96391 217.90416 219.95942 222.06667 224.16192
 226.23418 228.33043 230.43968 232.55794 234.69919 236.88344 239.15170 241.53395
 244.16720 246.43046 248.44471 250.22196 251.65122 252.78647 253.62072 253.94897
 253.99823 253.78448 253.15673 252.11699 250.73524 248.90849 246.82975 244.67500
 242.47825 240.29451 238.12676 235.97801 233.85027 231.72952 229.76777 227.93703
 226.23228 224.71653 223.35878 222.14304 221.03729 220.00954 219.12580 218.27905
 217.53330 216.72556 215.83581 215.21206 214.67432 215.38609 217.06775 219.06438
 220.98830 222.42799 222.83177 222.18553 221.30034 220.06879 220.40576 222.93381
 226.26349 230.74345 235.58052 240.32195 244.77101 248.93192 252.78030 256.29495
 259.50677 262.47382 265.06238 267.10300 269.04935 271.12985 273.06088 274.69833
 276.12378 277.36127 278.49585 279.68008 280.83707 281.88565 282.85263 283.73978
 284.55460 285.29791 285.95676 286.82318
 366.78100 356.34734 345.79168 334.67002 323.08536 311.29170 299.17404 286.98938
 274.71372 262.62306 250.64440 239.95774 230.09209 221.20843 213.40277 206.41711
 200.26345 195.21379 191.80813 189.86247 188.91181 188.98815 189.83549 191.15583
 192.89317 195.00051 197.27585 199.64719 202.10453 204.59687 206.69721 208.55155
 210.18989 211.34723 211.58858 211.82892 211.77826 211.49560 211.14094 210.78328
 210.41262 210.13496 209.95530 209.83164 209.77198 210.11532 210.51366 210.91500
 211.72034 212.91068 214.17302 215.96836 217.90870 219.96404 222.07138 224.16672
 226.23906 228.33541 230.44475 232.56309 234.70443 236.88877 239.15711 241.53945
 244.17279 246.43613 248.45047 250.22781 251.65715 252.79249 253.62683 253.95517
 254.00451 253.79085 253.16319 252.12353 250.74187 248.91521 246.83655 244.68190
 242.48524 240.30158 238.13392 235.98526 233.85760 231.73694 229.77528 227.94462
 226.23996 224.72430 223.36664 222.15098 221.04532 220.01766 219.13400 218.28734
 217.54168 216.73402 215.84436 215.22070 214.68304 215.38847 217.05515 219.06157
 220.95132 222.39377 222.78067 222.00018 221.02235 219.80399 220.16374 222.80981
 226.29814 230.88086 235.76477 240.53587 244.98888 249.11717 252.93719 256.38171
 259.56897 262.51868 265.12424 267.22269 269.21347 271.23184 273.07874 274.66122
 276.07556 277.34073 278.52759 279.77942 280.94916 282.00119 282.96796 283.85544
 284.66626 285.40521 286.05542 286.93552
 366.78100 356.34715 345.79131 334.66946 323.08461 311.29077 299.17292 286.98807
 274.71223 262.62138 250.64253 239.95569 230.08984 221.20599 213.40015 206.41430
 200.26045 195.21061 191.80476 189.85891 188.90807 188.98422 189.83137 191.15153
 192.88868 194.99583 197.27099 199.64214 202.09929 204.59145 206.69160 208.54575
 210.18391 211.34106 211.58221 211.82237 211.77152 211.48867 211.13383 210.77598
 210.40513 210.12729 209.94744 209.82359 209.76375 210.10690 210.50506 210.90621
 211.71136 212.90152 214.16367 215.95882 217.89898 219.95413 222.06128 224.15644
 226.22859 228.32474 230.43390 232.55205 234.69320 236.87736 239.14551 241.52766
 244.16082 246.42397 248.43812 250.21528 251.64443 252.77958 253.61374 253.94189
 253.99104 253.77720 253.14935 252.10950 250.72766 248.90081 246.82196 244.66712
 242.47027 240.28642 238.11858 235.96973 233.84188 231.72104 229.75919 227.92834
 226.22350 224.70765 223.34980 222.13396 221.02811 220.00026 219.11642 218.26957
 217.52372 216.71588 215.82603 215.20218 214.66434 215.37570 217.05635 219.04509
 220.92163 222.34985 222.70215 221.85255 220.75714 219.52654 219.90575 222.68709
 226.34639 231.02524 235.93747 240.72386 245.18585 249.32359 253.14381 256.54123
 259.68500 262.58231 265.17706 267.31012 269.29654 271.28699 273.09821 274.68393
 276.15311 277.48718 278.67102 279.79523 280.93341 281.98270 282.94623 283.83139
 284.64133 285.37955 286.03189 286.92169
 354.97500 345.04800 334.58700 324.11500 313.32600 302.53700 291.65000 280.76700
 269.93100 259.19300 248.62200 238.61700 229.08700 220.35500 212.54000 205.53500
 199.46400 194.49300 191.14300 189.19000 188.08900 188.01400 188.72400 189.90600
 191.46900 193.38200 195.40300 197.55600 199.80700 202.06000 204.28800 206.47900
 208.55200 210.37800 212.02500 213.65900 214.99800 216.11800 217.17200 218.25900
 219.49400 220.64500 221.67900 222.61400 223.54500 224.98200 226.57100 228.19000
 229.79700 231.81100 233.86500 235.97200 238.24200 240.55300 242.89900 245.25300
 247.48800 249.53500 251.36600 252.84800 254.09800 255.16700 256.02700 256.25300
 256.09500 255.54300 253.93500 252.56600 251.38400 250.24500 249.05200 247.70100
 246.01600 243.99600 241.78400 239.39300 236.81300 234.22300 231.65800 229.14400
 226.74000 224.47300 222.33500 220.32500 218.44000 216.67700 214.96200 213.47200
 212.20000 211.10800 210.26000 209.63900 209.24400 209.03100 209.05800 209.33300
 209.78400 210.62600 211.33100 212.39100 213.62500 214.84668 217.72949 219.47640
 220.32566 220.86828 220.88710 220.27371 219.43733 218.84250 219.04934 220.86203
 222.60583 225.72206 229.03064 232.61777 236.12270 239.51333 242.70767 245.68587
 248.41061 250.90679 253.19353 254.91714 256.48655 257.94920 259.39966 260.69384
 261.81714 262.77997 263.71679 264.54570 265.26305 265.89772 266.47676 267.00133
 267.47312 267.89325 268.26027 268.72800
