|-------------------------------------------------------------------------|
|   File Name : in_temp.dat
|   Subject   : temperature profiles used for initial guess atmosphere
|   File Type : input of gmtr
|   Data Type : atmospherical data
|   Author/s  : WRF-Chem
|   Date      : Fri Jul 26 15:39:24 2024
|-------------------------------------------------------------------------|

 WRF-Chem temperature
#
 values of T (K)    (8f10.5)
#
 354.97500 345.04800 334.58700 324.11500 313.32600 302.53700 291.65000 280.76700
 269.93100 259.19300 248.62200 238.61700 229.08700 220.35500 212.54000 205.53500
 199.46400 194.49300 191.14300 189.19000 188.08900 188.01400 188.72400 189.90600
 191.46900 193.38200 195.40300 197.55600 199.80700 202.06000 204.28800 206.47900
 208.55200 210.37800 212.02500 213.65900 214.99800 216.11800 217.17200 218.25900
 219.49400 220.64500 221.67900 222.61400 223.54500 224.98200 226.57100 228.19000
 229.79700 231.81100 233.86500 235.97200 238.24200 240.55300 242.89900 245.25300
 247.48800 249.53500 251.36600 252.84800 254.09800 255.16700 256.02700 256.25300
 256.09500 255.54300 253.93500 252.56600 251.38400 250.24500 249.05200 247.70100
 246.01600 243.99600 241.78400 239.39300 236.81300 234.22300 231.65800 229.14400
 226.74000 224.47300 222.33500 220.32500 218.44000 216.67700 214.96200 213.47200
 212.20000 211.10800 210.26000 209.63900 209.24400 209.03100 209.05800 209.33300
 209.78400 210.62600 211.33100 212.39100 213.62500 214.84668 217.72949 219.47640
 220.32566 220.86828 220.88710 220.27371 219.43733 218.84250 219.04934 220.86203
 222.60583 225.72206 229.03064 232.61777 236.12270 239.51333 242.70767 245.68587
 248.41061 250.90679 253.19353 254.91714 256.48655 257.94920 259.39966 260.69384
 261.81714 262.77997 263.71679 264.54570 265.26305 265.89772 266.47676 267.00133
 267.47312 267.89325 268.26027 268.72800
 366.78100 356.33500 345.76700 334.63300 323.03600 311.23000 299.10000 286.90300
 274.61500 262.51200 250.52100 239.82200 229.94400 221.04800 213.23000 206.23200
 200.06600 195.00400 191.58600 189.62800 188.66500 188.72900 189.56400 190.87200
 192.59700 194.69200 196.95500 199.31400 201.75900 204.23900 206.32700 208.16900
 209.79500 210.94000 211.16900 211.39700 211.33400 211.03900 210.67200 210.30200
 209.91900 209.62900 209.43700 209.30100 209.22900 209.56000 209.94600 210.33500
 211.12800 212.30600 213.55600 215.33900 217.26700 219.31000 221.40500 223.48800
 225.54800 227.63200 229.72900 231.83500 233.96400 236.13600 238.39200 240.76200
 243.38300 245.63400 247.63600 249.40100 250.81800 251.94100 252.76300 253.07900
 253.11600 252.89000 252.25000 251.19800 249.80400 247.96500 245.87400 243.70700
 241.49800 239.30200 237.12200 234.96100 232.82100 230.68800 228.71400 226.87100
 225.15400 223.62600 222.25600 221.02800 219.91000 218.87000 217.97400 217.11500
 216.35700 215.53700 214.63500 213.99900 213.44900 212.85855 212.01316 212.61654
 214.26826 216.08686 218.14273 220.53346 223.40855 226.78828 231.49734 235.90155
 239.42278 243.28576 247.23140 251.11907 254.80144 258.23331 261.38913 264.27520
 266.89312 269.26852 271.44504 273.08845 274.58484 275.98591 277.39845 278.65879
 279.75272 280.69038 281.56708 282.34086 283.01050 283.60295 284.14348 284.63317
 285.07358 285.46577 285.80838 286.24500
 381.81900 372.39900 361.20600 349.77600 337.62200 324.85300 311.81000 298.35300
 284.86000 271.32400 258.56100 246.30400 236.08700 226.79600 218.44800 211.29000
 205.52200 200.89400 197.38100 194.84800 193.01500 192.31500 192.25000 192.43100
 192.91200 193.53700 194.13600 194.71200 195.26200 195.83100 196.39300 196.97600
 197.60400 198.14900 198.58400 199.05700 199.69500 200.37800 201.05400 201.70800
 202.31300 202.85700 203.35500 203.86200 204.56900 205.29700 206.02600 206.98700
 208.19300 209.44100 210.96900 212.57600 214.46200 216.51300 218.63000 220.85300
 223.34100 225.96200 228.73900 231.69700 234.70600 237.70600 240.69200 243.65700
 246.73700 249.69900 252.52100 255.06300 257.29000 259.23300 260.63300 261.68000
 262.46100 262.79800 262.69100 262.22400 261.06900 259.52500 257.70700 255.50700
 253.00100 250.30200 247.39800 244.45200 241.65400 239.05400 236.73300 234.59000
 232.59500 230.72500 228.83400 226.82600 224.66600 222.38700 220.10400 217.71500
 215.45900 213.06600 210.54600 208.09300 205.35400 202.08130 196.05959 200.71215
 209.01611 216.90438 223.84126 229.78593 235.00632 240.20838 245.98943 250.68668
 254.32982 257.93487 261.55666 264.96801 268.15192 271.06452 273.76717 276.25691
 278.57680 280.74479 282.77456 284.60533 286.27232 287.81705 289.31715 290.65561
 291.81734 292.81312 293.70701 294.49387 295.17482 295.77730 296.32696 296.82492
 297.27278 297.67160 298.02000 298.46400
 399.33000 389.90700 379.81300 368.66800 357.52200 345.30100 333.07400 320.22700
 307.21600 293.84800 280.37600 267.29600 254.61000 242.98700 232.15100 221.97700
 212.67200 204.28600 197.66900 192.82100 189.48600 187.45200 186.81400 187.08900
 187.78100 189.05400 190.64800 192.54200 194.63000 196.75200 198.67100 200.15800
 201.53500 202.48700 202.97500 203.34000 203.53900 203.49700 203.38500 203.24700
 203.00500 202.78600 202.60300 202.43700 202.42600 202.88800 203.42000 203.95100
 204.89500 205.99200 207.30100 208.95800 210.73800 213.10000 215.56400 218.18000
 220.96600 223.91800 226.96100 230.09200 233.29300 236.55700 239.95500 243.53700
 246.84500 249.39000 251.54200 253.47400 255.19500 256.48400 257.43100 258.05900
 258.21200 258.04000 257.58200 256.64300 255.23900 253.50700 251.40800 249.05600
 246.57600 243.99400 241.38900 238.83000 236.34400 233.98600 231.96900 230.11800
 228.42300 226.89900 225.54800 224.29700 223.10500 221.96500 220.95800 220.11300
 219.49000 218.92000 218.32500 217.88100 217.42300 216.96366 216.35568 216.80261
 217.73415 218.28582 218.64258 219.10077 220.44626 222.53987 226.38451 230.35736
 233.59734 237.39164 241.29814 245.22796 248.98002 252.51130 255.78595 258.80109
 261.54781 264.05210 266.34239 268.04198 269.58951 271.01303 272.35754 273.55718
 274.59842 275.49092 276.28989 276.99307 277.60161 278.14001 278.63122 279.07623
 279.47646 279.83287 280.14422 280.54100
 399.73800 389.78500 379.66200 368.15100 356.64100 344.35000 331.79200 318.88800
 305.72600 292.49300 279.20900 266.73800 254.69600 244.21100 234.45700 225.43300
 217.56900 210.45100 204.30000 199.30600 195.45800 192.57600 191.02700 190.38600
 190.23900 190.53400 191.16600 191.92500 192.79500 193.76600 194.73200 195.31200
 195.80000 196.05200 196.11500 196.11500 196.03900 195.72300 195.34000 194.98900
 194.75100 194.79200 195.13300 195.59800 196.50600 198.13600 199.85800 201.56600
 204.17900 206.82300 209.89300 213.28400 216.82800 220.60500 224.38700 228.20900
 232.03200 235.82500 239.56000 243.25800 246.84500 250.20100 253.70900 257.46800
 261.53000 264.22100 266.60100 268.68100 270.32900 271.74100 272.83600 273.47400
 273.89800 274.00200 273.75700 273.28800 272.37100 271.10000 269.58900 267.77900
 265.81600 263.72100 261.39300 258.91600 256.29800 253.42300 250.33100 247.11400
 243.83700 240.52900 237.24900 233.99900 230.72800 227.51500 224.25400 220.95200
 217.62700 213.65600 210.12100 206.78900 204.01000 201.99491 199.07309 198.76551
 199.40006 200.48994 201.46112 202.31912 203.45100 204.96110 207.47502 210.85391
 213.70530 217.29629 220.99574 224.72316 228.28753 231.64854 234.68024 237.40893
 239.70644 241.60899 243.46854 245.67368 247.68154 249.52395 251.24767 252.78566
 254.12057 255.26479 256.23740 257.09036 257.82852 258.48160 259.07744 259.61723
 260.10271 260.53504 260.91270 261.39400
 399.73800 389.78500 379.66200 368.15100 356.64100 344.35000 331.79200 318.88800
 305.72600 292.49300 279.20900 266.73800 254.69600 244.21100 234.45700 225.43300
 217.56900 210.45100 204.30000 199.30600 195.45800 192.57600 191.02700 190.38600
 190.23900 190.53400 191.16600 191.92500 192.79500 193.76600 194.73200 195.31200
 195.80000 196.05200 196.11500 196.11500 196.03900 195.72300 195.34000 194.98900
 194.75100 194.79200 195.13300 195.59800 196.50600 198.13600 199.85800 201.56600
 204.17900 206.82300 209.89300 213.28400 216.82800 220.60500 224.38700 228.20900
 232.03200 235.82500 239.56000 243.25800 246.84500 250.20100 253.70900 257.46800
 261.53000 264.22100 266.60100 268.68100 270.32900 271.74100 272.83600 273.47400
 273.89800 274.00200 273.75700 273.28800 272.37100 271.10000 269.58900 267.77900
 265.81600 263.72100 261.39300 258.91600 256.29800 253.42300 250.33100 247.11400
 243.83700 240.52900 237.24900 233.99900 230.72800 227.51500 224.25400 220.95200
 217.62700 213.65600 210.12100 206.78900 204.01000 201.99491 199.07309 198.76551
 199.40006 200.48994 201.46112 202.31912 203.45100 204.96110 207.47502 210.85391
 213.70530 217.29629 220.99574 224.72316 228.28753 231.64854 234.68024 237.40893
 239.70644 241.60899 243.46854 245.67368 247.68154 249.52395 251.24767 252.78566
 254.12057 255.26479 256.23740 257.09036 257.82852 258.48160 259.07744 259.61723
 260.10271 260.53504 260.91270 261.39400
 399.33000 389.90700 379.81300 368.66800 357.52200 345.30100 333.07400 320.22700
 307.21600 293.84800 280.37600 267.29600 254.61000 242.98700 232.15100 221.97700
 212.67200 204.28600 197.66900 192.82100 189.48600 187.45200 186.81400 187.08900
 187.78100 189.05400 190.64800 192.54200 194.63000 196.75200 198.67100 200.15800
 201.53500 202.48700 202.97500 203.34000 203.53900 203.49700 203.38500 203.24700
 203.00500 202.78600 202.60300 202.43700 202.42600 202.88800 203.42000 203.95100
 204.89500 205.99200 207.30100 208.95800 210.73800 213.10000 215.56400 218.18000
 220.96600 223.91800 226.96100 230.09200 233.29300 236.55700 239.95500 243.53700
 246.84500 249.39000 251.54200 253.47400 255.19500 256.48400 257.43100 258.05900
 258.21200 258.04000 257.58200 256.64300 255.23900 253.50700 251.40800 249.05600
 246.57600 243.99400 241.38900 238.83000 236.34400 233.98600 231.96900 230.11800
 228.42300 226.89900 225.54800 224.29700 223.10500 221.96500 220.95800 220.11300
 219.49000 218.92000 218.32500 217.88100 217.42300 216.96366 216.35568 216.80261
 217.73415 218.28582 218.64258 219.10077 220.44626 222.53987 226.38451 230.35736
 233.59734 237.39164 241.29814 245.22796 248.98002 252.51130 255.78595 258.80109
 261.54781 264.05210 266.34239 268.04198 269.58951 271.01303 272.35754 273.55718
 274.59842 275.49092 276.28989 276.99307 277.60161 278.14001 278.63122 279.07623
 279.47646 279.83287 280.14422 280.54100
 381.81900 372.39900 361.20600 349.77600 337.62200 324.85300 311.81000 298.35300
 284.86000 271.32400 258.56100 246.30400 236.08700 226.79600 218.44800 211.29000
 205.52200 200.89400 197.38100 194.84800 193.01500 192.31500 192.25000 192.43100
 192.91200 193.53700 194.13600 194.71200 195.26200 195.83100 196.39300 196.97600
 197.60400 198.14900 198.58400 199.05700 199.69500 200.37800 201.05400 201.70800
 202.31300 202.85700 203.35500 203.86200 204.56900 205.29700 206.02600 206.98700
 208.19300 209.44100 210.96900 212.57600 214.46200 216.51300 218.63000 220.85300
 223.34100 225.96200 228.73900 231.69700 234.70600 237.70600 240.69200 243.65700
 246.73700 249.69900 252.52100 255.06300 257.29000 259.23300 260.63300 261.68000
 262.46100 262.79800 262.69100 262.22400 261.06900 259.52500 257.70700 255.50700
 253.00100 250.30200 247.39800 244.45200 241.65400 239.05400 236.73300 234.59000
 232.59500 230.72500 228.83400 226.82600 224.66600 222.38700 220.10400 217.71500
 215.45900 213.06600 210.54600 208.09300 205.35400 202.08130 196.05959 200.71215
 209.01611 216.90438 223.84126 229.78593 235.00632 240.20838 245.98943 250.68668
 254.32982 257.93487 261.55666 264.96801 268.15192 271.06452 273.76717 276.25691
 278.57680 280.74479 282.77456 284.60533 286.27232 287.81705 289.31715 290.65561
 291.81734 292.81312 293.70701 294.49387 295.17482 295.77730 296.32696 296.82492
 297.27278 297.67160 298.02000 298.46400
 366.78100 356.34036 345.77773 334.64909 323.05745 311.25681 299.13218 286.94054
 274.65790 262.56027 250.57463 239.88099 230.00835 221.11772 213.30508 206.31244
 200.15181 195.09517 191.68253 189.72990 188.77226 188.84162 189.68198 190.99535
 192.72571 194.82607 197.09444 199.45880 201.90916 204.39452 206.48789 208.33525
 209.96661 211.11698 211.35134 211.58470 211.52706 211.23743 210.87579 210.51115
 210.13352 209.84888 209.66224 209.53160 209.46497 209.80133 210.19269 210.58706
 211.38542 212.56878 213.82415 215.61251 217.54587 219.59423 221.69460 223.78296
 225.84832 227.93769 230.04005 232.15141 234.28577 236.46314 238.72450 241.09986
 243.72623 245.98259 247.98995 249.76031 251.18268 252.31104 253.13840 253.45977
 253.50213 253.28149 252.64685 251.60022 250.21158 248.37794 246.29231 244.13067
 241.92703 239.73640 237.56176 235.40612 233.27148 231.14385 229.17521 227.33757
 225.62594 224.10330 222.73866 221.51602 220.40339 219.36875 218.47811 217.62448
 216.87184 216.05720 215.16056 214.52993 213.98529 213.16933 211.24365 210.36417
 210.82716 212.44014 214.55031 216.49759 219.22603 223.56303 229.38089 234.52704
 238.41011 242.21251 246.00272 249.89893 253.90918 257.55243 260.31815 262.24106
 265.01364 267.83154 270.16052 272.00409 273.82629 275.66074 277.25482 278.86438
 280.58450 282.18121 283.64828 285.00369 286.18600 287.23309 288.19293 289.06577
 289.85553 290.56039 291.18365 292.01123
 366.78100 356.34063 345.77825 334.64988 323.05851 311.25814 299.13376 286.94239
 274.66002 262.56265 250.57727 239.88390 230.01153 221.12116 213.30878 206.31641
 200.15604 195.09967 191.68729 189.73492 188.77755 188.84718 189.68780 191.00143
 192.73206 194.83269 197.10131 199.46594 201.91657 204.40220 206.49582 208.34345
 209.97508 211.12571 211.36033 211.59396 211.53659 211.24722 210.88584 210.52147
 210.14410 209.85973 209.67335 209.54298 209.47661 209.81324 210.20486 210.59949
 211.39812 212.58175 213.83737 215.62600 217.55963 219.60826 221.70888 223.79751
 225.86314 227.95277 230.05539 232.16702 234.30165 236.47928 238.74090 241.11653
 243.74316 245.99979 248.00741 249.77804 251.20067 252.32930 253.15692 253.47855
 253.52118 253.30081 252.66643 251.62006 250.23169 248.39832 246.31294 244.15157
 241.94820 239.75783 237.58345 235.42808 233.29371 231.16634 229.19796 227.36059
 225.64922 224.12685 222.76247 221.54010 220.42773 219.39336 218.50298 217.64961
 216.89724 216.08287 215.18649 214.55612 214.01175 213.21213 211.32465 210.43417
 210.90642 212.51775 214.63725 216.56064 219.20927 223.49852 229.32532 234.45183
 238.31860 242.10892 245.89453 249.80460 253.86099 257.48053 260.20517 262.14825
 264.93198 267.76389 270.10452 271.92993 273.71484 275.52789 277.13974 278.76514
 280.49060 282.08585 283.54904 284.90289 286.08508 287.13391 288.09378 288.96756
 289.75449 290.46451 291.08600 291.91513
 366.78100 356.34082 345.77864 334.65046 323.05927 311.25909 299.13491 286.94373
 274.66155 262.56437 250.57919 239.88601 230.01382 221.12364 213.31146 206.31928
 200.15910 195.10292 191.69074 189.73856 188.78137 188.85119 189.69201 191.00583
 192.73665 194.83747 197.10629 199.47110 201.92192 204.40774 206.50156 208.34938
 209.98120 211.13202 211.36684 211.60065 211.54347 211.25429 210.89311 210.52893
 210.15175 209.86757 209.68138 209.55120 209.48502 209.82184 210.21366 210.60848
 211.40730 212.59112 213.84693 215.63575 217.56957 219.61839 221.71921 223.80803
 225.87385 227.96367 230.06648 232.17830 234.31312 236.49094 238.75276 241.12858
 243.75540 246.01221 248.02003 249.79085 251.21367 252.34249 253.17031 253.49213
 253.53495 253.31476 252.68058 251.63440 250.24622 248.41304 246.32786 244.16668
 241.96349 239.77331 237.59913 235.44395 233.30977 231.18259 229.21441 227.37723
 225.66604 224.14386 222.77968 221.55750 220.44532 219.41114 218.52096 217.66778
 216.91559 216.10141 215.20523 214.57505 214.03087 213.24902 211.40317 210.51453
 210.98259 212.60211 214.72571 216.61191 219.19499 223.43935 229.26938 234.37421
 238.22488 242.00542 245.78807 249.71353 253.81528 257.40433 260.08786 262.05188
 264.84418 267.69064 270.04416 271.85602 273.60724 275.40109 277.02847 278.66907
 280.40060 281.99512 283.45352 284.80762 285.99094 287.03867 287.99954 288.87366
 289.66208 290.36975 290.99356 291.82376
 366.78100 356.34084 345.77869 334.65053 323.05938 311.25922 299.13507 286.94391
 274.66176 262.56460 250.57944 239.88629 230.01413 221.12398 213.31182 206.31967
 200.15951 195.10336 191.69120 189.73904 188.78189 188.85173 189.69258 191.00642
 192.73727 194.83811 197.10696 199.47180 201.92265 204.40849 206.50233 208.35018
 209.98202 211.13287 211.36771 211.60156 211.54440 211.25525 210.89409 210.52993
 210.15278 209.86862 209.68247 209.55231 209.48616 209.82300 210.21485 210.60969
 211.40853 212.59238 213.84822 215.63707 217.57091 219.61976 221.72060 223.80945
 225.87529 227.96513 230.06798 232.17982 234.31467 236.49251 238.75436 241.13020
 243.75705 246.01389 248.02174 249.79258 251.21542 252.34427 253.17211 253.49396
 253.53680 253.31665 252.68249 251.63634 250.24818 248.41502 246.32987 244.16871
 241.96556 239.77540 237.60125 235.44609 233.31194 231.18478 229.21662 227.37947
 225.66831 224.14616 222.78200 221.55985 220.44769 219.41354 218.52338 217.67022
 216.91807 216.10391 215.20776 214.57760 214.03345 213.27531 211.48515 210.60349
 211.05603 212.68700 214.81421 216.66405 219.17528 223.38539 229.21371 234.29785
 238.13037 241.90051 245.68147 249.62428 253.77074 257.32623 259.96851 261.95401
 264.75101 267.60925 269.97662 271.77805 273.50305 275.28067 276.92618 278.58081
 280.31445 281.90839 283.36316 284.71829 285.90060 286.95020 287.91052 288.78397
 289.57385 290.28192 290.90738 291.73697
 366.78100 356.34074 345.77848 334.65022 323.05895 311.25869 299.13443 286.94317
 274.66091 262.56365 250.57838 239.88512 230.01286 221.12260 213.31034 206.31808
 200.15781 195.10155 191.68929 189.73703 188.77977 188.84951 189.69025 191.00398
 192.73472 194.83546 197.10420 199.46894 201.91968 204.40541 206.49915 208.34689
 209.97863 211.12937 211.36411 211.59784 211.54058 211.25132 210.89006 210.52580
 210.14854 209.86428 209.67801 209.54775 209.48149 209.81823 210.20997 210.60471
 211.40344 212.58718 213.84292 215.63166 217.56540 219.61414 221.71487 223.80361
 225.86935 227.95909 230.06183 232.17357 234.30831 236.48604 238.74778 241.12352
 243.75026 246.00700 248.01474 249.78547 251.20821 252.33695 253.16469 253.48643
 253.52917 253.30890 252.67464 251.62838 250.24012 248.40686 246.32160 244.16034
 241.95707 239.76681 237.59255 235.43729 233.30303 231.17577 229.20750 227.37024
 225.65898 224.13672 222.77246 221.55020 220.43794 219.40367 218.51341 217.66015
 216.90789 216.09363 215.19737 214.56710 214.02284 213.29323 211.57013 210.69830
 211.13406 212.76743 214.89827 216.72702 219.14931 223.33138 229.15852 234.22168
 238.03513 241.79416 245.57637 249.53789 253.72505 257.24640 259.84894 261.85565
 264.65140 267.51770 269.89850 271.69492 273.40225 275.17023 276.83286 278.50095
 280.23407 281.82846 283.27887 284.63376 285.81686 286.86572 287.82684 288.70056
 289.49084 290.19937 290.82486 291.65692
 366.78100 356.34056 345.77813 334.64969 323.05825 311.25782 299.13338 286.94194
 274.65951 262.56207 250.57663 239.88320 230.01076 221.12032 213.30789 206.31545
 200.15501 195.09858 191.68614 189.73370 188.77627 188.84583 189.68639 190.99996
 192.73052 194.83109 197.09965 199.46421 201.91478 204.40034 206.49390 208.34147
 209.97303 211.12359 211.35816 211.59172 211.53428 211.24485 210.88341 210.51897
 210.14154 209.85710 209.67066 209.54023 209.47379 209.81035 210.20192 210.59648
 211.39504 212.57861 213.83417 215.62273 217.55630 219.60486 221.70542 223.79399
 225.85955 227.94911 230.05168 232.16324 234.29780 236.47537 238.73693 241.11249
 243.73906 245.99562 248.00318 249.77375 251.19631 252.32487 253.15244 253.47400
 253.51657 253.29613 252.66169 251.61526 250.22682 248.39338 246.30795 244.14651
 241.94307 239.75264 237.57820 235.42276 233.28833 231.16089 229.19245 227.35502
 225.64358 224.12114 222.75671 221.53427 220.42183 219.38740 218.49696 217.64352
 216.89109 216.07665 215.18021 214.54978 214.00534 213.30618 211.65483 210.79883
 211.21614 212.84462 214.98199 216.79398 219.12733 223.27278 229.10147 234.14331
 237.93820 241.68781 245.47475 249.45712 253.67958 257.16544 259.72961 261.75748
 264.54636 267.41589 269.80811 271.60352 273.30307 275.06949 276.74762 278.42667
 280.15988 281.75427 283.20264 284.55737 285.73990 286.79044 287.74988 288.62473
 289.41504 290.12454 290.74976 291.58429
 366.78100 356.34034 345.77767 334.64901 323.05735 311.25668 299.13202 286.94036
 274.65769 262.56003 250.57437 239.88070 230.00804 221.11738 213.30472 206.31205
 200.15139 195.09473 191.68206 189.72940 188.77174 188.84107 189.68141 190.99475
 192.72508 194.82542 197.09376 199.45809 201.90843 204.39377 206.48710 208.33444
 209.96578 211.11611 211.35045 211.58379 211.52613 211.23646 210.87480 210.51014
 210.13247 209.84781 209.66115 209.53048 209.46382 209.80016 210.19149 210.58583
 211.38417 212.56750 213.82284 215.61118 217.54451 219.59285 221.69319 223.78152
 225.84686 227.93620 230.03854 232.14987 234.28421 236.46155 238.72288 241.09822
 243.72456 245.98089 247.98823 249.75857 251.18090 252.30924 253.13658 253.45791
 253.50025 253.27959 252.64492 251.59826 250.20960 248.37593 246.29027 244.12861
 241.92495 239.73428 237.55962 235.40396 233.26929 231.14163 229.17297 227.33530
 225.62364 224.10098 222.73631 221.51365 220.40099 219.36632 218.47566 217.62200
 216.86933 216.05467 215.15801 214.52734 213.98268 213.31560 211.73982 210.90007
 211.30710 212.92036 215.06451 216.86525 219.11008 223.21548 229.04259 234.05768
 237.83528 241.57835 245.37656 249.38365 253.63489 257.08392 259.61163 261.66183
 264.43726 267.30261 269.70514 271.50375 273.20703 274.97992 276.67343 278.36041
 280.09323 281.68530 283.13196 284.48795 285.67050 286.72070 287.68149 288.55569
 289.34619 290.05746 290.68228 291.51883
 366.78100 356.34005 345.77710 334.64815 323.05620 311.25525 299.13031 286.93836
 274.65541 262.55746 250.57151 239.87756 230.00461 221.11366 213.30071 206.30776
 200.14681 195.08986 191.67692 189.72397 188.76602 188.83507 189.67512 190.98817
 192.71822 194.81827 197.08632 199.45037 201.90042 204.38548 206.47853 208.32558
 209.95663 211.10668 211.34073 211.57378 211.51583 211.22588 210.86393 210.49898
 210.12103 209.83609 209.64914 209.51819 209.45124 209.78729 210.17834 210.57239
 211.37044 212.55349 213.80854 215.59659 217.52964 219.57770 221.67775 223.76580
 225.83085 227.91990 230.02195 232.13300 234.26705 236.44410 238.70515 241.08020
 243.70626 245.96231 247.96936 249.73941 251.16146 252.28951 253.11656 253.43761
 253.47966 253.25871 252.62376 251.57681 250.18787 248.35392 246.26797 244.10602
 241.90207 239.71112 237.53617 235.38022 233.24527 231.11732 229.14837 227.31043
 225.59848 224.07553 222.71058 221.48763 220.37468 219.33973 218.44878 217.59483
 216.84188 216.02693 215.12998 214.49904 213.95409 213.32089 211.82504 211.00188
 211.40248 213.00110 215.14374 216.92743 219.10370 223.16014 228.97774 233.96152
 237.72589 241.46735 245.28296 249.31874 253.59201 257.00406 259.49683 261.57065
 264.32452 267.17792 269.58865 271.39465 273.11221 274.90128 276.60883 278.29959
 280.03195 281.62183 283.06967 284.42545 285.60788 286.65811 287.61902 288.49237
 289.28604 289.99304 290.62100 291.45602
 366.78100 356.33976 345.77651 334.64727 323.05503 311.25378 299.12854 286.93629
 274.65305 262.55481 250.56856 239.87432 230.00108 221.10983 213.29659 206.30335
 200.14210 195.08486 191.67161 189.71837 188.76013 188.82888 189.66864 190.98140
 192.71115 194.81091 197.07867 199.44242 201.89218 204.37693 206.46969 208.31645
 209.94720 211.09696 211.33072 211.56347 211.50523 211.21499 210.85274 210.48750
 210.10925 209.82401 209.63677 209.50552 209.43828 209.77404 210.16479 210.55855
 211.35631 212.53906 213.79382 215.58157 217.51433 219.56209 221.66184 223.74960
 225.81436 227.90311 230.00487 232.11563 234.24938 236.42614 238.68689 241.06165
 243.68741 245.94316 247.94992 249.71968 251.14143 252.26919 253.09595 253.41670
 253.45846 253.23721 252.60197 251.55473 250.16548 248.33124 246.24500 244.08275
 241.87851 239.68727 237.51202 235.35578 233.22053 231.09229 229.12305 227.28480
 225.57256 224.04932 222.68407 221.46083 220.34759 219.31234 218.42110 217.56685
 216.81361 215.99837 215.10112 214.46988 213.92464 213.32422 211.90567 211.11775
 211.50021 213.06554 215.22328 216.98911 219.09727 223.11273 228.91428 233.86183
 237.61189 241.35378 245.19290 249.25955 253.54974 256.92593 259.38937 261.48856
 264.21204 267.04413 269.45877 271.27515 273.01532 274.82834 276.54730 278.23831
 279.97144 281.56152 283.01196 284.36713 285.55139 286.60159 287.56165 288.43689
 289.22867 289.93912 290.56635 291.40494
 366.78100 356.33888 345.77476 334.64464 323.05152 311.24940 299.12328 286.93016
 274.64603 262.54691 250.55979 239.86467 229.99055 221.09843 213.28431 206.29019
 200.12807 195.06995 191.65583 189.70171 188.74259 188.81047 189.64934 190.96122
 192.69010 194.78898 197.05586 199.41874 201.86762 204.35150 206.44338 208.28926
 209.91914 211.06802 211.30090 211.53278 211.47365 211.18253 210.81941 210.45329
 210.07417 209.78805 209.59993 209.46781 209.39969 209.73457 210.12445 210.51733
 211.31421 212.49609 213.74996 215.53684 217.46872 219.51560 221.61448 223.70136
 225.76524 227.85312 229.95400 232.06388 234.19676 236.37264 238.63252 241.00640
 243.63127 245.88615 247.89203 249.66091 251.08179 252.20867 253.03455 253.35443
 253.39531 253.17319 252.53707 251.48895 250.09883 248.26371 246.17658 244.01346
 241.80834 239.61622 237.44010 235.28298 233.14686 231.01774 229.04762 227.20850
 225.49538 223.97126 222.60514 221.38102 220.26689 219.23077 218.33865 217.48353
 216.72941 215.91329 215.01517 214.38305 213.83693 213.29720 212.02205 211.21599
 211.59134 213.13026 215.29938 217.05984 219.10939 223.07353 228.84299 233.75529
 237.49564 241.24153 245.10878 249.20769 253.50751 256.84906 259.28775 261.41431
 264.09933 266.90057 269.31567 271.14435 272.91422 274.75949 276.48959 278.17783
 279.91049 281.50256 282.96014 284.31662 285.49991 286.55063 287.51160 288.38687
 289.17676 289.88922 290.51694 291.35751
 366.78100 356.33838 345.77376 334.64314 323.04952 311.24690 299.12028 286.92666
 274.64204 262.54242 250.55480 239.85918 229.98455 221.09193 213.27731 206.28269
 200.12007 195.06145 191.64683 189.69221 188.73259 188.79997 189.63835 190.94973
 192.67811 194.77649 197.04287 199.40525 201.85363 204.33701 206.42839 208.27377
 209.90315 211.05153 211.28391 211.51528 211.45566 211.16404 210.80042 210.43380
 210.05418 209.76756 209.57894 209.44632 209.37770 209.71208 210.10146 210.49384
 211.29022 212.47160 213.72498 215.51136 217.44274 219.48912 221.58750 223.67388
 225.73726 227.82464 229.92501 232.03439 234.16677 236.34215 238.60153 240.97491
 243.59929 245.85367 247.85905 249.62743 251.04781 252.17419 252.99957 253.31895
 253.35933 253.13671 252.50009 251.45147 250.06085 248.22523 246.13761 243.97399
 241.76837 239.57574 237.39912 235.24150 233.10488 230.97526 229.00464 227.16502
 225.45140 223.92678 222.56016 221.33554 220.22092 219.18430 218.29168 217.43606
 216.68144 215.86482 214.96620 214.33358 213.78696 213.28752 212.10754 211.34782
 211.65939 213.19466 215.40414 217.12880 219.11794 223.03159 228.77847 233.65137
 237.37746 241.12671 245.02579 249.15720 253.45917 256.76328 259.18088 261.33902
 263.98450 266.74930 269.16351 271.01086 272.81952 274.70349 276.44315 278.12549
 279.85352 281.44464 282.91327 284.26990 285.45361 286.50443 287.46515 288.33838
 289.13293 289.84418 290.47241 291.31433
 366.78100 356.33809 345.77318 334.64226 323.04835 311.24544 299.11853 286.92462
 274.63970 262.53979 250.55188 239.85597 229.98106 221.08814 213.27323 206.27832
 200.11541 195.05650 191.64158 189.68667 188.72676 188.79385 189.63194 190.94302
 192.67111 194.76920 197.03529 199.39738 201.84546 204.32855 206.41964 208.26473
 209.89382 211.04190 211.27399 211.50508 211.44517 211.15325 210.78934 210.42243
 210.04252 209.75561 209.56669 209.43378 209.36487 209.69896 210.08805 210.48013
 211.27622 212.45731 213.71040 215.49649 217.42757 219.47366 221.57175 223.65784
 225.72093 227.80801 229.90810 232.01719 234.14928 236.32437 238.58345 240.95654
 243.58063 245.83472 247.83981 249.60789 251.02798 252.15407 252.97916 253.29825
 253.33833 253.11542 252.47851 251.42960 250.03869 248.20277 246.11486 243.95095
 241.74504 239.55213 237.37521 235.21730 233.08039 230.95048 228.97957 227.13965
 225.42574 223.90083 222.53392 221.30901 220.19409 219.15718 218.26427 217.40836
 216.65345 215.83653 214.93762 214.30471 213.75780 213.28886 212.18095 211.44345
 211.81578 213.25908 215.47165 217.19603 219.13266 222.99969 228.69235 233.52243
 237.24220 241.00148 244.94156 249.10928 253.40845 256.67657 259.08151 261.27634
 263.87708 266.59988 269.01367 270.88425 272.73383 274.65814 276.40659 278.07831
 279.79941 281.39047 282.86884 284.22647 285.41095 286.46036 287.42169 288.29523
 289.08786 289.80234 290.42987 291.27499
 366.78100 356.33724 345.77149 334.63973 323.04497 311.24122 299.11346 286.91870
 274.63295 262.53219 250.54343 239.84668 229.97092 221.07716 213.26141 206.26565
 200.10189 195.04214 191.62638 189.67062 188.70987 188.77611 189.61335 190.92360
 192.65084 194.74808 197.01333 199.37457 201.82182 204.30406 206.39430 208.23855
 209.86679 211.01403 211.24528 211.47552 211.41476 211.12201 210.75725 210.38949
 210.00874 209.72098 209.53122 209.39747 209.32771 209.66095 210.04920 210.44044
 211.23568 212.41593 213.66817 215.45341 217.38366 219.42890 221.52614 223.61139
 225.67363 227.75987 229.85912 231.96736 234.09860 236.27285 238.53109 240.90333
 243.52658 245.77982 247.78406 249.55131 250.97055 252.09579 252.92004 253.23828
 253.27752 253.05377 252.41601 251.36625 249.97450 248.13774 246.04899 243.88423
 241.67747 239.48372 237.30596 235.14720 233.00945 230.87869 228.90693 227.06618
 225.35142 223.82566 222.45791 221.23215 220.11639 219.07864 218.18488 217.32812
 216.57237 215.75461 214.85485 214.22110 213.67334 213.26237 212.29141 211.51308
 211.88435 213.47614 215.58812 217.19592 219.10732 222.90178 228.60527 233.40266
 237.11177 240.88881 244.87234 249.07315 253.36359 256.59940 258.99707 261.22681
 263.77844 266.45267 268.86313 270.75613 272.64618 274.61063 276.36621 278.02646
 279.74524 281.33176 282.82782 284.18607 285.37030 286.42050 287.38248 288.25604
 289.04904 289.75989 290.39072 291.23517
 366.78100 356.33644 345.76989 334.63733 323.04178 311.23722 299.10867 286.91311
 274.62655 262.52500 250.53544 239.83789 229.96133 221.06678 213.25022 206.25366
 200.08911 195.02855 191.61200 189.65544 188.69389 188.75933 189.59577 190.90522
 192.63166 194.72811 196.99255 199.35300 201.79944 204.28088 206.37033 208.21377
 209.84122 210.98766 211.21811 211.44755 211.38599 211.09244 210.72688 210.35833
 209.97677 209.68822 209.49766 209.36310 209.29255 209.62499 210.01244 210.40288
 211.19733 212.37677 213.62821 215.41266 217.34210 219.38655 221.48299 223.56744
 225.62888 227.71432 229.81277 231.92021 234.05066 236.22410 238.48155 240.85299
 243.47543 245.72788 247.73132 249.49777 250.91621 252.04066 252.86410 253.18154
 253.21999 252.99543 252.35688 251.30632 249.91377 248.07621 245.98666 243.82110
 241.61354 239.41899 237.24043 235.08088 232.94232 230.81077 228.83821 226.99665
 225.28110 223.75454 222.38599 221.15943 220.04288 219.00432 218.10976 217.25221
 216.49565 215.67710 214.77654 214.14199 213.59343 213.23627 212.39247 211.63258
 211.91240 213.64357 215.71223 217.21729 219.08467 222.80750 228.52901 233.29449
 236.99010 240.78874 244.81587 249.04410 253.31830 256.52130 258.91251 261.17719
 263.67999 266.30246 268.70636 270.62396 272.55511 274.56073 276.32056 277.96954
 279.68454 281.26682 282.79105 284.15240 285.33746 286.38562 287.34732 288.22217
 289.01547 289.72803 290.35715 291.20905
 366.78100 356.33580 345.76859 334.63539 323.03919 311.23398 299.10478 286.90858
 274.62137 262.51917 250.52897 239.83076 229.95356 221.05836 213.24115 206.24395
 200.07874 195.01754 191.60034 189.64313 188.68093 188.74573 189.58152 190.89032
 192.61612 194.71191 196.97571 199.33551 201.78130 204.26210 206.35090 208.19369
 209.82049 210.96629 211.19608 211.42488 211.36268 211.06847 210.70227 210.33307
 209.95086 209.66166 209.47046 209.33525 209.26405 209.59585 209.98264 210.37244
 211.16623 212.34503 213.59583 215.37962 217.30842 219.35222 221.44801 223.53181
 225.59261 227.67740 229.77520 231.88200 234.01179 236.18459 238.44139 240.81218
 243.43398 245.68578 247.68857 249.45437 250.87217 251.99596 252.81876 253.13556
 253.17335 252.94815 252.30895 251.25774 249.86454 248.02634 245.93613 243.76993
 241.56172 239.36652 237.18732 235.02711 232.88791 230.75571 228.78250 226.94030
 225.22410 223.69689 222.32769 221.10049 219.98328 218.94408 218.04888 217.19067
 216.43347 215.61427 214.71306 214.07786 213.52866 213.21674 212.47978 211.76083
 211.97301 213.76556 215.81589 217.25276 219.07547 222.72690 228.46024 233.18823
 236.87140 240.69386 244.76454 249.01707 253.26669 256.43539 258.82050 261.12100
 263.57965 266.15176 268.55002 270.49435 272.46884 274.51578 276.28094 277.91614
 279.62619 281.21585 282.75153 284.11411 285.30014 286.35013 287.31238 288.18716
 288.98129 289.69534 290.32416 291.17621
 366.78100 356.33512 345.76725 334.63337 323.03649 311.23062 299.10074 286.90387
 274.61599 262.51311 250.52224 239.82336 229.94548 221.04961 213.23173 206.23385
 200.06798 195.00610 191.58823 189.63035 188.66747 188.73160 189.56672 190.87484
 192.59997 194.69509 196.95821 199.31734 201.76246 204.24259 206.33071 208.17283
 209.79896 210.94408 211.17320 211.40133 211.33845 211.04357 210.67670 210.30682
 209.92395 209.63407 209.44219 209.30632 209.23444 209.56556 209.95169 210.34081
 211.13394 212.31206 213.56218 215.34531 217.27343 219.31655 221.41168 223.49480
 225.55492 227.63905 229.73617 231.84230 233.97142 236.14354 238.39967 240.76979
 243.39091 245.64204 247.64416 249.40928 250.82641 251.94953 252.77166 253.08778
 253.12490 252.89903 252.25915 251.20727 249.81340 247.97452 245.88364 243.71677
 241.50789 239.31202 237.13214 234.97126 232.83139 230.69851 228.72463 226.88176
 225.16488 223.63700 222.26713 221.03925 219.92138 218.88150 217.98562 217.12675
 216.36887 215.54899 214.64712 214.01124 213.46136 213.19565 212.56787 211.87535
 212.07162 213.87198 215.89053 217.28836 219.07910 222.65736 228.39125 233.07968
 236.75502 240.60478 244.71925 248.99149 253.20863 256.34161 258.72327 261.05969
 263.47913 266.00391 268.39874 270.37292 272.39066 274.47824 276.24854 277.86835
 279.57123 281.17014 282.70932 284.07425 285.25937 286.31226 287.27277 288.15060
 288.94229 289.65707 290.28549 291.14618
 366.78100 356.33445 345.76590 334.63134 323.03379 311.22724 299.09669 286.89913
 274.61058 262.50703 250.51548 239.81592 229.93737 221.04082 213.22227 206.22372
 200.05716 194.99461 191.57606 189.61751 188.65395 188.71740 189.55185 190.85930
 192.58374 194.67819 196.94064 199.29909 201.74354 204.22298 206.31043 208.15188
 209.77733 210.92177 211.15022 211.37767 211.31412 211.01856 210.65101 210.28046
 209.89691 209.60636 209.41380 209.27725 209.20470 209.53515 209.92059 210.30904
 211.10149 212.27894 213.52838 215.31083 217.23828 219.28073 221.37517 223.45762
 225.51707 227.60052 229.69697 231.80241 233.93086 236.10231 238.35776 240.72720
 243.34765 245.59810 247.59955 249.36399 250.78044 251.90289 252.72434 253.03979
 253.07623 252.84968 252.20913 251.15658 249.76202 247.92247 245.83092 243.66337
 241.45381 239.25726 237.07671 234.91516 232.77461 230.64105 228.66650 226.82295
 225.10540 223.57684 222.20629 220.97774 219.85919 218.81863 217.92208 217.06253
 216.30398 215.48343 214.58087 213.94432 213.39377 213.17381 212.65413 211.98833
 212.18521 213.97169 215.94511 217.32042 219.08511 222.59975 228.31819 232.97206
 236.64508 240.52452 244.68004 248.96762 253.14459 256.24045 258.61975 260.99203
 263.37976 265.86292 268.25644 270.26425 272.32150 274.44409 276.21799 277.82349
 279.51666 281.12628 282.66785 284.03369 285.22009 286.27213 287.23407 288.11057
 288.90427 289.62045 290.25052 291.10641
 366.78100 356.33376 345.76451 334.62927 323.03102 311.22378 299.09253 286.89429
 274.60504 262.50080 250.50856 239.80831 229.92907 221.03182 213.21258 206.21333
 200.04609 194.98284 191.56360 189.60436 188.64011 188.70287 189.53662 190.84338
 192.56713 194.66089 196.92264 199.28040 201.72416 204.20291 206.28967 208.13042
 209.75518 210.89893 211.12669 211.35344 211.28920 210.99296 210.62471 210.25347
 209.86922 209.57798 209.38473 209.24749 209.17424 209.50400 209.88876 210.27651
 211.06827 212.24502 213.49378 215.27553 217.20229 219.24404 221.33780 223.41955
 225.47831 227.56107 229.65682 231.76158 233.88933 236.06009 238.31484 240.68360
 243.30335 245.55311 247.55387 249.31762 250.73338 251.85513 252.67589 252.99064
 253.02640 252.79915 252.15791 251.10467 249.70942 247.86918 245.77693 243.60869
 241.39844 239.20120 237.01995 234.85771 232.71647 230.58222 228.60698 226.76273
 225.04449 223.51524 222.14400 220.91475 219.79551 218.75427 217.85702 216.99678
 216.23753 215.41629 214.51304 213.87580 213.32455 213.15033 212.73868 212.11014
 212.29910 214.06540 215.99030 217.34698 219.08754 222.55441 228.24585 232.86911
 236.54393 240.45302 244.64679 248.94370 253.07195 256.12909 258.50809 260.91693
 263.28320 265.73138 268.12668 270.17007 272.26166 274.41180 276.18567 277.77936
 279.46011 281.08240 282.62613 283.99323 285.17966 286.23373 287.19406 288.07169
 288.86658 289.58075 290.21097 291.07053
 366.78100 356.33300 345.76300 334.62700 323.02800 311.22000 299.08800 286.88900
 274.59900 262.49400 250.50100 239.80000 229.92000 221.02200 213.20200 206.20200
 200.03400 194.97000 191.55000 189.59000 188.62500 188.68700 189.52000 190.82599
 192.54899 194.64199 196.90299 199.25999 201.70299 204.18099 206.26699 208.10699
 209.73099 210.87399 211.10099 211.32699 211.26199 210.96499 210.59599 210.22399
 209.83899 209.54699 209.35299 209.21499 209.14099 209.46999 209.85399 210.24099
 211.03199 212.20799 213.45599 215.23699 217.16299 219.20399 221.29699 223.37799
 225.43599 227.51799 229.61299 231.71699 233.84399 236.01399 238.26799 240.63599
 243.25499 245.50399 247.50399 249.26699 250.68198 251.80298 252.62298 252.93698
 252.97198 252.74398 252.10198 251.04798 249.65198 247.81098 245.71798 243.54898
 241.33798 239.13998 236.95798 234.79498 232.65298 230.51798 228.54198 226.69698
 224.97798 223.44798 222.07598 220.84598 219.72598 218.68398 217.78598 216.92498
 216.16498 215.34298 214.43898 213.80098 213.24898 213.12262 212.82410 212.24368
 212.41231 214.15118 216.02393 217.36504 219.09911 222.51752 228.17854 232.77301
 236.45316 240.39172 244.61873 248.91766 252.98967 256.00696 258.38876 260.83475
 263.18890 265.61127 268.01157 270.08951 272.21069 274.38043 276.15207 277.73407
 279.40448 281.03934 282.58420 283.95050 285.13937 286.19202 287.15454 288.03125
 288.82651 289.54120 290.17221 291.03461
 366.78100 356.33217 345.76134 334.62450 323.02467 311.21584 299.08301 286.88318
 274.59235 262.48651 250.49268 239.79085 229.91002 221.01119 213.19036 206.18952
 200.02069 194.95586 191.53503 189.57420 188.60837 188.66953 189.50170 190.80687
 192.52904 194.62121 196.88138 199.23754 201.67971 204.15688 206.24205 208.08122
 209.70439 210.84655 211.07272 211.29789 211.23206 210.93423 210.56440 210.19156
 209.80573 209.51290 209.31807 209.17924 209.10441 209.43257 209.81574 210.20191
 210.99208 212.16725 213.41442 215.19458 217.11975 219.15992 221.25209 223.33226
 225.38943 227.47059 229.56476 231.66793 233.79410 235.96327 238.21644 240.58360
 243.20177 245.44994 247.44911 249.21128 250.62545 251.74561 252.56478 252.87795
 252.91212 252.68329 252.04046 250.98562 249.58879 247.74696 245.65313 243.48330
 241.27147 239.07263 236.88980 234.72597 232.58314 230.44731 228.47048 226.62464
 224.90481 223.37398 222.00115 220.77032 219.64949 218.60665 217.70782 216.84599
 216.08516 215.26233 214.35750 213.71866 213.16583 213.09053 212.91260 212.38780
 212.52774 214.22421 216.03693 217.37688 219.11572 222.48421 228.11725 232.68533
 236.37363 240.34108 244.59544 248.88889 252.89734 255.87691 258.26425 260.74341
 263.09445 265.49915 267.90735 270.02133 272.16769 274.35165 276.12073 277.69296
 279.35007 280.99643 282.54181 283.90903 285.09744 286.15018 287.11313 287.99106
 288.78455 289.50116 290.13153 290.99454
 366.78100 356.33133 345.75965 334.62198 323.02131 311.21163 299.07796 286.87729
 274.58561 262.47894 250.48426 239.78159 229.89992 221.00024 213.17857 206.17690
 200.00722 194.94155 191.51988 189.55820 188.59153 188.65186 189.48318 190.78751
 192.50884 194.60016 196.85949 199.21482 201.65614 204.13247 206.21679 208.05512
 209.67745 210.81877 211.04410 211.26843 211.20175 210.90308 210.53241 210.15873
 209.77206 209.47839 209.28271 209.14304 209.06737 209.39469 209.77702 210.16235
 210.95167 212.12600 213.37232 215.15165 217.07598 219.11530 221.20663 223.28596
 225.34228 227.42261 229.51594 231.61826 233.74359 235.91192 238.16424 240.53057
 243.14790 245.39522 247.39355 249.15488 250.56820 251.68753 252.50585 252.81818
 252.85151 252.62183 251.97816 250.92249 249.52481 247.68214 245.58747 243.41679
 241.20412 239.00445 236.82077 234.65610 232.51243 230.37575 228.39808 226.55141
 224.83073 223.29906 221.92538 220.69371 219.57204 218.52836 217.62869 216.76602
 216.00434 215.18067 214.27500 213.63532 213.08165 213.05768 213.00105 212.54010
 212.64676 214.28622 216.02827 217.37802 219.13773 222.45499 228.06242 232.60849
 236.30696 240.30240 244.57834 248.85941 252.79834 255.74178 258.13397 260.63876
 262.99310 265.39081 267.81204 269.96289 272.13403 274.32693 276.09393 277.65640
 279.29269 280.95984 282.50302 283.86884 285.05646 286.10938 287.07269 287.94901
 288.74451 289.45938 290.09119 290.95291
 366.78100 356.33045 345.75789 334.61934 323.01778 311.20723 299.07268 286.87112
 274.57857 262.47102 250.47546 239.77191 229.88935 220.98880 213.16625 206.16369
 199.99314 194.92659 191.50403 189.54148 188.57392 188.63337 189.46382 190.76726
 192.48771 194.57816 196.83660 199.19105 201.63149 204.10694 206.19039 208.02783
 209.64928 210.78973 211.01417 211.23762 211.17006 210.87051 210.49896 210.12440
 209.73685 209.44229 209.24574 209.10519 209.02863 209.35508 209.73653 210.12097
 210.90942 212.08286 213.32831 215.10676 217.03020 219.06865 221.15910 223.23754
 225.29299 227.37243 229.46488 231.56633 233.69077 235.85822 238.10967 240.47511
 243.09156 245.33800 247.33545 249.09590 250.50834 251.62679 252.44424 252.75568
 252.78813 252.55757 251.91302 250.85647 249.45791 247.61436 245.51881 243.34725
 241.13370 238.93314 236.74859 234.58304 232.43848 230.30093 228.32237 226.47482
 224.75327 223.22071 221.84616 220.61361 219.49105 218.44650 217.54594 216.68239
 215.91984 215.09528 214.18873 213.54818 212.99362 213.02342 213.09384 212.69096
 212.77586 214.33279 215.99112 217.38051 219.16574 222.43384 228.01364 232.54475
 236.25386 240.27657 244.56978 248.83182 252.69452 255.60060 257.99399 260.51590
 262.87918 265.28156 267.72208 269.91449 272.11072 274.30722 276.06964 277.62308
 279.23868 280.92743 282.46664 283.83002 285.01572 286.06839 287.03232 287.90714
 288.70541 289.41946 290.05069 290.91339
 366.78100 356.32971 345.75643 334.61714 323.01486 311.20357 299.06828 286.86600
 274.57271 262.46443 250.46814 239.76385 229.88057 220.97928 213.15600 206.15271
 199.98142 194.91414 191.49085 189.52757 188.55928 188.61799 189.44771 190.75042
 192.47013 194.55985 196.81756 199.17128 201.61099 204.08570 206.16842 208.00513
 209.62585 210.76556 210.98927 211.21199 211.14370 210.84342 210.47113 210.09584
 209.70756 209.41227 209.21499 209.07370 208.99641 209.32213 209.70284 210.08656
 210.87427 212.04698 213.29170 215.06941 216.99213 219.02984 221.11955 223.19727
 225.25198 227.33070 229.42241 231.52312 233.64684 235.81355 238.06426 240.42898
 243.04469 245.29041 247.28712 249.04683 250.45855 251.57626 252.39298 252.70369
 252.73540 252.50412 251.85883 250.80155 249.40226 247.55797 245.46169 243.28940
 241.07512 238.87383 236.68854 234.52226 232.37697 230.23869 228.25940 226.41111
 224.68883 223.15554 221.78026 220.54697 219.42368 218.37840 217.47711 216.61283
 215.84954 215.02425 214.11697 213.47568 212.92039 212.99712 213.17834 212.86299
 212.89020 214.36053 215.95441 217.37347 219.18785 222.41785 227.97610 232.49495
 236.21339 240.26297 244.56905 248.80667 252.58702 255.45398 257.84528 260.37674
 262.75467 265.17151 267.63843 269.87415 272.09451 274.28848 276.04099 277.58630
 279.20004 280.88815 282.42685 283.79166 284.97708 286.03015 286.99203 287.86978
 288.66574 289.38104 290.01273 290.87323
 366.78100 356.32831 345.75362 334.61293 323.00924 311.19655 299.05986 286.85617
 274.56148 262.45179 250.45410 239.74841 229.86372 220.96103 213.13634 206.13165
 199.95896 194.89027 191.46558 189.50089 188.53120 188.58851 189.41682 190.71813
 192.43644 194.52475 196.78106 199.13337 201.57168 204.04499 206.12630 207.96160
 209.58091 210.71922 210.94153 211.16284 211.09315 210.79146 210.41777 210.04108
 209.65139 209.35470 209.15601 209.01332 208.93463 209.25894 209.63825 210.02056
 210.80687 211.97818 213.22149 214.99780 216.91911 218.95542 221.04373 223.12004
 225.17335 227.25066 229.34097 231.44028 233.56259 235.72790 237.97721 240.34052
 242.95483 245.19914 247.19445 248.95276 250.36307 251.47938 252.29469 252.60400
 252.63431 252.40162 251.75493 250.69624 249.29555 247.44986 245.35217 243.17848
 240.96279 238.76010 236.57341 234.40572 232.25903 230.11934 228.13865 226.28896
 224.56527 223.03058 221.65389 220.41920 219.29450 218.24781 217.34512 216.47943
 215.71474 214.88805 213.97936 213.33667 212.77998 212.93829 213.31233 212.99319
 213.03177 214.39078 215.86006 217.35826 219.22757 222.40598 227.94159 232.45493
 236.18558 240.26382 244.57980 248.78734 252.48138 255.30679 257.69223 260.22491
 262.61981 265.05890 267.55667 269.83755 272.08014 274.26611 276.00552 277.54340
 279.14874 280.85687 282.39536 283.75659 284.94153 285.99362 286.95639 287.83353
 288.63040 289.34320 289.97708 290.83511
 366.78100 356.32699 345.75097 334.60896 323.00395 311.18993 299.05192 286.84691
 274.55089 262.43988 250.44086 239.73385 229.84784 220.94382 213.11781 206.11180
 199.93778 194.86777 191.44176 189.47574 188.50473 188.56072 189.38770 190.68769
 192.40467 194.49166 196.74665 199.09763 201.53462 204.00661 206.08659 207.92058
 209.53857 210.67555 210.89654 211.11653 211.04551 210.74250 210.36748 209.98947
 209.59846 209.30044 209.10043 208.95642 208.87640 209.19939 209.57738 209.95836
 210.74335 211.91334 213.15532 214.93031 216.85029 218.88528 220.97227 223.04725
 225.09924 227.17523 229.26421 231.36220 233.48319 235.64717 237.89516 240.25715
 242.87013 245.11312 247.10711 248.86409 250.27308 251.38806 252.20205 252.51004
 252.53902 252.30501 251.65700 250.59698 249.19497 247.34796 245.24894 243.07393
 240.85692 238.65290 236.46489 234.29587 232.14786 230.00685 228.02483 226.17382
 224.44881 222.91279 221.53478 220.29877 219.17275 218.12474 217.22073 216.35371
 215.58770 214.75968 213.84967 213.20566 212.64764 212.88292 213.43881 213.19090
 213.07782 214.36801 215.83180 217.35568 219.24585 222.41211 227.92581 232.43253
 236.17564 240.27997 244.60046 248.76958 252.36966 255.14656 257.52206 260.05121
 262.46692 264.93839 267.47452 269.80316 272.06882 274.24655 275.97281 277.50424
 279.09680 280.82504 282.36633 283.72665 284.91000 285.96051 286.92252 287.80121
 288.59485 289.31064 289.94385 290.80121
 366.78100 356.32792 345.75284 334.61176 323.00768 311.19459 299.05751 286.85343
 274.55835 262.44827 250.45019 239.74411 229.85903 220.95595 213.13086 206.12578
 199.95270 194.88362 191.45854 189.49346 188.52338 188.58030 189.40822 190.70913
 192.42705 194.51497 196.77089 199.12281 201.56073 204.03365 206.11457 207.94949
 209.56840 210.70632 210.92824 211.14916 211.07908 210.77700 210.40292 210.02584
 209.63576 209.33868 209.13959 208.99651 208.91743 209.24135 209.62027 210.00219
 210.78811 211.95903 213.20195 214.97786 216.89878 218.93470 221.02262 223.09854
 225.15146 227.22838 229.31830 231.41722 233.53913 235.70405 237.95297 240.31589
 242.92981 245.17373 247.16865 248.92657 250.33649 251.45240 252.26732 252.57624
 252.60616 252.37308 251.72600 250.66692 249.26584 247.41976 245.32167 243.14759
 240.93151 238.72843 236.54135 234.37327 232.22619 230.08611 228.10503 226.25494
 224.53086 222.99578 221.61870 220.38362 219.25854 218.21146 217.30838 216.44230
 215.67721 214.85013 213.94105 213.29797 212.74089 212.94118 213.41437 213.46317
 213.25430 214.28809 215.67209 217.36290 219.34604 222.41104 227.91054 232.41618
 236.17053 240.30103 244.61986 248.74100 252.23836 254.96091 257.32816 259.85687
 262.30267 264.81805 267.39951 269.78015 272.06906 274.23758 275.95270 277.47617
 279.06012 280.79382 282.33524 283.69580 284.87827 285.92978 286.89188 287.77011
 288.56311 289.28015 289.91006 290.76938
 366.78100 356.32733 345.75166 334.60998 323.00531 311.19164 299.05397 286.84930
 274.55362 262.44295 250.44428 239.73761 229.85194 220.94826 213.12259 206.11692
 199.94325 194.87357 191.44790 189.48223 188.51156 188.56789 189.39521 190.69554
 192.41287 194.50020 196.75553 199.10685 201.54418 204.01651 206.09684 207.93117
 209.54949 210.68682 210.90815 211.12848 211.05781 210.75513 210.38046 210.00279
 209.61212 209.31445 209.11477 208.97110 208.89143 209.21476 209.59308 209.97441
 210.75974 211.93007 213.17240 214.94772 216.86805 218.90338 220.99071 223.06604
 225.11836 227.19469 229.28402 231.38235 233.50368 235.66800 237.91633 240.27866
 242.89199 245.13532 247.12964 248.88697 250.29630 251.41163 252.22596 252.53428
 252.56361 252.32994 251.68227 250.62259 249.22092 247.37425 245.27558 243.10091
 240.88423 238.68056 236.49289 234.32422 232.17655 230.03587 228.05420 226.20353
 224.47886 222.94319 221.56551 220.32984 219.20417 218.15650 217.25283 216.38615
 215.62048 214.79281 213.88314 213.23947 212.68179 212.92717 213.50690 213.65643
 213.36076 214.22546 215.56255 217.40262 219.46036 222.41757 227.88985 232.39532
 236.16589 240.32362 244.63487 248.69981 252.08984 254.76024 257.12650 259.65933
 262.14294 264.70935 267.33969 269.77216 272.07962 274.23392 275.93674 277.45166
 279.03464 280.76053 282.30295 283.66446 284.84763 285.89874 286.86130 287.73834
 288.53369 289.24826 289.87903 290.73251
 366.78100 356.32607 345.74915 334.60622 323.00030 311.18537 299.04644 286.84052
 274.54359 262.43166 250.43174 239.72381 229.83689 220.93196 213.10503 206.09811
 199.92318 194.85225 191.42533 189.45840 188.48648 188.54155 189.36762 190.66670
 192.38277 194.46885 196.72292 199.07299 201.50907 203.98014 206.05921 207.89229
 209.50936 210.64544 210.86551 211.08458 211.01266 210.70873 210.33280 209.95388
 209.56195 209.26303 209.06210 208.91717 208.83625 209.15832 209.53540 209.91547
 210.69954 211.86862 213.10969 214.88376 216.80284 218.83691 220.92299 222.99706
 225.04813 227.12321 229.21128 231.30835 233.42843 235.59150 237.83858 240.19965
 242.81172 245.05380 247.04687 248.80295 250.21102 251.32509 252.13817 252.44524
 252.47331 252.23839 251.58946 250.52854 249.12561 247.27768 245.17776 243.00183
 240.78390 238.57898 236.39005 234.22013 232.07120 229.92927 227.94635 226.09442
 224.36850 222.83157 221.45264 220.21572 219.08879 218.03986 217.13494 216.26701
 215.50009 214.67116 213.76023 213.11531 212.55638 212.88167 213.65021 213.79176
 213.42874 214.22743 215.54814 217.42676 219.50493 222.42204 227.85930 232.36562
 236.15971 240.34729 244.64594 248.64891 251.93347 254.55811 256.92981 259.46762
 261.99237 264.61157 267.28967 269.76944 272.09012 274.22397 275.91098 277.41974
 278.99951 280.73303 282.27408 283.63565 284.81760 285.86908 286.83102 287.70895
 288.50436 289.21988 289.84982 290.70328
 366.78100 356.32528 345.74757 334.60385 322.99713 311.18141 299.04170 286.83498
 274.53726 262.42455 250.42383 239.71511 229.82740 220.92168 213.09396 206.08624
 199.91053 194.83881 191.41109 189.44338 188.47066 188.52494 189.35022 190.64851
 192.36379 194.44907 196.70236 199.05164 201.48692 203.95721 206.03549 207.86777
 209.48405 210.61934 210.83862 211.05690 210.98419 210.67947 210.30275 209.92304
 209.53032 209.23060 209.02888 208.88317 208.80145 209.12273 209.49902 209.87830
 210.66158 211.82986 213.07015 214.84343 216.76171 218.79500 220.88028 222.95356
 225.00385 227.07813 229.16541 231.26169 233.38098 235.54326 237.78954 240.14983
 242.76111 245.00239 246.99467 248.74996 250.15724 251.27052 252.08281 252.38909
 252.41637 252.18066 251.53094 250.46922 249.06550 247.21679 245.11607 242.93935
 240.72064 238.51492 236.32520 234.15448 232.00477 229.86205 227.87833 226.02562
 224.29890 222.76118 221.38147 220.14375 219.01603 217.96631 217.06060 216.19188
 215.42416 214.59445 213.68273 213.03701 212.47729 212.86157 213.76949 213.91499
 213.51382 214.25569 215.56166 217.42119 219.50850 222.43199 227.82266 232.33630
 236.15865 240.37503 244.65627 248.59314 251.77541 254.35968 256.73837 259.27911
 261.84534 264.51804 267.24222 269.76367 272.09366 274.20569 275.87662 277.38092
 278.97202 280.70065 282.24255 283.60553 284.78812 285.83920 286.80200 287.68030
 288.47403 289.18741 289.81870 290.67072
 366.78100 356.32516 345.74732 334.60348 322.99663 311.18079 299.04095 286.83411
 274.53627 262.42343 250.42259 239.71375 229.82590 220.92006 213.09222 206.08438
 199.90854 194.83670 191.40886 189.44102 188.46817 188.52233 189.34749 190.64565
 192.36081 194.44597 196.69913 199.04829 201.48344 203.95360 206.03176 207.86392
 209.48008 210.61524 210.83440 211.05256 210.97971 210.67487 210.29803 209.91819
 209.52535 209.22551 209.02367 208.87783 208.79598 209.11714 209.49330 209.87246
 210.65562 211.82378 213.06394 214.83710 216.75525 218.78841 220.87357 222.94673
 224.99689 227.07105 229.15821 231.25437 233.37352 235.53568 237.78184 240.14200
 242.75316 244.99432 246.98648 248.74164 250.14879 251.26195 252.07411 252.38027
 252.40743 252.17159 251.52175 250.45991 249.05606 247.20722 245.10638 242.92954
 240.71070 238.50486 236.31502 234.14418 231.99433 229.85149 227.86765 226.01481
 224.28797 222.75013 221.37029 220.13245 219.00460 217.95476 217.04892 216.18008
 215.41224 214.58240 213.67056 213.02472 212.46487 212.87766 213.85291 214.04007
 213.61986 214.28651 215.57025 217.40347 219.51236 222.45049 227.78482 232.31367
 236.16316 240.40602 244.66432 248.53026 251.61163 254.15714 256.54388 259.08878
 261.69815 264.42529 267.19431 269.75357 272.08902 274.17987 275.83508 277.33975
 278.94839 280.66486 282.20871 283.57394 284.75854 285.81015 286.77386 287.65067
 288.44531 289.15897 289.78665 290.63901
 366.78100 356.32551 345.74802 334.60453 322.99804 311.18255 299.04306 286.83657
 274.53908 262.42659 250.42610 239.71761 229.83012 220.92463 213.09714 206.08965
 199.91416 194.84266 191.41517 189.44768 188.47519 188.52970 189.35521 190.65372
 192.36923 194.45474 196.70825 199.05776 201.49327 203.96378 206.04229 207.87480
 209.49131 210.62682 210.84633 211.06484 210.99235 210.68786 210.31137 209.93188
 209.53939 209.23990 209.03841 208.89292 208.81143 209.13294 209.50945 209.88896
 210.67247 211.84098 213.08148 214.85499 216.77350 218.80701 220.89252 222.96603
 225.01654 227.09105 229.17856 231.27507 233.39458 235.55709 237.80360 240.16411
 242.77562 245.01713 247.00964 248.76515 250.17266 251.28617 252.09868 252.40519
 252.43270 252.19721 251.54772 250.48623 249.08274 247.23425 245.13376 242.95727
 240.73878 238.53329 236.34379 234.17330 232.02381 229.88132 227.89783 226.04534
 224.31885 222.78136 221.40187 220.16438 219.03689 217.98740 217.08191 216.21342
 215.44593 214.61644 213.70495 213.05946 212.49997 212.92021 213.91310 214.15921
 213.73895 214.32686 215.57863 217.38795 219.52072 222.47055 227.74782 232.29774
 236.17180 240.43587 244.66486 248.45386 251.43604 253.94481 256.34290 258.89685
 261.55157 264.33456 267.14526 269.73700 272.07852 274.15176 275.79706 277.30786
 278.93393 280.62463 282.17245 283.54022 284.72568 285.77725 286.74152 287.61908
 288.41940 289.13516 289.76566 290.61304
 366.78100 356.32611 345.74921 334.60632 323.00043 311.18554 299.04664 286.84075
 274.54386 262.43196 250.43207 239.72418 229.83728 220.93239 213.10550 206.09861
 199.92371 194.85282 191.42593 189.45903 188.48714 188.54225 189.36836 190.66746
 192.38357 194.46968 196.72378 199.07389 201.51000 203.98111 206.06021 207.89332
 209.51043 210.64653 210.86664 211.08575 211.01385 210.70996 210.33407 209.95518
 209.56328 209.26439 209.06350 208.91860 208.83771 209.15982 209.53693 209.91703
 210.70114 211.87025 213.11135 214.88546 216.80457 218.83868 220.92478 222.99889
 225.05000 227.12510 229.21321 231.31032 233.43042 235.59353 237.84064 240.20175
 242.81385 245.05596 247.04907 248.80517 250.21328 251.32739 252.14050 252.44760
 252.47571 252.24082 251.59192 250.53103 249.12814 247.28024 245.18035 243.00446
 240.78657 238.58167 236.39278 234.22289 232.07399 229.93210 227.94921 226.09732
 224.37142 222.83453 221.45564 220.21874 219.09185 218.04296 217.13807 216.27017
 215.50328 214.67439 213.76349 213.11860 212.55971 212.97705 213.96309 214.26239
 213.86650 214.38245 215.59877 217.37979 219.52586 222.48918 227.71347 232.28537
 236.18155 240.46121 244.65329 248.36057 251.24788 253.72459 256.13913 258.70691
 261.40924 264.24567 267.09348 269.71243 272.05969 274.11868 275.75735 277.27631
 278.90720 280.59479 282.14285 283.51080 284.69702 285.74881 286.71487 287.59338
 288.39224 289.10907 289.74075 290.58539
 366.78100 356.32685 345.75070 334.60855 323.00340 311.18925 299.05110 286.84595
 274.54980 262.43865 250.43950 239.73235 229.84620 220.94205 213.11590 206.10975
 199.93560 194.86545 191.43930 189.47315 188.50200 188.55785 189.38470 190.68455
 192.40140 194.48825 196.74310 199.09395 201.53081 204.00266 206.08251 207.91636
 209.53421 210.67106 210.89191 211.11176 211.04061 210.73746 210.36231 209.98416
 209.59301 209.29486 209.09471 208.95056 208.87041 209.19326 209.57111 209.95196
 210.73681 211.90666 213.14851 214.92336 216.84321 218.87806 220.96491 223.03976
 225.09161 227.16746 229.25631 231.35416 233.47501 235.63886 237.88671 240.24856
 242.86141 245.10426 247.09811 248.85496 250.26381 251.37866 252.19251 252.50036
 252.52921 252.29506 251.64691 250.58676 249.18461 247.33746 245.23831 243.06316
 240.84601 238.64186 236.45371 234.28456 232.13642 229.99527 228.01312 226.16197
 224.43682 222.90067 221.52252 220.28637 219.16022 218.11207 217.20792 216.34077
 215.57462 214.74647 213.83632 213.19217 212.63402 213.04282 214.00862 214.34615
 214.00256 214.45302 215.63316 217.38525 219.53221 222.50150 227.68074 232.27327
 236.18987 240.47792 244.62657 248.24780 251.04633 253.49771 255.93387 258.52362
 261.27502 264.16064 267.03870 269.67938 272.03110 274.07822 275.71274 277.24213
 278.87469 280.56601 282.11383 283.48285 284.66760 285.72202 286.68555 287.56488
 288.36215 289.08051 289.71097 290.55328
 366.78100 356.32781 345.75262 334.61143 323.00724 311.19404 299.05685 286.85266
 274.55747 262.44728 250.44909 239.74290 229.85771 220.95452 213.12932 206.12413
 199.95094 194.88175 191.45656 189.49137 188.52118 188.57799 189.40580 190.70660
 192.42441 194.51222 196.76803 199.11984 201.55765 204.03046 206.11127 207.94608
 209.56488 210.70269 210.92450 211.14531 211.07512 210.77293 210.39874 210.02155
 209.63136 209.33416 209.13497 208.99178 208.91259 209.23640 209.61521 209.99702
 210.78283 211.95364 213.19644 214.97225 216.89306 218.92887 221.01668 223.09249
 225.14530 227.22211 229.31192 231.41072 233.53253 235.69734 237.94615 240.30896
 242.92277 245.16658 247.16139 248.91920 250.32900 251.44481 252.25962 252.56843
 252.59824 252.36505 251.71786 250.65867 249.25748 247.41128 245.31309 243.13890
 240.92271 238.71952 236.53233 234.36414 232.21695 230.07676 228.09556 226.24537
 224.52118 222.98599 221.60880 220.37361 219.24842 218.20123 217.29804 216.43184
 215.66665 214.83946 213.93027 213.28708 212.72989 213.12106 214.04529 214.41884
 214.14354 214.53577 215.68953 217.40358 219.53442 222.51262 227.65253 232.26062
 236.19531 240.48340 244.58051 248.10953 250.82695 253.26170 255.72917 258.35196
 261.15469 264.08389 266.98477 269.64084 271.99539 274.03030 275.66425 277.20807
 278.84381 280.53043 282.07901 283.44684 284.63272 285.68524 286.64957 287.52982
 288.32602 289.04443 289.67169 290.51627
 366.78100 356.32901 345.75502 334.61503 323.01204 311.20005 299.06405 286.86106
 274.56707 262.45808 250.46109 239.75610 229.87211 220.97012 213.14613 206.14214
 199.97015 194.90216 191.47816 189.51417 188.54518 188.60319 189.43220 190.73421
 192.45322 194.54223 196.79924 199.15225 201.59126 204.06527 206.14727 207.98328
 209.60329 210.74230 210.96531 211.18732 211.11833 210.81734 210.44435 210.06836
 209.67937 209.38337 209.18538 209.04339 208.96540 209.29041 209.67042 210.05343
 210.84044 212.01245 213.25646 215.03347 216.95548 218.99248 221.08149 223.15850
 225.21251 227.29052 229.38153 231.48154 233.60455 235.77056 238.02057 240.38458
 242.99959 245.24459 247.24060 248.99961 250.41062 251.52763 252.34364 252.65365
 252.68466 252.45267 251.80668 250.74869 249.34870 247.50370 245.40671 243.23372
 241.01873 238.81674 236.63075 234.46376 232.31777 230.17878 228.19879 226.34980
 224.62680 223.09281 221.71682 220.48283 219.35884 218.31285 217.41086 216.54587
 215.78188 214.95589 214.04790 213.40591 212.84991 213.21317 214.07138 214.48444
 214.28702 214.62692 215.76006 217.44012 219.55052 222.51694 227.62372 232.24716
 236.19856 240.47833 244.51292 247.94429 250.58841 253.01640 255.52579 258.19260
 261.04858 264.01727 266.93286 269.59833 271.95398 273.97888 275.61707 277.17447
 278.81223 280.48758 282.03531 283.40244 284.58896 285.63998 286.60577 287.48331
 288.28186 288.99643 289.62775 290.46689
 366.78100 356.33054 345.75807 334.61961 323.01814 311.20768 299.07322 286.87175
 274.57929 262.47182 250.47636 239.77290 229.89043 220.98997 213.16751 206.16504
 199.99458 194.92811 191.50565 189.54319 188.57572 188.63526 189.46579 190.76933
 192.48987 194.58040 196.83894 199.19347 201.63401 204.10955 206.19308 208.03062
 209.65215 210.79269 211.01723 211.24076 211.17330 210.87384 210.50237 210.12791
 209.74044 209.44598 209.24952 209.10905 209.03259 209.35912 209.74066 210.12520
 210.91373 212.08727 213.33280 215.11134 217.03488 219.07341 221.16395 223.24249
 225.29802 227.37756 229.47009 231.57163 233.69617 235.86370 238.11524 240.48077
 243.09731 245.34385 247.34138 249.10192 250.51445 251.63299 252.45053 252.76206
 252.79460 252.56413 251.91967 250.86321 249.46474 247.62128 245.52582 243.35435
 241.14089 238.94042 236.75596 234.59050 232.44603 230.30857 228.33010 226.48264
 224.76118 223.22871 221.85425 220.62178 219.49932 218.45486 217.55439 216.69093
 215.92846 215.10400 214.19754 213.55707 213.00261 213.32246 214.07816 214.55159
 214.42824 214.72385 215.84787 217.49242 219.56503 222.52345 227.60208 232.23672
 236.20081 240.46358 244.42462 247.75238 250.32979 252.76167 255.32100 258.04129
 260.95334 263.95792 266.88242 269.55331 271.91144 273.93088 275.57623 277.14368
 278.77838 280.43713 281.98318 283.35117 284.53659 285.59039 286.55341 287.43216
 288.22992 288.94583 289.57492 290.41302
 366.78100 356.33220 345.76140 334.62461 323.02481 311.21601 299.08321 286.88341
 274.59261 262.48682 250.49302 239.79122 229.91042 221.01162 213.19082 206.19003
 200.02123 194.95643 191.53563 189.57483 188.60903 188.67024 189.50244 190.80764
 192.52984 194.62204 196.88225 199.23845 201.68065 204.15785 206.24305 208.08225
 209.70546 210.84766 211.07386 211.29906 211.23326 210.93546 210.56567 210.19287
 209.80707 209.51427 209.31947 209.18067 209.10588 209.43408 209.81728 210.20348
 210.99368 212.16889 213.41609 215.19629 217.12149 219.16169 221.25389 223.33410
 225.39130 227.47250 229.56670 231.66990 233.79610 235.96531 238.21851 240.58571
 243.20391 245.45211 247.45131 249.21352 250.62772 251.74792 252.56712 252.88032
 252.91453 252.68573 252.04293 250.98813 249.59133 247.74953 245.65574 243.48594
 241.27414 239.07534 236.89254 234.72874 232.58595 230.45015 228.47335 226.62755
 224.90775 223.37696 222.00416 220.77336 219.65256 218.60976 217.71096 216.84917
 216.08837 215.26557 214.36077 213.72197 213.16917 213.43950 214.07820 214.60054
 214.59882 214.82893 215.91953 217.55208 219.60405 222.52827 227.57722 232.22699
 236.20041 240.43840 244.31740 247.53801 250.05794 252.50287 255.11880 257.89969
 260.86911 263.90506 266.83292 269.50629 271.86917 273.88989 275.54440 277.11624
 278.73999 280.38052 281.92389 283.29239 284.47791 285.53003 286.49261 287.37268
 288.17065 288.88577 289.51749 290.34851
 366.78100 356.33450 345.76601 334.63151 323.03401 311.22752 299.09702 286.89952
 274.61103 262.50753 250.51603 239.81654 229.93804 221.04154 213.22305 206.22455
 200.05805 194.99555 191.57706 189.61856 188.65506 188.71857 189.55307 190.86057
 192.58508 194.67958 196.94208 199.30059 201.74509 204.22459 206.31210 208.15360
 209.77910 210.92361 211.15211 211.37961 211.31612 211.02062 210.65312 210.28263
 209.89913 209.60863 209.41614 209.27964 209.20714 209.53765 209.92315 210.31165
 211.10415 212.28166 213.53116 215.31366 217.24117 219.28367 221.37817 223.46068
 225.52018 227.60368 229.70019 231.80569 233.93419 236.10570 238.36120 240.73070
 243.35121 245.60171 247.60321 249.36772 250.78422 251.90672 252.72823 253.04373
 253.08023 252.85374 252.21324 251.16074 249.76625 247.92675 245.83525 243.66775
 241.45826 239.26176 237.08126 234.91977 232.77927 230.64577 228.67128 226.82778
 225.11028 223.58179 222.21129 220.98279 219.86430 218.82380 217.92730 217.06781
 216.30931 215.48881 214.58632 213.94982 213.39932 213.58897 214.03703 214.67290
 214.76562 214.94006 216.02075 217.61362 219.59293 222.53523 227.56227 232.22264
 236.19920 240.40501 244.19395 247.30530 249.77635 252.24249 254.92027 257.76727
 260.79459 263.85764 266.78275 269.45566 271.82642 273.85645 275.52466 277.09540
 278.70001 280.31479 281.85574 283.22372 284.40961 285.46164 286.42468 287.30426
 288.10242 288.81757 289.44812 290.27750
 366.78100 356.33691 345.77081 334.63872 323.04362 311.23953 299.11143 286.91634
 274.63024 262.52915 250.54005 239.84296 229.96686 221.07277 213.25667 206.26058
 200.09648 195.03639 191.62029 189.66420 188.70310 188.76901 189.60591 190.91582
 192.64272 194.73963 197.00453 199.36544 201.81234 204.29425 206.38415 208.22806
 209.85596 211.00287 211.23377 211.46368 211.40258 211.10949 210.74439 210.37630
 209.99520 209.70711 209.51701 209.38292 209.31282 209.64573 210.03364 210.42454
 211.21945 212.39935 213.65126 215.43616 217.36607 219.41097 221.50788 223.59278
 225.65469 227.74059 229.83950 231.94740 234.07831 236.25221 238.51012 240.88202
 243.50493 245.75783 247.76174 249.52864 250.94755 252.07245 252.89636 253.21426
 253.25317 253.02907 252.39098 251.34088 249.94879 248.11169 246.02260 243.85750
 241.65041 239.45631 237.27822 235.11912 232.98103 230.84993 228.87784 227.03674
 225.32165 223.79555 222.42746 221.20137 220.08527 219.04718 218.15308 217.29599
 216.53989 215.72180 214.82170 214.18761 213.63951 213.74522 213.99496 214.71364
 214.98209 215.04243 216.10210 217.68394 219.63152 222.52025 227.54697 232.22316
 236.19530 240.36002 244.05153 247.05325 249.48386 251.97874 254.72308 257.64236
 260.72852 263.81482 266.73380 269.40405 271.78363 273.82788 275.51691 277.08920
 278.66742 280.24304 281.78024 283.14783 284.33337 285.38516 286.34927 287.22717
 288.02603 288.74213 289.37161 290.20810
 366.78100 356.33853 345.77406 334.64359 323.05012 311.24765 299.12118 286.92771
 274.64324 262.54377 250.55630 239.86084 229.98637 221.09390 213.27943 206.28496
 200.12249 195.06402 191.64955 189.69508 188.73561 188.80314 189.64167 190.95320
 192.68173 194.78026 197.04679 199.40932 201.85785 204.34138 206.43291 208.27844
 209.90798 211.05651 211.28904 211.52057 211.46110 211.16963 210.80616 210.43969
 210.06022 209.77375 209.58528 209.45281 209.38434 209.71887 210.10840 210.50093
 211.29746 212.47899 213.73252 215.51905 217.45058 219.49712 221.59565 223.68218
 225.74571 227.83324 229.93377 232.04330 234.17583 236.35136 238.61089 240.98442
 243.60895 245.86348 247.86901 249.63754 251.05807 252.18460 253.01013 253.32966
 253.37019 253.14772 252.51126 251.46279 250.07232 248.23685 246.14938 243.98591
 241.78044 239.58797 237.41150 235.25403 233.11756 230.98809 229.01762 227.17815
 225.46468 223.94021 222.57374 221.34927 220.23480 219.19833 218.30586 217.45040
 216.69593 215.87946 214.98099 214.34852 213.80205 213.86461 214.01242 214.69720
 215.14575 215.20227 216.16530 217.77126 219.69153 222.55013 227.53471 232.22144
 236.18933 240.30452 243.89195 246.78325 249.18236 251.71291 254.52794 257.52582
 260.67230 263.77853 266.68881 269.35461 271.74127 273.80249 275.51447 277.09247
 278.64087 280.16937 281.70169 283.06970 284.25406 285.30695 286.27209 287.14938
 287.94974 288.66547 289.29642 290.12857
 366.78100 356.34032 345.77765 334.64897 323.05730 311.25662 299.13195 286.94027
 274.65760 262.55992 250.57425 239.88057 230.00790 221.11722 213.30455 206.31187
 200.15120 195.09452 191.68185 189.72917 188.77150 188.84082 189.68114 190.99447
 192.72479 194.82512 197.09344 199.45777 201.90809 204.39342 206.48674 208.33407
 209.96539 211.11572 211.35004 211.58337 211.52569 211.23602 210.87434 210.50967
 210.13199 209.84732 209.66064 209.52996 209.46329 209.79961 210.19094 210.58526
 211.38359 212.56691 213.82224 215.61056 217.54389 219.59221 221.69254 223.78086
 225.84619 227.93551 230.03784 232.14916 234.28349 236.46081 238.72214 241.09746
 243.72378 245.98011 247.98743 249.75776 251.18008 252.30841 253.13573 253.45706
 253.49938 253.27871 252.64403 251.59736 250.20868 248.37501 246.28933 244.12766
 241.92398 239.73331 237.55863 235.40295 233.26828 231.14060 229.17193 227.33425
 225.62258 224.09990 222.73523 221.51255 220.39988 219.36520 218.47453 217.62085
 216.86818 216.05350 215.15683 214.52615 213.98148 213.99191 214.01657 214.70085
 215.30362 215.34642 216.20140 217.83199 219.74545 222.61314 227.53784 232.22946
 236.18427 240.24048 243.71974 246.50462 248.88184 251.45219 254.34003 257.41895
 260.62466 263.74768 266.64642 269.30609 271.70023 273.78030 275.51770 277.10486
 278.62000 280.09796 281.62308 282.99069 284.17706 285.22870 286.19211 287.07126
 287.86887 288.58740 289.21609 290.05148
 366.78100 356.34197 345.78094 334.65391 323.06388 311.26485 299.14182 286.95179
 274.67076 262.57473 250.59070 239.89867 230.02764 221.13861 213.32758 206.33655
 200.17752 195.12249 191.71146 189.76043 188.80440 188.87537 189.71734 191.03231
 192.76428 194.86625 197.13622 199.50219 201.95416 204.44113 206.53610 208.38507
 210.01804 211.17001 211.40598 211.64095 211.58492 211.29689 210.93686 210.57383
 210.19780 209.91477 209.72974 209.60071 209.53568 209.87365 210.26662 210.66259
 211.46256 212.64753 213.90450 215.69447 217.62944 219.67941 221.78138 223.87135
 225.93832 228.02929 230.13326 232.24623 234.38220 236.56117 238.82414 241.20111
 243.82908 246.08705 248.09602 249.86799 251.29196 252.42193 253.25090 253.57387
 253.61784 253.39881 252.76578 251.72075 250.33372 248.50169 246.41766 244.25763
 242.05560 239.86657 237.69354 235.53951 233.40648 231.28045 229.31342 227.47739
 225.76736 224.24633 222.88330 221.66227 220.55124 219.51821 218.62918 217.77715
 217.02612 216.21309 215.31806 214.68903 214.14600 214.11084 214.02777 214.70261
 215.46745 215.46281 216.23996 217.89822 219.79581 222.69016 227.54846 232.23956
 236.17488 240.16748 243.54137 246.22636 248.59030 251.20042 254.15916 257.31818
 260.57953 263.71475 266.59921 269.25256 271.65674 273.75952 275.52634 277.12576
 278.61395 280.03003 281.54745 282.91455 284.09857 285.15170 286.11389 286.99329
 287.79376 288.50964 289.14224 289.97339
 366.78100 356.34334 345.78369 334.65803 323.06937 311.27172 299.15006 286.96140
 274.68175 262.58709 250.60443 239.91378 230.04412 221.15646 213.34681 206.35715
 200.19949 195.14584 191.73618 189.78652 188.83187 188.90421 189.74755 191.06389
 192.79724 194.90058 197.17192 199.53927 201.99261 204.48095 206.57730 208.42764
 210.06198 211.21533 211.45267 211.68901 211.63436 211.34770 210.98904 210.62739
 210.25273 209.97107 209.78742 209.65976 209.59610 209.93545 210.32979 210.72713
 211.52848 212.71482 213.97316 215.76451 217.70085 219.75219 221.85554 223.94688
 226.01522 228.10757 230.21291 232.32725 234.46460 236.64494 238.90928 241.28762
 243.91697 246.17631 248.18665 249.96000 251.38534 252.51668 253.34703 253.67137
 253.71671 253.49906 252.86740 251.82374 250.43809 248.60743 246.52477 244.36612
 242.16546 239.97780 237.80615 235.65349 233.52183 231.39718 229.43152 227.59686
 225.88821 224.36855 223.00689 221.78724 220.67758 219.64592 218.75827 217.90761
 217.15795 216.34630 215.45264 214.82498 214.28333 214.21541 214.05493 214.69872
 215.60904 215.57248 216.29546 217.97455 219.83952 222.76144 227.56596 232.25070
 236.16187 240.09279 243.36533 245.95477 248.30844 250.95531 253.98068 257.22006
 260.53217 263.67664 266.54675 269.19547 271.61139 273.73950 275.53473 277.14865
 278.61609 279.98636 281.47845 282.84244 284.02646 285.07785 286.04196 286.92157
 287.72107 288.43982 289.07349 289.90372
 366.78100 356.34462 345.78624 334.66187 323.07449 311.27811 299.15773 286.97035
 274.69198 262.59860 250.61722 239.92784 230.05947 221.17309 213.36471 206.37633
 200.21995 195.16758 191.75920 189.81082 188.85744 188.93106 189.77569 191.09331
 192.82793 194.93255 197.20517 199.57380 202.02842 204.51804 206.61566 208.46728
 210.10291 211.25753 211.49615 211.73377 211.68040 211.39502 211.03764 210.67726
 210.30388 210.02351 209.84113 209.71475 209.65237 209.99299 210.38862 210.78724
 211.58986 212.77748 214.03710 215.82973 217.76735 219.81997 221.92459 224.01722
 226.08684 228.18046 230.28708 232.40270 234.54133 236.72295 238.98857 241.36819
 243.99881 246.25944 248.27106 250.04568 251.47230 252.60492 253.43655 253.76217
 253.80879 253.59241 252.96203 251.91966 250.53528 248.70590 246.62452 244.46715
 242.26777 240.08139 237.91101 235.75963 233.62926 231.50588 229.54150 227.70812
 226.00074 224.48237 223.12199 221.90361 220.79523 219.76485 218.87848 218.02910
 217.28072 216.47034 215.57796 214.95159 214.41121 214.31447 214.08589 214.70135
 215.71896 215.69672 216.36168 218.04118 219.87509 222.82144 227.59497 232.26816
 236.15228 240.02116 243.19148 245.68481 248.02818 250.71175 253.80382 257.12381
 260.48431 263.63623 266.49393 269.13931 271.56873 273.72144 275.54437 277.17032
 278.62054 279.97488 281.41263 282.77225 283.95679 285.00800 285.97348 286.85406
 287.65326 288.37299 289.00696 289.83832
 366.78100 356.34586 345.78872 334.66558 323.07943 311.28429 299.16515 286.97901
 274.70187 262.60973 250.62959 239.94144 230.07430 221.18916 213.38202 206.39488
 200.23974 195.18859 191.78145 189.83431 188.88217 188.95703 189.80289 191.12175
 192.85760 194.96346 197.23732 199.60718 202.06304 204.55390 206.65276 208.50561
 210.14247 211.29833 211.53819 211.77705 211.72491 211.44076 211.08462 210.72548
 210.35334 210.07420 209.89306 209.76792 209.70677 210.04863 210.44549 210.84535
 211.64921 212.83807 214.09893 215.89278 217.83164 219.88550 221.99136 224.08522
 226.15608 228.25094 230.35879 232.47565 234.61551 236.79837 239.06523 241.44609
 244.07794 246.33980 248.35266 250.12852 251.55638 252.69024 253.52310 253.84995
 253.89781 253.68267 253.05353 252.01239 250.62925 248.80111 246.72096 244.56482
 242.36668 240.18154 238.01240 235.86226 233.73311 231.61097 229.64783 227.81569
 226.10955 224.59241 223.23327 222.01612 220.90898 219.87984 218.99470 218.14656
 217.39942 216.59028 215.69913 215.07399 214.53485 214.41008 214.11526 214.71581
 215.81094 215.82985 216.42671 218.08847 219.90425 222.87442 227.63509 232.29141
 236.14804 239.94775 243.01299 245.41373 247.75154 250.47525 253.63490 257.03268
 260.43695 263.59393 266.44052 269.08359 271.52750 273.70523 275.55606 277.19614
 278.63223 279.97482 281.35507 282.71106 283.89575 284.94980 285.91586 286.79672
 287.59708 288.31866 288.94858 289.78525
 366.78100 356.34694 345.79087 334.66881 323.08374 311.28968 299.17161 286.98655
 274.71048 262.61942 250.64035 239.95329 230.08723 221.20316 213.39710 206.41103
 200.25697 195.20690 191.80084 189.85477 188.90371 188.97964 189.82658 191.14652
 192.88345 194.99039 197.26532 199.63626 202.09319 204.58513 206.68506 208.53900
 210.17694 211.33387 211.57481 211.81474 211.76368 211.48061 211.12555 210.76748
 210.39642 210.11835 209.93829 209.81423 209.75416 210.09710 210.49503 210.89597
 211.70090 212.89084 214.15277 215.94771 217.88764 219.94258 222.04952 224.14445
 226.21639 228.31232 230.42126 232.53919 234.68013 236.86406 239.13200 241.51393
 244.14687 246.40981 248.42374 250.20068 251.62961 252.76455 253.59848 253.92642
 253.97535 253.76129 253.13323 252.09316 250.71110 248.88403 246.80497 244.64990
 242.45284 240.26877 238.10071 235.95164 233.82358 231.70252 229.74045 227.90939
 226.20432 224.68826 223.33019 222.11413 221.00806 219.98000 219.09593 218.24887
 217.50281 216.69474 215.80468 215.18061 214.64255 214.49525 214.14728 214.74219
 215.89546 215.94691 216.48717 218.12718 219.93587 222.92522 227.67876 232.31383
 236.14371 239.86710 242.83067 245.14980 247.48904 250.25424 253.47749 256.94644
 260.38794 263.54599 266.38202 269.02710 271.48715 273.69080 275.56998 277.22528
 278.65076 279.97610 281.30798 282.66064 283.84662 284.89856 285.86426 286.74426
 287.54062 288.25568 288.88553 289.71631
 366.78100 356.34778 345.79255 334.67133 323.08711 311.29388 299.17666 286.99243
 274.71721 262.62699 250.64876 239.96254 230.09732 221.21409 213.40887 206.42365
 200.27042 195.22120 191.81597 189.87075 188.92053 188.99730 189.84508 191.16586
 192.90363 195.01141 197.28719 199.65896 202.11674 204.60952 206.71029 208.56507
 210.20384 211.36162 211.60340 211.84417 211.79395 211.51173 211.15750 210.80028
 210.43006 210.15283 209.97361 209.85038 209.79116 210.13494 210.53371 210.93549
 211.74127 212.93204 214.19482 215.99060 217.93137 219.98715 222.09492 224.19070
 226.26348 228.36025 230.47003 232.58881 234.73058 236.91536 239.18414 241.56691
 244.20069 246.46447 248.47924 250.25702 251.68679 252.82257 253.65735 253.98612
 254.03590 253.82268 253.19545 252.15623 250.77501 248.94878 246.87056 244.71633
 242.52011 240.33689 238.16966 236.02144 233.89422 231.77399 229.81277 227.98255
 226.27832 224.76310 223.40587 222.19065 221.08543 220.05820 219.17498 218.32876
 217.58353 216.77631 215.88709 215.26386 214.72664 214.56622 214.18726 214.78111
 215.96356 216.03595 216.55736 218.17670 219.98154 222.97969 227.72215 232.32994
 236.13150 239.77478 242.64407 244.89267 247.23807 250.04468 253.32715 256.86087
 260.33185 263.48956 266.32101 268.97174 271.44940 273.67804 275.58313 277.25397
 278.67029 279.98151 281.27744 282.62604 283.81329 284.86688 285.83313 286.71252
 287.51254 288.23175 288.86456 289.69467
 366.78100 356.34833 345.79366 334.67298 323.08931 311.29664 299.17997 286.99629
 274.72162 262.63195 250.65428 239.96860 230.10393 221.22126 213.41659 206.43191
 200.27924 195.23057 191.82590 189.88122 188.93155 189.00888 189.85721 191.17853
 192.91686 195.02519 197.30152 199.67384 202.13217 204.62550 206.72683 208.58215
 210.22148 211.37981 211.62214 211.86346 211.81379 211.53212 211.17845 210.82177
 210.45210 210.17543 209.99676 209.87408 209.81541 210.15974 210.55907 210.96139
 211.76772 212.95905 214.22238 216.01870 217.96003 220.01636 222.12469 224.22101
 226.29434 228.39167 230.50200 232.62132 234.76365 236.94898 239.21831 241.60163
 244.23596 246.50029 248.51562 250.29394 251.72427 252.86060 253.69593 254.02526
 254.07558 253.86291 253.23624 252.19757 250.81689 248.99122 246.91355 244.75988
 242.56420 240.38153 238.21486 236.06719 233.94051 231.82084 229.86017 228.03050
 226.32682 224.81215 223.45548 222.24081 221.13613 220.10946 219.22679 218.38112
 217.63644 216.82977 215.94110 215.31843 214.78175 214.62035 214.23903 214.82613
 216.00618 216.11716 216.64839 218.24066 220.04860 223.03918 227.76224 232.33542
 236.10461 239.66643 242.44545 244.63243 246.99042 249.84093 253.18262 256.77524
 260.27057 263.42938 266.26126 268.92197 271.41684 273.66809 275.59924 277.28571
 278.69043 279.98669 281.25925 282.60452 283.79276 284.84586 285.81027 286.69138
 287.49146 288.21115 288.84360 289.67056
 366.78100 356.34854 345.79407 334.67361 323.09014 311.29768 299.18121 286.99775
 274.72328 262.63382 250.65635 239.97089 230.10642 221.22396 213.41949 206.43503
 200.28256 195.23410 191.82963 189.88517 188.93570 189.01324 189.86177 191.18331
 192.92184 195.03038 197.30691 199.67945 202.13798 204.63152 206.73305 208.58859
 210.22812 211.38666 211.62919 211.87073 211.82126 211.53980 211.18633 210.82987
 210.46040 210.18394 210.00547 209.88301 209.82454 210.16908 210.56861 210.97115
 211.77768 212.96922 214.23275 216.02929 217.97082 220.02736 222.13589 224.23243
 226.30596 228.40350 230.51403 232.63357 234.77610 236.96164 239.23117 241.61471
 244.24924 246.51378 248.52931 250.30785 251.73838 252.87492 253.71045 254.03999
 254.09052 253.87806 253.25159 252.21313 250.83266 249.00720 246.92973 244.77627
 242.58080 240.39834 238.23187 236.08441 233.95794 231.83848 229.87801 228.04855
 226.34508 224.83062 223.47415 222.25969 221.15523 220.12876 219.24630 218.40083
 217.65637 216.84990 215.96144 215.33897 214.80251 214.65498 214.30644 214.86560
 216.03716 216.20793 216.75851 218.31023 220.12221 223.09747 227.79930 232.33278
 236.06293 239.54153 242.23007 244.36365 246.74347 249.64400 253.04654 256.69214
 260.20813 263.36890 266.20483 268.87601 271.38773 273.66306 275.62183 277.32376
 278.71762 279.99896 281.24783 282.59247 283.78018 284.83188 285.79745 286.67758
 287.47705 288.19769 288.82928 289.65488
 366.78100 356.34851 345.79402 334.67352 323.09003 311.29754 299.18105 286.99756
 274.72306 262.63357 250.65608 239.97059 230.10610 221.22360 213.41911 206.43462
 200.28213 195.23364 191.82914 189.88465 188.93516 189.01267 189.86118 191.18269
 192.92119 195.02970 197.30621 199.67872 202.13723 204.63073 206.73224 208.58775
 210.22726 211.38577 211.62827 211.86978 211.82029 211.53880 211.18531 210.82881
 210.45932 210.18283 210.00434 209.88185 209.82335 210.16786 210.56737 210.96988
 211.77639 212.96789 214.23140 216.02791 217.96942 220.02593 222.13443 224.23094
 226.30445 228.40196 230.51247 232.63197 234.77448 236.95999 239.22950 241.61301
 244.24751 246.51202 248.52753 250.30604 251.73655 252.87306 253.70856 254.03807
 254.08858 253.87609 253.24960 252.21110 250.83061 249.00512 246.92763 244.77414
 242.57864 240.39615 238.22966 236.08217 233.95568 231.83618 229.87569 228.04620
 226.34271 224.82822 223.47172 222.25723 221.15274 220.12625 219.24376 218.39826
 217.65377 216.84728 215.95879 215.33630 214.79980 214.67569 214.38246 214.90259
 216.06734 216.31393 216.86761 218.37312 220.20538 223.15636 227.83139 232.32114
 236.00545 239.39812 241.99753 244.09113 246.50691 249.46422 252.92503 256.61655
 260.14655 263.30728 266.14725 268.82910 271.35880 273.66003 275.64767 277.36746
 278.75311 280.01822 281.24597 282.58673 283.77365 284.82791 285.79028 286.66913
 287.46909 288.18759 288.81702 289.64313
 366.78100 356.34826 345.79352 334.67277 323.08903 311.29629 299.17955 286.99581
 274.72107 262.63132 250.65358 239.96784 230.10310 221.22036 213.41562 206.43087
 200.27813 195.22939 191.82465 189.87991 188.93017 189.00742 189.85568 191.17694
 192.91520 195.02346 197.29971 199.67197 202.13023 204.62349 206.72475 208.58001
 210.21926 211.37752 211.61978 211.86104 211.81130 211.52956 211.17581 210.81907
 210.44933 210.17259 209.99385 209.87111 209.81236 210.15662 210.55588 210.95814
 211.76440 212.95565 214.21891 216.01517 217.95643 220.01269 222.12095 224.21720
 226.29046 228.38772 230.49798 232.61724 234.75950 236.94475 239.21401 241.59727
 244.23153 246.49579 248.51105 250.28930 251.71956 252.85582 253.69108 254.02034
 254.07059 253.85785 253.23111 252.19237 250.81163 248.98589 246.90814 244.75440
 242.55866 240.37592 238.20918 236.06144 233.93469 231.81495 229.85421 228.02447
 226.32073 224.80599 223.44924 222.23450 221.12976 220.10302 219.22028 218.37453
 217.62979 216.82305 215.93431 215.31157 214.77483 214.68269 214.46498 214.94170
 216.08971 216.42886 217.00188 218.43860 220.26344 223.19904 227.85730 232.30518
 235.93927 239.24556 241.76299 243.82977 246.29100 249.30545 252.81755 256.54529
 260.08063 263.23666 266.08182 268.77725 271.32840 273.65698 275.67667 277.41586
 278.79437 280.04184 281.24991 282.58884 283.77530 284.82794 285.79099 286.66925
 287.46838 288.18494 288.81638 289.63562
 366.78100 356.34790 345.79279 334.67169 323.08759 311.29448 299.17738 286.99327
 274.71817 262.62807 250.64996 239.96386 230.09876 221.21565 213.41055 206.42544
 200.27234 195.22324 191.81813 189.87303 188.92293 188.99982 189.84772 191.16862
 192.90651 195.01441 197.29030 199.66220 202.12010 204.61299 206.71389 208.56879
 210.20768 211.36558 211.60747 211.84837 211.79827 211.51616 211.16206 210.80496
 210.43485 210.15775 209.97865 209.85554 209.79644 210.14033 210.53923 210.94113
 211.74702 212.93792 214.20082 215.99671 217.93761 219.99351 222.10140 224.19730
 226.27019 228.36709 230.47699 232.59588 234.73778 236.92268 239.19157 241.57447
 244.20836 246.47226 248.48716 250.26505 251.69495 252.83085 253.66574 253.99464
 254.04454 253.83143 253.20433 252.16522 250.78412 248.95802 246.87991 244.72581
 242.52971 240.34660 238.17950 236.03139 233.90429 231.78419 229.82308 227.99298
 226.28888 224.77377 223.41667 222.20157 221.09646 220.06936 219.18625 218.34015
 217.59505 216.78794 215.89884 215.27574 214.73863 214.68161 214.54689 214.97833
 216.12617 216.54567 217.10980 218.49605 220.34319 223.26065 227.88809 232.29129
 235.86948 239.08310 241.51933 243.56816 246.08083 249.15424 252.71431 256.47055
 260.00467 263.15662 266.01361 268.72687 271.30157 273.65891 275.71082 277.46930
 278.83899 280.06876 281.25891 282.59470 283.78122 284.83325 285.79626 286.67316
 287.47006 288.18732 288.81662 289.63416
 366.78100 356.34757 345.79214 334.67071 323.08628 311.29284 299.17541 286.99098
 274.71555 262.62512 250.64669 239.96026 230.09483 221.21140 213.40596 206.42053
 200.26710 195.21767 191.81224 189.86681 188.91638 188.99295 189.84052 191.16108
 192.89865 195.00622 197.28179 199.65336 202.11093 204.60350 206.70407 208.55863
 210.19720 211.35477 211.59634 211.83691 211.78648 211.50405 211.14962 210.79219
 210.42175 210.14432 209.96489 209.84146 209.78203 210.12560 210.52417 210.92574
 211.73131 212.92187 214.18444 215.98001 217.92058 219.97615 222.08372 224.17929
 226.25186 228.34843 230.45799 232.57656 234.71813 236.90270 239.17127 241.55384
 244.18741 246.45098 248.46555 250.24311 251.67268 252.80825 253.64282 253.97139
 254.02096 253.80753 253.18010 252.14067 250.75923 248.93280 246.85437 244.69994
 242.50351 240.32008 238.15265 236.00422 233.87678 231.75635 229.79492 227.96449
 226.26006 224.74463 223.38720 222.17177 221.06634 220.03890 219.15547 218.30904
 217.56361 216.75618 215.86675 215.24332 214.70589 214.67978 214.61812 215.03488
 216.10356 216.69226 217.30968 218.56384 220.38594 223.30943 227.91132 232.27208
 235.78481 238.89761 241.25516 243.29872 245.87302 249.01048 252.61751 256.39819
 259.92963 263.08316 265.95532 268.68582 271.28049 273.66461 275.74414 277.51938
 278.88028 280.09583 281.27023 282.60376 283.78998 284.84180 285.80313 286.67828
 287.47607 288.19290 288.82013 289.63153
 366.78100 356.34752 345.79205 334.67057 323.08609 311.29262 299.17514 286.99066
 274.71519 262.62471 250.64624 239.95976 230.09428 221.21081 213.40533 206.41985
 200.26638 195.21690 191.81142 189.86595 188.91547 188.99199 189.83952 191.16004
 192.89757 195.00509 197.28061 199.65214 202.10966 204.60218 206.70271 208.55723
 210.19575 211.35328 211.59480 211.83532 211.78485 211.50237 211.14789 210.79042
 210.41994 210.14247 209.96299 209.83951 209.78004 210.12356 210.52208 210.92361
 211.72913 212.91965 214.18218 215.97770 217.91822 219.97375 222.08127 224.17680
 226.24932 228.34584 230.45537 232.57389 234.71541 236.89994 239.16846 241.55098
 244.18451 246.44803 248.46255 250.24008 251.66960 252.80512 253.63965 253.96817
 254.01770 253.80422 253.17674 252.13727 250.75579 248.92931 246.85084 244.69636
 242.49988 240.31641 238.14893 236.00045 233.87298 231.75250 229.79103 227.96055
 226.25607 224.74060 223.38312 222.16764 221.06217 220.03469 219.15121 218.30474
 217.55926 216.75178 215.86231 215.23883 214.70135 214.68945 214.66136 215.13745
 216.04556 216.78169 217.50006 218.70180 220.44794 223.34438 227.93365 232.25525
 235.69185 238.70036 240.98759 243.03983 245.68188 248.88448 252.53435 256.33429
 259.86273 263.01956 265.90652 268.64838 271.25919 273.66611 275.77148 277.55933
 278.91223 280.11810 281.28220 282.61478 283.80014 284.85223 285.81235 286.68665
 287.48160 288.19708 288.82553 289.64011
 366.78100 356.34755 345.79210 334.67066 323.08621 311.29276 299.17531 286.99086
 274.71542 262.62497 250.64652 239.96007 230.09462 221.21118 213.40573 206.42028
 200.26683 195.21738 191.81193 189.86649 188.91604 188.99259 189.84014 191.16069
 192.89825 195.00580 197.28135 199.65290 202.11045 204.60301 206.70356 208.55811
 210.19666 211.35421 211.59577 211.83632 211.78587 211.50342 211.14897 210.79153
 210.42108 210.14363 209.96418 209.84073 209.78128 210.12484 210.52339 210.92494
 211.73049 212.92104 214.18360 215.97915 217.91970 219.97525 222.08280 224.17836
 226.25091 228.34746 230.45701 232.57556 234.71712 236.90167 239.17022 241.55277
 244.18632 246.44988 248.46443 250.24198 251.67153 252.80708 253.64164 253.97019
 254.01974 253.80629 253.17884 252.13939 250.75795 248.93150 246.85305 244.69860
 242.50215 240.31871 238.15126 236.00281 233.87536 231.75491 229.79347 227.96302
 226.25857 224.74312 223.38567 222.17023 221.06478 220.03733 219.15388 218.30743
 217.56199 216.75454 215.86509 215.24164 214.70419 214.70049 214.69170 215.25366
 216.00591 216.84796 217.67252 218.83406 220.51472 223.38753 227.95787 232.23584
 235.58694 238.49243 240.72148 242.79399 245.50787 248.77429 252.46234 256.27625
 259.79959 262.95840 265.85394 268.60651 271.23404 273.66272 275.79272 277.59567
 278.94177 280.13745 281.29459 282.62582 283.81165 284.86267 285.82257 286.69748
 287.49133 288.20523 288.83096 289.64102
 366.78100 356.34731 345.79162 334.66992 323.08523 311.29154 299.17385 286.98916
 274.71346 262.62277 250.64408 239.95739 230.09170 221.20801 213.40231 206.41662
 200.26293 195.21324 191.80755 189.86185 188.91116 188.98747 189.83478 191.15509
 192.89239 194.99970 197.27501 199.64632 202.10363 204.59593 206.69624 208.55055
 210.18886 211.34617 211.58748 211.82778 211.77709 211.49440 211.13971 210.78202
 210.41132 210.13363 209.95394 209.83025 209.77056 210.11386 210.51217 210.91348
 211.71879 212.90910 214.17140 215.96671 217.90702 219.96233 222.06964 224.16495
 226.23725 228.33356 230.44287 232.56118 234.70249 236.88679 239.15510 241.53741
 244.17072 246.43403 248.44833 250.22564 251.65495 252.79026 253.62457 253.95287
 254.00218 253.78849 253.16080 252.12111 250.73942 248.91272 246.83403 244.67934
 242.48265 240.29896 238.13126 235.98257 233.85488 231.73419 229.77250 227.94180
 226.23711 224.72142 223.36373 222.14804 221.04234 220.01465 219.13096 218.28427
 217.53858 216.73089 215.84119 215.21750 214.67981 214.69662 214.73633 215.34482
 216.00331 216.91196 217.84865 218.95604 220.57724 223.43358 227.97665 232.20369
 235.46655 238.27522 240.45659 242.55896 245.34639 248.67500 252.39618 256.21915
 259.73459 262.89087 265.79550 268.56012 271.20575 273.65775 275.81250 277.63153
 278.97403 280.15607 281.30856 282.63803 283.82300 284.87454 285.83273 286.70593
 287.50073 288.21393 288.83755 289.64474
 366.78100 356.34681 345.79062 334.66843 323.08324 311.28905 299.17086 286.98567
 274.70947 262.61828 250.63909 239.95190 230.08571 221.20152 213.39533 206.40914
 200.25495 195.20476 191.79857 189.85238 188.90119 188.97700 189.82380 191.14361
 192.88042 194.98723 197.26204 199.63285 202.08966 204.58147 206.68128 208.53509
 210.17290 211.32971 211.57052 211.81033 211.75913 211.47594 211.12075 210.76256
 210.39137 210.11318 209.93299 209.80880 209.74861 210.09142 210.48923 210.89004
 211.69485 212.88466 214.14646 215.94127 217.88108 219.93589 222.04270 224.13751
 226.20932 228.30513 230.41394 232.53175 234.67256 236.85637 239.12418 241.50599
 244.13879 246.40160 248.41541 250.19222 251.62103 252.75584 253.58965 253.91746
 253.96627 253.75208 253.12389 252.08370 250.70151 248.87432 246.79512 244.63993
 242.44274 240.25855 238.09036 235.94117 233.81298 231.69179 229.72960 227.89841
 226.19322 224.67703 223.31884 222.10265 220.99645 219.96826 219.08407 218.23688
 217.49069 216.68250 215.79231 215.16812 214.62993 214.67886 214.79448 215.41568
 216.02467 216.98169 218.02509 219.07874 220.63776 223.47226 227.98714 232.15929
 235.34045 238.06221 240.20482 242.34082 245.19792 248.58398 252.33360 256.15967
 259.66299 262.81516 265.72803 268.50790 271.17368 273.64679 275.82635 277.65994
 278.99887 280.17154 281.32028 282.64905 283.83533 284.88464 285.84500 286.71579
 287.51041 288.22403 288.84573 289.65176
 366.78100 356.34617 345.78933 334.66650 323.08066 311.28583 299.16700 286.98116
 274.70433 262.61250 250.63266 239.94483 230.07799 221.19316 213.38633 206.39949
 200.24466 195.19382 191.78699 189.84016 188.88832 188.96349 189.80965 191.12882
 192.86499 194.97115 197.24532 199.61549 202.07165 204.56282 206.66198 208.51515
 210.15232 211.30848 211.54865 211.78781 211.73598 211.45215 211.09631 210.73748
 210.36565 210.08681 209.90598 209.78114 209.72031 210.06248 210.45964 210.85981
 211.66397 212.85314 214.11431 215.90847 217.84764 219.90180 222.00797 224.10214
 226.17330 228.26847 230.37664 232.49380 234.63397 236.81713 239.08430 241.46547
 244.09763 246.35980 248.37296 250.14913 251.57730 252.71146 253.54463 253.87180
 253.91996 253.70513 253.07629 252.03546 250.65263 248.82479 246.74496 244.58912
 242.39129 240.20646 238.03762 235.88779 233.75895 231.63712 229.67429 227.84245
 226.13662 224.61979 223.26095 222.04412 220.93728 219.90845 219.02362 218.17578
 217.42895 216.62011 215.72928 215.10445 214.56561 214.65288 214.85902 215.48169
 216.05342 217.05418 218.17978 219.19238 220.69023 223.49586 227.99185 232.11154
 235.22432 237.86417 239.97043 242.13661 245.06166 248.49959 252.27365 256.10098
 259.59116 262.73788 265.65891 268.45374 271.13724 273.62979 275.83002 277.67682
 279.00513 280.17010 281.31174 282.65372 283.83716 284.88626 285.84311 286.71353
 287.50323 288.21777 288.84000 289.64319
 366.78100 356.34543 345.78786 334.66429 323.07772 311.28215 299.16258 286.97601
 274.69844 262.60587 250.62530 239.93673 230.06916 221.18359 213.37602 206.38846
 200.23289 195.18132 191.77375 189.82618 188.87361 188.94804 189.79347 191.11190
 192.84733 194.95276 197.22619 199.59562 202.05105 204.54148 206.63991 208.49234
 210.12877 211.28420 211.52363 211.76206 211.70949 211.42492 211.06835 210.70878
 210.33621 210.05664 209.87507 209.74951 209.68794 210.02937 210.42580 210.82523
 211.62866 212.81709 214.07752 215.87095 217.80938 219.86281 221.96824 224.06167
 226.13210 228.22653 230.33396 232.45039 234.58982 236.77225 239.03868 241.41911
 244.05054 246.31197 248.32440 250.09983 251.52726 252.66069 253.49312 253.81955
 253.86699 253.65142 253.02185 251.98028 250.59671 248.76814 246.68757 244.53100
 242.33243 240.14686 237.97729 235.82672 233.69715 231.57458 229.61101 227.77844
 226.07187 224.55430 223.19473 221.97716 220.86959 219.84002 218.95445 218.10588
 217.35831 216.54874 215.65717 215.03160 214.49203 214.62221 214.92976 215.53972
 216.08798 217.11203 218.29059 219.27756 220.72311 223.49525 227.98729 232.06537
 235.12090 237.67992 239.75333 241.94815 244.94110 248.42662 252.22171 256.05307
 259.53394 262.67685 265.60272 268.40494 271.10330 273.61328 275.82928 277.67206
 278.99356 280.15369 281.31497 282.67529 283.86304 284.91623 285.87958 286.75977
 287.56088 288.28729 288.94397 289.79858
 366.78100 356.34467 345.78634 334.66201 323.07468 311.27835 299.15802 286.97068
 274.69235 262.59902 250.61769 239.92836 230.06003 221.17370 213.36537 206.37704
 200.22071 195.16838 191.76005 189.81172 188.85838 188.93205 189.77672 191.09439
 192.82906 194.93373 197.20640 199.57507 202.02974 204.51941 206.61708 208.46875
 210.10442 211.25908 211.49775 211.73542 211.68209 211.39676 211.03943 210.67910
 210.30577 210.02544 209.84311 209.71678 209.65445 209.99512 210.39079 210.78945
 211.59212 212.77979 214.03946 215.83213 217.76980 219.82247 221.92714 224.01981
 226.08948 228.18315 230.28982 232.40549 234.54415 236.72582 238.99149 241.37116
 244.00183 246.26250 248.27417 250.04884 251.47551 252.60818 253.43985 253.76552
 253.81219 253.59585 252.96552 251.92319 250.53886 248.70953 246.62820 244.47087
 242.27154 240.08521 237.91488 235.76355 233.63322 231.50989 229.54555 227.71222
 226.00489 224.48656 223.12623 221.90790 220.79957 219.76924 218.88291 218.03358
 217.28525 216.47492 215.58259 214.95625 214.41592 214.58925 214.99878 215.59552
 216.13277 217.15764 218.36337 219.33839 220.74341 223.48073 227.98010 232.01823
 235.02267 237.50610 239.55664 241.78789 244.84164 248.37105 252.18161 256.01602
 259.49341 262.63510 265.56912 268.38184 271.08667 273.60388 275.83408 277.66812
 279.00967 280.15469 281.33707 282.68362 283.87250 284.92798 285.89288 286.77341
 287.57816 288.30853 288.97672 289.82828
 366.78100 356.34408 345.78516 334.66024 323.07232 311.27539 299.15447 286.96655
 274.68763 262.59371 250.61179 239.92187 230.05295 221.16603 213.35710 206.36818
 200.21126 195.15834 191.74942 189.80050 188.84658 188.91966 189.76374 191.08081
 192.81489 194.91897 197.19105 199.55913 202.01321 204.50229 206.59937 208.45045
 210.08552 211.23960 211.47768 211.71476 211.66084 211.37492 211.01700 210.65608
 210.28216 210.00123 209.81831 209.69139 209.62847 209.96855 210.36363 210.76171
 211.56379 212.75087 214.00994 215.80202 217.73910 219.79118 221.89526 223.98734
 226.05642 228.14950 230.25557 232.37065 234.50873 236.68981 238.95489 241.33397
 243.96405 246.22413 248.23521 250.00928 251.43536 252.56744 253.39852 253.72360
 253.76968 253.55276 252.92184 251.87892 250.49399 248.66407 246.58215 244.42423
 242.22431 240.03739 237.86647 235.71455 233.58363 231.45970 229.49478 227.66086
 225.95294 224.43402 223.07310 221.85418 220.74526 219.71434 218.82741 217.97749
 217.22857 216.41765 215.52473 214.89781 214.35689 214.56265 215.04883 215.67171
 216.19359 217.21066 218.42485 219.39639 220.76758 223.46913 227.97342 231.96075
 234.92419 237.33356 239.36838 241.64191 244.75418 248.32242 252.14505 255.97591
 259.44647 262.59402 265.53754 268.36130 271.07489 273.60464 275.85355 277.69669
 279.05658 280.19916 281.37247 282.66498 283.85303 284.90894 285.87402 286.75598
 287.56183 288.30099 288.97394 289.83151
 366.78100 356.34398 345.78497 334.65995 323.07194 311.27492 299.15390 286.96589
 274.68687 262.59286 250.61084 239.92082 230.05181 221.16479 213.35578 206.36676
 200.20974 195.15673 191.74771 189.79870 188.84468 188.91766 189.76165 191.07863
 192.81262 194.91660 197.18858 199.55657 202.01055 204.49954 206.59652 208.44750
 210.08249 211.23647 211.47445 211.71144 211.65742 211.37141 211.01339 210.65237
 210.27836 209.99734 209.81433 209.68731 209.62429 209.96428 210.35926 210.75725
 211.55923 212.74621 214.00520 215.79718 217.73417 219.78615 221.89013 223.98212
 226.05110 228.14409 230.25007 232.36505 234.50304 236.68402 238.94901 241.32799
 243.95797 246.21796 248.22894 250.00293 251.42891 252.56089 253.39188 253.71686
 253.76285 253.54583 252.91481 251.87180 250.48678 248.65677 246.57475 244.41673
 242.21672 240.02970 237.85869 235.70667 233.57565 231.45164 229.48662 227.65261
 225.94459 224.42557 223.06456 221.84554 220.73653 219.70551 218.81849 217.96848
 217.21946 216.40844 215.51543 214.88841 214.34740 214.55853 215.05739 215.78059
 216.28812 217.28520 218.49901 219.46298 220.80479 223.47653 227.97412 231.89241
 234.81204 237.15175 239.17773 241.50256 244.66682 248.27176 252.10500 255.93082
 259.39529 262.54492 265.49539 268.33167 271.06067 273.60565 275.87512 277.73877
 279.10352 280.24506 281.39523 282.67633 283.86697 284.92487 285.89380 286.77792
 287.58478 288.32825 289.00754 289.87323
 366.78100 356.34420 345.78541 334.66061 323.07282 311.27602 299.15523 286.96743
 274.68863 262.59484 250.61304 239.92325 230.05445 221.16766 213.35886 206.37006
 200.21327 195.16047 191.75168 189.80288 188.84909 188.92229 189.76649 191.08370
 192.81790 194.92211 197.19431 199.56252 202.01672 204.50592 206.60313 208.45433
 210.08954 211.24374 211.48195 211.71915 211.66535 211.37956 211.02176 210.66097
 210.28717 210.00638 209.82358 209.69679 209.63399 209.97419 210.36940 210.76760
 211.56981 212.75701 214.01622 215.80842 217.74562 219.79783 221.90203 223.99424
 226.06344 228.15665 230.26285 232.37805 234.51626 236.69746 238.96267 241.34187
 243.97208 246.23228 248.24348 250.01769 251.44389 252.57610 253.40730 253.73251
 253.77871 253.56191 252.93112 251.88832 250.50353 248.67373 246.59194 244.43414
 242.23434 240.04755 237.87675 235.72496 233.59416 231.47037 229.50557 227.67177
 225.96398 224.44518 223.08439 221.86559 220.75680 219.72600 218.83920 217.98941
 217.24061 216.42982 215.53702 214.91023 214.36943 214.56975 215.04303 215.88596
 216.42422 217.38637 218.58046 219.52170 220.83673 223.48805 227.96460 231.80682
 234.67154 236.94484 238.96832 241.35350 244.57315 248.21690 252.06421 255.88234
 259.34665 262.50116 265.45770 268.30688 271.05130 273.61002 275.89877 277.78519
 279.14392 280.26868 281.38580 282.71155 283.90057 284.95724 285.92633 286.80960
 287.61563 288.34738 289.01987 289.88055
 366.78100 356.34468 345.78636 334.66204 323.07472 311.27840 299.15809 286.97077
 274.69245 262.59913 250.61781 239.92849 230.06017 221.17385 213.36553 206.37721
 200.22089 195.16857 191.76026 189.81194 188.85862 188.93230 189.77698 191.09466
 192.82934 194.93402 197.20670 199.57538 202.03006 204.51974 206.61743 208.46911
 210.10479 211.25947 211.49815 211.73583 211.68251 211.39719 211.03987 210.67955
 210.30623 210.02591 209.84360 209.71728 209.65496 209.99564 210.39132 210.79000
 211.59268 212.78036 214.04004 215.83272 217.77040 219.82308 221.92777 224.02045
 226.09013 228.18381 230.29049 232.40617 234.54485 236.72653 238.99221 241.37189
 244.00257 246.26325 248.27494 250.04962 251.47630 252.60898 253.44066 253.76634
 253.81302 253.59670 252.96638 251.92406 250.53974 248.71042 246.62911 244.47179
 242.27247 240.08615 237.91583 235.76451 233.63419 231.51087 229.54655 227.71323
 226.00591 224.48759 223.12728 221.90896 220.80064 219.77032 218.88400 218.03468
 217.28636 216.47604 215.58372 214.95740 214.41708 214.59453 215.01378 215.97446
 216.58220 217.50089 218.66603 219.57263 220.85983 223.49390 227.93837 231.70520
 234.51259 236.72484 238.75558 241.20761 244.48640 248.16882 252.03069 255.84238
 259.30795 262.46924 265.43033 268.29245 271.04813 273.61703 275.92398 277.83133
 279.19403 280.30591 281.38458 282.72546 283.91476 284.97052 285.93701 286.81879
 287.62344 288.35107 289.01910 289.87946
 366.78100 356.34543 345.78787 334.66430 323.07773 311.28217 299.16260 286.97603
 274.69847 262.60590 250.62533 239.93677 230.06920 221.18363 213.37607 206.38850
 200.23293 195.18137 191.77380 189.82623 188.87366 188.94810 189.79353 191.11196
 192.84740 194.95283 197.22626 199.59570 202.05113 204.54156 206.64000 208.49243
 210.12886 211.28430 211.52373 211.76216 211.70960 211.42503 211.06846 210.70890
 210.33633 210.05676 209.87520 209.74963 209.68806 210.02950 210.42593 210.82536
 211.62880 212.81723 214.07766 215.87110 217.80953 219.86296 221.96840 224.06183
 226.13226 228.22670 230.33413 232.45056 234.58999 236.77243 239.03886 241.41929
 244.05073 246.31216 248.32459 250.10003 251.52746 252.66089 253.49333 253.81976
 253.86719 253.65163 253.02206 251.98049 250.59693 248.76836 246.68779 244.53123
 242.33266 240.14709 237.97753 235.82696 233.69739 231.57483 229.61126 227.77869
 226.07213 224.55456 223.19499 221.97743 220.86986 219.84029 218.95473 218.10616
 217.35859 216.54903 215.65746 215.03189 214.49232 214.63316 214.96590 216.06190
 216.75568 217.62492 218.75032 219.62439 220.88020 223.49908 227.90106 231.59238
 234.34048 236.50502 238.55579 241.07936 244.41304 248.12926 252.00256 255.80545
 259.27069 262.43744 265.40271 268.28006 271.04797 273.62576 275.95316 277.88797
 279.25742 280.36823 281.41321 282.71841 283.90649 284.96118 285.92657 286.80594
 287.60727 288.32999 288.99713 289.86795
 366.78100 356.34635 345.78971 334.66706 323.08142 311.28677 299.16812 286.98248
 274.70583 262.61419 250.63454 239.94690 230.08025 221.19560 213.38896 206.40231
 200.24767 195.19702 191.79037 189.84373 188.89208 188.96744 189.81379 191.13314
 192.86950 194.97585 197.25021 199.62056 202.07692 204.56827 206.66762 208.52098
 210.15833 211.31469 211.55504 211.79439 211.74275 211.45910 211.10346 210.74481
 210.37316 210.09452 209.91387 209.78923 209.72858 210.07094 210.46829 210.86864
 211.67300 212.86235 214.12371 215.91806 217.85741 219.91177 222.01812 224.11248
 226.18383 228.27918 230.38754 232.50489 234.64525 236.82860 239.09596 241.47731
 244.10966 246.37202 248.38537 250.16173 251.59008 252.72443 253.55779 253.88514
 253.93350 253.71885 253.09020 252.04956 250.66691 248.83927 246.75962 244.60398
 242.40633 240.22168 238.05304 235.90339 233.77475 231.65310 229.69045 227.85881
 226.15316 224.63652 223.27787 222.06122 220.95458 219.92593 219.04129 218.19364
 217.44700 216.63835 215.74770 215.12306 214.58441 214.67967 214.90469 216.15773
 216.93785 217.76257 218.81961 219.68527 220.93747 223.52315 227.85452 231.46657
 234.14883 236.28464 238.36342 240.96289 244.34375 248.09070 251.97208 255.76015
 259.22330 262.39554 265.36996 268.26624 271.04626 273.63141 275.98346 277.95773
 279.32910 280.44302 281.43457 282.71634 283.90329 284.95786 285.92255 286.80191
 287.60291 288.32913 288.98068 289.84033
 366.78100 356.34697 345.79093 334.66890 323.08387 311.28984 299.17180 286.98677
 274.71074 262.61970 250.64067 239.95364 230.08761 221.20357 213.39754 206.41151
 200.25748 195.20744 191.80141 189.85538 188.90434 188.98031 189.82728 191.14725
 192.88421 194.99118 197.26615 199.63711 202.09408 204.58605 206.68602 208.53998
 210.17795 211.33492 211.57589 211.81585 211.76482 211.48179 211.12675 210.76872
 210.39769 210.11966 209.93962 209.81559 209.75556 210.09852 210.49649 210.89746
 211.70243 212.89239 214.15436 215.94933 217.88930 219.94426 222.05123 224.14620
 226.21816 228.31413 230.42310 232.54107 234.68203 236.86600 239.13397 241.51593
 244.14890 246.41187 248.42584 250.20280 251.63177 252.76674 253.60071 253.92867
 253.97764 253.76361 253.13557 252.09554 250.71351 248.88648 246.80744 244.65241
 242.45538 240.27134 238.10331 235.95428 233.82625 231.70521 229.74318 227.91215
 226.20711 224.69108 223.33305 222.11702 221.01098 219.98295 219.09892 218.25189
 217.50585 216.69782 215.80779 215.18375 214.64572 214.71097 214.86510 216.22729
 217.10651 217.93280 218.94286 219.76100 220.97200 223.51471 227.78436 231.32449
 233.94385 236.06487 238.18001 240.85710 244.28146 248.05589 251.94250 255.71472
 259.17377 262.34964 265.33429 268.24802 271.03796 273.62711 275.99109 277.98071
 279.36105 280.48303 281.45105 282.71262 283.89359 284.94672 285.90796 286.78302
 287.58124 288.30072 288.93350 289.74576
 366.78100 356.34691 345.79082 334.66874 323.08365 311.28956 299.17147 286.98639
 274.71030 262.61921 250.64012 239.95304 230.08695 221.20286 213.39677 206.41068
 200.25660 195.20651 191.80042 189.85433 188.90325 188.97916 189.82607 191.14598
 192.88289 194.98981 197.26472 199.63563 202.09254 204.58446 206.68437 208.53828
 210.17619 211.33311 211.57402 211.81393 211.76284 211.47975 211.12467 210.76658
 210.39549 210.11740 209.93732 209.81323 209.75314 210.09605 210.49397 210.89488
 211.69979 212.88970 214.15161 215.94653 217.88644 219.94135 222.04826 224.14318
 226.21509 228.31100 230.41991 232.53782 234.67874 236.86265 239.13056 241.51247
 244.14539 246.40830 248.42221 250.19912 251.62804 252.76295 253.59686 253.92477
 253.97368 253.75960 253.13151 252.09142 250.70933 248.88225 246.80316 244.64807
 242.45098 240.26689 238.09881 235.94972 233.82163 231.70054 229.73846 227.90737
 226.20228 224.68619 223.32811 222.11202 221.00593 219.97784 219.09375 218.24667
 217.50058 216.69249 215.80240 215.17832 214.64023 214.70987 214.87437 216.24329
 217.24673 218.10687 219.07780 219.82144 220.97617 223.48671 227.70660 231.18668
 233.75827 235.86514 238.02240 240.77281 244.23846 248.03345 251.92209 255.67908
 259.13217 262.30795 265.29633 268.22449 271.02206 273.61349 275.98752 277.98325
 279.35779 280.48151 281.47345 282.69077 283.86789 284.92062 285.88196 286.75531
 287.55283 288.27090 288.90262 289.71378
 366.78100 356.34641 345.78982 334.66723 323.08163 311.28704 299.16845 286.98286
 274.70627 262.61468 250.63509 239.94749 230.08090 221.19631 213.38972 206.40313
 200.24854 195.19795 191.79135 189.84476 188.89317 188.96858 189.81499 191.13440
 192.87081 194.97721 197.25162 199.62203 202.07844 204.56985 206.66926 208.52267
 210.16007 211.31648 211.55689 211.79630 211.74471 211.46112 211.10553 210.74694
 210.37534 210.09675 209.91616 209.79157 209.73098 210.07339 210.47080 210.87120
 211.67561 212.86502 214.12643 215.92084 217.86025 219.91466 222.02106 224.11547
 226.18688 228.28229 230.39070 232.50811 234.64852 236.83192 239.09933 241.48074
 244.11315 246.37556 248.38897 250.16538 251.59378 252.72819 253.56160 253.88901
 253.93742 253.72283 253.09424 252.05364 250.67105 248.84346 246.76387 244.60828
 242.41069 240.22610 238.05750 235.90791 233.77932 231.65773 229.69514 227.86355
 226.15796 224.64136 223.28277 222.06618 220.95959 219.93100 219.04641 218.19882
 217.45222 216.64363 215.75304 215.12845 214.58986 214.68575 214.91228 216.24091
 217.36270 218.27194 219.19772 219.86589 220.98088 223.47018 227.63835 231.06392
 233.59534 235.69159 237.89201 240.71146 244.21106 248.02002 251.90662 255.64554
 259.09058 262.26379 265.25439 268.19589 271.00061 273.59296 275.97491 277.97113
 279.33588 280.46161 281.47821 282.66592 283.83966 284.89270 285.85330 286.72882
 287.52655 288.24432 288.87808 289.69113
 366.78100 356.34613 345.78925 334.66638 323.08050 311.28563 299.16675 286.98088
 274.70400 262.61213 250.63225 239.94438 230.07750 221.19263 213.38575 206.39888
 200.24400 195.19313 191.78625 189.83938 188.88750 188.96263 189.80875 191.12788
 192.86400 194.97013 197.24425 199.61438 202.07050 204.56163 206.66075 208.51388
 210.15100 211.30713 211.54725 211.78638 211.73450 211.45063 211.09475 210.73588
 210.36400 210.08513 209.90425 209.77938 209.71850 210.06063 210.45775 210.85788
 211.66200 212.85113 214.11225 215.90638 217.84550 219.89963 222.00575 224.09988
 226.17100 228.26613 230.37425 232.49138 234.63150 236.81463 239.08176 241.46288
 244.09501 246.35713 248.37026 250.14638 251.57451 252.70863 253.54176 253.86888
 253.91701 253.70213 253.07326 252.03238 250.64951 248.82163 246.74176 244.58588
 242.38801 240.20313 238.03426 235.88438 233.75551 231.63363 229.67076 227.83888
 226.13301 224.61613 223.25726 222.04038 220.93351 219.90463 219.01976 218.17188
 217.42501 216.61613 215.72526 215.10038 214.56151 214.67068 214.92862 216.26738
 217.46616 218.42003 219.30693 219.90691 220.99852 223.46915 227.57529 230.94302
 233.43175 235.51816 237.76367 240.65170 244.18408 248.00520 251.88757 255.60648
 259.04205 262.21213 265.20618 268.16257 270.97348 273.56760 275.95609 277.95026
 279.30566 280.43515 281.47018 282.64474 283.81668 284.86981 285.83115 286.70712
 287.50473 288.22559 288.85693 289.66995
 366.78100 356.34643 345.78985 334.66728 323.08170 311.28713 299.16855 286.98298
 274.70640 262.61483 250.63525 239.94768 230.08110 221.19653 213.38995 206.40338
 200.24880 195.19823 191.79165 189.84508 188.89350 188.96893 189.81535 191.13478
 192.87121 194.97763 197.25206 199.62248 202.07891 204.57033 206.66976 208.52318
 210.16061 211.31703 211.55746 211.79688 211.74531 211.46173 211.10616 210.74758
 210.37601 210.09743 209.91686 209.79228 209.73171 210.07413 210.47156 210.87199
 211.67641 212.86584 214.12726 215.92169 217.86111 219.91554 222.02196 224.11639
 226.18781 228.28324 230.39166 232.50909 234.64951 236.83294 239.10036 241.48179
 244.11421 246.37664 248.39006 250.16649 251.59492 252.72934 253.56277 253.89019
 253.93862 253.72404 253.09547 252.05489 250.67232 248.84474 246.76517 244.60959
 242.41202 240.22744 238.05887 235.90929 233.78072 231.65914 229.69657 227.86499
 226.15942 224.64284 223.28427 222.06770 220.96112 219.93255 219.04797 218.20040
 217.45382 216.64525 215.75467 215.13010 214.59152 214.68304 214.89928 216.31921
 217.58185 218.56186 219.41895 219.95343 221.02460 223.47501 227.50975 230.81168
 233.25371 235.33173 237.62714 240.58887 244.15628 247.99013 251.86864 255.56715
 258.99423 262.16190 265.16040 268.13034 270.94601 273.53992 275.93201 277.92136
 279.27066 280.40121 281.45319 282.62579 283.79855 284.85110 285.81284 286.68964
 287.48782 288.20761 288.84125 289.65765
 366.78100 356.34702 345.79104 334.66906 323.08408 311.29010 299.17212 286.98714
 274.71116 262.62018 250.64120 239.95422 230.08824 221.20426 213.39828 206.41230
 200.25832 195.20834 191.80236 189.85638 188.90540 188.98142 189.82844 191.14846
 192.88548 194.99250 197.26752 199.63854 202.09556 204.58758 206.68760 208.54162
 210.17964 211.33666 211.57768 211.81770 211.76672 211.48374 211.12876 210.77078
 210.39980 210.12182 209.94184 209.81786 209.75788 210.10090 210.49892 210.89994
 211.70496 212.89498 214.15700 215.95202 217.89204 219.94706 222.05408 224.14910
 226.22112 228.31714 230.42616 232.54418 234.68520 236.86922 239.13724 241.51926
 244.15228 246.41530 248.42932 250.20634 251.63536 252.77038 253.60440 253.93242
 253.98144 253.76746 253.13948 252.09950 250.71752 248.89054 246.81156 244.65658
 242.45960 240.27562 238.10764 235.95866 233.83068 231.70970 229.74772 227.91674
 226.21176 224.69578 223.33780 222.12182 221.01584 219.98786 219.10388 218.25690
 217.51092 216.70294 215.81296 215.18898 214.65100 214.70869 214.84500 216.36899
 217.72064 218.70895 219.53773 220.00357 221.04930 223.47597 227.43394 230.66461
 233.05931 235.13452 237.48918 240.53032 244.13521 247.98222 251.85686 255.53598
 258.95428 262.11920 265.12048 268.10022 270.91727 273.50851 275.89923 277.87692
 279.22144 280.35648 281.42496 282.60678 283.78116 284.83502 285.79550 286.67419
 287.47244 288.19299 288.82556 289.64526
 366.78100 356.34757 345.79214 334.67071 323.08628 311.29285 299.17542 286.99099
 274.71556 262.62513 250.64670 239.96027 230.09484 221.21141 213.40598 206.42055
 200.26712 195.21769 191.81226 189.86683 188.91640 188.99297 189.84054 191.16111
 192.89868 195.00625 197.28182 199.65339 202.11096 204.60353 206.70410 208.55867
 210.19724 211.35481 211.59638 211.83695 211.78652 211.50409 211.14966 210.79223
 210.42180 210.14437 209.96494 209.84151 209.78208 210.12565 210.52422 210.92579
 211.73136 212.92193 214.18450 215.98007 217.92064 219.97621 222.08378 224.17935
 226.25192 228.34849 230.45806 232.57663 234.71820 236.90277 239.17134 241.55391
 244.18748 246.45105 248.46562 250.24319 251.67276 252.80833 253.64290 253.97147
 254.02104 253.80761 253.18018 252.14075 250.75932 248.93289 246.85446 244.70002
 242.50359 240.32016 238.15273 236.00430 233.87687 231.75644 229.79501 227.96458
 226.26015 224.74472 223.38729 222.17186 221.06643 220.03900 219.15557 218.30914
 217.56371 216.75628 215.86685 215.24342 214.70599 214.73134 214.79124 216.40065
 217.87161 218.86359 219.66377 220.05719 221.06517 223.46477 227.34683 230.50311
 232.85422 234.93765 237.36084 240.48486 244.12747 247.98683 251.85524 255.51295
 258.92099 262.08032 265.08246 268.06802 270.88220 273.46796 275.85202 277.80994
 279.15262 280.29654 281.39642 282.58759 283.76144 284.81656 285.78006 286.65768
 287.45605 288.17789 288.81213 289.63046
 366.78100 356.34798 345.79297 334.67195 323.08794 311.29492 299.17791 286.99389
 274.71887 262.62886 250.65084 239.96483 230.09981 221.21680 213.41178 206.42677
 200.27375 195.22473 191.81972 189.87470 188.92469 189.00167 189.84966 191.17064
 192.90862 195.01661 197.29259 199.66458 202.12256 204.61555 206.71653 208.57152
 210.21050 211.36848 211.61047 211.85145 211.80144 211.51942 211.16541 210.80839
 210.43837 210.16136 209.98234 209.85933 209.80031 210.14430 210.54328 210.94527
 211.75125 212.94223 214.20522 216.00120 217.94219 219.99817 222.10616 224.20214
 226.27512 228.37211 230.48209 232.60108 234.74306 236.92805 239.19703 241.58002
 244.21400 246.47798 248.49297 250.27095 251.70094 252.83692 253.67191 254.00089
 254.05087 253.83786 253.21084 252.17183 250.79081 248.96480 246.88678 244.73276
 242.53675 240.35373 238.18672 236.03870 233.91169 231.79167 229.83066 228.00064
 226.29662 224.78161 223.42459 222.20958 221.10456 220.07755 219.19453 218.34851
 217.60350 216.79648 215.90747 215.28445 214.74744 214.74730 214.74699 216.41385
 218.02267 219.02710 219.79782 220.11565 221.07831 223.43980 227.24608 230.33246
 232.65018 234.75337 237.25032 240.45563 244.13417 248.00209 251.86095 255.49474
 258.88751 262.03949 265.04172 268.03033 270.83893 273.41769 275.78885 277.72046
 279.06332 280.22623 281.30573 282.59454 283.76736 284.81216 285.76886 286.64490
 287.43985 288.15909 288.79416 289.61197
 366.78100 356.34829 345.79359 334.67288 323.08918 311.29647 299.17976 286.99606
 274.72135 262.63164 250.65394 239.96823 230.10353 221.22082 213.41611 206.43141
 200.27870 195.22999 191.82529 189.88058 188.93088 189.00817 189.85646 191.17776
 192.91605 195.02435 197.30064 199.67293 202.13123 204.62452 206.72581 208.58111
 210.22040 211.37870 211.62099 211.86228 211.81258 211.53087 211.17716 210.82046
 210.45075 210.17405 209.99534 209.87263 209.81393 210.15822 210.55752 210.95981
 211.76610 212.95740 214.22069 216.01698 217.95828 220.01457 222.12287 224.21916
 226.29245 228.38975 230.50004 232.61933 234.76163 236.94692 239.21622 241.59951
 244.23380 246.49810 248.51339 250.29169 251.72198 252.85827 253.69357 254.02286
 254.07315 253.86045 253.23374 252.19504 250.81433 248.98862 246.91092 244.75721
 242.56151 240.37880 238.21209 236.06439 233.93768 231.81797 229.85727 228.02756
 226.32386 224.80915 223.45244 222.23774 221.13303 220.10632 219.22362 218.37791
 217.63321 216.82650 215.93779 215.31509 214.77838 214.75784 214.70930 216.41412
 218.16910 219.19803 219.94281 220.18031 221.08150 223.39957 227.13693 230.15846
 232.45056 234.58186 237.15672 240.44200 244.15439 248.02710 251.87077 255.47687
 258.85089 261.99380 264.99869 267.98618 270.78772 273.35602 275.70654 277.61053
 278.96072 280.14185 281.24960 282.57019 283.75262 284.80194 285.76096 286.63596
 287.43179 288.15186 288.78500 289.60037
 366.78100 356.34851 345.79402 334.67353 323.09004 311.29755 299.18107 286.99758
 274.72309 262.63360 250.65611 239.97062 230.10613 221.22364 213.41915 206.43466
 200.28218 195.23369 191.82920 189.88471 188.93522 189.01273 189.86124 191.18275
 192.92126 195.02977 197.30628 199.67880 202.13731 204.63082 206.73233 208.58784
 210.22735 211.38586 211.62837 211.86988 211.82039 211.53891 211.18542 210.82893
 210.45944 210.18295 210.00446 209.88197 209.82348 210.16799 210.56750 210.97001
 211.77653 212.96804 214.23155 216.02806 217.96957 220.02608 222.13459 224.23110
 226.30461 228.40212 230.51263 232.63215 234.77466 236.96017 239.22968 241.61319
 244.24770 246.51221 248.52772 250.30623 251.73674 252.87326 253.70877 254.03828
 254.08879 253.87630 253.24981 252.21132 250.83083 249.00534 246.92785 244.77436
 242.57888 240.39639 238.22990 236.08241 233.95592 231.83643 229.87594 228.04645
 226.34296 224.82847 223.47199 222.25750 221.15301 220.12652 219.24403 218.39854
 217.65405 216.84756 215.95907 215.33658 214.80009 214.76311 214.67574 216.40428
 218.31281 219.37671 220.08571 220.24388 221.08548 223.34679 227.01602 229.98082
 232.25626 234.42250 237.07655 240.44113 244.18611 248.05913 251.88222 255.45775
 258.81049 261.94510 264.95370 267.93756 270.72748 273.28281 275.60522 277.48163
 278.84494 280.05225 281.21399 282.54660 283.73224 284.78574 285.74823 286.62350
 287.42245 288.14264 288.77353 289.59006
 366.78100 356.34865 345.79430 334.67395 323.09060 311.29825 299.18190 286.99854
 274.72419 262.63484 250.65749 239.97214 230.10779 221.22544 213.42109 206.43674
 200.28439 195.23604 191.83169 189.88733 188.93798 189.01563 189.86428 191.18593
 192.92458 195.03323 197.30988 199.68253 202.14118 204.63483 206.73648 208.59212
 210.23177 211.39042 211.63307 211.87472 211.82537 211.54402 211.19067 210.83432
 210.46497 210.18862 210.01027 209.88792 209.82956 210.17421 210.57386 210.97651
 211.78316 212.97481 214.23846 216.03511 217.97676 220.03341 222.14206 224.23871
 226.31235 228.41000 230.52065 232.64030 234.78295 236.96860 239.23825 241.62190
 244.25655 246.52120 248.53685 250.31550 251.74614 252.88279 253.71844 254.04809
 254.09874 253.88639 253.26004 252.22169 250.84134 249.01599 246.93864 244.78529
 242.58994 240.40758 238.24123 236.09388 233.96753 231.84818 229.88783 228.05848
 226.35513 224.84078 223.48443 222.27008 221.16573 220.13937 219.25702 218.41167
 217.66732 216.86097 215.97262 215.35027 214.81392 214.76399 214.64603 216.39134
 218.44862 219.55801 220.23438 220.30588 221.07610 223.27950 226.88884 229.80296
 232.06743 234.27216 237.00676 240.45074 244.22704 248.09732 251.89459 255.43799
 258.76794 261.89536 264.90891 267.88318 270.65903 273.19778 275.48511 277.33417
 278.71918 279.96326 281.18896 282.52808 283.71454 284.76791 285.73209 286.60944
 287.41064 288.13129 288.76074 289.57990
 366.78100 356.34877 345.79453 334.67430 323.09107 311.29883 299.18260 286.99937
 274.72513 262.63590 250.65867 239.97344 230.10920 221.22697 213.42274 206.43850
 200.28627 195.23804 191.83380 189.88957 188.94034 189.01810 189.86687 191.18864
 192.92740 195.03617 197.31294 199.68570 202.14447 204.63824 206.74001 208.59577
 210.23554 211.39431 211.63707 211.87884 211.82961 211.54837 211.19514 210.83891
 210.46967 210.19344 210.01521 209.89297 209.83474 210.17951 210.57927 210.98204
 211.78881 212.98057 214.24434 216.04111 217.98288 220.03964 222.14841 224.24518
 226.31894 228.41671 230.52748 232.64724 234.79001 236.97578 239.24554 241.62931
 244.26408 246.52884 248.54461 250.32338 251.75414 252.89091 253.72668 254.05645
 254.10721 253.89498 253.26875 252.23051 250.85028 249.02505 246.94781 244.79458
 242.59935 240.41711 238.25088 236.10365 233.97741 231.85818 229.89795 228.06871
 226.36548 224.85125 223.49502 222.28078 221.17655 220.15032 219.26808 218.42285
 217.67862 216.87238 215.98415 215.36192 214.82568 214.76418 214.61887 216.38083
 218.58032 219.73274 220.37404 220.36763 221.06161 223.20088 226.75899 229.62808
 231.88326 234.12920 236.94614 240.47041 244.27760 248.14053 251.90756 255.41690
 258.72327 261.84409 264.86273 267.82401 270.58185 273.09940 275.34610 277.17102
 278.58386 279.87830 281.16486 282.51007 283.69647 284.75238 285.71640 286.59543
 287.39490 288.11484 288.74457 289.55881
 366.78100 356.34884 345.79467 334.67451 323.09134 311.29918 299.18301 286.99985
 274.72569 262.63652 250.65936 239.97419 230.11003 221.22786 213.42370 206.43953
 200.28737 195.23921 191.83504 189.89088 188.94171 189.01955 189.86838 191.19022
 192.92906 195.03789 197.31473 199.68756 202.14640 204.64023 206.74207 208.59791
 210.23774 211.39658 211.63941 211.88125 211.83208 211.55092 211.19775 210.84159
 210.47243 210.19626 210.01810 209.89593 209.83777 210.18260 210.58244 210.98528
 211.79211 212.98395 214.24778 216.04462 217.98645 220.04329 222.15213 224.24896
 226.32280 228.42063 230.53147 232.65130 234.79414 236.97997 239.24981 241.63365
 244.26848 246.53332 248.54915 250.32799 251.75882 252.89566 253.73150 254.06133
 254.11217 253.90000 253.27384 252.23567 250.85551 249.03035 246.95318 244.80002
 242.60485 240.42269 238.25652 236.10936 233.98319 231.86403 229.90387 228.07470
 226.37154 224.85737 223.50121 222.28704 221.18288 220.15672 219.27455 218.42939
 217.68522 216.87906 215.99089 215.36873 214.83257 214.76273 214.59770 216.36433
 218.71094 219.91040 220.50246 220.42516 221.05678 223.12196 226.61891 229.44800
 231.70175 233.99272 236.89363 240.49889 244.33673 248.18961 251.92241 255.39636
 258.67798 261.79324 264.81760 267.76071 270.49805 272.98975 275.19278 276.99863
 278.45001 279.80051 281.14145 282.49115 283.67871 284.73416 285.69812 286.57816
 287.37909 288.09833 288.73114 289.53955
 366.78100 356.34870 345.79440 334.67410 323.09080 311.29850 299.18220 286.99890
 274.72460 262.63530 250.65800 239.97270 230.10840 221.22610 213.42180 206.43750
 200.28520 195.23689 191.83259 189.88829 188.93899 189.01669 189.86539 191.18709
 192.92579 195.03449 197.31119 199.68389 202.14259 204.63629 206.73799 208.59369
 210.23339 211.39209 211.63479 211.87649 211.82719 211.54589 211.19259 210.83629
 210.46699 210.19069 210.01239 209.89009 209.83179 210.17649 210.57619 210.97889
 211.78559 212.97729 214.24098 216.03768 217.97938 220.03608 222.14478 224.24148
 226.31518 228.41288 230.52358 232.64328 234.78598 236.97168 239.24138 241.62508
 244.25978 246.52448 248.54018 250.31888 251.74958 252.88628 253.72198 254.05168
 254.10238 253.89008 253.26378 252.22548 250.84518 249.01988 246.94258 244.78928
 242.59398 240.41168 238.24538 236.09807 233.97177 231.85247 229.89217 228.06287
 226.35957 224.84527 223.48897 222.27467 221.17037 220.14407 219.26177 218.41647
 217.67217 216.86587 215.97757 215.35527 214.81897 214.75102 214.59048 216.33992
 218.81436 220.09262 220.67468 220.49301 220.99319 223.00203 226.48195 229.27728
 231.52664 233.86562 236.85417 240.54141 244.40865 248.24835 251.94382 255.38200
 258.63806 261.74915 264.77750 267.69794 270.41116 272.87128 275.02982 276.82391
 278.31906 279.72702 281.11435 282.46744 283.65671 284.71112 285.67667 286.55667
 287.35709 288.07721 288.70758 289.51819
 366.78100 356.34843 345.79385 334.67328 323.08970 311.29713 299.18055 286.99698
 274.72240 262.63283 250.65525 239.96968 230.10510 221.22253 213.41795 206.43338
 200.28080 195.23223 191.82765 189.88308 188.93350 189.01093 189.85935 191.18078
 192.91920 195.02763 197.30405 199.67648 202.13490 204.62833 206.72975 208.58518
 210.22460 211.38303 211.62545 211.86688 211.81730 211.53573 211.18215 210.82558
 210.45600 210.17943 210.00085 209.87828 209.81970 210.16413 210.56355 210.96598
 211.77240 212.96383 214.22725 216.02368 217.96510 220.02153 222.12995 224.22638
 226.29980 228.39723 230.50765 232.62708 234.76950 236.95493 239.22435 241.60778
 244.24220 246.50663 248.52205 250.30048 251.73090 252.86733 253.70275 254.03218
 254.08260 253.87003 253.24345 252.20488 250.82430 248.99873 246.92115 244.76758
 242.57200 240.38943 238.22285 236.07528 233.94870 231.82913 229.86855 228.03898
 226.33540 224.82083 223.46425 222.24968 221.14510 220.11853 219.23595 218.39038
 217.64580 216.83923 215.95065 215.32808 214.79150 214.73238 214.59265 216.32169
 218.88568 220.23785 220.82565 220.53035 220.91582 222.88388 226.35802 229.13370
 231.37711 233.76233 236.83702 240.60492 244.49995 248.32332 251.97845 255.37871
 258.60718 261.71127 264.74002 267.63403 270.31860 272.74402 274.85693 276.64545
 278.19150 279.65701 281.08151 282.43890 283.62665 284.68188 285.64664 286.52756
 287.32944 288.04849 288.67795 289.48834
 366.78100 356.34800 345.79299 334.67199 323.08798 311.29498 299.17798 286.99397
 274.71897 262.62896 250.65096 239.96496 230.09995 221.21695 213.41194 206.42694
 200.27394 195.22493 191.81993 189.87492 188.92492 189.00192 189.84991 191.17091
 192.90890 195.01690 197.29290 199.66489 202.12289 204.61588 206.71688 208.57187
 210.21087 211.36887 211.61086 211.85186 211.80185 211.51985 211.16585 210.80884
 210.43884 210.16183 209.98283 209.85983 209.80082 210.14482 210.54381 210.94581
 211.75181 212.94280 214.20580 216.00179 217.94279 219.99879 222.10678 224.20278
 226.27577 228.37277 230.48277 232.60176 234.74376 236.92875 239.19775 241.58075
 244.21474 246.47874 248.49373 250.27173 251.70173 252.83772 253.67272 254.00171
 254.05171 253.83871 253.21170 252.17270 250.79169 248.96569 246.88769 244.73368
 242.53768 240.35467 238.18767 236.03966 233.91266 231.79266 229.83165 228.00165
 226.29764 224.78264 223.42564 222.21063 221.10563 220.07862 219.19562 218.34962
 217.60461 216.79761 215.90860 215.28560 214.74860 214.70604 214.60551 216.31531
 218.93471 220.34314 220.92763 220.56422 220.86748 222.78302 226.23642 228.99702
 231.24205 233.67769 236.83778 240.68457 244.60574 248.40924 252.02089 255.38177
 258.58154 261.67902 264.70447 267.56653 270.21646 272.59918 274.67004 276.46381
 278.06958 279.58698 281.04239 282.40149 283.58960 284.64554 285.60880 286.49045
 287.28912 288.00763 288.63797 289.44757
 366.78100 356.34721 345.79142 334.66963 323.08484 311.29105 299.17326 286.98847
 274.71268 262.62189 250.64310 239.95631 230.09052 221.20673 213.40094 206.41515
 200.26136 195.21157 191.80578 189.85999 188.90920 188.98541 189.83262 191.15283
 192.89004 194.99725 197.27246 199.64367 202.10088 204.59309 206.69330 208.54751
 210.18572 211.34293 211.58414 211.82435 211.77356 211.49077 211.13599 210.77820
 210.40741 210.12962 209.94983 209.82604 209.76625 210.10946 210.50767 210.90888
 211.71409 212.90430 214.16651 215.96172 217.90193 219.95714 222.06435 224.15956
 226.23177 228.32798 230.43719 232.55540 234.69661 236.88082 239.14903 241.53124
 244.16445 246.42766 248.44187 250.21908 251.64829 252.78350 253.61771 253.94592
 253.99513 253.78134 253.15355 252.11376 250.73197 248.90518 246.82639 244.67160
 242.47481 240.29102 238.12323 235.97444 233.84665 231.72586 229.76407 227.93328
 226.22849 224.71270 223.35491 222.13912 221.03333 220.00554 219.12175 218.27496
 217.52917 216.72138 215.83159 215.20780 214.67001 214.66190 214.64275 216.33067
 218.95895 220.40010 220.98567 220.58301 220.82506 222.68765 226.11554 228.86798
 231.12387 233.61450 236.85802 240.78050 244.72603 248.50771 252.07285 255.39136
 258.55872 261.64484 264.66299 267.49222 270.10580 272.44336 274.47583 276.28571
 277.94257 279.50790 280.99310 282.35318 283.53986 284.59412 285.55795 286.43762
 287.23529 287.95184 288.58188 289.38837
 366.78100 356.34614 345.78928 334.66642 323.08056 311.28570 299.16684 286.98099
 274.70413 262.61227 250.63241 239.94455 230.07769 221.19283 213.38597 206.39911
 200.24425 195.19339 191.78653 189.83968 188.88782 188.96296 189.80910 191.12824
 192.86438 194.97052 197.24466 199.61480 202.07094 204.56208 206.66122 208.51436
 210.15151 211.30765 211.54779 211.78693 211.73507 211.45121 211.09535 210.73649
 210.36463 210.08577 209.90491 209.78005 209.71920 210.06134 210.45848 210.85862
 211.66276 212.85190 214.11304 215.90718 217.84632 219.90046 222.00660 224.10074
 226.17188 228.26703 230.37517 232.49231 234.63245 236.81559 239.08273 241.46387
 244.09601 246.35815 248.37129 250.14743 251.57557 252.70972 253.54286 253.87000
 253.91814 253.70328 253.07442 252.03356 250.65070 248.82284 246.74298 244.58712
 242.38926 240.20440 238.03555 235.88569 233.75683 231.63497 229.67211 227.84025
 226.13439 224.61753 223.25867 222.04181 220.93495 219.90609 219.02124 218.17338
 217.42652 216.61766 215.72680 215.10194 214.56308 214.60303 214.69737 216.37444
 218.96919 220.41354 220.99805 220.57019 220.76105 222.58717 225.99976 228.75378
 231.03143 233.58281 236.90770 240.90196 244.86972 248.62566 252.14124 255.41522
 258.54614 261.61798 264.62228 267.40530 269.96167 272.24503 274.25760 276.10068
 277.82498 279.42853 280.92465 282.28473 283.46899 284.52087 285.48441 286.36118
 287.15891 287.87646 288.50220 289.30933
 366.78100 356.34520 345.78739 334.66359 323.07679 311.28098 299.16118 286.97438
 274.69657 262.60377 250.62296 239.93416 230.06636 221.18055 213.37275 206.38495
 200.22914 195.17734 191.76954 189.82173 188.86893 188.94313 189.78832 191.10652
 192.84171 194.94691 197.22011 199.58930 202.04450 204.53470 206.63289 208.48509
 210.12129 211.27648 211.51568 211.75388 211.70107 211.41627 211.05946 210.69966
 210.32686 210.04705 209.86525 209.73945 209.67764 210.01884 210.41504 210.81423
 211.61743 212.80563 214.06582 215.85902 217.79721 219.85041 221.95561 224.04880
 226.11900 228.21320 230.32039 232.43659 234.57579 236.75798 239.02418 241.40438
 244.03557 246.29677 248.30896 250.08416 251.51136 252.64455 253.47675 253.80295
 253.85014 253.63434 253.00454 251.96273 250.57893 248.75013 246.66932 244.51252
 242.31371 240.12791 237.95811 235.80730 233.67750 231.55470 229.59089 227.75809
 226.05129 224.53348 223.17368 221.95588 220.84807 219.81827 218.93246 218.08366
 217.33586 216.52605 215.63425 215.00845 214.46864 214.54666 214.73097 216.44073
 219.00584 220.43169 220.98338 220.52104 220.65717 222.46458 225.87500 228.63440
 230.94138 233.56349 236.97705 241.04474 245.03741 248.77177 252.24051 255.46689
 258.55548 261.60452 264.58423 267.31641 269.82043 272.04453 274.02423 275.89328
 277.67526 279.32184 280.82465 282.18118 283.36432 284.41309 285.37451 286.24802
 287.04337 287.75513 288.38077 289.18744
 366.78100 356.34498 345.78697 334.66295 323.07594 311.27992 299.15990 286.97289
 274.69487 262.60185 250.62084 239.93182 230.06381 221.17779 213.36977 206.38176
 200.22574 195.17373 191.76571 189.81769 188.86468 188.93866 189.78365 191.10163
 192.83661 194.94160 197.21458 199.58356 202.03855 204.52853 206.62652 208.47850
 210.11448 211.26947 211.50845 211.74644 211.69342 211.40840 211.05139 210.69137
 210.31836 210.03834 209.85632 209.73031 209.66829 210.00927 210.40526 210.80424
 211.60723 212.79521 214.05519 215.84818 217.78616 219.83915 221.94413 224.03711
 226.10710 228.20108 230.30806 232.42405 234.56303 236.74502 239.01100 241.39098
 244.02197 246.28295 248.29494 250.06992 251.49690 252.62989 253.46187 253.78786
 253.83484 253.61882 252.98881 251.94679 250.56277 248.73376 246.65274 244.49573
 242.29671 240.11069 237.94068 235.78966 233.65965 231.53663 229.57261 227.73960
 226.03258 224.51457 223.15455 221.93653 220.82852 219.79850 218.91248 218.06347
 217.31545 216.50544 215.61342 214.98740 214.44739 214.52701 214.71510 216.51175
 219.09477 220.49706 220.97673 220.45128 220.51437 222.30913 225.72334 228.47952
 230.81961 233.52533 237.03899 241.18542 245.20918 248.92711 252.35406 255.54321
 258.59793 261.62134 264.58066 267.26495 269.69241 271.81683 273.77649 275.84586
 277.56747 279.16211 280.63623 281.97522 283.15231 284.19745 285.15469 286.02502
 286.81491 287.52252 288.14319 288.95581
 366.78100 356.34538 345.78775 334.66413 323.07751 311.28189 299.16226 286.97564
 274.69802 262.60540 250.62477 239.93615 230.06853 221.18291 213.37528 206.38766
 200.23204 195.18042 191.77279 189.82517 188.87255 188.94693 189.79230 191.11068
 192.84606 194.95144 197.22481 199.59419 202.04957 204.53994 206.63832 208.49070
 210.12708 211.28245 211.52183 211.76021 211.70759 211.42296 211.06634 210.70672
 210.33410 210.05447 209.87285 209.74723 209.68561 210.02698 210.42336 210.82274
 211.62612 212.81449 214.07487 215.86825 217.80662 219.86000 221.96538 224.05876
 226.12913 228.22351 230.33089 232.44727 234.58664 236.76902 239.03540 241.41578
 244.04715 246.30853 248.32091 250.09629 251.52366 252.65704 253.48942 253.81580
 253.86317 253.64755 253.01793 251.97631 250.59268 248.76406 246.68344 244.52681
 242.32819 240.14257 237.97295 235.82232 233.69270 231.57008 229.60646 227.77383
 226.06721 224.54959 223.18997 221.97234 220.86472 219.83510 218.94948 218.10085
 217.35323 216.54361 215.65199 215.02636 214.48674 214.54042 214.66725 216.55820
 219.22456 220.63028 221.02051 220.40694 220.36765 222.13371 225.53535 228.26212
 230.63214 233.43512 237.06671 241.29564 245.34280 249.05490 252.46190 255.63219
 258.66162 261.67896 264.63000 267.26205 269.61496 271.64343 273.92535 275.68610
 277.45233 278.98831 280.37466 281.64914 282.80612 283.84488 284.79810 285.66559
 286.45575 287.16370 287.78833 288.60562
 366.78100 356.34539 345.78777 334.66416 323.07754 311.28193 299.16231 286.97570
 274.69809 262.60547 250.62486 239.93624 230.06863 221.18302 213.37540 206.38779
 200.23217 195.18056 191.77294 189.82533 188.87272 188.94710 189.79249 191.11087
 192.84626 194.95164 197.22503 199.59442 202.04980 204.54019 206.63857 208.49096
 210.12735 211.28273 211.52212 211.76050 211.70789 211.42327 211.06666 210.70705
 210.33443 210.05482 209.87320 209.74759 209.68597 210.02736 210.42375 210.82313
 211.62652 212.81490 214.07529 215.86868 217.80706 219.86045 221.96583 224.05922
 226.12960 228.22399 230.33138 232.44776 234.58715 236.76953 239.03592 241.41630
 244.04769 246.30908 248.32146 250.09685 251.52423 252.65762 253.49001 253.81639
 253.86378 253.64816 253.01855 251.97693 250.59332 248.76471 246.68409 244.52748
 242.32886 240.14325 237.97364 235.82302 233.69341 231.57079 229.60718 227.77456
 226.06795 224.55034 223.19072 221.97311 220.86549 219.83588 218.95026 218.10165
 217.35404 216.54442 215.65281 215.02719 214.48758 214.53767 214.65604 216.56564
 219.29710 220.76541 221.11763 220.43805 220.28329 221.99692 225.36285 228.04605
 230.43222 233.32248 237.06308 241.36163 245.42480 249.11313 252.48660 255.63728
 258.67599 261.70871 264.67328 267.31686 269.69391 271.64005 273.85086 275.72412
 277.44165 278.94022 280.23856 281.39551 282.48029 283.51132 284.46399 285.33356
 286.12762 286.84470 287.47348 288.28427
 366.78100 356.34446 345.78592 334.66139 323.07385 311.27731 299.15677 286.96924
 274.69070 262.59716 250.61562 239.92608 230.05755 221.17101 213.36247 206.37393
 200.21739 195.16486 191.75632 189.80778 188.85424 188.92771 189.77217 191.08963
 192.82409 194.92855 197.20102 199.56948 202.02394 204.51340 206.61087 208.46233
 210.09779 211.25225 211.49071 211.72818 211.67464 211.38910 211.03156 210.67102
 210.29749 210.01695 209.83441 209.70787 209.64534 209.98580 210.38126 210.77972
 211.58218 212.76965 214.02911 215.82157 217.75903 219.81150 221.91596 224.00842
 226.07788 228.17134 230.27781 232.39327 234.53173 236.71319 238.97866 241.35812
 243.98858 246.24904 248.26050 250.03497 251.46143 252.59389 253.42535 253.75081
 253.79728 253.58074 252.95020 251.90766 250.52313 248.69359 246.61205 244.45451
 242.25497 240.06844 237.89790 235.74636 233.61582 231.49229 229.52775 227.69421
 225.98667 224.46813 223.10760 221.88906 220.78052 219.74998 218.86344 218.01391
 217.26537 216.45483 215.56229 214.93576 214.39522 214.49646 214.73567 216.58313
 219.24237 220.78780 221.15839 220.46419 220.22963 221.90627 225.23459 227.88065
 230.28958 233.26360 237.09492 241.43597 245.48405 249.15176 252.51173 255.67029
 258.70114 261.72870 264.71814 267.38318 269.76151 271.66504 273.98309 275.80231
 277.46649 278.91840 280.15097 281.24524 282.29800 283.32327 284.27341 285.14636
 285.94864 286.67285 287.28961 288.11029
 366.78100 356.34336 345.78371 334.65807 323.06943 311.27178 299.15014 286.96150
 274.68185 262.58721 250.60457 239.91393 230.04428 221.15664 213.34700 206.35735
 200.19971 195.14607 191.73642 189.78678 188.83214 188.90449 189.74785 191.06421
 192.79756 194.90092 197.17228 199.53963 201.99299 204.48135 206.57770 208.42806
 210.06242 211.21578 211.45313 211.68949 211.63485 211.34820 210.98956 210.62792
 210.25327 209.97163 209.78799 209.66034 209.59670 209.93606 210.33041 210.72777
 211.52913 212.71548 213.97384 215.76520 217.70156 219.75291 221.85627 223.94763
 226.01598 228.10834 230.21370 232.32805 234.46541 236.64577 238.91012 241.28848
 243.91784 246.17719 248.18755 249.96091 251.38626 252.51762 253.34798 253.67234
 253.71769 253.50005 252.86841 251.82476 250.43912 248.60848 246.52583 244.36719
 242.16655 239.97890 237.80726 235.65462 233.52297 231.39833 229.43269 227.59804
 225.88940 224.36976 223.00811 221.78847 220.67883 219.64719 218.75954 217.90890
 217.15926 216.34761 215.45397 214.82633 214.28468 214.44432 214.82150 216.61560
 219.16859 220.78511 221.17993 220.46323 220.15701 221.79816 225.08525 227.68628
 230.11322 233.17711 237.10324 241.52730 245.62244 249.29594 252.64899 255.77812
 258.79593 261.84372 264.80197 267.42969 269.73535 271.72650 274.00665 275.80835
 277.41202 278.72226 279.90259 280.94418 281.90945 282.88953 283.82657 284.69836
 285.50998 286.23224 286.84967 287.66891
 366.78100 356.34325 345.78351 334.65776 323.06901 311.27127 299.14952 286.96077
 274.68103 262.58628 250.60353 239.91279 230.04304 221.15529 213.34555 206.35580
 200.19805 195.14431 191.73456 189.78481 188.83007 188.90232 189.74557 191.06183
 192.79508 194.89833 197.16959 199.53684 201.99009 204.47835 206.57460 208.42485
 210.05911 211.21236 211.44961 211.68587 211.63112 211.34437 210.98563 210.62388
 210.24914 209.96739 209.78364 209.65590 209.59215 209.93140 210.32566 210.72291
 211.52416 212.71042 213.96867 215.75992 217.69618 219.74743 221.85068 223.94194
 226.01019 228.10244 230.20770 232.32195 234.45920 236.63946 238.90371 241.28196
 243.91122 246.17047 248.18072 249.95398 251.37923 252.51048 253.34074 253.66499
 253.71024 253.49250 252.86075 251.81700 250.43126 248.60051 246.51776 244.35902
 242.15827 239.97052 237.79878 235.64603 233.51428 231.38954 229.42379 227.58904
 225.88030 224.36055 222.99880 221.77906 220.66931 219.63756 218.74982 217.89907
 217.14932 216.33758 215.44383 214.81608 214.27434 214.45119 214.86902 216.63690
 219.12993 220.81526 221.25749 220.50925 220.11606 221.71292 224.94226 227.48459
 229.93600 233.08206 237.08749 241.57503 245.70364 249.38011 252.69882 255.82179
 258.85690 261.88806 264.80292 267.37042 269.63214 271.75040 273.93164 275.73804
 277.29376 278.52478 279.70334 280.73386 281.67044 282.67972 283.64136 284.52246
 285.31165 286.01224 286.62595 287.44006
 366.78100 356.34263 345.78226 334.65589 323.06651 311.26814 299.14577 286.95640
 274.67603 262.58066 250.59728 239.90591 230.03554 221.14717 213.33680 206.34643
 200.18805 195.13368 191.72331 189.77294 188.81757 188.88920 189.73182 191.04745
 192.78008 194.88271 197.15334 199.51997 201.97259 204.46022 206.55585 208.40548
 210.03911 211.19174 211.42836 211.66399 211.60862 211.32125 210.96188 210.59951
 210.22414 209.94176 209.75739 209.62902 209.56465 209.90328 210.29691 210.69353
 211.49416 212.67979 213.93742 215.72805 217.66368 219.71430 221.81693 223.90756
 225.97519 228.06682 230.17145 232.28507 234.42170 236.60133 238.86496 241.24259
 243.87122 246.12984 248.13947 249.91210 251.33673 252.46736 253.29699 253.62061
 253.66524 253.44687 252.81450 251.77013 250.38376 248.55239 246.46901 244.30964
 242.10827 239.91990 237.74753 235.59416 233.46178 231.33641 229.37004 227.53467
 225.82530 224.30493 222.94255 221.72218 220.61181 219.57944 218.69107 217.83970
 217.08932 216.27695 215.38258 214.75421 214.21184 214.43292 214.95523 216.66928
 219.04820 220.81212 221.34213 220.58414 220.10242 221.63315 224.81329 227.31764
 229.77081 232.99744 237.08110 241.61702 245.77563 249.46176 252.77629 255.89624
 258.89911 261.89285 264.77524 267.33649 269.65894 271.82083 273.84961 275.69727
 277.21005 278.38046 279.56790 280.59253 281.49890 282.50842 283.47763 284.34094
 285.03967 285.73080 286.35919 287.20032
 366.78100 356.34322 345.78343 334.65765 323.06887 311.27108 299.14930 286.96052
 274.68074 262.58595 250.60317 239.91239 230.04260 221.15482 213.34504 206.35525
 200.19747 195.14369 191.73390 189.78412 188.82934 188.90156 189.74477 191.06099
 192.79421 194.89742 197.16864 199.53586 201.98907 204.47729 206.57351 208.42372
 210.05794 211.21116 211.44837 211.68459 211.62981 211.34303 210.98424 210.62246
 210.24768 209.96589 209.78211 209.65433 209.59054 209.92976 210.32398 210.72119
 211.52241 212.70863 213.96685 215.75806 217.69428 219.74550 221.84871 223.93993
 226.00815 228.10036 230.20558 232.31980 234.45701 236.63723 238.90145 241.27967
 243.90888 246.16810 248.17832 249.95153 251.37675 252.50797 253.33818 253.66240
 253.70762 253.48983 252.85805 251.81427 250.42849 248.59770 246.51492 244.35614
 242.15535 239.96757 237.79579 235.64300 233.51122 231.38644 229.42065 227.58587
 225.87709 224.35730 222.99552 221.77574 220.66596 219.63417 218.74639 217.89561
 217.14582 216.33404 215.44026 214.81247 214.27069 214.47792 214.96748 216.70750
 219.07013 220.83781 221.40996 220.66144 220.12022 221.60428 224.69258 227.11992
 229.61952 232.93243 237.07402 241.61827 245.73434 249.41089 252.71671 255.83371
 258.82443 261.86337 264.69965 267.32083 269.75278 271.94391 273.89548 275.73114
 277.26590 278.42926 279.54282 280.58981 281.45123 282.32339 283.27042 284.08252
 284.74420 285.42960 286.06259 286.93167
 366.78100 356.34632 345.78964 334.66696 323.08129 311.28661 299.16793 286.98225
 274.70557 262.61389 250.63421 239.94653 230.07986 221.19518 213.38850 206.40182
 200.24714 195.19646 191.78978 189.84310 188.89143 188.96675 189.81307 191.13239
 192.86871 194.97503 197.24935 199.61968 202.07600 204.56732 206.66664 208.51996
 210.15728 211.31360 211.55392 211.79325 211.74157 211.45789 211.10221 210.74353
 210.37185 210.09317 209.91250 209.78782 209.72714 210.06946 210.46678 210.86710
 211.67142 212.86074 214.12207 215.91639 217.85571 219.91003 222.01635 224.11067
 226.18199 228.27731 230.38564 232.50296 234.64328 236.82660 239.09392 241.47524
 244.10756 246.36989 248.38321 250.15953 251.58785 252.72217 253.55549 253.88281
 253.93113 253.71646 253.08778 252.04710 250.66442 248.83674 246.75706 244.60138
 242.40370 240.21903 238.05035 235.90067 233.77199 231.65031 229.68763 227.85595
 226.15028 224.63360 223.27492 222.05824 220.95156 219.92288 219.03820 218.19052
 217.44385 216.63517 215.74449 215.11981 214.58113 214.67894 214.91003 216.57985
 219.19612 221.02992 221.50235 220.54250 219.86684 221.38847 224.48402 226.90581
 229.42163 232.78777 237.03085 241.59195 245.75529 249.43385 252.75529 255.87521
 258.93063 262.04156 264.80801 267.38208 269.81732 271.99924 273.93262 275.71561
 277.22403 278.44037 279.57480 280.60266 281.46350 282.29355 283.19727 283.94092
 284.72122 285.47644 286.17798 287.07199
 366.78100 356.34611 345.78922 334.66633 323.08044 311.28555 299.16666 286.98077
 274.70388 262.61199 250.63210 239.94421 230.07732 221.19243 213.38554 206.39865
 200.24376 195.19287 191.78598 189.83909 188.88720 188.96231 189.80842 191.12753
 192.86364 194.96975 197.24386 199.61397 202.07008 204.56118 206.66029 208.51340
 210.15051 211.30662 211.54673 211.78584 211.73395 211.45006 211.09417 210.73528
 210.36339 210.08450 209.90361 209.77872 209.71783 210.05994 210.45705 210.85716
 211.66127 212.85038 214.11149 215.90560 217.84471 219.89882 222.00493 224.09904
 226.17015 228.26526 230.37337 232.49048 234.63059 236.81370 239.08081 241.46192
 244.09403 246.35614 248.36925 250.14536 251.57347 252.70758 253.54069 253.86780
 253.91591 253.70102 253.07213 252.03124 250.64835 248.82046 246.74057 244.58468
 242.38679 240.20190 238.03301 235.88312 233.75423 231.63233 229.66944 227.83755
 226.13166 224.61477 223.25588 222.03899 220.93210 219.90321 219.01832 218.17043
 217.42354 216.61465 215.72376 215.09887 214.55998 214.71985 215.12579 216.44768
 218.90407 220.87163 221.54863 220.50996 219.65547 221.18706 224.30043 226.94809
 229.37302 232.81834 237.09393 241.56403 245.72141 249.46414 252.82079 256.01978
 259.18558 262.17688 264.86053 267.40485 269.78537 271.90329 273.84439 275.62561
 277.10284 278.44403 279.62805 280.62631 281.59274 282.45956 283.36932 284.25317
 285.05536 285.76974 286.39377 287.18906
 366.78100 356.34186 345.78072 334.65358 323.06344 311.26430 299.14116 286.95102
 274.66988 262.57374 250.58960 239.89746 230.02632 221.13719 213.32605 206.33491
 200.17577 195.12063 191.70949 189.75835 188.80221 188.87307 189.71493 191.02979
 192.76165 194.86351 197.13337 199.49923 201.95109 204.43795 206.53281 208.38167
 210.01453 211.16639 211.40225 211.63711 211.58097 211.29283 210.93270 210.56956
 210.19342 209.91028 209.72514 209.59600 209.53086 209.86872 210.26158 210.65744
 211.45730 212.64216 213.89902 215.68888 217.62374 219.67360 221.77546 223.86532
 225.93218 228.02304 230.12690 232.23976 234.37562 236.55448 238.81734 241.19421
 243.82207 246.07993 248.08879 249.86065 251.28451 252.41437 253.24323 253.56609
 253.60995 253.39081 252.75767 251.71253 250.32539 248.49325 246.40911 244.24897
 242.04683 239.85769 237.68455 235.53041 233.39727 231.27113 229.30399 227.46786
 225.75772 224.23658 222.87344 221.65230 220.54116 219.50802 218.61888 217.76674
 217.01560 216.20246 215.30732 214.67818 214.13504 214.53908 215.50299 216.46915
 218.36824 220.46046 221.47389 220.71062 219.94411 221.28212 224.30682 227.08698
 229.47269 232.94159 237.19133 241.59506 245.68719 249.44548 252.91315 256.17575
 259.30319 262.18079 264.83752 267.32455 269.65912 271.77646 273.74408 275.49866
 277.08792 278.45081 279.61188 280.66702 281.64899 282.64539 283.63278 284.53632
 285.34897 286.07263 286.70480 287.51044
 366.78100 356.34010 345.77721 334.64831 323.05641 311.25551 299.13062 286.93872
 274.65582 262.55792 250.57203 239.87813 230.00523 221.11434 213.30144 206.30854
 200.14764 195.09075 191.67785 189.72495 188.76705 188.83616 189.67626 190.98936
 192.71947 194.81957 197.08767 199.45177 201.90188 204.38698 206.48008 208.32719
 209.95829 211.10839 211.34249 211.57560 211.51770 211.22780 210.86590 210.50101
 210.12311 209.83821 209.65132 209.52042 209.45352 209.78962 210.18073 210.57483
 211.37293 212.55603 213.81114 215.59924 217.53234 219.58045 221.68055 223.76865
 225.83375 227.92286 230.02496 232.13606 234.27016 236.44727 238.70837 241.08347
 243.70958 245.96568 247.97278 249.74288 251.16499 252.29309 253.12019 253.44129
 253.48340 253.26250 252.62760 251.58071 250.19181 248.35791 246.27201 244.11012
 241.90622 239.71532 237.54042 235.38453 233.24963 231.12173 229.15284 227.31494
 225.60304 224.08014 222.71525 221.49235 220.37945 219.34456 218.45366 217.59976
 216.84686 216.03197 215.13507 214.50417 213.95927 214.48328 215.70998 216.55681
 218.16145 220.20810 221.47534 220.99751 220.30247 221.38411 224.25824 227.03958
 229.43083 232.93721 237.21089 241.57544 245.54849 249.33545 252.92419 256.24933
 259.30652 262.17770 264.86115 267.29407 269.51434 271.59454 273.60452 275.31308
 276.92938 278.31625 279.45782 280.56219 281.71063 282.78629 283.76767 284.65671
 285.45633 286.16837 286.79041 287.58310
 366.78100 356.34032 345.77764 334.64896 323.05728 311.25660 299.13191 286.94023
 274.65755 262.55987 250.57419 239.88051 230.00783 221.11715 213.30447 206.31179
 200.15111 195.09442 191.68174 189.72906 188.77138 188.84070 189.68102 190.99434
 192.72466 194.82498 197.09330 199.45762 201.90794 204.39325 206.48657 208.33389
 209.96521 211.11553 211.34985 211.58317 211.52549 211.23581 210.87413 210.50945
 210.13176 209.84708 209.66040 209.52972 209.46304 209.79936 210.19068 210.58500
 211.38332 212.56664 213.82196 215.61027 217.54359 219.59191 221.69223 223.78055
 225.84587 227.93519 230.03751 232.14883 234.28315 236.46047 238.72178 241.09710
 243.72342 245.97974 247.98706 249.75738 251.17970 252.30802 253.13534 253.45666
 253.49898 253.27830 252.64361 251.59693 250.20825 248.37457 246.28889 244.12721
 241.92353 239.73285 237.55817 235.40249 233.26781 231.14012 229.17144 227.33376
 225.62208 224.09940 222.73472 221.51204 220.39936 219.36468 218.47400 217.62032
 216.86763 216.05295 215.15627 214.52559 213.98091 214.53435 215.81158 216.62529
 218.06358 220.12460 221.54413 221.20227 220.60843 221.50505 224.23389 226.82985
 229.29796 232.88153 237.23595 241.60753 245.47784 249.23660 252.79651 256.17957
 259.28778 262.24124 264.97614 267.43869 269.59894 271.56311 273.44293 275.19153
 276.72791 278.08246 279.34357 280.72366 281.93619 283.00897 283.98770 284.87439
 285.67188 286.38202 287.00238 287.79300
 366.78100 356.34072 345.77844 334.65016 323.05887 311.25859 299.13431 286.94303
 274.66075 262.56347 250.57818 239.88490 230.01262 221.12234 213.31006 206.31778
 200.15749 195.10121 191.68893 189.73665 188.77937 188.84909 189.68981 191.00352
 192.73424 194.83496 197.10368 199.46840 201.91912 204.40483 206.49855 208.34627
 209.97799 211.12871 211.36343 211.59715 211.53986 211.25058 210.88930 210.52502
 210.14774 209.86346 209.67717 209.54689 209.48061 209.81733 210.20905 210.60377
 211.40248 212.58620 213.84192 215.63064 217.56436 219.61308 221.71380 223.80251
 225.86823 227.95795 230.06067 232.17239 234.30711 236.48482 238.74654 241.12226
 243.74898 246.00570 248.01342 249.78414 251.20685 252.33557 253.16329 253.48501
 253.52773 253.30745 252.67316 251.62688 250.23860 248.40532 246.32004 244.15876
 241.95547 239.76519 237.59091 235.43563 233.30135 231.17407 229.20579 227.36850
 225.65722 224.13494 222.77066 221.54838 220.43610 219.40181 218.51153 217.65825
 216.90597 216.09169 215.19541 214.56513 214.02084 214.58821 215.89606 216.69337
 217.89438 219.97609 221.49867 221.22922 220.67104 221.53662 224.28297 226.72470
 229.19711 232.85725 237.31673 241.71954 245.56453 249.20468 252.80972 256.21490
 259.36279 262.34216 265.11630 267.57321 269.67654 271.61182 273.45163 275.19739
 276.72653 278.07062 279.59448 281.01593 282.24606 283.33441 284.32739 285.22693
 286.03598 286.75644 287.38583 288.18790
 366.78100 356.34188 345.78076 334.65364 323.06353 311.26441 299.14129 286.95117
 274.67005 262.57393 250.58981 239.89770 230.02658 221.13746 213.32634 206.33522
 200.17610 195.12098 191.70987 189.75875 188.80263 188.87351 189.71539 191.03027
 192.76216 194.86404 197.13392 199.49980 201.95168 204.43856 206.53344 208.38233
 210.01521 211.16709 211.40297 211.63785 211.58173 211.29361 210.93350 210.57038
 210.19426 209.91114 209.72602 209.59690 209.53178 209.86967 210.26255 210.65843
 211.45831 212.64319 213.90007 215.68995 217.62484 219.67472 221.77660 223.86648
 225.93336 228.02424 230.12812 232.24101 234.37689 236.55577 238.81865 241.19553
 243.82341 246.08129 248.09018 249.86206 251.28594 252.41582 253.24470 253.56758
 253.61147 253.39235 252.75923 251.71411 250.32699 248.49487 246.41075 244.25064
 242.04852 239.85940 237.68628 235.53216 233.39904 231.27292 229.30581 227.46969
 225.75957 224.23845 222.87533 221.65421 220.54309 219.50998 218.62086 217.76874
 217.01762 216.20450 215.30938 214.68026 214.13715 214.67470 215.93240 216.75865
 217.79236 219.82317 221.33311 221.08350 220.59827 221.53470 224.25146 226.70540
 229.20383 232.93568 237.42117 241.81548 245.61871 249.19762 252.82263 256.20184
 259.36880 262.39041 265.16785 267.64819 269.78397 271.68256 273.58435 275.30585
 276.81064 278.09491 279.59381 281.01575 282.24631 283.33505 284.32834 285.22821
 286.03754 286.75827 287.38785 288.19022
 366.78100 356.34228 345.78156 334.65484 323.06511 311.26639 299.14367 286.95395
 274.67323 262.57751 250.59379 239.90207 230.03134 221.14262 213.33190 206.34118
 200.18246 195.12774 191.71702 189.76629 188.81057 188.88185 189.72413 191.03941
 192.77169 194.87397 197.14424 199.51052 201.96280 204.45008 206.54536 208.39464
 210.02792 211.18020 211.41647 211.65175 211.59603 211.30831 210.94859 210.58587
 210.21015 209.92742 209.74270 209.61398 209.54926 209.88754 210.28082 210.67710
 211.47738 212.66265 213.91993 215.71021 217.64549 219.69577 221.79805 223.88833
 225.95560 228.04688 230.15116 232.26444 234.40072 236.58000 238.84328 241.22055
 243.84883 246.10711 248.11639 249.88867 251.31295 252.44323 253.27251 253.59578
 253.64006 253.42134 252.78862 251.74390 250.35718 248.52546 246.44173 244.28201
 242.08029 239.89157 237.71885 235.56513 233.43241 231.30668 229.33996 227.50424
 225.79452 224.27380 222.91108 221.69036 220.57964 219.54691 218.65819 217.80647
 217.05575 216.24303 215.34831 214.71959 214.17686 214.73407 216.02155 216.75581
 217.71477 219.82195 221.39754 221.01843 220.41377 221.38594 224.18275 226.56197
 229.10545 232.94257 237.49475 241.82585 245.61389 249.21706 252.85347 256.30688
 259.35162 262.28656 265.10507 267.62674 269.79230 271.67297 273.54593 275.25613
 276.70236 278.13116 279.75049 281.19513 282.44534 283.55145 284.56061 285.47485
 286.29712 287.02933 287.66898 288.48413
 366.78100 356.34167 345.78033 334.65300 323.06267 311.26333 299.14000 286.94967
 274.66833 262.57200 250.58767 239.89533 230.02400 221.13467 213.32333 206.33200
 200.17267 195.11733 191.70600 189.75467 188.79833 188.86900 189.71067 191.02533
 192.75700 194.85867 197.12833 199.49400 201.94567 204.43233 206.52700 208.37567
 210.00833 211.16000 211.39566 211.63033 211.57400 211.28566 210.92533 210.56200
 210.18566 209.90233 209.71700 209.58766 209.52233 209.86000 210.25266 210.64833
 211.44800 212.63266 213.88933 215.67900 217.61366 219.66333 221.76500 223.85466
 225.92133 228.01200 230.11566 232.22833 234.36400 236.54266 238.80533 241.18200
 243.80966 246.06733 248.07600 249.84766 251.27133 252.40100 253.22966 253.55233
 253.59600 253.37666 252.74333 251.69800 250.31066 248.47833 246.39400 244.23366
 242.03133 239.84200 237.66866 235.51433 233.38100 231.25466 229.28733 227.45100
 225.74066 224.21933 222.85600 221.63466 220.52333 219.49000 218.60066 217.74833
 216.99700 216.18366 215.28833 214.65900 214.11566 214.74936 216.16328 216.73640
 217.56807 219.72519 221.47926 221.01952 220.23558 221.23296 224.17859 226.59521
 229.25102 233.09073 237.57309 241.84213 245.65115 249.33070 252.97751 256.46777
 259.47229 262.28760 265.02579 267.53848 269.70947 271.65646 273.54214 275.18234
 276.88382 278.82938 280.53235 282.02771 283.32181 284.46677 285.51135 286.45767
 287.30881 288.06671 288.72882 289.57260
 366.78100 356.34186 345.78073 334.65359 323.06345 311.26431 299.14118 286.95104
 274.66990 262.57376 250.58963 239.89749 230.02635 221.13721 213.32608 206.33494
 200.17580 195.12067 191.70953 189.75839 188.80225 188.87312 189.71498 191.02984
 192.76170 194.86357 197.13343 199.49929 201.95116 204.43802 206.53288 208.38174
 210.01461 211.16647 211.40233 211.63719 211.58106 211.29292 210.93278 210.56964
 210.19351 209.91037 209.72523 209.59610 209.53096 209.86882 210.26168 210.65755
 211.45741 212.64227 213.89913 215.68900 217.62386 219.67372 221.77559 223.86545
 225.93231 228.02317 230.12704 232.23990 234.37576 236.55462 238.81749 241.19435
 243.82221 246.08007 248.08894 249.86080 251.28466 252.41453 253.24339 253.56625
 253.61011 253.39098 252.75784 251.71270 250.32556 248.49343 246.40929 244.24915
 242.04702 239.85788 237.68474 235.53060 233.39747 231.27133 229.30419 227.46805
 225.75792 224.23678 222.87364 221.65250 220.54137 219.50823 218.61909 217.76696
 217.01582 216.20268 215.30754 214.67841 214.13527 214.79456 216.24712 216.76613
 217.45937 219.47366 221.30524 220.97749 220.17433 221.21176 224.18706 226.64502
 229.34158 233.19327 237.67445 241.91750 245.75008 249.44353 253.09612 256.56583
 259.56146 262.29782 264.99927 267.56039 269.79202 271.79437 273.68210 275.32156
 277.32599 279.31583 281.03772 282.54962 283.85809 285.01572 286.07190 287.02872
 287.88925 288.65558 289.32504 290.17816
 366.78100 356.34183 345.78065 334.65348 323.06331 311.26414 299.14096 286.95079
 274.66962 262.57345 250.58927 239.89710 230.02593 221.13676 213.32558 206.33441
 200.17524 195.12007 191.70889 189.75772 188.80155 188.87238 189.71420 191.02903
 192.76086 194.86269 197.13251 199.49834 201.95017 204.43700 206.53182 208.38065
 210.01348 211.16531 211.40113 211.63596 211.57979 211.29162 210.93144 210.56827
 210.19210 209.90893 209.72375 209.59458 209.52941 209.86723 210.26006 210.65589
 211.45572 212.64054 213.89737 215.68720 217.62203 219.67185 221.77368 223.86351
 225.93034 228.02116 230.12499 232.23782 234.37365 236.55247 238.81530 241.19213
 243.81996 246.07778 248.08661 249.85844 251.28227 252.41209 253.24092 253.56375
 253.60758 253.38840 252.75523 251.71006 250.32289 248.49071 246.40654 244.24637
 242.04420 239.85502 237.68185 235.52768 233.39451 231.26833 229.30116 227.46499
 225.75482 224.23364 222.87047 221.64930 220.53812 219.50495 218.61578 217.76361
 217.01243 216.19926 215.30409 214.67492 214.13174 214.82236 216.32605 216.77531
 217.36072 219.36101 221.22726 220.93820 220.07571 221.12852 224.02213 226.54715
 229.30467 233.22620 237.72476 241.93987 245.79626 249.51573 253.16998 256.62454
 259.62192 262.35431 265.01666 267.53290 269.75598 271.76028 273.61160 275.43246
 277.57034 279.55273 281.26816 282.77441 284.07797 285.23129 286.28351 287.23672
 288.09406 288.85751 289.52448 290.37442
 366.78100 356.34255 345.78211 334.65566 323.06621 311.26776 299.14532 286.95587
 274.67542 262.57998 250.59653 239.90508 230.03463 221.14619 213.33574 206.34529
 200.18685 195.13240 191.72195 189.77150 188.81606 188.88761 189.73016 191.04572
 192.77827 194.88082 197.15137 199.51793 201.97048 204.45803 206.55359 208.40314
 210.03669 211.18924 211.42580 211.66135 211.60590 211.31846 210.95901 210.59656
 210.22111 209.93867 209.75422 209.62577 209.56133 209.89988 210.29343 210.68998
 211.49054 212.67609 213.93364 215.72420 217.65975 219.71030 221.81285 223.90341
 225.97096 228.06251 230.16707 232.28062 234.41717 236.59672 238.86028 241.23783
 243.86638 246.12494 248.13449 249.90704 251.33159 252.46215 253.29170 253.61525
 253.65980 253.44136 252.80891 251.76446 250.37802 248.54657 246.46312 244.30367
 242.10223 239.91378 237.74133 235.58789 233.45544 231.32999 229.36354 227.52810
 225.81865 224.29820 222.93576 221.71531 220.60486 219.57241 218.68397 217.83252
 217.08207 216.26963 215.37518 214.74673 214.20428 214.87956 216.36424 216.82283
 217.20012 219.08791 221.11252 220.92909 219.98650 221.02397 223.95415 226.47638
 229.28380 233.28760 237.81512 242.01889 245.89890 249.65172 253.32646 256.75928
 259.76218 262.53421 265.19516 267.68646 269.88788 271.85513 273.56522 275.62405
 277.91898 279.96396 281.73355 283.28738 284.63208 285.82181 286.90726 287.89059
 288.77499 289.56256 290.25055 291.12732
 366.78100 356.34323 345.78346 334.65769 323.06891 311.27114 299.14937 286.96060
 274.68083 262.58606 250.60329 239.91252 230.04274 221.15497 213.34520 206.35543
 200.19766 195.14389 191.73412 189.78434 188.82957 188.90180 189.74503 191.06126
 192.79449 194.89772 197.16895 199.53617 201.98940 204.47763 206.57386 208.42409
 210.05832 211.21155 211.44877 211.68500 211.63023 211.34346 210.98469 210.62292
 210.24815 209.96637 209.78260 209.65483 209.59106 209.93029 210.32452 210.72175
 211.52298 212.70920 213.96743 215.75866 217.69489 219.74612 221.84935 223.94058
 226.00880 228.10103 230.20626 232.32049 234.45772 236.63795 238.90218 241.28041
 243.90963 246.16886 248.17909 249.95232 251.37755 252.50878 253.33901 253.66323
 253.70846 253.49069 252.85892 251.81515 250.42938 248.59861 246.51584 244.35706
 242.15629 239.96852 237.79675 235.64398 233.51221 231.38744 229.42166 227.58689
 225.87812 224.35835 222.99658 221.77681 220.66704 219.63527 218.74749 217.89672
 217.14695 216.33518 215.44141 214.81364 214.27187 214.93190 216.38757 216.87187
 217.25089 218.80717 220.57603 220.49858 220.02846 221.24248 223.93140 226.57408
 229.40364 233.40280 237.94383 242.17332 246.06612 249.82790 253.48048 256.87247
 259.88641 262.68829 265.32019 267.77127 269.99530 271.97998 273.78644 275.66351
 277.70465 279.60181 281.24347 282.68500 283.93250 285.03619 286.04318 286.95544
 287.77591 288.50653 289.14481 289.95819
 366.78100 356.34134 345.77968 334.65202 323.06136 311.26170 299.13803 286.94737
 274.66571 262.56905 250.58439 239.89173 230.02007 221.13041 213.31875 206.32709
 200.16743 195.11177 191.70010 189.74844 188.79178 188.86212 189.70346 191.01780
 192.74914 194.85048 197.11982 199.48516 201.93650 204.42284 206.51717 208.36551
 209.99785 211.14919 211.38453 211.61887 211.56221 211.27355 210.91289 210.54923
 210.17257 209.88891 209.70324 209.57358 209.50792 209.84526 210.23760 210.63294
 211.43228 212.61662 213.87296 215.66230 217.59664 219.64598 221.74731 223.83665
 225.90299 227.99333 230.09667 232.20901 234.34435 236.52269 238.78503 241.16137
 243.78871 246.04605 248.05438 249.82572 251.24906 252.37840 253.20674 253.52908
 253.57242 253.35276 252.71910 251.67344 250.28578 248.45312 246.36845 244.20779
 242.00513 239.81547 237.64181 235.48715 233.35349 231.22683 229.25917 227.42251
 225.71185 224.19019 222.82652 221.60486 220.49320 219.45954 218.56988 217.71722
 216.96556 216.15190 215.25624 214.62658 214.08292 214.86711 216.53204 216.81665
 217.22481 218.89539 220.55403 220.31245 219.77531 221.05751 223.78133 226.50537
 229.41719 233.46300 238.01036 242.21840 246.09717 249.86717 253.54109 256.89594
 259.89618 262.67896 265.27161 267.69659 269.87817 271.83029 273.59256 275.56271
 277.65408 279.72787 281.52240 283.09814 284.46179 285.66827 286.76901 287.76620
 288.66309 289.46173 290.15942 291.04855
 366.78100 356.34117 345.77934 334.65151 323.06068 311.26085 299.13702 286.94619
 274.66436 262.56753 250.58269 239.88986 230.01803 221.12820 213.31637 206.32454
 200.16471 195.10888 191.69705 189.74522 188.78839 188.85856 189.69973 191.01390
 192.74507 194.84624 197.11541 199.48058 201.93175 204.41792 206.51208 208.36025
 209.99242 211.14359 211.37876 211.61293 211.55610 211.26727 210.90644 210.54261
 210.16578 209.88195 209.69612 209.56629 209.50046 209.83763 210.22980 210.62497
 211.42414 212.60830 213.86447 215.65364 217.58781 219.63698 221.73815 223.82732
 225.89349 227.98366 230.08683 232.19900 234.33417 236.51234 238.77451 241.15068
 243.77785 246.03502 248.04319 249.81436 251.23752 252.36669 253.19486 253.51703
 253.56020 253.34037 252.70654 251.66071 250.27288 248.44005 246.35522 244.19439
 241.99156 239.80173 237.62790 235.47307 233.33924 231.21241 229.24458 227.40775
 225.69691 224.17508 222.81125 221.58942 220.47759 219.44376 218.55393 217.70110
 216.94927 216.13544 215.23961 214.60978 214.06595 214.88034 216.60374 216.82764
 216.96506 218.78406 220.70435 220.40953 219.79517 220.80077 223.66904 226.42053
 229.42508 233.54614 238.05971 242.24911 246.15840 249.97318 253.66331 257.01843
 260.03934 262.81198 265.38461 267.77884 269.92236 271.82352 273.66873 275.89792
 278.35730 280.46539 282.28958 283.89136 285.27756 286.50400 287.62292 288.63663
 289.54831 290.36017 291.06940 291.97324
 366.78100 356.34483 345.78666 334.66249 323.07532 311.27915 299.15898 286.97181
 274.69364 262.60047 250.61930 239.93013 230.06196 221.17579 213.36763 206.37946
 200.22329 195.17112 191.76295 189.81478 188.86161 188.93544 189.78027 191.09810
 192.83293 194.93776 197.21059 199.57942 202.03425 204.52408 206.62191 208.47374
 210.10957 211.26440 211.50323 211.74106 211.68789 211.40272 211.04555 210.68538
 210.31221 210.03205 209.84988 209.72371 209.66154 210.00237 210.39820 210.79703
 211.59986 212.78769 214.04752 215.84035 217.77818 219.83101 221.93584 224.02867
 226.09850 228.19233 230.29916 232.41499 234.55382 236.73565 239.00148 241.38131
 244.01214 246.27297 248.28480 250.05964 251.48647 252.61930 253.45113 253.77696
 253.82379 253.60762 252.97745 251.93528 250.55111 248.72194 246.64077 244.48360
 242.28443 240.09826 237.92809 235.77692 233.64675 231.52358 229.55941 227.72624
 226.01907 224.50090 223.14073 221.92256 220.81439 219.78422 218.89806 218.04889
 217.30072 216.49055 215.59838 214.97221 214.43204 215.05466 216.49402 217.00972
 216.89716 218.33777 220.22069 220.22853 219.77730 220.93372 223.75284 226.52313
 229.51697 233.64964 238.19086 242.38600 246.31520 250.15717 253.87308 257.24875
 260.29807 263.10385 265.72101 268.11905 270.29977 272.22928 273.87756 276.10452
 278.44440 280.47955 282.24066 283.78702 285.12527 286.30930 287.38953 288.36813
 289.24829 290.03207 290.71677 291.58932
 366.78100 356.34566 345.78832 334.66497 323.07863 311.28329 299.16395 286.97760
 274.70026 262.60792 250.62758 239.93923 230.07189 221.18655 213.37921 206.39186
 200.23652 195.18518 191.77784 189.83049 188.87815 188.95281 189.79847 191.11712
 192.85278 194.95844 197.23210 199.60175 202.05741 204.54807 206.64673 208.49938
 210.13604 211.29170 211.53136 211.77001 211.71767 211.43333 211.07699 210.71764
 210.34530 210.06596 209.88462 209.75927 209.69793 210.03959 210.43625 210.83590
 211.63956 212.82822 214.08888 215.88254 217.82119 219.87485 221.98051 224.07417
 226.14482 228.23948 230.34714 232.46380 234.60345 236.78611 239.05277 241.43343
 244.06508 246.32674 248.33940 250.11506 251.54271 252.67637 253.50903 253.83569
 253.88334 253.66800 253.03866 251.99732 250.61397 248.78563 246.70529 244.54895
 242.35060 240.16526 237.99592 235.84558 233.71623 231.59389 229.63055 227.79821
 226.09186 224.57452 223.21518 221.99784 220.89049 219.86115 218.97581 218.12747
 217.38013 216.57078 215.67944 215.05410 214.51476 215.10083 216.44968 217.07065
 217.13808 218.09477 219.58374 219.71606 219.67607 221.11076 223.57956 226.53430
 229.53232 233.68619 238.28668 242.49078 246.41823 250.27948 253.99835 257.38113
 260.40860 263.20712 265.84341 268.27719 270.51300 272.55585 274.40469 276.17636
 278.14349 279.96616 281.59033 283.01648 284.25067 285.34262 286.33887 287.24139
 288.05313 288.77597 289.40741 290.21216
 366.78100 356.34289 345.78278 334.65667 323.06757 311.26946 299.14735 286.95824
 274.67813 262.58302 250.59992 239.90881 230.03870 221.15059 213.34048 206.35037
 200.19227 195.13816 191.72805 189.77794 188.82283 188.89472 189.73762 191.05351
 192.78640 194.88929 197.16018 199.52707 201.97996 204.46786 206.56375 208.41364
 210.04753 211.20042 211.43731 211.67321 211.61810 211.33099 210.97188 210.60977
 210.23466 209.95256 209.76845 209.64034 209.57623 209.91512 210.30901 210.70590
 211.50680 212.69269 213.95058 215.74147 217.67736 219.72825 221.83115 223.92204
 225.98993 228.08182 230.18671 232.30060 234.43750 236.61739 238.88128 241.25917
 243.88806 246.14695 248.15685 249.92974 251.35463 252.48552 253.31541 253.63930
 253.68419 253.46609 252.83398 251.78987 250.40376 248.57265 246.48954 244.33044
 242.12933 239.94122 237.76911 235.61600 233.48389 231.35879 229.39268 227.55757
 225.84846 224.32835 222.96624 221.74613 220.63603 219.60392 218.71581 217.86470
 217.11459 216.30248 215.40838 214.78027 214.23816 214.97005 216.59366 216.95226
 217.16107 218.05365 219.33998 219.52489 219.59315 221.00380 223.50943 226.46156
 229.55252 233.75047 238.37938 242.56906 246.45898 250.31960 254.02904 257.38986
 260.39059 263.14606 265.75027 268.18307 270.45923 272.59488 274.56604 276.37204
 278.09036 279.68430 281.12088 282.51831 283.72769 284.79767 285.77383 286.65820
 287.45358 288.16190 288.78064 289.56915
 366.78100 356.34193 345.78087 334.65380 323.06373 311.26467 299.14160 286.95153
 274.67047 262.57440 250.59033 239.89827 230.02720 221.13813 213.32706 206.33600
 200.17693 195.12186 191.71080 189.75973 188.80366 188.87460 189.71653 191.03146
 192.76340 194.86533 197.13526 199.50120 201.95313 204.44006 206.53500 208.38393
 210.01686 211.16880 211.40473 211.63966 211.58359 211.29553 210.93546 210.57239
 210.19633 209.91326 209.72819 209.59913 209.53406 209.87199 210.26493 210.66086
 211.46079 212.64573 213.90266 215.69259 217.62753 219.67746 221.77939 223.86933
 225.93626 228.02719 230.13112 232.24406 234.37999 236.55892 238.82186 241.19879
 243.82672 246.08466 248.09359 249.86552 251.28946 252.41939 253.24832 253.57126
 253.61519 253.39612 252.76306 251.71799 250.33092 248.49886 246.41479 244.25472
 242.05265 239.86359 237.69052 235.53645 233.40339 231.27732 229.31025 227.47419
 225.76412 224.24305 222.87999 221.65892 220.54785 219.51479 218.62572 217.77365
 217.02259 216.20952 215.31445 214.68539 214.14232 214.91975 216.65919 216.97231
 217.01152 217.95868 219.26476 219.49695 219.53017 220.89745 223.50063 226.45268
 229.63133 233.83412 238.43103 242.62003 246.51381 250.37833 254.11261 257.44785
 260.40646 263.11456 265.66312 268.04474 270.32581 272.52484 274.55176 276.39960
 278.08682 279.59341 280.87573 282.18689 283.39062 284.45566 285.42731 286.30756
 287.09927 287.80426 288.42017 289.20502
 366.78100 356.34382 345.78463 334.65945 323.07126 311.27408 299.15290 286.96471
 274.68553 262.59135 250.60916 239.91898 230.04979 221.16261 213.35343 206.36424
 200.20706 195.15387 191.74469 189.79551 188.84132 188.91414 189.75795 191.07477
 192.80859 194.91240 197.18422 199.55204 202.00585 204.49467 206.59148 208.44230
 210.07712 211.23093 211.46875 211.70556 211.65138 211.36520 211.00701 210.64583
 210.27164 209.99046 209.80728 209.68009 209.61691 209.95673 210.35154 210.74936
 211.55117 212.73799 213.99681 215.78862 217.72544 219.77725 221.88107 223.97289
 226.04170 228.13452 230.24034 232.35515 234.49297 236.67378 238.93860 241.31742
 243.94723 246.20705 248.21786 249.99168 251.41750 252.54931 253.38013 253.70494
 253.75076 253.53358 252.90239 251.85921 250.47403 248.64384 246.56166 244.40347
 242.20329 240.01611 237.84492 235.69274 233.56155 231.43737 229.47219 227.63800
 225.92982 224.41063 223.04945 221.83027 220.72108 219.68990 218.80272 217.95253
 217.20335 216.39216 215.49898 214.87180 214.33061 215.01491 216.56485 217.06284
 217.02393 217.93698 219.21498 219.40425 219.41933 220.78676 223.40025 226.42303
 229.60846 233.89790 238.54605 242.71317 246.62682 250.51106 254.25307 257.60260
 260.55276 263.23532 265.74036 268.06512 270.31131 272.51031 274.56610 276.41562
 278.04849 279.44666 280.94885 282.39954 283.65500 284.76575 285.77914 286.69724
 287.52292 288.25821 288.90054 289.71915
 366.78100 356.34566 345.78833 334.66499 323.07865 311.28332 299.16398 286.97764
 274.70031 262.60797 250.62764 239.93930 230.07196 221.18663 213.37929 206.39195
 200.23662 195.18528 191.77794 189.83061 188.87827 188.95293 189.79860 191.11726
 192.85292 194.95859 197.23225 199.60191 202.05758 204.54824 206.64691 208.49957
 210.13623 211.29190 211.53156 211.77022 211.71789 211.43355 211.07721 210.71788
 210.34554 210.06620 209.88487 209.75953 209.69819 210.03986 210.43652 210.83618
 211.63985 212.82851 214.08918 215.88284 217.82150 219.87517 221.98083 224.07449
 226.14516 228.23982 230.34748 232.46415 234.60381 236.78647 239.05314 241.43380
 244.06546 246.32713 248.33979 250.11545 251.54312 252.67678 253.50945 253.83611
 253.88377 253.66844 253.03910 251.99776 250.61443 248.78609 246.70575 244.54942
 242.35108 240.16574 237.99641 235.84607 233.71673 231.59440 229.63106 227.79872
 226.09239 224.57505 223.21572 221.99838 220.89104 219.86171 218.97637 218.12803
 217.38070 216.57136 215.68002 215.05469 214.51535 215.10942 216.47992 217.09909
 217.13391 217.91846 219.09268 219.20892 219.20866 220.64377 223.35635 226.44682
 229.65569 233.97816 238.61826 242.82315 246.77454 250.68092 254.44519 257.81723
 260.77139 263.43222 265.91089 268.19077 270.40454 272.59930 274.65176 276.45691
 278.01108 279.77411 281.53305 283.07755 284.41415 285.59671 286.67563 287.65305
 288.53214 289.31494 289.99881 290.87033
 366.78100 356.34663 345.79025 334.66788 323.08250 311.28813 299.16976 286.98438
 274.70801 262.61663 250.63726 239.94988 230.08351 221.19914 213.39276 206.40639
 200.25201 195.20164 191.79527 189.84889 188.89752 188.97314 189.81977 191.13940
 192.87602 194.98265 197.25727 199.62790 202.08452 204.57615 206.67578 208.52940
 210.16703 211.32365 211.56428 211.80391 211.75253 211.46916 211.11378 210.75541
 210.38404 210.10566 209.92529 209.80091 209.74054 210.08316 210.48079 210.88142
 211.68604 212.87567 214.13729 215.93192 217.87155 219.92617 222.03280 224.12742
 226.19905 228.29467 230.40330 232.52093 234.66155 236.84518 239.11280 241.49443
 244.12706 246.38968 248.40331 250.17993 251.60856 252.74319 253.57681 253.90444
 253.95306 253.73869 253.11031 252.06994 250.68757 248.86019 246.78082 244.62544
 242.42807 240.24370 238.07532 235.92595 233.79757 231.67620 229.71383 227.88245
 226.17708 224.66070 223.30233 222.08595 220.97958 219.95121 219.06683 218.21946
 217.47308 216.66471 215.77434 215.14996 214.61159 215.16068 216.43434 217.11356
 217.28831 217.91318 218.93382 218.96332 218.95456 220.44896 223.26085 226.44687
 229.71049 234.06400 238.69969 242.91792 246.88960 250.81483 254.59189 257.96991
 260.92624 263.61789 266.10800 268.37259 270.56363 272.75085 274.80139 276.55533
 278.24649 280.23334 282.03494 283.61688 284.98590 286.19714 287.30222 288.30334
 289.20374 290.00555 290.70599 291.59863
 366.78100 356.34680 345.79061 334.66841 323.08322 311.28902 299.17083 286.98563
 274.70944 262.61824 250.63905 239.95185 230.08566 221.20146 213.39527 206.40907
 200.25488 195.20468 191.79848 189.85229 188.90109 188.97690 189.82370 191.14351
 192.88031 194.98712 197.26192 199.63273 202.08953 204.58134 206.68114 208.53495
 210.17275 211.32956 211.57036 211.81016 211.75897 211.47577 211.12058 210.76238
 210.39119 210.11299 209.93280 209.80860 209.74841 210.09121 210.48902 210.88982
 211.69463 212.88443 214.14624 215.94104 217.88084 219.93565 222.04245 224.13726
 226.20906 228.30487 230.41367 232.53148 234.67228 236.85609 239.12389 241.50570
 244.13850 246.40131 248.41511 250.19192 251.62072 252.75552 253.58933 253.91713
 253.96594 253.75174 253.12355 252.08335 250.70116 248.87396 246.79477 244.63957
 242.44238 240.25818 238.08999 235.94079 233.81260 231.69140 229.72920 227.89801
 226.19281 224.67662 223.31842 222.10223 220.99603 219.96784 219.08364 218.23645
 217.49025 216.68206 215.79186 215.16767 214.62947 215.17261 216.41190 217.07411
 217.45589 217.95734 218.73158 218.65672 218.71138 220.29196 223.10437 226.40950
 229.72000 234.14307 238.81068 243.04033 247.02954 250.96387 254.74870 258.12411
 261.09659 263.81360 266.34290 268.59720 270.76221 272.97415 275.07715 276.81335
 278.46085 280.33676 282.03769 283.53119 284.82370 285.96725 287.01056 287.95575
 288.80582 289.56281 290.22409 291.06683
 366.78100 356.34614 345.78927 334.66641 323.08055 311.28568 299.16682 286.98095
 274.70409 262.61223 250.63236 239.94450 230.07764 221.19277 213.38591 206.39905
 200.24418 195.19332 191.78645 189.83959 188.88773 188.96286 189.80900 191.12814
 192.86427 194.97041 197.24455 199.61468 202.07082 204.56195 206.66109 208.51423
 210.15136 211.30750 211.54764 211.78677 211.73491 211.45105 211.09518 210.73632
 210.36445 210.08559 209.90473 209.77986 209.71900 210.06114 210.45827 210.85841
 211.66255 212.85168 214.11282 215.90696 217.84609 219.90023 222.00636 224.10050
 226.17164 228.26677 230.37491 232.49205 234.63218 236.81532 239.08246 241.46359
 244.09573 246.35786 248.37100 250.14714 251.57527 252.70941 253.54255 253.86968
 253.91782 253.70296 253.07409 252.03323 250.65036 248.82250 246.74264 244.58677
 242.38891 240.20405 238.03518 235.88532 233.75646 231.63459 229.67173 227.83986
 226.13400 224.61714 223.25827 222.04141 220.93455 219.90568 219.02082 218.17296
 217.42609 216.61723 215.72636 215.10150 214.56264 215.13654 216.42497 216.96967
 217.58127 218.10715 218.54256 218.34818 218.48486 220.11568 222.94569 226.32571
 229.70546 234.21565 238.93834 243.16212 247.16335 251.09383 254.88402 258.25479
 261.21982 263.93765 266.49063 268.78857 270.96552 273.19070 275.31665 277.13843
 278.64893 280.21219 281.74554 283.12439 284.31766 285.37338 286.33658 287.20917
 287.99399 288.69284 289.30338 290.08139
 366.78100 356.34524 345.78748 334.66372 323.07696 311.28120 299.16144 286.97468
 274.69692 262.60416 250.62341 239.93465 230.06689 221.18113 213.37337 206.38561
 200.22985 195.17809 191.77033 189.82257 188.86981 188.94405 189.78929 191.10753
 192.84277 194.94801 197.22125 199.59049 202.04573 204.53598 206.63422 208.48646
 210.12270 211.27794 211.51718 211.75542 211.70266 211.41790 211.06114 210.70138
 210.32862 210.04886 209.86710 209.74134 209.67958 210.02082 210.41706 210.81630
 211.61955 212.80779 214.06803 215.86127 217.79951 219.85275 221.95799 224.05123
 226.12147 228.21571 230.32295 232.43919 234.57843 236.76067 239.02691 241.40715
 244.03839 246.29963 248.31187 250.08712 251.51436 252.64760 253.47984 253.80608
 253.85332 253.63756 253.00780 251.96604 250.58228 248.75352 246.67276 244.51600
 242.31724 240.13148 237.96172 235.81096 233.68120 231.55845 229.59469 227.76193
 226.05517 224.53741 223.17765 221.95989 220.85213 219.82237 218.93661 218.08785
 217.34009 216.53033 215.63857 215.01281 214.47305 215.08478 216.46286 216.87688
 217.52489 218.27939 218.65215 218.25745 218.23990 219.81279 222.77594 226.21664
 229.78371 234.25244 238.91595 243.17935 247.19363 251.13150 254.93790 258.28723
 261.23969 263.95889 266.51123 268.84943 271.07324 273.36252 275.53769 277.43463
 279.01987 280.33340 281.52969 282.60846 283.64526 284.56259 285.39948 286.15765
 286.83957 287.44681 287.97726 288.65329
 366.78100 356.34526 345.78752 334.66379 323.07705 311.28131 299.16157 286.97484
 274.69710 262.60436 250.62362 239.93488 230.06715 221.18141 213.37367 206.38593
 200.23020 195.17846 191.77072 189.82298 188.87024 188.94451 189.78977 191.10803
 192.84329 194.94855 197.22182 199.59108 202.04634 204.53660 206.63487 208.48713
 210.12339 211.27865 211.51791 211.75618 211.70344 211.41870 211.06196 210.70223
 210.32949 210.04975 209.86801 209.74227 209.68054 210.02180 210.41806 210.81732
 211.62059 212.80885 214.06911 215.86237 217.80063 219.85390 221.95916 224.05242
 226.12268 228.21695 230.32421 232.44047 234.57973 236.76199 239.02826 241.40852
 244.03978 246.30104 248.31331 250.08857 251.51583 252.64909 253.48135 253.80762
 253.85488 253.63914 253.00940 251.96766 250.58393 248.75519 246.67445 244.51771
 242.31898 240.13324 237.96350 235.81276 233.68302 231.56029 229.59655 227.76381
 226.05707 224.53934 223.17960 221.96186 220.85412 219.82438 218.93865 218.08991
 217.34217 216.53243 215.64070 215.01496 214.47522 215.07356 216.44920 216.90916
 217.36476 218.24260 218.72694 218.27214 218.08817 219.57277 222.70035 226.09285
 229.81767 234.27458 238.93866 243.22438 247.24112 251.16025 254.88728 258.20938
 261.17795 263.92377 266.49915 268.87668 271.18140 273.52051 275.74731 277.68735
 279.34821 280.68848 281.70456 282.35748 282.88586 283.77719 284.62665 285.39621
 286.08835 286.70471 287.24313 287.92932
 366.78100 356.34661 345.79021 334.66782 323.08243 311.28803 299.16964 286.98424
 274.70785 262.61646 250.63706 239.94967 230.08328 221.19888 213.39249 206.40610
 200.25170 195.20131 191.79491 189.84852 188.89713 188.97273 189.81934 191.13895
 192.87555 194.98216 197.25676 199.62737 202.08398 204.57558 206.67519 208.52880
 210.16640 211.32301 211.56362 211.80322 211.75183 211.46843 211.11304 210.75465
 210.38325 210.10486 209.92447 209.80007 209.73968 210.08229 210.47989 210.88050
 211.68510 212.87471 214.13632 215.93092 217.87053 219.92514 222.03174 224.12635
 226.19796 228.29356 230.40217 232.51977 234.66038 236.84399 239.11159 241.49320
 244.12581 246.38841 248.40202 250.17863 251.60723 252.74184 253.57544 253.90305
 253.95166 253.73726 253.10887 252.06848 250.68608 248.85869 246.77929 244.62390
 242.42651 240.24211 238.07372 235.92433 233.79593 231.67454 229.71215 227.88075
 226.17536 224.65896 223.30057 222.08418 220.97778 219.94939 219.06500 218.21760
 217.47121 216.66282 215.77242 215.14803 214.60963 215.12619 216.34113 217.06313
 217.34219 218.02583 218.54091 218.09441 217.88667 219.39076 222.67067 225.97221
 229.85492 234.33099 239.02811 243.33951 247.36853 251.27724 254.95023 258.22595
 261.18143 263.94803 266.54034 268.92966 271.25415 273.65631 275.90863 277.85315
 279.50278 280.76782 281.63385 282.09863 282.32098 282.72375 283.63440 284.51782
 285.31238 286.01990 286.63800 287.42569
 366.78100 356.34733 345.79166 334.66999 323.08532 311.29165 299.17398 286.98931
 274.71364 262.62297 250.64431 239.95764 230.09197 221.20830 213.40263 206.41696
 200.26329 195.21362 191.80795 189.86228 188.91161 188.98794 189.83527 191.15560
 192.89293 195.00026 197.27559 199.64692 202.10425 204.59659 206.69692 208.55125
 210.18958 211.34691 211.58824 211.82857 211.77790 211.49523 211.14056 210.78289
 210.41222 210.13455 209.95488 209.83121 209.77154 210.11487 210.51320 210.91453
 211.71987 212.91020 214.17253 215.96786 217.90819 219.96352 222.07085 224.16618
 226.23851 228.33484 230.44417 232.56250 234.70383 236.88816 239.15649 241.53882
 244.17215 246.43548 248.44981 250.22715 251.65648 252.79181 253.62614 253.95447
 254.00380 253.79013 253.16246 252.12279 250.74112 248.91445 246.83578 244.68111
 242.48444 240.30077 238.13310 235.98443 233.85676 231.73609 229.77443 227.94376
 226.23909 224.72342 223.36575 222.15008 221.04441 220.01674 219.13307 218.28640
 217.54073 216.73306 215.84339 215.21972 214.68205 215.15652 216.27751 217.08049
 217.58713 218.11143 218.44350 217.88432 217.61273 219.10078 222.53847 225.83998
 229.87715 234.39740 239.12645 243.45573 247.50714 251.42805 255.10420 258.36572
 261.28976 264.03046 266.60916 269.00995 271.37762 273.80530 276.08075 278.01190
 279.62796 280.86813 281.64899 281.94885 282.06583 282.25015 282.83801 283.70801
 284.50354 285.21201 285.83087 286.61957
 366.78100 356.34697 345.79093 334.66890 323.08386 311.28983 299.17179 286.98676
 274.71073 262.61969 250.64066 239.95362 230.08759 221.20355 213.39752 206.41149
 200.25745 195.20742 191.80138 189.85535 188.90431 188.98028 189.82725 191.14721
 192.88418 194.99114 197.26611 199.63707 202.09404 204.58600 206.68597 208.53994
 210.17790 211.33487 211.57583 211.81580 211.76476 211.48173 211.12670 210.76866
 210.39763 210.11959 209.93956 209.81552 209.75549 210.09846 210.49642 210.89739
 211.70235 212.89232 214.15428 215.94925 217.88922 219.94418 222.05115 224.14611
 226.21808 228.31404 230.42301 232.54098 234.68194 236.86591 239.13387 241.51584
 244.14880 246.41177 248.42574 250.20270 251.63167 252.76663 253.60060 253.92856
 253.97753 253.76350 253.13546 252.09543 250.71339 248.88636 246.80732 244.65229
 242.45526 240.27122 238.10319 235.95415 233.82612 231.70508 229.74305 227.91201
 226.20698 224.69095 223.33291 222.11688 221.01084 219.98281 219.09877 218.25174
 217.50571 216.69767 215.80764 215.18360 214.64557 215.13960 216.30353 217.00917
 217.65742 218.25766 218.46681 217.75549 217.38734 218.83183 222.35228 225.75108
 229.88586 234.46432 239.20027 243.54482 247.62152 251.54694 255.21648 258.47290
 261.38422 264.09692 266.65607 269.05783 271.46524 273.95041 276.25760 278.19498
 279.80997 281.01682 281.76199 281.98480 282.05173 282.24271 282.80725 283.67630
 284.47595 285.18805 285.81012 286.60287
 366.78100 356.34551 345.78802 334.66454 323.07805 311.28256 299.16307 286.97658
 274.69909 262.60661 250.62612 239.93763 230.07014 221.18465 213.37716 206.38968
 200.23419 195.18270 191.77521 189.82772 188.87523 188.94975 189.79526 191.11377
 192.84928 194.95479 197.22830 199.59782 202.05333 204.54384 206.64235 208.49486
 210.13137 211.28689 211.52640 211.76491 211.71242 211.42793 211.07144 210.71196
 210.33947 210.05998 209.87849 209.75300 209.69151 210.03303 210.42954 210.82905
 211.63256 212.82107 214.08158 215.87510 217.81361 219.86712 221.97263 224.06614
 226.13665 228.23117 230.33868 232.45519 234.59470 236.77721 239.04372 241.42424
 244.05575 246.31726 248.32977 250.10528 251.53279 252.66631 253.49882 253.82533
 253.87284 253.65735 253.02786 251.98638 250.60289 248.77440 246.69391 244.53742
 242.33893 240.15345 237.98396 235.83347 233.70398 231.58149 229.61800 227.78552
 226.07903 224.56154 223.20205 221.98456 220.87707 219.84759 218.96210 218.11361
 217.36612 216.55663 215.66514 215.03966 214.50017 215.06892 216.40057 216.95294
 217.58821 218.30507 218.49414 217.70374 217.26378 218.66518 222.18643 225.72894
 229.90280 234.53372 239.26555 243.62260 247.71391 251.63193 255.28404 258.53308
 261.44376 264.13406 266.66095 269.06079 271.51819 274.07559 276.41443 278.36469
 279.98041 281.17847 281.83270 281.96762 281.98877 282.26172 282.99670 283.86111
 284.63855 285.33087 285.93567 286.70642
 366.78100 356.34523 345.78745 334.66368 323.07691 311.28113 299.16136 286.97459
 274.69682 262.60404 250.62327 239.93450 230.06672 221.18095 213.37318 206.38540
 200.22963 195.17786 191.77009 189.82231 188.86954 188.94377 189.78899 191.10722
 192.84245 194.94767 197.22090 199.59013 202.04535 204.53558 206.63381 208.48604
 210.12226 211.27749 211.51672 211.75494 211.70217 211.41740 211.06062 210.70085
 210.32808 210.04830 209.86653 209.74076 209.67899 210.02021 210.41644 210.81567
 211.61889 212.80712 214.06735 215.86057 217.79880 219.85203 221.95726 224.05048
 226.12071 228.21494 230.32216 232.43839 234.57762 236.75984 239.02607 241.40630
 244.03752 246.29875 248.31098 250.08621 251.51343 252.64666 253.47889 253.80511
 253.85234 253.63657 253.00679 251.96502 250.58125 248.75248 246.67170 244.51493
 242.31616 240.13038 237.96061 235.80984 233.68006 231.55729 229.59352 227.76074
 226.05397 224.53620 223.17643 221.95865 220.85088 219.82111 218.93533 218.08656
 217.33879 216.52901 215.63724 215.01147 214.47169 215.05147 216.41173 217.01137
 217.56642 218.26895 218.45192 217.61188 217.14073 218.53658 222.07115 225.67943
 229.92274 234.60281 239.33946 243.70103 247.79907 251.70853 255.34927 258.59821
 261.52008 264.20584 266.70929 269.09952 271.58475 274.19363 276.57748 278.51929
 280.09650 281.15240 281.59680 281.54648 281.60040 282.03247 282.83194 283.70169
 284.49677 285.20474 285.82324 286.61145
 366.78100 356.34707 345.79115 334.66922 323.08430 311.29037 299.17245 286.98752
 274.71160 262.62067 250.64175 239.95482 230.08890 221.20497 213.39905 206.41312
 200.25920 195.20927 191.80335 189.85742 188.90650 188.98257 189.82965 191.14972
 192.88680 194.99387 197.26895 199.64002 202.09710 204.58917 206.68925 208.54332
 210.18140 211.33847 211.57955 211.81962 211.76870 211.48577 211.13085 210.77292
 210.40200 210.12407 209.94415 209.82022 209.76030 210.10337 210.50145 210.90252
 211.70760 212.89767 214.15975 215.95482 217.89490 219.94997 222.05705 224.15212
 226.22420 228.32027 230.42935 232.54742 234.68850 236.87257 239.14065 241.52272
 244.15580 246.41887 248.43295 250.21002 251.63910 252.77417 253.60825 253.93632
 253.98540 253.77147 253.14355 252.10362 250.72170 248.89477 246.81585 244.66092
 242.46400 240.28007 238.11215 235.96322 233.83530 231.71437 229.75244 227.92152
 226.21659 224.70067 223.34274 222.12682 221.02089 219.99297 219.10904 218.26212
 217.51619 216.70827 215.81834 215.19442 214.65649 215.13652 216.27173 217.21246
 217.64957 218.18271 218.35286 217.49307 216.97292 218.33817 221.92654 225.58621
 229.95554 234.67226 239.41626 243.78073 247.88850 251.79312 255.43491 258.69473
 261.63214 264.31699 266.79547 269.17862 271.68027 274.30783 276.70761 278.66260
 280.24414 281.21542 281.54437 281.42795 281.36334 281.55899 282.16132 282.90680
 283.69958 284.41180 285.03403 285.82693
 366.78100 356.34782 345.79263 334.67145 323.08727 311.29408 299.17690 286.99272
 274.71753 262.62735 250.64917 239.96299 230.09780 221.21462 213.40944 206.42425
 200.27107 195.22189 191.81670 189.87152 188.92134 188.99815 189.84597 191.16679
 192.90460 195.01242 197.28824 199.66005 202.11787 204.61069 206.71150 208.56632
 210.20514 211.36296 211.60477 211.84559 211.79541 211.51322 211.15904 210.80186
 210.43167 210.15449 209.97531 209.85212 209.79294 210.13676 210.53557 210.93739
 211.74321 212.93402 214.19684 215.99266 217.93347 219.98929 222.09711 224.19293
 226.26574 228.36256 230.47238 232.59119 234.73301 236.91783 239.18664 241.56946
 244.20328 246.46709 248.48191 250.25973 251.68954 252.82536 253.66018 253.98899
 254.03881 253.82563 253.19844 252.15926 250.77808 248.95190 246.87371 244.71953
 242.52335 240.34016 238.17298 236.02480 233.89761 231.77743 229.81625 227.98606
 226.28188 224.76670 223.40951 222.19433 221.08915 220.06196 219.17878 218.33260
 217.58742 216.78023 215.89105 215.26787 214.73068 215.16949 216.20622 217.30779
 217.80646 218.17813 218.21031 217.30797 216.85811 218.26117 221.80910 225.51750
 229.97418 234.73271 239.48645 243.86057 247.98885 251.90611 255.56026 258.82449
 261.76160 264.43552 266.88702 269.21960 271.66357 274.32861 276.82434 278.81500
 280.34763 281.32376 281.63797 281.45752 281.29840 281.38861 281.79657 282.47034
 283.17737 283.87949 284.49902 285.28857
 354.97500 345.04800 334.58700 324.11500 313.32600 302.53700 291.65000 280.76700
 269.93100 259.19300 248.62200 238.61700 229.08700 220.35500 212.54000 205.53500
 199.46400 194.49300 191.14300 189.19000 188.08900 188.01400 188.72400 189.90600
 191.46900 193.38200 195.40300 197.55600 199.80700 202.06000 204.28800 206.47900
 208.55200 210.37800 212.02500 213.65900 214.99800 216.11800 217.17200 218.25900
 219.49400 220.64500 221.67900 222.61400 223.54500 224.98200 226.57100 228.19000
 229.79700 231.81100 233.86500 235.97200 238.24200 240.55300 242.89900 245.25300
 247.48800 249.53500 251.36600 252.84800 254.09800 255.16700 256.02700 256.25300
 256.09500 255.54300 253.93500 252.56600 251.38400 250.24500 249.05200 247.70100
 246.01600 243.99600 241.78400 239.39300 236.81300 234.22300 231.65800 229.14400
 226.74000 224.47300 222.33500 220.32500 218.44000 216.67700 214.96200 213.47200
 212.20000 211.10800 210.26000 209.63900 209.24400 209.03100 209.05800 209.33300
 209.78400 210.62600 211.33100 212.39100 213.62500 214.84668 217.72949 219.47640
 220.32566 220.86828 220.88710 220.27371 219.43733 218.84250 219.04934 220.86203
 222.60583 225.72206 229.03064 232.61777 236.12270 239.51333 242.70767 245.68587
 248.41061 250.90679 253.19353 254.91714 256.48655 257.94920 259.39966 260.69384
 261.81714 262.77997 263.71679 264.54570 265.26305 265.89772 266.47676 267.00133
 267.47312 267.89325 268.26027 268.72800
