|-------------------------------------------------------------------------|
|   File Name : in_temp.dat
|   Subject   : temperature profiles used for initial guess atmosphere
|   File Type : input of gmtr
|   Data Type : atmospherical data
|   Author/s  : WRF-Chem
|   Date      : Fri Jul 26 15:39:24 2024
|-------------------------------------------------------------------------|

 WRF-Chem temperature
#
 values of T (K)    (8f10.5)
#
 354.97500 345.04800 334.58700 324.11500 313.32600 302.53700 291.65000 280.76700
 269.93100 259.19300 248.62200 238.61700 229.08700 220.35500 212.54000 205.53500
 199.46400 194.49300 191.14300 189.19000 188.08900 188.01400 188.72400 189.90600
 191.46900 193.38200 195.40300 197.55600 199.80700 202.06000 204.28800 206.47900
 208.55200 210.37800 212.02500 213.65900 214.99800 216.11800 217.17200 218.25900
 219.49400 220.64500 221.67900 222.61400 223.54500 224.98200 226.57100 228.19000
 229.79700 231.81100 233.86500 235.97200 238.24200 240.55300 242.89900 245.25300
 247.48800 249.53500 251.36600 252.84800 254.09800 255.16700 256.02700 256.25300
 256.09500 255.54300 253.93500 252.56600 251.38400 250.24500 249.05200 247.70100
 246.01600 243.99600 241.78400 239.39300 236.81300 234.22300 231.65800 229.14400
 226.74000 224.47300 222.33500 220.32500 218.44000 216.67700 214.96200 213.47200
 212.20000 211.10800 210.26000 209.63900 209.24400 209.03100 209.05800 209.33300
 209.78400 210.62600 211.33100 212.39100 213.62500 214.84668 217.72949 219.47640
 220.32566 220.86828 220.88710 220.27371 219.43733 218.84250 219.04934 220.86203
 222.60583 225.72206 229.03064 232.61777 236.12270 239.51333 242.70767 245.68587
 248.41061 250.90679 253.19353 254.91714 256.48655 257.94920 259.39966 260.69384
 261.81714 262.77997 263.71679 264.54570 265.26305 265.89772 266.47676 267.00133
 267.47312 267.89325 268.26027 268.72800
 366.78100 356.33500 345.76700 334.63300 323.03600 311.23000 299.10000 286.90300
 274.61500 262.51200 250.52100 239.82200 229.94400 221.04800 213.23000 206.23200
 200.06600 195.00400 191.58600 189.62800 188.66500 188.72900 189.56400 190.87200
 192.59700 194.69200 196.95500 199.31400 201.75900 204.23900 206.32700 208.16900
 209.79500 210.94000 211.16900 211.39700 211.33400 211.03900 210.67200 210.30200
 209.91900 209.62900 209.43700 209.30100 209.22900 209.56000 209.94600 210.33500
 211.12800 212.30600 213.55600 215.33900 217.26700 219.31000 221.40500 223.48800
 225.54800 227.63200 229.72900 231.83500 233.96400 236.13600 238.39200 240.76200
 243.38300 245.63400 247.63600 249.40100 250.81800 251.94100 252.76300 253.07900
 253.11600 252.89000 252.25000 251.19800 249.80400 247.96500 245.87400 243.70700
 241.49800 239.30200 237.12200 234.96100 232.82100 230.68800 228.71400 226.87100
 225.15400 223.62600 222.25600 221.02800 219.91000 218.87000 217.97400 217.11500
 216.35700 215.53700 214.63500 213.99900 213.44900 212.85855 212.01316 212.61654
 214.26826 216.08686 218.14273 220.53346 223.40855 226.78828 231.49734 235.90155
 239.42278 243.28576 247.23140 251.11907 254.80144 258.23331 261.38913 264.27520
 266.89312 269.26852 271.44504 273.08845 274.58484 275.98591 277.39845 278.65879
 279.75272 280.69038 281.56708 282.34086 283.01050 283.60295 284.14348 284.63317
 285.07358 285.46577 285.80838 286.24500
 381.81900 372.39900 361.20600 349.77600 337.62200 324.85300 311.81000 298.35300
 284.86000 271.32400 258.56100 246.30400 236.08700 226.79600 218.44800 211.29000
 205.52200 200.89400 197.38100 194.84800 193.01500 192.31500 192.25000 192.43100
 192.91200 193.53700 194.13600 194.71200 195.26200 195.83100 196.39300 196.97600
 197.60400 198.14900 198.58400 199.05700 199.69500 200.37800 201.05400 201.70800
 202.31300 202.85700 203.35500 203.86200 204.56900 205.29700 206.02600 206.98700
 208.19300 209.44100 210.96900 212.57600 214.46200 216.51300 218.63000 220.85300
 223.34100 225.96200 228.73900 231.69700 234.70600 237.70600 240.69200 243.65700
 246.73700 249.69900 252.52100 255.06300 257.29000 259.23300 260.63300 261.68000
 262.46100 262.79800 262.69100 262.22400 261.06900 259.52500 257.70700 255.50700
 253.00100 250.30200 247.39800 244.45200 241.65400 239.05400 236.73300 234.59000
 232.59500 230.72500 228.83400 226.82600 224.66600 222.38700 220.10400 217.71500
 215.45900 213.06600 210.54600 208.09300 205.35400 202.08130 196.05959 200.71215
 209.01611 216.90438 223.84126 229.78593 235.00632 240.20838 245.98943 250.68668
 254.32982 257.93487 261.55666 264.96801 268.15192 271.06452 273.76717 276.25691
 278.57680 280.74479 282.77456 284.60533 286.27232 287.81705 289.31715 290.65561
 291.81734 292.81312 293.70701 294.49387 295.17482 295.77730 296.32696 296.82492
 297.27278 297.67160 298.02000 298.46400
 399.33000 389.90700 379.81300 368.66800 357.52200 345.30100 333.07400 320.22700
 307.21600 293.84800 280.37600 267.29600 254.61000 242.98700 232.15100 221.97700
 212.67200 204.28600 197.66900 192.82100 189.48600 187.45200 186.81400 187.08900
 187.78100 189.05400 190.64800 192.54200 194.63000 196.75200 198.67100 200.15800
 201.53500 202.48700 202.97500 203.34000 203.53900 203.49700 203.38500 203.24700
 203.00500 202.78600 202.60300 202.43700 202.42600 202.88800 203.42000 203.95100
 204.89500 205.99200 207.30100 208.95800 210.73800 213.10000 215.56400 218.18000
 220.96600 223.91800 226.96100 230.09200 233.29300 236.55700 239.95500 243.53700
 246.84500 249.39000 251.54200 253.47400 255.19500 256.48400 257.43100 258.05900
 258.21200 258.04000 257.58200 256.64300 255.23900 253.50700 251.40800 249.05600
 246.57600 243.99400 241.38900 238.83000 236.34400 233.98600 231.96900 230.11800
 228.42300 226.89900 225.54800 224.29700 223.10500 221.96500 220.95800 220.11300
 219.49000 218.92000 218.32500 217.88100 217.42300 216.96366 216.35568 216.80261
 217.73415 218.28582 218.64258 219.10077 220.44626 222.53987 226.38451 230.35736
 233.59734 237.39164 241.29814 245.22796 248.98002 252.51130 255.78595 258.80109
 261.54781 264.05210 266.34239 268.04198 269.58951 271.01303 272.35754 273.55718
 274.59842 275.49092 276.28989 276.99307 277.60161 278.14001 278.63122 279.07623
 279.47646 279.83287 280.14422 280.54100
 399.73800 389.78500 379.66200 368.15100 356.64100 344.35000 331.79200 318.88800
 305.72600 292.49300 279.20900 266.73800 254.69600 244.21100 234.45700 225.43300
 217.56900 210.45100 204.30000 199.30600 195.45800 192.57600 191.02700 190.38600
 190.23900 190.53400 191.16600 191.92500 192.79500 193.76600 194.73200 195.31200
 195.80000 196.05200 196.11500 196.11500 196.03900 195.72300 195.34000 194.98900
 194.75100 194.79200 195.13300 195.59800 196.50600 198.13600 199.85800 201.56600
 204.17900 206.82300 209.89300 213.28400 216.82800 220.60500 224.38700 228.20900
 232.03200 235.82500 239.56000 243.25800 246.84500 250.20100 253.70900 257.46800
 261.53000 264.22100 266.60100 268.68100 270.32900 271.74100 272.83600 273.47400
 273.89800 274.00200 273.75700 273.28800 272.37100 271.10000 269.58900 267.77900
 265.81600 263.72100 261.39300 258.91600 256.29800 253.42300 250.33100 247.11400
 243.83700 240.52900 237.24900 233.99900 230.72800 227.51500 224.25400 220.95200
 217.62700 213.65600 210.12100 206.78900 204.01000 201.99491 199.07309 198.76551
 199.40006 200.48994 201.46112 202.31912 203.45100 204.96110 207.47502 210.85391
 213.70530 217.29629 220.99574 224.72316 228.28753 231.64854 234.68024 237.40893
 239.70644 241.60899 243.46854 245.67368 247.68154 249.52395 251.24767 252.78566
 254.12057 255.26479 256.23740 257.09036 257.82852 258.48160 259.07744 259.61723
 260.10271 260.53504 260.91270 261.39400
 399.73800 389.78500 379.66200 368.15100 356.64100 344.35000 331.79200 318.88800
 305.72600 292.49300 279.20900 266.73800 254.69600 244.21100 234.45700 225.43300
 217.56900 210.45100 204.30000 199.30600 195.45800 192.57600 191.02700 190.38600
 190.23900 190.53400 191.16600 191.92500 192.79500 193.76600 194.73200 195.31200
 195.80000 196.05200 196.11500 196.11500 196.03900 195.72300 195.34000 194.98900
 194.75100 194.79200 195.13300 195.59800 196.50600 198.13600 199.85800 201.56600
 204.17900 206.82300 209.89300 213.28400 216.82800 220.60500 224.38700 228.20900
 232.03200 235.82500 239.56000 243.25800 246.84500 250.20100 253.70900 257.46800
 261.53000 264.22100 266.60100 268.68100 270.32900 271.74100 272.83600 273.47400
 273.89800 274.00200 273.75700 273.28800 272.37100 271.10000 269.58900 267.77900
 265.81600 263.72100 261.39300 258.91600 256.29800 253.42300 250.33100 247.11400
 243.83700 240.52900 237.24900 233.99900 230.72800 227.51500 224.25400 220.95200
 217.62700 213.65600 210.12100 206.78900 204.01000 201.99491 199.07309 198.76551
 199.40006 200.48994 201.46112 202.31912 203.45100 204.96110 207.47502 210.85391
 213.70530 217.29629 220.99574 224.72316 228.28753 231.64854 234.68024 237.40893
 239.70644 241.60899 243.46854 245.67368 247.68154 249.52395 251.24767 252.78566
 254.12057 255.26479 256.23740 257.09036 257.82852 258.48160 259.07744 259.61723
 260.10271 260.53504 260.91270 261.39400
 399.33000 389.90700 379.81300 368.66800 357.52200 345.30100 333.07400 320.22700
 307.21600 293.84800 280.37600 267.29600 254.61000 242.98700 232.15100 221.97700
 212.67200 204.28600 197.66900 192.82100 189.48600 187.45200 186.81400 187.08900
 187.78100 189.05400 190.64800 192.54200 194.63000 196.75200 198.67100 200.15800
 201.53500 202.48700 202.97500 203.34000 203.53900 203.49700 203.38500 203.24700
 203.00500 202.78600 202.60300 202.43700 202.42600 202.88800 203.42000 203.95100
 204.89500 205.99200 207.30100 208.95800 210.73800 213.10000 215.56400 218.18000
 220.96600 223.91800 226.96100 230.09200 233.29300 236.55700 239.95500 243.53700
 246.84500 249.39000 251.54200 253.47400 255.19500 256.48400 257.43100 258.05900
 258.21200 258.04000 257.58200 256.64300 255.23900 253.50700 251.40800 249.05600
 246.57600 243.99400 241.38900 238.83000 236.34400 233.98600 231.96900 230.11800
 228.42300 226.89900 225.54800 224.29700 223.10500 221.96500 220.95800 220.11300
 219.49000 218.92000 218.32500 217.88100 217.42300 216.96366 216.35568 216.80261
 217.73415 218.28582 218.64258 219.10077 220.44626 222.53987 226.38451 230.35736
 233.59734 237.39164 241.29814 245.22796 248.98002 252.51130 255.78595 258.80109
 261.54781 264.05210 266.34239 268.04198 269.58951 271.01303 272.35754 273.55718
 274.59842 275.49092 276.28989 276.99307 277.60161 278.14001 278.63122 279.07623
 279.47646 279.83287 280.14422 280.54100
 381.81900 372.39900 361.20600 349.77600 337.62200 324.85300 311.81000 298.35300
 284.86000 271.32400 258.56100 246.30400 236.08700 226.79600 218.44800 211.29000
 205.52200 200.89400 197.38100 194.84800 193.01500 192.31500 192.25000 192.43100
 192.91200 193.53700 194.13600 194.71200 195.26200 195.83100 196.39300 196.97600
 197.60400 198.14900 198.58400 199.05700 199.69500 200.37800 201.05400 201.70800
 202.31300 202.85700 203.35500 203.86200 204.56900 205.29700 206.02600 206.98700
 208.19300 209.44100 210.96900 212.57600 214.46200 216.51300 218.63000 220.85300
 223.34100 225.96200 228.73900 231.69700 234.70600 237.70600 240.69200 243.65700
 246.73700 249.69900 252.52100 255.06300 257.29000 259.23300 260.63300 261.68000
 262.46100 262.79800 262.69100 262.22400 261.06900 259.52500 257.70700 255.50700
 253.00100 250.30200 247.39800 244.45200 241.65400 239.05400 236.73300 234.59000
 232.59500 230.72500 228.83400 226.82600 224.66600 222.38700 220.10400 217.71500
 215.45900 213.06600 210.54600 208.09300 205.35400 202.08130 196.05959 200.71215
 209.01611 216.90438 223.84126 229.78593 235.00632 240.20838 245.98943 250.68668
 254.32982 257.93487 261.55666 264.96801 268.15192 271.06452 273.76717 276.25691
 278.57680 280.74479 282.77456 284.60533 286.27232 287.81705 289.31715 290.65561
 291.81734 292.81312 293.70701 294.49387 295.17482 295.77730 296.32696 296.82492
 297.27278 297.67160 298.02000 298.46400
 366.78100 356.33619 345.76938 334.63656 323.04075 311.23594 299.10713 286.91132
 274.62451 262.52269 250.53288 239.83507 229.95826 221.06345 213.24664 206.24982
 200.08501 195.02420 191.60739 189.65058 188.68877 188.75395 189.59014 190.89933
 192.62552 194.72171 196.98589 199.34608 201.79227 204.27346 206.36265 208.20584
 209.83302 210.97921 211.20940 211.43859 211.37678 211.08297 210.71715 210.34834
 209.96653 209.67772 209.48691 209.35209 209.28128 209.61347 210.00066 210.39085
 211.18504 212.36422 213.61541 215.39960 217.32879 219.37298 221.46917 223.55335
 225.61454 227.69973 229.79792 231.90511 234.03530 236.20848 238.46567 240.83686
 243.45905 245.71124 247.71442 249.48061 250.89880 252.02299 252.84618 253.16337
 253.20155 252.97674 252.33793 251.28712 249.89431 248.05650 245.96668 243.80087
 241.59306 239.39825 237.21944 235.05963 232.92081 230.78900 228.81619 226.97438
 225.25857 223.73175 222.36294 221.13613 220.01932 218.98051 218.08570 217.22788
 216.47107 215.65226 214.75145 214.11664 213.56783 212.74602 210.81152 210.37193
 210.66103 211.59129 213.27451 215.63281 219.18314 223.85095 229.63504 234.79387
 238.70905 242.61987 246.65738 250.73071 254.57449 258.33301 261.15561 262.88211
 265.55685 268.39584 270.81653 272.66312 274.65134 276.65952 278.17685 279.66415
 281.30807 282.85330 284.32053 285.67789 286.85776 287.90427 288.85977 289.72766
 290.51382 291.21939 291.83798 292.66116
 366.78100 356.33663 345.77026 334.63789 323.04252 311.23815 299.10978 286.91441
 274.62804 262.52667 250.53730 239.83993 229.96356 221.06919 213.25282 206.25645
 200.09208 195.03171 191.61534 189.65897 188.69760 188.76323 189.59986 190.90949
 192.63612 194.73275 196.99738 199.35801 201.80464 204.28627 206.37590 208.21953
 209.84715 210.99378 211.22441 211.45404 211.39267 211.09930 210.73393 210.36556
 209.98419 209.69582 209.50545 209.37108 209.30071 209.63334 210.02097 210.41160
 211.20623 212.38586 213.63749 215.42212 217.35175 219.39638 221.49301 223.57764
 225.63927 227.72490 229.82353 231.93116 234.06179 236.23542 238.49305 240.86468
 243.48731 245.73994 247.74357 249.51020 250.92883 252.05346 252.87709 253.19472
 253.23335 253.00898 252.37061 251.32024 249.92787 248.09050 246.00113 243.83576
 241.62839 239.43402 237.25565 235.09628 232.95791 230.82654 228.85417 227.01280
 225.29743 223.77106 222.40269 221.17632 220.05995 219.02158 218.12721 217.26984
 216.51346 215.69509 214.79472 214.16035 213.61198 212.80156 210.89340 210.48245
 210.64851 211.69958 213.34718 215.60643 219.07675 223.78110 229.58922 234.74272
 238.64717 242.54105 246.56725 250.64592 254.51154 258.27249 261.09619 262.83429
 265.51608 268.36160 270.77826 272.58322 274.55405 276.57391 278.08505 279.56134
 281.21484 282.76913 284.23480 285.59186 286.77194 287.81912 288.77365 289.64209
 290.42752 291.13474 291.75458 292.57822
 366.78100 356.33657 345.77014 334.63771 323.04228 311.23785 299.10942 286.91399
 274.62756 262.52613 250.53670 239.83927 229.96284 221.06841 213.25198 206.25555
 200.09113 195.03070 191.61427 189.65784 188.69641 188.76198 189.59855 190.90812
 192.63469 194.73126 196.99583 199.35640 201.80297 204.28454 206.37411 208.21768
 209.84525 210.99182 211.22239 211.45196 211.39053 211.09710 210.73167 210.36324
 209.98181 209.69338 209.50295 209.36852 209.29809 209.63066 210.01824 210.40881
 211.20338 212.38295 213.63452 215.41909 217.34866 219.39323 221.48980 223.57437
 225.63594 227.72151 229.82008 231.92765 234.05822 236.23179 238.48936 240.86093
 243.48350 245.73607 247.73964 249.50621 250.92478 252.04935 252.87292 253.19049
 253.22906 253.00463 252.36620 251.31577 249.92335 248.08592 245.99649 243.83106
 241.62363 239.42920 237.25077 235.09134 232.95291 230.82148 228.84905 227.00762
 225.29219 223.76576 222.39733 221.17090 220.05447 219.01604 218.12161 217.26418
 216.50775 215.68932 214.78889 214.15446 213.60603 212.83189 211.00826 210.56172
 210.66600 211.78317 213.40550 215.60063 218.99800 223.70351 229.53952 234.68423
 238.57742 242.45740 246.47525 250.56119 254.45242 258.21564 261.03995 262.79016
 265.47208 268.32220 270.73520 272.50372 274.45636 276.48871 277.99503 279.46033
 281.12302 282.68784 284.14990 285.50745 286.68832 287.73398 288.69092 289.55844
 290.34512 291.05048 291.67249 292.49411
 366.78100 356.33636 345.76973 334.63709 323.04146 311.23682 299.10819 286.91255
 274.62591 262.52428 250.53464 239.83701 229.96037 221.06574 213.24910 206.25247
 200.08783 195.02719 191.61056 189.65392 188.69229 188.75765 189.59402 190.90338
 192.62974 194.72611 196.99047 199.35084 201.79720 204.27857 206.36793 208.21129
 209.83866 210.98502 211.21539 211.44475 211.38312 211.08948 210.72384 210.35521
 209.97357 209.68494 209.49430 209.35967 209.28903 209.62140 210.00876 210.39912
 211.19349 212.37285 213.62422 215.40858 217.33795 219.38231 221.47867 223.56304
 225.62440 227.70977 229.80813 231.91550 234.04586 236.21922 238.47659 240.84795
 243.47032 245.72268 247.72605 249.49241 250.91078 252.03514 252.85850 253.17587
 253.21423 252.98960 252.35096 251.30033 249.90769 248.07005 245.98042 243.81478
 241.60715 239.41251 237.23388 235.07424 232.93560 230.80397 228.83133 226.98970
 225.27406 223.74743 222.37879 221.15215 220.03552 218.99688 218.10225 217.24461
 216.48798 215.66934 214.76871 214.13407 213.58543 212.85429 211.13104 210.63716
 210.70445 211.84372 213.45992 215.60934 218.92870 223.62531 229.48840 234.62175
 238.50385 242.37224 246.38388 250.47807 254.39632 258.15997 260.98260 262.74396
 265.42178 268.27457 270.68622 272.42340 274.36163 276.40512 277.90952 279.36499
 281.03467 282.60437 284.06876 285.42581 286.60654 287.65277 288.60822 289.47656
 290.26422 290.97070 291.59387 292.41696
 366.78100 356.33617 345.76934 334.63651 323.04068 311.23584 299.10701 286.91118
 274.62435 262.52252 250.53269 239.83486 229.95803 221.06320 213.24636 206.24953
 200.08470 195.02387 191.60704 189.65021 188.68838 188.75355 189.58972 190.89888
 192.62505 194.72122 196.98539 199.34556 201.79173 204.27290 206.36207 208.20524
 209.83240 210.97857 211.20874 211.43791 211.37608 211.08225 210.71642 210.34759
 209.96575 209.67692 209.48609 209.35126 209.28043 209.61260 209.99977 210.38994
 211.18411 212.36327 213.61444 215.39861 217.32778 219.37195 221.46812 223.55229
 225.61346 227.69863 229.79679 231.90396 234.03413 236.20730 238.46447 240.83564
 243.45781 245.70998 247.71315 249.47931 250.89748 252.02165 252.84482 253.16199
 253.20016 252.97533 252.33650 251.28567 249.89283 248.05500 245.96517 243.79934
 241.59151 239.39668 237.21785 235.05802 232.91919 230.78735 228.81452 226.97269
 225.25686 223.73003 222.36120 221.13437 220.01754 218.97871 218.08387 217.22604
 216.46921 215.65038 214.74955 214.11472 213.56589 212.87622 211.24998 210.72041
 210.75412 211.88588 213.50674 215.62564 218.87401 223.54495 229.43484 234.55600
 238.42793 242.28699 246.29263 250.39514 254.34206 258.10498 260.92368 262.69534
 265.36551 268.21808 270.63110 272.34232 274.26929 276.32275 277.83154 279.27811
 280.95175 282.52316 283.98932 285.34570 286.52771 287.57367 288.52887 289.39774
 290.18530 290.89178 291.51508 292.34134
 366.78100 356.33596 345.76891 334.63587 323.03983 311.23479 299.10574 286.90970
 274.62266 262.52062 250.53057 239.83253 229.95549 221.06044 213.24340 206.24636
 200.08132 195.02027 191.60323 189.64619 188.68414 188.74910 189.58506 190.89402
 192.61997 194.71593 196.97989 199.33985 201.78580 204.26676 206.35572 208.19867
 209.82563 210.97159 211.20155 211.43050 211.36846 211.07442 210.70837 210.33933
 209.95729 209.66825 209.47720 209.34216 209.27112 209.60308 209.99003 210.37999
 211.17395 212.35290 213.60386 215.38782 217.31678 219.36073 221.45669 223.54065
 225.60161 227.68656 229.78452 231.89148 234.02143 236.19439 238.45135 240.82231
 243.44426 245.69622 247.69918 249.46513 250.88309 252.00705 252.83001 253.14696
 253.18492 252.95988 252.32084 251.26979 249.87675 248.03871 245.94866 243.78262
 241.57458 239.37954 237.20049 235.04045 232.90141 230.76936 228.79632 226.95428
 225.23824 223.71119 222.34215 221.11511 219.99807 218.95902 218.06398 217.20594
 216.44889 215.62985 214.72881 214.09377 213.54472 212.89613 211.36613 210.81351
 210.80988 211.91563 213.54640 215.64693 218.83130 223.46625 229.37753 234.48781
 238.35060 242.20088 246.20117 250.31258 254.29073 258.05191 260.86499 262.64725
 265.30475 268.15329 270.56784 272.25922 274.17792 276.24203 277.75748 279.19843
 280.87155 282.44543 283.91287 285.26923 286.44940 287.49612 288.45190 289.32092
 290.11008 290.81470 291.43887 292.27130
 366.78100 356.33567 345.76834 334.63501 323.03867 311.23334 299.10401 286.90768
 274.62035 262.51802 250.52769 239.82936 229.95202 221.05669 213.23936 206.24203
 200.07670 195.01537 191.59804 189.64071 188.67837 188.74304 189.57871 190.88738
 192.61305 194.70872 196.97239 199.33205 201.77772 204.25839 206.34706 208.18973
 209.81640 210.96207 211.19174 211.42040 211.35807 211.06374 210.69741 210.32808
 209.94575 209.65642 209.46509 209.32975 209.25842 209.59009 209.97676 210.36643
 211.16010 212.33877 213.58943 215.37310 217.30177 219.34544 221.44111 223.52478
 225.58545 227.67012 229.76778 231.87445 234.00412 236.17679 238.43346 240.80413
 243.42580 245.67746 247.68013 249.44580 250.86347 251.98714 252.80981 253.12648
 253.16415 252.93881 252.29948 251.24815 249.85482 248.01649 245.92616 243.75983
 241.55150 239.35616 237.17683 235.01650 232.87717 230.74484 228.77151 226.92918
 225.21284 223.68551 222.31618 221.08885 219.97152 218.93219 218.03686 217.17853
 216.42119 215.60186 214.70053 214.06520 213.51587 212.91084 211.48309 210.91484
 210.86967 211.93739 213.57912 215.66960 218.79318 223.39343 229.31673 234.41591
 238.27045 242.11331 246.11009 250.23212 254.24390 258.00165 260.80750 262.60284
 265.23935 268.07877 270.49417 272.17203 274.08578 276.16080 277.68723 279.12637
 280.79669 282.37234 283.83823 285.19391 286.37537 287.42044 288.37766 289.24646
 290.03488 290.74103 291.36719 292.19434
 366.78100 356.33540 345.76779 334.63419 323.03759 311.23199 299.10238 286.90578
 274.61818 262.51557 250.52497 239.82637 229.94877 221.05316 213.23556 206.23796
 200.07235 195.01075 191.59315 189.63554 188.67294 188.73734 189.57274 190.88113
 192.60653 194.70193 196.96532 199.32472 201.77012 204.25052 206.33891 208.18131
 209.80771 210.95310 211.18250 211.41090 211.34830 211.05369 210.68709 210.31749
 209.93488 209.64528 209.45368 209.31807 209.24647 209.57787 209.96427 210.35366
 211.14706 212.32546 213.57585 215.35925 217.28765 219.33105 221.42644 223.50984
 225.57024 227.65463 229.75203 231.85843 233.98783 236.16022 238.41662 240.78702
 243.40841 245.65981 247.66221 249.42760 250.84500 251.96840 252.79080 253.10719
 253.14459 252.91899 252.27938 251.22778 249.83418 247.99558 245.90497 243.73837
 241.52977 239.33416 237.15456 234.99396 232.85436 230.72175 228.74815 226.90555
 225.18894 223.66134 222.29174 221.06413 219.94653 218.90693 218.01133 217.15272
 216.39512 215.57552 214.67391 214.03831 213.48871 212.92497 211.59433 211.03122
 210.93343 211.94753 213.60939 215.69360 218.75417 223.32904 229.25580 234.33961
 238.18419 242.02008 246.01584 250.15186 254.20105 257.95493 260.75336 262.56403
 265.17062 267.99533 270.41302 272.08133 273.99429 276.07919 277.62189 279.06329
 280.72696 282.30093 283.76401 285.11972 286.30035 287.34708 288.30289 289.17255
 289.96085 290.66849 291.29276 292.12399
 366.78100 356.33498 345.76696 334.63294 323.03592 311.22990 299.09988 286.90286
 274.61484 262.51182 250.52080 239.82178 229.94376 221.04773 213.22971 206.23169
 200.06567 195.00365 191.58563 189.62761 188.66459 188.72857 189.56355 190.87153
 192.59651 194.69149 196.95447 199.31345 201.75843 204.23841 206.32639 208.16837
 209.79435 210.93933 211.16831 211.39629 211.33327 211.03825 210.67122 210.30120
 209.91818 209.62816 209.43614 209.30012 209.22810 209.55908 209.94506 210.33404
 211.12702 212.30500 213.55498 215.33796 217.26594 219.30892 221.40390 223.48688
 225.54686 227.63084 229.72782 231.83380 233.96278 236.13476 238.39074 240.76072
 243.38169 245.63267 247.63465 249.39963 250.81661 251.93959 252.76157 253.07755
 253.11453 252.88851 252.24849 251.19647 249.80245 247.96343 245.87241 243.70539
 241.49637 239.30035 237.12033 234.95931 232.81929 230.68627 228.71225 226.86923
 225.15221 223.62418 222.25416 221.02614 219.90812 218.86810 217.97208 217.11306
 216.35504 215.53502 214.63300 213.99698 213.44696 212.93100 211.71278 211.14476
 211.00456 211.96484 213.63145 215.71614 218.72127 223.26520 229.19002 234.25688
 238.09007 241.92056 245.91850 250.07303 254.16382 257.91330 260.70215 262.53214
 265.10025 267.90411 270.32330 271.98700 273.90216 275.99725 277.56091 279.00906
 280.66330 282.23404 283.69028 285.04630 286.22668 287.27353 288.22821 289.09915
 289.88840 290.59601 291.22079 292.05331
 366.78100 356.33477 345.76653 334.63230 323.03506 311.22883 299.09859 286.90136
 274.61312 262.50989 250.51865 239.81942 229.94118 221.04495 213.22671 206.22848
 200.06224 195.00001 191.58177 189.62354 188.66030 188.72407 189.55883 190.86660
 192.59136 194.68613 196.94889 199.30766 201.75242 204.23219 206.31995 208.16172
 209.78748 210.93225 211.16101 211.38878 211.32554 211.03031 210.66307 210.29284
 209.90960 209.61937 209.42713 209.29090 209.21866 209.54943 209.93519 210.32396
 211.11672 212.29449 213.54425 215.32702 217.25478 219.29755 221.39231 223.47508
 225.53484 227.61861 229.71537 231.82114 233.94990 236.12167 238.37743 240.74720
 243.36796 245.61873 247.62049 249.38526 250.80202 251.92479 252.74655 253.06232
 253.09908 252.87285 252.23261 251.18038 249.78615 247.94691 245.85568 243.68844
 241.47921 239.28297 237.10274 234.94150 232.80127 230.66803 228.69380 226.85056
 225.13333 223.60509 222.23486 221.00662 219.88839 218.84815 217.95192 217.09268
 216.33445 215.51421 214.61198 213.97574 213.42551 212.94656 211.81560 211.27806
 211.06998 211.96912 213.67841 215.73952 218.66733 223.20757 229.13315 234.17566
 237.99448 241.81874 245.82034 249.99519 254.13168 257.87393 260.64810 262.50302
 265.02728 267.80392 270.22418 271.88837 273.80829 275.91513 277.50302 278.96136
 280.60379 282.16794 283.61743 284.97171 286.15372 287.19992 288.15524 289.02661
 289.81622 290.52438 291.14999 291.98294
 366.78100 356.33457 345.76615 334.63172 323.03429 311.22786 299.09744 286.90001
 274.61158 262.50816 250.51673 239.81730 229.93888 221.04245 213.22402 206.22559
 200.05917 194.99674 191.57831 189.61989 188.65646 188.72003 189.55461 190.86218
 192.58675 194.68132 196.94390 199.30247 201.74704 204.22662 206.31419 208.15576
 209.78133 210.92591 211.15448 211.38205 211.31863 211.02320 210.65577 210.28535
 209.90192 209.61149 209.41906 209.28264 209.21021 209.54078 209.92636 210.31493
 211.10750 212.28507 213.53465 215.31722 217.24479 219.28737 221.38194 223.46451
 225.52409 227.60766 229.70423 231.80980 233.93838 236.10995 238.36552 240.73510
 243.35567 245.60624 247.60782 249.37239 250.78896 251.91153 252.73311 253.04868
 253.08525 252.85883 252.21840 251.16597 249.77154 247.93212 245.84069 243.67326
 241.46384 239.26741 237.08698 234.92556 232.78513 230.65170 228.67727 226.83385
 225.11642 223.58799 222.21757 220.98914 219.87071 218.83029 217.93386 217.07443
 216.31600 215.49558 214.59315 213.95672 213.40630 212.96286 211.91553 211.40498
 211.17143 211.97847 213.66014 215.77528 218.67949 223.15135 229.06581 234.08057
 237.88354 241.70413 245.71394 249.91504 254.10156 257.83502 260.59512 262.47903
 264.95624 267.70111 270.12241 271.79242 273.71732 275.83426 277.45004 278.92072
 280.55023 282.10480 283.54547 284.90070 286.08228 287.12863 288.08539 288.95639
 289.74655 290.45270 291.08160 291.91119
 366.78100 356.33437 345.76575 334.63112 323.03349 311.22687 299.09624 286.89861
 274.60999 262.50636 250.51473 239.81511 229.93648 221.03985 213.22123 206.22260
 200.05597 194.99334 191.57472 189.61609 188.65246 188.71584 189.55021 190.85758
 192.58196 194.67633 196.93870 199.29708 201.74145 204.22082 206.30820 208.14957
 209.77494 210.91932 211.14769 211.37506 211.31144 211.01581 210.64818 210.27756
 209.89393 209.60330 209.41068 209.27405 209.20142 209.53179 209.91717 210.30554
 211.09791 212.27529 213.52466 215.30703 217.23441 219.27678 221.37115 223.45353
 225.51290 227.59627 229.69265 231.79802 233.92639 236.09777 238.35314 240.72251
 243.34289 245.59326 247.59463 249.35901 250.77538 251.89775 252.71913 253.03450
 253.07087 252.84425 252.20362 251.15099 249.75636 247.91674 245.82511 243.65748
 241.44786 239.25123 237.07060 234.90898 232.76835 230.63472 228.66010 226.81647
 225.09884 223.57022 222.19959 220.97096 219.85234 218.81171 217.91508 217.05546
 216.29683 215.47620 214.57358 213.93695 213.38632 212.97842 212.01494 211.52573
 211.27927 212.00961 213.76820 215.77386 218.55667 223.06604 228.97903 233.96954
 237.76579 241.58694 245.61015 249.84129 254.08136 257.80457 260.55618 262.47345
 264.89465 267.59982 270.02179 271.69919 273.62820 275.75372 277.39639 278.88113
 280.49783 282.04337 283.47513 284.82935 286.01230 287.05737 288.01566 288.88721
 289.67599 290.38654 291.01044 291.84784
 366.78100 356.33403 345.76506 334.63010 323.03213 311.22516 299.09419 286.89623
 274.60726 262.50329 250.51132 239.81136 229.93239 221.03542 213.21645 206.21749
 200.05052 194.98755 191.56858 189.60961 188.64565 188.70868 189.54271 190.84974
 192.57378 194.66781 196.92984 199.28787 201.73191 204.21094 206.29797 208.13900
 209.76403 210.90807 211.13610 211.36313 211.29916 211.00320 210.63523 210.26426
 209.88029 209.58933 209.39636 209.25939 209.18642 209.51646 209.90149 210.28952
 211.08155 212.25858 213.50762 215.28965 217.21668 219.25871 221.35275 223.43478
 225.49381 227.57684 229.67288 231.77791 233.90594 236.07697 238.33201 240.70104
 243.32107 245.57110 247.57213 249.33617 250.75220 251.87423 252.69526 253.01030
 253.04633 252.81936 252.17839 251.12543 249.73046 247.89049 245.79852 243.63055
 241.42059 239.22362 237.04265 234.88068 232.73972 230.60575 228.63078 226.78681
 225.06885 223.53988 222.16891 220.93994 219.82098 218.78001 217.88304 217.02307
 216.26410 215.44314 214.54017 213.90320 213.35223 212.98563 212.11952 211.63702
 211.43245 212.10536 213.71605 215.68159 218.47394 222.98849 228.92441 233.88531
 237.66577 241.48645 245.51941 249.77861 254.07153 257.78275 260.52478 262.47415
 264.83463 267.49295 269.91235 271.59830 273.53400 275.66751 277.33658 278.83817
 280.44550 281.98022 283.40637 284.76276 285.94330 286.99020 287.94678 288.82077
 289.60928 290.32022 290.94550 291.78333
 366.78100 356.33318 345.76336 334.62755 323.02873 311.22091 299.08909 286.89027
 274.60045 262.49564 250.50282 239.80200 229.92218 221.02436 213.20455 206.20473
 200.03691 194.97309 191.55327 189.59345 188.62864 188.69082 189.52400 190.83018
 192.55336 194.64655 196.90773 199.26491 201.70809 204.18627 206.27245 208.11264
 209.73682 210.88000 211.10718 211.33336 211.26855 210.97173 210.60291 210.23109
 209.84627 209.55445 209.36064 209.22282 209.14900 209.47818 209.86236 210.24955
 211.04073 212.21691 213.46509 215.24627 217.17245 219.21364 221.30682 223.38800
 225.44618 227.52836 229.62355 231.72773 233.85491 236.02509 238.27927 240.64745
 243.26664 245.51582 247.51600 249.27918 250.69436 251.81555 252.63573 252.94991
 252.98509 252.75727 252.11545 251.06164 249.66582 247.82500 245.73218 243.56336
 241.35255 239.15473 236.97291 234.81009 232.66827 230.53345 228.55764 226.71282
 224.99400 223.46418 222.09236 220.86255 219.74273 218.70091 217.80309 216.94227
 216.18245 215.36064 214.45682 213.81900 213.26718 212.96947 212.26608 211.71281
 211.48891 212.15895 213.70007 215.71179 218.50633 222.92348 228.87323 233.80029
 237.56389 241.38382 245.42876 249.71649 254.06177 257.75708 260.48456 262.46402
 264.76776 267.37955 269.79562 271.49387 273.43945 275.58313 277.27805 278.79749
 280.39594 281.91913 283.34085 284.69705 285.87823 286.92502 287.88342 288.75525
 289.54422 290.25473 290.88156 291.72104
 366.78100 356.33252 345.76203 334.62555 323.02607 311.21759 299.08510 286.88562
 274.59514 262.48965 250.49617 239.79469 229.91421 221.01572 213.19524 206.19476
 200.02627 194.96179 191.54131 189.58083 188.61534 188.67686 189.50938 190.81489
 192.53741 194.62993 196.89045 199.24696 201.68948 204.16700 206.25251 208.09203
 209.71555 210.85807 211.08458 211.31010 211.24462 210.94713 210.57765 210.20517
 209.81969 209.52720 209.33272 209.19424 209.11975 209.44827 209.83179 210.21831
 211.00882 212.18434 213.43186 215.21237 217.13789 219.17841 221.27093 223.35144
 225.40896 227.49048 229.58499 231.68851 233.81503 235.98455 238.23806 240.60558
 243.22410 245.47261 247.47213 249.23465 250.64917 251.76968 252.58920 252.90272
 252.93723 252.70875 252.06627 251.01179 249.61530 247.77382 245.68034 243.51085
 241.29937 239.10089 236.91841 234.75492 232.61244 230.47696 228.50047 226.65499
 224.93551 223.40503 222.03254 220.80206 219.68158 218.63909 217.74061 216.87913
 216.11865 215.29616 214.39168 213.75320 213.20071 212.96227 212.39891 211.81401
 211.51718 212.18689 213.72108 215.78462 218.55824 222.85161 228.80112 233.70224
 237.45432 241.27821 245.33878 249.65593 254.04947 257.72607 260.43460 262.44431
 264.69785 267.26459 269.67929 271.39557 273.35153 275.50400 277.22476 278.76068
 280.35031 281.85999 283.27875 284.63339 285.81500 286.86258 287.82101 288.69360
 289.48416 290.19485 290.82120 291.66199
 366.78100 356.33226 345.76152 334.62478 323.02503 311.21629 299.08355 286.88381
 274.59307 262.48733 250.49359 239.79185 229.91110 221.01236 213.19162 206.19088
 200.02214 194.95740 191.53666 189.57591 188.61017 188.67143 189.50369 190.80895
 192.53121 194.62347 196.88373 199.23998 201.68224 204.15950 206.24476 208.08402
 209.70728 210.84954 211.07579 211.30105 211.23531 210.93757 210.56783 210.19509
 209.80935 209.51660 209.32186 209.18312 209.10838 209.43664 209.81990 210.20616
 210.99642 212.17167 213.41893 215.19919 217.12445 219.16471 221.25697 223.33723
 225.39448 227.47574 229.57000 231.67326 233.79952 235.96878 238.22204 240.58930
 243.20755 245.45581 247.45507 249.21733 250.63159 251.75185 252.57111 252.88436
 252.91862 252.68988 252.04714 250.99240 249.59566 247.75392 245.66018 243.49043
 241.27869 239.07995 236.89721 234.73347 232.59073 230.45499 228.47824 226.63250
 224.91276 223.38202 222.00928 220.77854 219.65780 218.61506 217.71631 216.85457
 216.09383 215.27109 214.36635 213.72761 213.17487 212.97461 212.50148 211.94592
 211.54880 212.20354 213.76932 215.84752 218.57030 222.78111 228.72623 233.60432
 237.34552 241.17490 245.25168 249.59901 254.03745 257.69186 260.37860 262.41876
 264.62830 267.15100 269.56686 271.30359 273.26941 275.42850 277.17355 278.72433
 280.30566 281.80222 283.21854 284.57404 285.75568 286.80316 287.76212 288.63589
 289.42508 290.13705 290.76428 291.60562
 366.78100 356.33214 345.76127 334.62441 323.02454 311.21568 299.08281 286.88295
 274.59209 262.48622 250.49236 239.79049 229.90963 221.01076 213.18990 206.18904
 200.02017 194.95531 191.53444 189.57358 188.60771 188.66885 189.50098 190.80612
 192.52826 194.62039 196.88053 199.23666 201.67880 204.15593 206.24107 208.08021
 209.70334 210.84548 211.07161 211.29675 211.23088 210.93302 210.56316 210.19029
 209.80443 209.51156 209.31670 209.17783 209.10297 209.43111 209.81424 210.20038
 210.99051 212.16565 213.41278 215.19292 217.11805 219.15819 221.25033 223.33046
 225.38760 227.46873 229.56287 231.66600 233.79214 235.96128 238.21441 240.58155
 243.19968 245.44782 247.44695 249.20909 250.62323 251.74336 252.56250 252.87563
 252.90977 252.68090 252.03804 250.98318 249.58631 247.74445 245.65058 243.48072
 241.26885 239.06999 236.88713 234.72326 232.58040 230.44453 228.46767 226.62180
 224.90194 223.37107 221.99821 220.76735 219.64648 218.60362 217.70475 216.84289
 216.08202 215.25916 214.35430 213.71543 213.16257 212.99342 212.59378 212.08304
 211.59003 212.22093 213.82614 215.89595 218.55830 222.71936 228.66241 233.51103
 237.23686 241.07066 245.16718 249.54489 254.02379 257.65405 260.31671 262.38742
 264.55801 267.03928 269.45609 271.21542 273.19110 275.35599 277.11993 278.68542
 280.26309 281.74911 283.16217 284.51721 285.70044 286.74753 287.70755 288.57901
 289.37103 290.08353 290.70801 291.55600
 366.78100 356.33200 345.76101 334.62401 323.02401 311.21502 299.08202 286.88203
 274.59103 262.48503 250.49104 239.78904 229.90804 221.00905 213.18805 206.18706
 200.01806 194.95306 191.53207 189.57107 188.60507 188.66608 189.49808 190.80308
 192.52509 194.61709 196.87710 199.23310 201.67510 204.15211 206.23711 208.07611
 209.69912 210.84112 211.06713 211.29213 211.22613 210.92814 210.55814 210.18514
 209.79915 209.50615 209.31115 209.17216 209.09716 209.42517 209.80817 210.19417
 210.98418 212.15918 213.40618 215.18619 217.11119 219.15120 221.24320 223.32320
 225.38021 227.46121 229.55521 231.65822 233.78422 235.95322 238.20623 240.57323
 243.19124 245.43924 247.43824 249.20025 250.61425 251.73425 252.55326 252.86626
 252.90027 252.67127 252.02827 250.97328 249.57628 247.73428 245.64029 243.47029
 241.25829 239.05930 236.87630 234.71231 232.56931 230.43331 228.45632 226.61032
 224.89032 223.35933 221.98633 220.75534 219.63434 218.59134 217.69235 216.83035
 216.06935 215.24636 214.34136 213.70236 213.14937 213.01180 212.68677 212.21024
 211.64432 212.24590 213.87534 215.93471 218.54887 222.66463 228.60345 233.41957
 237.12625 240.96573 245.08447 249.49393 254.00682 257.61111 260.24939 262.34848
 264.48587 266.93051 269.34628 271.13092 273.11758 275.28616 277.06549 278.64337
 280.21927 281.69476 283.11148 284.46762 285.64944 286.69772 287.65735 288.53107
 289.32257 290.03210 290.66336 291.50406
 366.78100 356.33190 345.76081 334.62371 323.02361 311.21451 299.08142 286.88132
 274.59022 262.48412 250.49003 239.78793 229.90683 221.00773 213.18664 206.18554
 200.01644 194.95134 191.53025 189.56915 188.60305 188.66395 189.49586 190.80076
 192.52266 194.61456 196.87447 199.23037 201.67227 204.14917 206.23408 208.07298
 209.69588 210.83778 211.06369 211.28859 211.22249 210.92439 210.55430 210.18120
 209.79510 209.50200 209.30691 209.16781 209.09271 209.42061 209.80352 210.18942
 210.97932 212.15422 213.40113 215.18103 217.10593 219.14583 221.23774 223.31764
 225.37454 227.45544 229.54935 231.65225 233.77815 235.94705 238.19996 240.56686
 243.18476 245.43266 247.43157 249.19347 250.60737 251.72727 252.54618 252.85908
 252.89298 252.66388 252.02079 250.96569 249.56859 247.72649 245.63240 243.46230
 241.25020 239.05110 236.86801 234.70391 232.56081 230.42471 228.44762 226.60152
 224.88142 223.35032 221.97723 220.74613 219.62503 218.58193 217.68284 216.82074
 216.05964 215.23654 214.33145 213.69235 213.13925 213.03195 212.77843 212.32787
 211.71063 212.27730 213.91623 215.96880 218.54636 222.61488 228.54330 233.32646
 237.01543 240.86444 245.00714 249.44659 253.98578 257.56198 260.17450 262.29727
 264.40900 266.82217 269.23938 271.05017 273.04932 275.22070 277.01242 278.59845
 280.17386 281.63687 283.06836 284.42551 285.60663 286.65485 287.61493 288.48901
 289.27994 289.99142 290.61963 291.46835
 366.78100 356.33191 345.76082 334.62373 323.02364 311.21455 299.08146 286.88137
 274.59028 262.48420 250.49011 239.78802 229.90693 221.00784 213.18675 206.18566
 200.01657 194.95148 191.53039 189.56930 188.60321 188.66412 189.49603 190.80094
 192.52285 194.61477 196.87468 199.23059 201.67250 204.14941 206.23432 208.07323
 209.69614 210.83805 211.06396 211.28887 211.22278 210.92469 210.55460 210.18151
 209.79542 209.50233 209.30725 209.16816 209.09307 209.42098 209.80389 210.18980
 210.97971 212.15462 213.40153 215.18144 217.10635 219.14626 221.23817 223.31808
 225.37499 227.45590 229.54982 231.65273 233.77864 235.94755 238.20046 240.56737
 243.18528 245.43319 247.43210 249.19401 250.60792 251.72783 252.54674 252.85965
 252.89356 252.66447 252.02138 250.96630 249.56921 247.72712 245.63303 243.46294
 241.25085 239.05176 236.86867 234.70458 232.56149 230.42540 228.44831 226.60222
 224.88213 223.35104 221.97795 220.74686 219.62578 218.58269 217.68360 216.82151
 216.06042 215.23733 214.33224 213.69315 213.14006 213.05801 212.86417 212.44254
 211.78886 212.31017 213.94962 216.00380 218.55513 222.56963 228.47879 233.23059
 236.90836 240.76901 244.93683 249.40288 253.95926 257.50400 260.08853 262.23001
 264.32635 266.71625 269.13632 270.97699 272.98904 275.16211 276.96033 278.55173
 280.12747 281.58005 283.02921 284.38605 285.56830 286.61755 287.57828 288.45157
 289.24466 289.95468 290.58112 291.43018
 366.78100 356.33206 345.76112 334.62417 323.02423 311.21529 299.08235 286.88240
 274.59146 262.48552 250.49158 239.78963 229.90869 221.00975 213.18881 206.18786
 200.01892 194.95398 191.53304 189.57209 188.60615 188.66721 189.49927 190.80432
 192.52638 194.61844 196.87850 199.23455 201.67661 204.15367 206.23873 208.07778
 209.70084 210.84290 211.06896 211.29401 211.22807 210.93013 210.56019 210.18724
 209.80130 209.50836 209.31342 209.17447 209.09953 209.42759 209.81065 210.19670
 210.98676 212.16182 213.40888 215.18893 217.11399 219.15405 221.24611 223.32617
 225.38322 227.46428 229.55834 231.66140 233.78745 235.95651 238.20957 240.57663
 243.19468 245.44274 247.44180 249.20386 250.61791 251.73797 252.55703 252.87009
 252.90414 252.67520 252.03226 250.97732 249.58037 247.73843 245.64449 243.47455
 241.26260 239.06366 236.88072 234.71678 232.57383 230.43789 228.46095 226.61501
 224.89506 223.36412 221.99118 220.76024 219.63929 218.59635 217.69741 216.83547
 216.07452 215.25158 214.34664 213.70770 213.15475 213.09119 212.94102 212.55788
 211.87431 212.33922 213.97842 216.04364 218.56705 222.53052 228.41504 233.13614
 236.80585 240.67984 244.87508 249.36406 253.92790 257.43814 259.99115 262.14444
 264.23535 266.61179 269.03632 270.90787 272.93549 275.10986 276.90991 278.50342
 280.08487 281.53253 282.99640 284.35529 285.53815 286.58487 287.54617 288.42084
 289.21277 289.92566 290.55045 291.40042
 366.78100 356.33228 345.76157 334.62485 323.02513 311.21642 299.08370 286.88398
 274.59327 262.48755 250.49383 239.79212 229.91140 221.01268 213.19197 206.19125
 200.02253 194.95782 191.53710 189.57638 188.61067 188.67195 189.50423 190.80952
 192.53180 194.62408 196.88437 199.24065 201.68293 204.16022 206.24550 208.08478
 209.70807 210.85035 211.07663 211.30192 211.23620 210.93848 210.56877 210.19605
 209.81034 209.51762 209.32290 209.18419 209.10947 209.43775 209.82104 210.20732
 210.99760 212.17289 213.42017 215.20045 217.12574 219.16602 221.25830 223.33859
 225.39587 227.47715 229.57144 231.67472 233.80100 235.97029 238.22357 240.59085
 243.20914 245.45742 247.45670 249.21899 250.63327 251.75355 252.57284 252.88612
 252.92040 252.69169 252.04897 250.99425 249.59754 247.75582 245.66210 243.49239
 241.28067 239.08195 236.89924 234.73552 232.59280 230.45709 228.48037 226.63465
 224.91494 223.38422 222.01150 220.78079 219.66007 218.61735 217.71864 216.85692
 216.09620 215.27349 214.36877 213.73005 213.17734 213.12848 213.01308 212.67046
 211.96411 212.36874 214.00394 216.08475 218.58371 222.49487 228.35149 233.04552
 236.70978 240.59901 244.82155 249.33000 253.89064 257.36346 259.88113 262.03851
 264.13345 266.50586 268.93689 270.84222 272.88852 275.06390 276.86160 278.45602
 280.04523 281.49561 282.97147 284.33072 285.51343 286.56219 287.52347 288.39691
 289.18835 289.90292 290.52972 291.37756
 366.78100 356.33274 345.76248 334.62622 323.02696 311.21870 299.08644 286.88718
 274.59692 262.49166 250.49841 239.79715 229.91689 221.01863 213.19837 206.19811
 200.02985 194.96559 191.54533 189.58507 188.61981 188.68155 189.51429 190.82003
 192.54277 194.63551 196.89625 199.25299 201.69573 204.17348 206.25922 208.09896
 209.72270 210.86544 211.09218 211.31792 211.25266 210.95540 210.58614 210.21388
 209.82862 209.53636 209.34210 209.20384 209.12958 209.45832 209.84206 210.22880
 211.01955 212.19529 213.44303 215.22377 217.14951 219.19025 221.28299 223.36373
 225.42147 227.50321 229.59795 231.70169 233.82843 235.99817 238.25191 240.61965
 243.23839 245.48713 247.48687 249.24962 250.66436 251.78510 252.60484 252.91858
 252.95332 252.72506 252.08280 251.02854 249.63228 247.79102 245.69776 243.52850
 241.31724 239.11898 236.93672 234.77346 232.63120 230.49595 228.51969 226.67443
 224.95517 223.42491 222.05265 220.82239 219.70213 218.65987 217.76161 216.90035
 216.14009 215.31783 214.41357 213.77531 213.22305 213.17754 213.06998 212.78812
 212.05568 212.39418 214.03931 216.12810 218.59265 222.46004 228.29214 232.95935
 236.61731 240.52306 244.77403 249.29985 253.84764 257.28049 259.76065 261.91443
 264.02289 266.40039 268.83755 270.77921 272.84717 275.02252 276.81415 278.40750
 280.00925 281.46674 282.95615 284.31665 285.49789 286.54727 287.50803 288.38290
 289.17615 289.88531 290.51572 291.36127
 366.78100 356.33308 345.76316 334.62723 323.02831 311.22039 299.08847 286.88955
 274.59962 262.49470 250.50178 239.80086 229.92093 221.02301 213.20309 206.20317
 200.03525 194.97132 191.55140 189.59148 188.62656 188.68864 189.52171 190.82779
 192.55087 194.64395 196.90503 199.26210 201.70518 204.18326 206.26934 208.10941
 209.73349 210.87657 211.10365 211.32973 211.26480 210.96788 210.59896 210.22704
 209.84212 209.55019 209.35627 209.21835 209.14443 209.47351 209.85758 210.24466
 211.03574 212.21182 213.45990 215.24097 217.16705 219.20813 221.30121 223.38228
 225.44036 227.52244 229.61752 231.72160 233.84867 236.01875 238.27283 240.64091
 243.25999 245.50906 247.50914 249.27222 250.68730 251.80838 252.62845 252.94253
 252.97761 252.74969 252.10776 251.05384 249.65792 247.81700 245.72408 243.55515
 241.34423 239.14631 236.96439 234.80147 232.65954 230.52462 228.54870 226.70378
 224.98486 223.45493 222.08301 220.85309 219.73317 218.69124 217.79332 216.93240
 216.17248 215.35056 214.44663 213.80871 213.25679 213.22105 213.13663 212.88203
 212.16273 212.43015 214.05919 216.17749 218.62016 222.42834 228.22578 232.86890
 236.52670 240.45232 244.73421 249.27521 253.79968 257.19122 259.63251 261.77341
 263.90390 266.29333 268.73694 270.71738 272.81036 274.98599 276.76822 278.35941
 279.97687 281.44537 282.94943 284.31027 285.49243 286.54037 287.50076 288.37738
 289.16962 289.88254 290.50983 291.35828
 366.78100 356.33404 345.76509 334.63013 323.03217 311.22521 299.09426 286.89630
 274.60734 262.50338 250.51143 239.81147 229.93251 221.03556 213.21660 206.21764
 200.05068 194.98773 191.56877 189.60981 188.64585 188.70890 189.54294 190.84998
 192.57403 194.66807 196.93011 199.28815 201.73220 204.21124 206.29828 208.13932
 209.76437 210.90841 211.13645 211.36350 211.29954 211.00358 210.63562 210.26467
 209.88071 209.58975 209.39679 209.25984 209.18688 209.51692 209.90196 210.29001
 211.08205 212.25909 213.50814 215.29018 217.21722 219.25926 221.35331 223.43535
 225.49439 227.57743 229.67348 231.77852 233.90656 236.07761 238.33265 240.70169
 243.32173 245.57178 247.57282 249.33686 250.75290 251.87495 252.69599 253.01103
 253.04708 252.82012 252.17916 251.12620 249.73125 247.89129 245.79933 243.63137
 241.42142 239.22446 237.04350 234.88155 232.74059 230.60663 228.63167 226.78772
 225.06976 223.54080 222.16984 220.94089 219.82193 218.78097 217.88402 217.02406
 216.26510 215.44414 214.54119 213.90423 213.35327 213.29633 213.16180 212.99951
 212.26506 212.47478 214.10429 216.21536 218.62912 222.39072 228.16443 232.78360
 236.44080 240.38728 244.70039 249.25362 253.74423 257.08972 259.49020 261.61215
 263.77475 266.18567 268.63840 270.66190 272.78397 274.95895 276.73035 278.31641
 279.94986 281.43240 282.94910 284.31058 285.49249 286.54150 287.50241 288.37759
 289.17120 289.88208 290.50946 291.35925
 366.78100 356.33512 345.76725 334.63337 323.03650 311.23062 299.10075 286.90387
 274.61600 262.51312 250.52225 239.82337 229.94550 221.04962 213.23175 206.23387
 200.06800 195.00612 191.58824 189.63037 188.66749 188.73162 189.56674 190.87487
 192.59999 194.69512 196.95824 199.31737 201.76249 204.24262 206.33074 208.17287
 209.79899 210.94412 211.17324 211.40137 211.33849 211.04361 210.67674 210.30686
 209.92399 209.63411 209.44224 209.30636 209.23449 209.56561 209.95174 210.34086
 211.13399 212.31211 213.56224 215.34536 217.27349 219.31661 221.41173 223.49486
 225.55498 227.63911 229.73623 231.84236 233.97148 236.14361 238.39973 240.76986
 243.39098 245.64211 247.64423 249.40936 250.82648 251.94961 252.77173 253.08785
 253.12498 252.89910 252.25923 251.20735 249.81348 247.97460 245.88373 243.71685
 241.50798 239.31210 237.13223 234.97135 232.83148 230.69860 228.72473 226.88185
 225.16497 223.63710 222.26722 221.03935 219.92147 218.88160 217.98572 217.12685
 216.36897 215.54910 214.64722 214.01135 213.46147 213.37973 213.18663 213.07008
 212.44394 212.50618 214.11429 216.27658 218.66188 222.36296 228.09477 232.68596
 236.34958 240.32030 244.66725 249.23180 253.67741 256.97433 259.33536 261.43732
 263.64154 266.08200 268.54468 270.61652 272.76663 274.94098 276.69946 278.27673
 279.92752 281.42529 282.95499 284.31622 285.49835 286.54767 287.50906 288.38348
 289.17627 289.88794 290.51813 291.36026
 366.78100 356.33581 345.76862 334.63543 323.03924 311.23405 299.10486 286.90867
 274.62148 262.51929 250.52910 239.83090 229.95371 221.05852 213.24133 206.24414
 200.07895 195.01776 191.60057 189.64338 188.68119 188.74600 189.58181 190.89062
 192.61643 194.71224 196.97605 199.33586 201.78167 204.26248 206.35129 208.19410
 209.82090 210.96671 211.19652 211.42533 211.36314 211.06895 210.70276 210.33357
 209.95138 209.66219 209.47100 209.33581 209.26462 209.59643 209.98324 210.37305
 211.16686 212.34567 213.59648 215.38029 217.30910 219.35291 221.44871 223.53252
 225.59333 227.67814 229.77595 231.88276 234.01257 236.18538 238.44219 240.81300
 243.43481 245.68662 247.68943 249.45524 250.87305 251.99686 252.81967 253.13648
 253.17429 252.94910 252.30991 251.25871 249.86552 248.02733 245.93714 243.77095
 241.56276 239.36757 237.18838 235.02819 232.88900 230.75681 228.78362 226.94143
 225.22524 223.69805 222.32886 221.10167 219.98448 218.94529 218.05010 217.19191
 216.43471 215.61552 214.71433 214.07914 213.52995 213.44440 213.24228 213.09448
 212.58568 212.69023 214.10695 216.26906 218.70508 222.31252 228.01949 232.58562
 236.25471 240.25415 244.63814 249.21132 253.60503 256.85483 259.17883 261.25800
 263.50861 265.98178 268.45544 270.57550 272.75412 274.92630 276.66885 278.23645
 279.90604 281.42728 282.96310 284.32574 285.50867 286.55685 287.51773 288.39285
 289.18597 289.89740 290.52646 291.37177
 366.78100 356.33667 345.77034 334.63800 323.04267 311.23834 299.11001 286.91468
 274.62835 262.52701 250.53768 239.84035 229.96402 221.06969 213.25335 206.25702
 200.09269 195.03236 191.61603 189.65969 188.69836 188.76403 189.60070 190.91037
 192.63704 194.73370 196.99837 199.35904 201.80571 204.28738 206.37704 208.22071
 209.84838 210.99505 211.22572 211.45538 211.39405 211.10072 210.73539 210.36706
 209.98573 209.69739 209.50706 209.37273 209.30240 209.63507 210.02273 210.41340
 211.20807 212.38774 213.63941 215.42408 217.35374 219.39841 221.49508 223.57975
 225.64142 227.72708 229.82575 231.93342 234.06409 236.23776 238.49542 240.86709
 243.48976 245.74243 247.74610 249.51277 250.93143 252.05610 252.87977 253.19744
 253.23611 253.01177 252.37344 251.32311 249.93078 248.09345 246.00412 243.83878
 241.63145 239.43712 237.25879 235.09946 232.96112 230.82979 228.85746 227.01613
 225.30080 223.77446 222.40613 221.17980 220.06347 219.02514 218.13081 217.27347
 216.51714 215.69881 214.79848 214.16415 213.61581 213.51799 213.28687 213.16397
 212.61070 212.84143 214.18761 216.29358 218.75122 222.26437 227.94434 232.48877
 236.16702 240.19702 244.61646 249.19374 253.53113 256.73526 259.02386 261.07590
 263.37521 265.88284 268.36655 270.53436 272.74234 274.91095 276.63614 278.19379
 279.88589 281.43375 282.97162 284.33563 285.51822 286.56720 287.52911 288.40399
 289.19720 289.90860 290.53546 291.38409
 366.78100 356.33754 345.77208 334.64063 323.04617 311.24271 299.11525 286.92079
 274.63534 262.53488 250.54642 239.84996 229.97450 221.08105 213.26559 206.27013
 200.10667 195.04721 191.63176 189.67630 188.71584 188.78238 189.61992 190.93047
 192.65801 194.75555 197.02109 199.38263 201.83018 204.31272 206.40326 208.24780
 209.87634 211.02389 211.25543 211.48597 211.42551 211.13305 210.76860 210.40114
 210.02068 209.73322 209.54376 209.41031 209.34085 209.67439 210.06293 210.45447
 211.25002 212.43056 213.68310 215.46864 217.39918 219.44473 221.54227 223.62781
 225.69035 227.77689 229.87644 231.98498 234.11652 236.29106 238.54960 240.92215
 243.54569 245.79923 247.80377 249.57131 250.99086 252.11640 252.94094 253.25948
 253.29902 253.07557 252.43811 251.38865 249.99719 248.16073 246.07228 243.90782
 241.70136 239.50790 237.33045 235.17199 233.03453 230.90407 228.93261 227.09216
 225.37770 223.85224 222.48478 221.25932 220.14387 219.10641 218.21295 217.35649
 216.60103 215.78358 214.88412 214.25066 213.70320 213.59221 213.32994 213.23526
 212.62581 212.95471 214.31169 216.34860 218.79810 222.21533 227.86086 232.39229
 236.08548 240.14828 244.60110 249.17729 253.45239 256.60992 258.86301 260.88666
 263.23895 265.78384 268.27682 270.49326 272.72986 274.89618 276.60046 278.14886
 279.86407 281.44223 282.98294 284.34619 285.52899 286.57901 287.53992 288.41495
 289.20944 289.92001 290.54773 291.39456
 366.78100 356.33814 345.77328 334.64242 323.04855 311.24569 299.11883 286.92497
 274.64011 262.54025 250.55238 239.85652 229.98166 221.08880 213.27394 206.27908
 200.11622 195.05735 191.64249 189.68763 188.72777 188.79491 189.63305 190.94419
 192.67232 194.77046 197.03660 199.39874 201.84688 204.33002 206.42115 208.26629
 209.89543 211.04357 211.27571 211.50685 211.44699 211.15512 210.79126 210.42440
 210.04454 209.75768 209.56882 209.43595 209.36709 209.70123 210.09037 210.48251
 211.27865 212.45979 213.71292 215.49906 217.43020 219.47634 221.57448 223.66062
 225.72375 227.81089 229.91103 232.02017 234.15231 236.32745 238.58659 240.95972
 243.58386 245.83800 247.84314 249.61128 251.03142 252.15756 252.98269 253.30183
 253.34197 253.11911 252.48225 251.43339 250.04252 248.20666 246.11880 243.95494
 241.74908 239.55622 237.37936 235.22149 233.08463 230.95477 228.98391 227.14405
 225.43019 223.90532 222.53846 221.31360 220.19874 219.16188 218.26902 217.41316
 216.65829 215.84143 214.94257 214.30971 213.76285 213.65320 213.39410 213.26477
 212.68152 213.05911 214.42552 216.41861 218.83339 222.16553 227.77817 232.30061
 236.01216 240.10667 244.58913 249.15948 253.36566 256.47507 258.69473 260.69440
 263.10233 265.68713 268.18884 270.45358 272.71838 274.88101 276.56479 278.10550
 279.84302 281.44946 282.99295 284.35660 285.53931 286.58856 287.54889 288.42526
 289.21762 289.92953 290.55685 291.40024
 366.78100 356.33882 345.77464 334.64446 323.05128 311.24910 299.12292 286.92974
 274.64556 262.54638 250.55920 239.86402 229.98984 221.09766 213.28347 206.28929
 200.12711 195.06893 191.65475 189.70057 188.74139 188.80921 189.64803 190.95985
 192.68867 194.78749 197.05431 199.41713 201.86595 204.34977 206.44159 208.28741
 209.91723 211.06605 211.29887 211.53069 211.47151 211.18033 210.81715 210.45097
 210.07179 209.78560 209.59742 209.46524 209.39706 209.73188 210.12170 210.51452
 211.31134 212.49316 213.74698 215.53380 217.46562 219.51244 221.61126 223.69808
 225.76190 227.84972 229.95054 232.06036 234.19318 236.36900 238.62882 241.00264
 243.62746 245.88228 247.88810 249.65692 251.07773 252.20455 253.03037 253.35019
 253.39101 253.16883 252.53265 251.48447 250.09429 248.25911 246.17193 244.00875
 241.80357 239.61139 237.43521 235.27803 233.14185 231.01267 229.04249 227.20331
 225.49013 223.96595 222.59977 221.37559 220.26141 219.22523 218.33305 217.47786
 216.72368 215.90750 215.00932 214.37714 213.83096 213.71884 213.45398 213.27635
 212.76355 213.16232 214.52823 216.49536 218.85143 222.11810 227.70551 232.21741
 235.94469 240.07066 244.57843 249.13637 253.26926 256.33014 258.52106 260.50226
 262.96875 265.59381 268.10483 270.41595 272.70621 274.86456 276.52768 278.06061
 279.82013 281.45535 283.00061 284.36520 285.54742 286.59625 287.55768 288.43207
 289.22574 289.93845 290.56293 291.40948
 366.78100 356.33984 345.77668 334.64751 323.05535 311.25419 299.12903 286.93687
 274.65370 262.55554 250.56938 239.87522 230.00206 221.11089 213.29773 206.30457
 200.14341 195.08625 191.67308 189.71992 188.76176 188.83060 189.67044 190.98327
 192.71311 194.81295 197.08079 199.44463 201.89446 204.37930 206.47214 208.31898
 209.94982 211.09965 211.33349 211.56633 211.50817 211.21801 210.85584 210.49068
 210.11252 209.82736 209.64020 209.50903 209.44187 209.77771 210.16855 210.56239
 211.36022 212.54306 213.79790 215.58574 217.51858 219.56641 221.66625 223.75409
 225.81893 227.90777 230.00960 232.12044 234.25428 236.43112 238.69196 241.06679
 243.69263 245.94847 247.95531 249.72515 251.14698 252.27482 253.10166 253.42250
 253.46434 253.24317 252.60801 251.56085 250.17169 248.33753 246.25136 244.08920
 241.88504 239.69388 237.51872 235.36255 233.22739 231.09923 229.13007 227.29191
 225.57974 224.05658 222.69142 221.46826 220.35510 219.31993 218.42877 217.57461
 216.82145 216.00629 215.10912 214.47796 213.93280 213.80147 213.49118 213.29504
 212.85410 213.26118 214.62830 216.57133 218.86046 222.07751 227.63962 232.13779
 235.88164 240.03799 244.56636 249.10574 253.16130 256.17459 258.34341 260.31415
 262.83914 265.50391 268.02509 270.38104 272.69351 274.84766 276.49088 278.01434
 279.79431 281.45636 283.00314 284.36737 285.54984 286.59979 287.56104 288.43439
 289.22855 289.93860 290.56610 291.41095
 366.78100 356.34106 345.77911 334.65117 323.06023 311.26029 299.13634 286.94540
 274.66346 262.56651 250.58157 239.88863 230.01668 221.12674 213.31480 206.32286
 200.16291 195.10697 191.69503 189.74308 188.78614 188.85620 189.69725 191.01131
 192.74237 194.84343 197.11248 199.47754 201.92860 204.41465 206.50871 208.35677
 209.98882 211.13988 211.37494 211.60900 211.55205 211.26311 210.90217 210.53822
 210.16128 209.87734 209.69140 209.56145 209.49551 209.83257 210.22462 210.61968
 211.41874 212.60279 213.85885 215.64791 217.58197 219.63102 221.73208 223.82114
 225.88719 227.97725 230.08031 232.19236 234.32742 236.50548 238.76754 241.14359
 243.77065 246.02771 248.03576 249.80682 251.22988 252.35893 253.18699 253.50905
 253.55211 253.33216 252.69822 251.65228 250.26433 248.43139 246.34645 244.18551
 241.98256 239.79262 237.61868 235.46373 233.32979 231.20285 229.23490 227.39796
 225.68702 224.16508 222.80113 221.57919 220.46725 219.43330 218.54336 217.69042
 216.93847 216.12453 215.22859 214.59865 214.05470 213.89349 213.51262 213.32123
 212.94937 213.35522 214.72937 216.64499 218.86690 222.04420 227.57539 232.05904
 235.82370 240.00970 244.55267 249.06604 253.04254 256.01031 258.16351 260.13242
 262.71494 265.41675 267.94876 270.34555 272.67960 274.83099 276.45776 277.97476
 279.76837 281.44986 282.99786 284.36194 285.54379 286.59341 287.55426 288.42841
 289.22171 289.93445 290.55759 291.40421
 366.78100 356.34227 345.78155 334.65482 323.06509 311.26636 299.14364 286.95391
 274.67318 262.57746 250.59373 239.90200 230.03127 221.14255 213.33182 206.34109
 200.18237 195.12764 191.71691 189.76618 188.81046 188.88173 189.72400 191.03928
 192.77155 194.87382 197.14409 199.51037 201.96264 204.44991 206.54519 208.39446
 210.02773 211.18000 211.41628 211.65155 211.59582 211.30810 210.94837 210.58564
 210.20991 209.92719 209.74246 209.61373 209.54901 209.88728 210.28055 210.67682
 211.47710 212.66237 213.91964 215.70992 217.64519 219.69546 221.79773 223.88801
 225.95528 228.04655 230.15083 232.26410 234.40037 236.57964 238.84292 241.22019
 243.84846 246.10674 248.11601 249.88828 251.31255 252.44283 253.27210 253.59537
 253.63965 253.42092 252.78819 251.74346 250.35674 248.52501 246.44128 244.28155
 242.07983 239.89110 237.71837 235.56465 233.43192 231.30619 229.33946 227.50374
 225.79401 224.27328 222.91056 221.68983 220.57910 219.54637 218.65765 217.80592
 217.05519 216.24247 215.34774 214.71901 214.17628 213.98427 213.53061 213.34715
 213.04796 213.44852 214.82976 216.71193 218.87306 222.01639 227.50992 231.98325
 235.77145 239.98621 244.53613 249.01576 252.91356 255.83821 257.98288 259.96115
 262.59811 265.33426 267.87811 270.31070 272.66162 274.81140 276.42398 277.93704
 279.73907 281.43723 282.98627 284.34894 285.53207 286.58099 287.54147 288.41626
 289.20844 289.91904 290.54648 291.38873
 366.78100 356.34337 345.78375 334.65812 323.06949 311.27186 299.15024 286.96161
 274.68198 262.58735 250.60473 239.91410 230.04447 221.15685 213.34722 206.35759
 200.19996 195.14634 191.73671 189.78708 188.83245 188.90483 189.74820 191.06457
 192.79794 194.90132 197.17269 199.54006 201.99344 204.48181 206.57818 208.42855
 210.06293 211.21630 211.45367 211.69004 211.63542 211.34879 210.99016 210.62854
 210.25391 209.97228 209.78865 209.66103 209.59740 209.93677 210.33114 210.72852
 211.52989 212.71626 213.97464 215.76601 217.70238 219.75375 221.85713 223.94850
 226.01687 228.10924 230.21462 232.32899 234.46636 236.64673 238.91111 241.28948
 243.91885 246.17823 248.18860 249.96197 251.38734 252.51872 253.34909 253.67346
 253.71883 253.50121 252.86958 251.82595 250.44033 248.60970 246.52707 244.36844
 242.16782 239.98019 237.80856 235.65593 233.52431 231.39968 229.43405 227.59943
 225.89080 224.37117 223.00954 221.78992 220.68029 219.64866 218.76103 217.91041
 217.16078 216.34915 215.45552 214.82790 214.28627 214.06818 213.55292 213.37051
 213.15018 213.53880 214.93179 216.77509 218.87547 221.99074 227.44400 231.91083
 235.72604 239.96782 244.51649 248.95384 252.77309 255.65727 257.80167 259.80258
 262.49176 265.25931 267.81693 270.27832 272.64383 274.78961 276.38742 277.89490
 279.70013 281.41504 282.96405 284.32651 285.51031 286.55789 287.51929 288.39319
 289.18488 289.89374 290.52100 291.36612
 366.78100 356.34449 345.78598 334.66147 323.07396 311.27745 299.15694 286.96943
 274.69092 262.59741 250.61590 239.92639 230.05788 221.17138 213.36287 206.37436
 200.21785 195.16534 191.75683 189.80832 188.85481 188.92830 189.77279 191.09028
 192.82477 194.92926 197.20175 199.57024 202.02473 204.51422 206.61171 208.46320
 210.09869 211.25318 211.49167 211.72916 211.67565 211.39015 211.03264 210.67213
 210.29862 210.01811 209.83560 209.70909 209.64658 209.98707 210.38256 210.78105
 211.58354 212.77103 214.03052 215.82301 217.76050 219.81299 221.91748 224.00997
 226.07946 228.17295 230.27944 232.39493 234.53342 236.71491 238.98041 241.35990
 243.99039 246.25088 248.26237 250.03686 251.46335 252.59584 253.42733 253.75282
 253.79931 253.58280 252.95229 251.90978 250.52527 248.69576 246.61425 244.45674
 242.25723 240.07072 237.90021 235.74870 233.61819 231.49468 229.53018 227.69667
 225.98916 224.47065 223.11014 221.89163 220.78312 219.75261 218.86610 218.01659
 217.26808 216.45757 215.56506 214.93855 214.39804 214.15155 213.56921 213.40056
 213.25156 213.62480 215.03084 216.83519 218.88155 221.96346 227.37570 231.84512
 235.68884 239.95494 244.49336 248.87923 252.62093 255.46585 257.61664 259.65460
 262.39362 265.19135 267.76541 270.25314 272.62976 274.77231 276.35727 277.85580
 279.65601 281.37994 282.92798 284.29117 285.47324 286.52060 287.48181 288.35553
 289.14700 289.85675 290.48260 291.32285
 366.78100 356.34543 345.78785 334.66428 323.07771 311.28213 299.16256 286.97599
 274.69841 262.60584 250.62527 239.93670 230.06912 221.18355 213.37598 206.38840
 200.23283 195.18126 191.77368 189.82611 188.87354 188.94796 189.79339 191.11182
 192.84724 194.95267 197.22610 199.59552 202.05095 204.54138 206.63981 208.49223
 210.12866 211.28409 211.52351 211.76194 211.70937 211.42479 211.06822 210.70865
 210.33607 210.05650 209.87493 209.74935 209.68778 210.02921 210.42563 210.82506
 211.62849 212.81692 214.07734 215.87077 217.80920 219.86262 221.96805 224.06148
 226.13190 228.22633 230.33376 232.45018 234.58961 236.77204 239.03846 241.41889
 244.05032 246.31174 248.32417 250.09960 251.52703 252.66045 253.49288 253.81931
 253.86673 253.65116 253.02159 251.98001 250.59644 248.76787 246.68729 244.53072
 242.33215 240.14657 237.97700 235.82643 233.69685 231.57428 229.61071 227.77814
 226.07156 224.55399 223.19442 221.97684 220.86927 219.83970 218.95412 218.10555
 217.35798 216.54840 215.65683 215.03126 214.49168 214.22450 213.59323 213.42386
 213.36070 213.71100 215.13153 216.88739 218.87193 221.93713 227.31143 231.78804
 235.65997 239.94746 244.46625 248.79066 252.45520 255.26230 257.42706 259.51721
 262.30414 265.13239 267.72394 270.23398 272.62048 274.76120 276.33701 277.82294
 279.61163 281.32980 282.87762 284.24039 285.42291 286.46979 287.42960 288.30246
 289.09436 289.80411 290.42786 291.26944
 366.78100 356.34675 345.79050 334.66825 323.08300 311.28875 299.17050 286.98525
 274.70900 262.61775 250.63850 239.95125 230.08500 221.20075 213.39450 206.40825
 200.25400 195.20375 191.79750 189.85125 188.90000 188.97575 189.82250 191.14225
 192.87900 194.98575 197.26050 199.63125 202.08800 204.57975 206.67950 208.53325
 210.17100 211.32775 211.56850 211.80825 211.75700 211.47375 211.11850 210.76025
 210.38900 210.11075 209.93050 209.80625 209.74600 210.08875 210.48650 210.88725
 211.69200 212.88175 214.14350 215.93825 217.87800 219.93275 222.03950 224.13425
 226.20600 228.30175 230.41050 232.52825 234.66900 236.85275 239.12051 241.50226
 244.13501 246.39776 248.41151 250.18826 251.61701 252.75176 253.58551 253.91326
 253.96201 253.74776 253.11951 252.07926 250.69701 248.86976 246.79051 244.63526
 242.43801 240.25376 238.08551 235.93626 233.80801 231.68676 229.72451 227.89326
 226.18801 224.67176 223.31351 222.09726 220.99101 219.96276 219.07851 218.23126
 217.48501 216.67676 215.78651 215.16226 214.62401 214.31584 213.58775 213.47359
 213.47758 213.78206 215.20805 216.94077 218.88402 221.90614 227.23866 231.73305
 235.63834 239.94475 244.43513 248.69110 252.28123 255.05331 257.23969 259.39261
 262.22433 265.08041 267.69235 270.21881 272.61197 274.75217 276.32016 277.79355
 279.56564 281.26813 282.81418 284.17645 285.35870 286.40671 287.36688 288.23886
 289.02942 289.74149 290.36465 291.20490
 366.78100 356.34776 345.79253 334.67129 323.08705 311.29382 299.17658 286.99234
 274.71710 262.62687 250.64863 239.96239 230.09716 221.21392 213.40868 206.42345
 200.27021 195.22097 191.81574 189.87050 188.92026 188.99703 189.84479 191.16555
 192.90331 195.01108 197.28684 199.65860 202.11637 204.60913 206.70989 208.56466
 210.20342 211.36118 211.60295 211.84371 211.79347 211.51124 211.15700 210.79976
 210.42952 210.15229 209.97305 209.84981 209.79058 210.13434 210.53310 210.93487
 211.74063 212.93139 214.19416 215.98992 217.93068 219.98644 222.09421 224.18997
 226.26273 228.35950 230.46926 232.58802 234.72979 236.91455 239.18331 241.56608
 244.19984 246.46360 248.47837 250.25613 251.68589 252.82165 253.65642 253.98518
 254.03494 253.82171 253.19447 252.15523 250.77400 248.94776 246.86952 244.71529
 242.51905 240.33581 238.16858 236.02034 233.89310 231.77286 229.81163 227.98139
 226.27715 224.76192 223.40468 222.18944 221.08421 220.05697 219.17373 218.32750
 217.58226 216.77502 215.88579 215.26255 214.72531 214.39014 213.59824 213.51628
 213.58315 213.86104 215.30791 216.98660 218.85127 221.87094 227.18311 231.69469
 235.62625 239.94792 244.40108 248.58047 252.09695 254.83446 257.04721 259.27481
 262.14984 265.03220 267.66727 270.20755 272.60663 274.74893 276.31308 277.77005
 279.51620 281.19849 282.74359 284.10605 285.28806 286.33466 287.29440 288.16980
 288.95807 289.66745 290.29288 291.13120
 366.78100 356.34844 345.79388 334.67332 323.08976 311.29720 299.18064 286.99708
 274.72252 262.63296 250.65540 239.96984 230.10528 221.22272 213.41816 206.43360
 200.28104 195.23249 191.82793 189.88337 188.93381 189.01125 189.85969 191.18113
 192.91957 195.02801 197.30445 199.67689 202.13533 204.62877 206.73021 208.58565
 210.22509 211.38353 211.62597 211.86741 211.81785 211.53629 211.18273 210.82617
 210.45661 210.18005 210.00149 209.87893 209.82037 210.16481 210.56425 210.96669
 211.77313 212.96457 214.22801 216.02446 217.96590 220.02234 222.13078 224.22722
 226.30066 228.39810 230.50854 232.62798 234.77042 236.95586 239.22530 241.60874
 244.24318 246.50762 248.52306 250.30150 251.73194 252.86838 253.70382 254.03326
 254.08370 253.87114 253.24458 252.20602 250.82546 248.99990 246.92234 244.76878
 242.57322 240.39066 238.22410 236.07654 233.94999 231.83043 229.86987 228.04031
 226.33675 224.82219 223.46563 222.25107 221.14651 220.11995 219.23739 218.39183
 217.64727 216.84071 215.95215 215.32959 214.79303 214.44853 213.63460 213.50182
 213.75308 213.94078 215.37001 217.03023 218.86578 221.85234 227.10440 231.64099
 235.61078 239.94713 244.35588 248.45226 251.89807 254.60500 256.85251 259.16705
 262.08438 264.99411 267.65381 270.20618 272.61130 274.75754 276.32361 277.76022
 279.46988 281.12445 282.66544 284.02820 285.20963 286.25714 287.21631 288.08911
 288.87967 289.58777 290.21396 291.04944
 366.78100 356.34865 345.79429 334.67394 323.09058 311.29823 299.18188 286.99852
 274.72417 262.63481 250.65746 239.97211 230.10775 221.22540 213.42104 206.43669
 200.28434 195.23598 191.83163 189.88727 188.93792 189.01557 189.86421 191.18586
 192.92450 195.03315 197.30980 199.68244 202.14109 204.63473 206.73638 208.59203
 210.23167 211.39032 211.63296 211.87461 211.82526 211.54390 211.19055 210.83419
 210.46484 210.18849 210.01013 209.88778 209.82942 210.17407 210.57372 210.97636
 211.78301 212.97465 214.23830 216.03495 217.97659 220.03324 222.14188 224.23853
 226.31218 228.40982 230.52047 232.64011 234.78276 236.96841 239.23805 241.62170
 244.25634 246.52099 248.53664 250.31528 251.74593 252.88257 253.71822 254.04787
 254.09851 253.88616 253.25980 252.22145 250.84109 249.01574 246.93839 244.78503
 242.58968 240.40732 238.24097 236.09362 233.96726 231.84791 229.88755 228.05820
 226.35485 224.84049 223.48414 222.26978 221.16543 220.13908 219.25672 218.41137
 217.66701 216.86066 215.97231 215.34995 214.81360 214.48248 213.70021 213.48238
 213.85205 214.08891 215.39304 217.08359 218.90085 221.78273 227.02708 231.60126
 235.60583 239.95268 244.31140 248.32233 251.70396 254.38461 256.67224 259.07645
 262.03128 264.96561 267.64960 270.20993 272.61996 274.77023 276.33923 277.75598
 279.42398 281.04700 282.58344 283.94678 285.12729 286.17599 287.13535 288.00696
 288.79642 289.50656 290.13168 290.96719
 366.78100 356.34903 345.79506 334.67509 323.09212 311.30015 299.18418 287.00121
 274.72724 262.63827 250.66131 239.97634 230.11237 221.23040 213.42643 206.44246
 200.29049 195.24252 191.83855 189.89458 188.94561 189.02364 189.87267 191.19470
 192.93373 195.04276 197.31979 199.69282 202.15185 204.64588 206.74792 208.60395
 210.24398 211.40301 211.64604 211.88807 211.83910 211.55813 211.20516 210.84919
 210.48022 210.20425 210.02628 209.90431 209.84634 210.19137 210.59140 210.99443
 211.80146 212.99349 214.25753 216.05456 217.99659 220.05362 222.16265 224.25968
 226.33371 228.43174 230.54277 232.66280 234.80583 236.99186 239.26189 241.64592
 244.28095 246.54598 248.56201 250.34104 251.77207 252.90911 253.74514 254.07517
 254.12620 253.91423 253.28826 252.25029 250.87032 249.04535 246.96838 244.81541
 242.62044 240.43847 238.27250 236.12553 233.99956 231.88059 229.92062 228.09165
 226.38868 224.87472 223.51875 222.30478 221.20081 220.17484 219.29287 218.44790
 217.70393 216.89796 216.00999 215.38802 214.85205 214.52225 213.74307 213.52798
 213.89571 214.20966 215.41629 217.12589 218.91998 221.71645 226.97327 231.58249
 235.61296 239.96495 244.26836 248.19154 251.51274 254.17003 256.49811 258.99481
 261.98233 264.93732 267.64456 270.20959 272.62338 274.77759 276.35016 277.74911
 279.37827 280.96884 282.50082 283.86362 285.04514 286.09247 287.05261 287.92459
 288.71460 289.42230 290.05045 290.88391
 366.78100 356.34932 345.79565 334.67597 323.09330 311.30162 299.18595 287.00327
 274.72960 262.64092 250.66425 239.97957 230.11589 221.23422 213.43054 206.44687
 200.29519 195.24752 191.84384 189.90017 188.95149 189.02982 189.87914 191.20146
 192.94079 195.05011 197.32744 199.70076 202.16009 204.65441 206.75674 208.61306
 210.25339 211.41271 211.65603 211.89836 211.84968 211.56901 211.21633 210.86066
 210.49198 210.21631 210.03863 209.91696 209.85928 210.20460 210.60493 211.00825
 211.81558 213.00790 214.27223 216.06955 218.01188 220.06920 222.17853 224.27585
 226.35017 228.44850 230.55982 232.68015 234.82347 237.00980 239.28012 241.66445
 244.29977 246.56510 248.58142 250.36074 251.79207 252.92939 253.76572 254.09604
 254.14737 253.93569 253.31002 252.27234 250.89267 249.06799 246.99131 244.83864
 242.64396 240.46229 238.29661 236.14994 234.02426 231.90559 229.94591 228.11724
 226.41456 224.90088 223.54521 222.33153 221.22786 220.20218 219.32051 218.47583
 217.73216 216.92648 216.03881 215.41713 214.88145 214.55531 213.78474 213.58736
 213.93515 214.30089 215.46053 217.16396 218.91628 221.67030 226.93391 231.57202
 235.62399 239.97714 244.22037 248.05379 251.31850 253.95325 256.32309 258.91568
 261.93378 264.90726 267.63559 270.20560 272.62338 274.78229 276.35928 277.74573
 279.33673 280.89429 282.42041 283.78293 284.96375 286.01218 286.97064 287.84372
 288.63376 289.34271 289.96664 290.80536
 366.78100 356.34944 345.79587 334.67631 323.09375 311.30218 299.18662 287.00406
 274.73049 262.64193 250.66537 239.98080 230.11724 221.23568 213.43211 206.44855
 200.29698 195.24942 191.84586 189.90229 188.95373 189.03217 189.88160 191.20404
 192.94348 195.05291 197.33035 199.70379 202.16322 204.65766 206.76010 208.61653
 210.25697 211.41641 211.65984 211.90228 211.85372 211.57315 211.22059 210.86503
 210.49646 210.22090 210.04333 209.92177 209.86421 210.20964 210.61008 211.01352
 211.82095 213.01339 214.27783 216.07526 218.01770 220.07514 222.18457 224.28201
 226.35645 228.45488 230.56632 232.68676 234.83019 237.01663 239.28707 241.67150
 244.30694 246.57238 248.58881 250.36825 251.79969 252.93712 253.77356 254.10399
 254.15543 253.94387 253.31830 252.28074 250.90118 249.07661 247.00005 244.84749
 242.65292 240.47136 238.30580 236.15923 234.03367 231.91511 229.95554 228.12698
 226.42442 224.91085 223.55529 222.34173 221.23816 220.21260 219.33104 218.48647
 217.74291 216.93734 216.04978 215.42822 214.89265 214.57744 213.83273 213.64021
 213.98920 214.37799 215.50606 217.19612 218.90202 221.64073 226.89580 231.56223
 235.63478 239.98547 244.16574 247.90916 251.12029 253.73531 256.14847 258.83817
 261.88559 264.87527 267.62454 270.19992 272.62335 274.79013 276.37476 277.75156
 279.30115 280.82697 282.34451 283.70639 284.88925 285.93515 286.89450 287.76752
 288.55756 289.26645 289.89200 290.72214
 366.78100 356.34951 345.79602 334.67652 323.09403 311.30254 299.18705 287.00456
 274.73106 262.64257 250.66608 239.98159 230.11810 221.23660 213.43311 206.44962
 200.29813 195.25064 191.84714 189.90365 188.95516 189.03367 189.88318 191.20568
 192.94519 195.05470 197.33221 199.70571 202.16522 204.65973 206.76224 208.61875
 210.25925 211.41876 211.66227 211.90478 211.85629 211.57579 211.22330 210.86781
 210.49932 210.22383 210.04633 209.92484 209.86735 210.21286 210.61337 211.01687
 211.82438 213.01689 214.28140 216.07891 218.02141 220.07892 222.18843 224.28594
 226.36045 228.45895 230.57046 232.69097 234.83448 237.02099 239.29149 241.67600
 244.31151 246.57702 248.59353 250.37303 251.80454 252.94205 253.77856 254.10906
 254.16057 253.94908 253.32359 252.28610 250.90660 249.08211 247.00562 244.85313
 242.65864 240.47714 238.31165 236.16516 234.03967 231.92118 229.96168 228.13319
 226.43070 224.91721 223.56172 222.34822 221.24473 220.21924 219.33775 218.49326
 217.74976 216.94427 216.05678 215.43529 214.89980 214.59602 213.87833 213.69455
 214.05786 214.44991 215.54001 217.21921 218.89171 221.62321 226.85655 231.55339
 235.64670 239.99112 244.10513 247.75836 250.91972 253.51735 255.97661 258.76218
 261.83722 264.84128 267.61105 270.19235 272.62231 274.79861 276.39383 277.76334
 279.27448 280.76801 282.27695 283.63809 284.82111 285.86771 286.82669 287.69946
 288.49048 289.19824 289.82184 290.65823
 366.78100 356.34959 345.79618 334.67676 323.09435 311.30294 299.18753 287.00511
 274.73170 262.64329 250.66688 239.98247 230.11905 221.23764 213.43423 206.45082
 200.29940 195.25199 191.84858 189.90517 188.95676 189.03534 189.88493 191.20752
 192.94711 195.05669 197.33428 199.70787 202.16746 204.66205 206.76463 208.62122
 210.26181 211.42140 211.66498 211.90757 211.85916 211.57875 211.22633 210.87092
 210.50251 210.22710 210.04969 209.92827 209.87086 210.21645 210.61704 211.02062
 211.82821 213.02080 214.28539 216.08298 218.02556 220.08315 222.19274 224.29033
 226.36491 228.46350 230.57509 232.69568 234.83927 237.02585 239.29644 241.68103
 244.31662 246.58220 248.59879 250.37838 251.80997 252.94756 253.78414 254.11473
 254.16632 253.95491 253.32949 252.29208 250.91267 249.08826 247.01185 244.85943
 242.66502 240.48361 238.31820 236.17178 234.04637 231.92796 229.96855 228.14014
 226.43772 224.92431 223.56890 222.35549 221.25207 220.22666 219.34525 218.50084
 217.75742 216.95201 216.06460 215.44319 214.90778 214.61334 213.91772 213.75702
 214.13402 214.52002 215.56554 217.23442 218.88741 221.60983 226.81805 231.54713
 235.65962 239.99217 244.03703 247.60123 250.71652 253.30162 255.81021 258.68909
 261.78946 264.80627 267.59402 270.18066 272.61826 274.80432 276.41162 277.77567
 279.25418 280.71945 282.21875 283.58029 284.76205 285.80899 286.76767 287.64233
 288.43155 289.13968 289.76648 290.59711
 366.78100 356.34962 345.79625 334.67687 323.09450 311.30312 299.18775 287.00537
 274.73200 262.64362 250.66724 239.98287 230.11949 221.23812 213.43474 206.45137
 200.29999 195.25261 191.84924 189.90586 188.95749 189.03611 189.88574 191.20836
 192.94799 195.05761 197.33523 199.70886 202.16848 204.66311 206.76573 208.62236
 210.26298 211.42260 211.66623 211.90885 211.86048 211.58010 211.22773 210.87235
 210.50398 210.22860 210.05122 209.92985 209.87247 210.21810 210.61872 211.02235
 211.82997 213.02259 214.28722 216.08484 218.02747 220.08509 222.19472 224.29234
 226.36697 228.46559 230.57721 232.69784 234.84146 237.02809 239.29871 241.68334
 244.31896 246.58458 248.60121 250.38083 251.81246 252.95008 253.78671 254.11733
 254.16896 253.95758 253.33220 252.29483 250.91545 249.09108 247.01470 244.86233
 242.66795 240.48657 238.32120 236.17482 234.04945 231.93107 229.97170 228.14332
 226.44095 224.92757 223.57219 222.35882 221.25544 220.23007 219.34869 218.50432
 217.76094 216.95556 216.06819 215.44681 214.91144 214.62663 213.95377 213.82521
 214.21498 214.58839 215.59383 217.24374 218.88522 221.59500 226.78210 231.54263
 235.67006 239.98462 243.95885 247.43765 250.51251 253.09210 255.65254 258.61819
 261.74152 264.76779 267.57028 270.16168 272.60809 274.80466 276.42291 277.78809
 279.24051 280.68311 282.17438 283.53436 284.71722 285.76480 286.72400 287.59784
 288.38556 289.09662 289.72064 290.55179
 366.78100 356.34956 345.79612 334.67668 323.09424 311.30280 299.18736 287.00492
 274.73148 262.64304 250.66660 239.98216 230.11872 221.23728 213.43384 206.45040
 200.29895 195.25151 191.84807 189.90463 188.95619 189.03475 189.88431 191.20687
 192.94643 195.05599 197.33355 199.70711 202.16667 204.66123 206.76379 208.62035
 210.26091 211.42047 211.66403 211.90659 211.85815 211.57771 211.22527 210.86983
 210.50139 210.22595 210.04851 209.92707 209.86963 210.21519 210.61575 211.01931
 211.82686 213.01942 214.28398 216.08154 218.02410 220.08166 222.19122 224.28878
 226.36334 228.46190 230.57346 232.69402 234.83758 237.02414 239.29470 241.67926
 244.31482 246.58038 248.59694 250.37650 251.80806 252.94562 253.78218 254.11274
 254.16430 253.95286 253.32742 252.28998 250.91054 249.08610 247.00966 244.85721
 242.66277 240.48133 238.31589 236.16945 234.04401 231.92557 229.96613 228.13769
 226.43525 224.92181 223.56637 222.35293 221.24949 220.22405 219.34261 218.49817
 217.75473 216.94929 216.06185 215.44041 214.90497 214.63301 213.99045 213.89375
 214.29974 214.65816 215.62769 217.25412 218.88052 221.57956 226.74924 231.53883
 235.67633 239.96724 243.86969 247.26797 250.30850 252.88885 255.50247 258.54758
 261.69159 264.72388 267.53665 270.13461 272.59201 274.80118 276.43243 277.80319
 279.23831 280.66321 282.14346 283.50406 284.68658 285.73508 286.69534 287.56839
 288.35699 289.06601 289.69165 290.52197
 366.78100 356.34948 345.79595 334.67643 323.09391 311.30238 299.18686 287.00434
 274.73081 262.64229 250.66577 239.98124 230.11772 221.23619 213.43267 206.44915
 200.29762 195.25010 191.84658 189.90305 188.95453 189.03301 189.88248 191.20496
 192.94444 195.05391 197.33139 199.70487 202.16434 204.65882 206.76130 208.61777
 210.25825 211.41773 211.66120 211.90368 211.85515 211.57463 211.22211 210.86658
 210.49806 210.22254 210.04501 209.92349 209.86597 210.21144 210.61192 211.01540
 211.82287 213.01535 214.27983 216.07730 218.01978 220.07726 222.18673 224.28421
 226.35869 228.45716 230.56864 232.68911 234.83259 237.01907 239.28954 241.67402
 244.30950 246.57497 248.59145 250.37093 251.80240 252.93988 253.77636 254.10683
 254.15831 253.94679 253.32126 252.28374 250.90422 249.07969 247.00317 244.85065
 242.65612 240.47460 238.30907 236.16255 234.03703 231.91850 229.95898 228.13046
 226.42793 224.91441 223.55889 222.34536 221.24184 220.21632 219.33479 218.49027
 217.74675 216.94122 216.05370 215.43218 214.89665 214.63670 214.02254 213.96617
 214.38651 214.72919 215.66843 217.26973 218.87762 221.56706 226.72043 231.53723
 235.67889 239.94073 243.77025 247.09166 250.10106 252.68723 255.35606 258.47363
 261.63568 264.67154 267.49176 270.10037 272.57129 274.79471 276.44287 277.82355
 279.24817 280.65942 282.13257 283.49194 284.67633 285.72427 286.68307 287.55704
 288.34720 289.05646 289.68204 290.50912
 366.78100 356.34930 345.79560 334.67590 323.09320 311.30150 299.18580 287.00310
 274.72940 262.64070 250.66400 239.97930 230.11560 221.23390 213.43020 206.44650
 200.29479 195.24709 191.84339 189.89969 188.95099 189.02929 189.87859 191.20089
 192.94019 195.04949 197.32679 199.70009 202.15939 204.65369 206.75599 208.61229
 210.25259 211.41189 211.65519 211.89749 211.84879 211.56809 211.21539 210.85969
 210.49099 210.21529 210.03759 209.91589 209.85819 210.20349 210.60378 211.00708
 211.81438 213.00668 214.27098 216.06828 218.01058 220.06788 222.17718 224.27448
 226.34878 228.44708 230.55838 232.67868 234.82198 237.00828 239.27858 241.66288
 244.29818 246.56348 248.57978 250.35908 251.79038 252.92768 253.76398 254.09428
 254.14558 253.93388 253.30818 252.27048 250.89078 249.06607 246.98937 244.83667
 242.64197 240.46027 238.29457 236.14787 234.02217 231.90347 229.94377 228.11507
 226.41237 224.89867 223.54297 222.32927 221.22557 220.19987 219.31817 218.47347
 217.72977 216.92407 216.03637 215.41467 214.87897 214.63390 214.05486 214.03593
 214.47690 214.81070 215.71254 217.28934 218.87425 221.56136 226.70009 231.53909
 235.67847 239.90370 243.65756 246.90498 249.88618 252.48457 255.21304 258.39743
 261.57544 264.61237 267.43942 270.06088 272.54858 274.78745 276.45282 277.84790
 279.26740 280.66998 282.13501 283.49442 284.67804 285.72726 286.68634 287.56027
 288.34833 289.05621 289.68228 290.50998
 366.78100 356.34931 345.79562 334.67593 323.09324 311.30155 299.18586 287.00318
 274.72949 262.64080 250.66411 239.97942 230.11573 221.23404 213.43035 206.44666
 200.29497 195.24728 191.84359 189.89991 188.95122 189.02953 189.87884 191.20115
 192.94046 195.04977 197.32708 199.70039 202.15970 204.65401 206.75632 208.61264
 210.25295 211.41226 211.65557 211.89788 211.84919 211.56850 211.21581 210.86012
 210.49143 210.21574 210.03805 209.91636 209.85868 210.20399 210.60430 211.00761
 211.81492 213.00723 214.27154 216.06885 218.01116 220.06847 222.17778 224.27509
 226.34941 228.44772 230.55903 232.67934 234.82265 237.00896 239.27927 241.66358
 244.29889 246.56420 248.58051 250.35982 251.79114 252.92845 253.76476 254.09507
 254.14638 253.93469 253.30900 252.27131 250.89162 249.06693 246.99024 244.83755
 242.64286 240.46118 238.29549 236.14880 234.02311 231.90442 229.94473 228.11604
 226.41335 224.89966 223.54397 222.33028 221.22659 220.20091 219.31922 218.47453
 217.73084 216.92515 216.03746 215.41577 214.88008 214.63902 214.06950 214.11852
 214.56952 214.89633 215.76076 217.31828 218.88202 221.55399 226.68362 231.54121
 235.67232 239.85431 243.53192 246.70985 249.66774 252.28706 255.07872 258.32245
 261.51382 264.54950 267.38000 270.01608 272.52051 274.77341 276.45340 277.86359
 279.28854 280.68915 282.15384 283.51550 284.69879 285.74872 286.70792 287.58386
 288.37860 289.09213 289.72256 290.54993
 366.78100 356.34926 345.79552 334.67579 323.09305 311.30131 299.18557 287.00283
 274.72910 262.64036 250.66362 239.97888 230.11515 221.23341 213.42967 206.44593
 200.29419 195.24646 191.84272 189.89898 188.95024 189.02850 189.87777 191.20003
 192.93929 195.04855 197.32582 199.69908 202.15834 204.65260 206.75486 208.61113
 210.25139 211.41065 211.65391 211.89617 211.84744 211.56670 211.21396 210.85822
 210.48949 210.21375 210.03601 209.91427 209.85653 210.20180 210.60206 211.00532
 211.81258 213.00484 214.26911 216.06637 218.00863 220.06589 222.17516 224.27242
 226.34668 228.44494 230.55620 232.67647 234.81973 237.00599 239.27625 241.66051
 244.29578 246.56104 248.57730 250.35656 251.78783 252.92509 253.76135 254.09161
 254.14287 253.93114 253.30540 252.26766 250.88792 249.06318 246.98645 244.83371
 242.63897 240.45723 238.29150 236.14476 234.01902 231.90028 229.94054 228.11181
 226.40907 224.89533 223.53959 222.32585 221.22212 220.19638 219.31464 218.46990
 217.72617 216.92043 216.03269 215.41095 214.87521 214.64000 214.08429 214.19485
 214.66565 214.99185 215.83159 217.34727 218.87790 221.55605 226.67897 231.54610
 235.66205 239.79419 243.39351 246.50565 249.44391 252.09195 254.94968 258.24542
 261.44806 264.48013 267.31268 269.96591 272.48849 274.75375 276.44965 277.87869
 279.31348 280.71759 282.18594 283.54596 284.73138 285.78214 286.74274 287.61877
 288.41415 289.12939 289.75873 290.59055
 366.78100 356.34888 345.79476 334.67464 323.09152 311.29940 299.18328 287.00016
 274.72604 262.63692 250.65980 239.97468 230.11056 221.22844 213.42432 206.44020
 200.28808 195.23996 191.83584 189.89172 188.94260 189.02048 189.86936 191.19124
 192.93013 195.03901 197.31589 199.68877 202.14765 204.64153 206.74341 208.59929
 210.23917 211.39805 211.64093 211.88281 211.83369 211.55257 211.19945 210.84333
 210.47421 210.19809 210.01997 209.89785 209.83973 210.18461 210.58449 210.98737
 211.79425 212.98613 214.25001 216.04689 217.98877 220.04565 222.15453 224.25141
 226.32529 228.42317 230.53405 232.65393 234.79681 236.98269 239.25257 241.63645
 244.27133 246.53621 248.55209 250.33097 251.76185 252.89873 253.73461 254.06449
 254.11538 253.90326 253.27714 252.23902 250.85890 249.03378 246.95666 244.80354
 242.60842 240.42630 238.26018 236.11306 233.98694 231.86782 229.90770 228.07858
 226.37546 224.86134 223.50522 222.29110 221.18698 220.16086 219.27874 218.43362
 217.68950 216.88338 215.99526 215.37314 214.83702 214.62390 214.12039 214.24068
 214.77187 215.10701 215.89311 217.40025 218.92805 221.56056 226.67062 231.54401
 235.63870 239.71223 243.22980 246.28185 249.20735 251.89519 254.82564 258.16916
 261.38089 264.40915 267.24411 269.91568 272.45892 274.73703 276.45065 277.90137
 279.34888 280.75775 282.22464 283.58636 284.77161 285.82281 286.78397 287.65948
 288.45541 289.17029 289.79965 290.63074
 366.78100 356.34845 345.79389 334.67334 323.08979 311.29724 299.18068 286.99713
 274.72258 262.63303 250.65547 239.96992 230.10537 221.22282 213.41826 206.43371
 200.28116 195.23260 191.82805 189.88350 188.93395 189.01139 189.85984 191.18129
 192.91974 195.02818 197.30463 199.67708 202.13552 204.62897 206.73042 208.58587
 210.22531 211.38376 211.62621 211.86766 211.81810 211.53655 211.18300 210.82645
 210.45689 210.18034 210.00179 209.87923 209.82068 210.16513 210.56458 210.96702
 211.77347 212.96492 214.22837 216.02481 217.96626 220.02271 222.13116 224.22760
 226.30105 228.39850 230.50894 232.62839 234.77084 236.95629 239.22573 241.60918
 244.24363 246.50808 248.52352 250.30197 251.73242 252.86886 253.70431 254.03376
 254.08421 253.87165 253.24510 252.20655 250.82600 249.00044 246.92289 244.76934
 242.57379 240.39123 238.22468 236.07713 233.95057 231.83102 229.87047 228.04092
 226.33736 224.82281 223.46626 222.25171 221.14715 220.12060 219.23805 218.39250
 217.64794 216.84139 215.95284 215.33028 214.79373 214.60524 214.15990 214.28598
 214.83920 215.25284 216.03011 217.44481 218.92494 221.55927 226.65163 231.52979
 235.60435 239.61429 243.05409 246.05618 248.97966 251.71785 254.72017 258.10318
 261.32239 264.34482 267.18094 269.86993 272.43216 274.72086 276.45306 277.92505
 279.38824 280.80435 282.27115 283.63242 284.81766 285.86966 286.83090 287.70563
 288.50110 289.21661 289.84616 290.67529
 366.78100 356.34832 345.79363 334.67295 323.08927 311.29658 299.17990 286.99621
 274.72153 262.63185 250.65416 239.96848 230.10380 221.22111 213.41643 206.43175
 200.27906 195.23038 191.82570 189.88101 188.93133 189.00864 189.85696 191.17828
 192.91659 195.02491 197.30123 199.67354 202.13186 204.62518 206.72649 208.58181
 210.22112 211.37944 211.62176 211.86307 211.81339 211.53171 211.17802 210.82134
 210.45166 210.17497 209.99629 209.87361 209.81492 210.15924 210.55855 210.96087
 211.76719 212.95850 214.22182 216.01814 217.95945 220.01577 222.12409 224.22040
 226.29372 228.39103 230.50135 232.62067 234.76298 236.94830 239.21762 241.60093
 244.23525 246.49957 248.51488 250.29320 251.72351 252.85983 253.69515 254.02446
 254.07478 253.86210 253.23541 252.19673 250.81605 248.99036 246.91268 244.75900
 242.56331 240.38063 238.21394 236.06626 233.93958 231.81989 229.85921 228.02953
 226.32584 224.81116 223.45448 222.23979 221.13511 220.10842 219.22574 218.38006
 217.63537 216.82869 215.94001 215.31732 214.78064 214.60150 214.17828 214.35980
 214.88708 215.36737 216.17567 217.48439 218.90627 221.56458 226.63776 231.51967
 235.57129 239.51871 242.88620 245.84723 248.77589 251.56744 254.63451 258.04694
 261.26898 264.28262 267.11530 269.82089 272.39902 274.69305 276.44168 277.93768
 279.42099 280.85043 282.31943 283.68170 284.86731 285.92032 286.88037 287.75549
 288.55106 289.26639 289.89566 290.72830
 366.78100 356.34841 345.79383 334.67324 323.08965 311.29707 299.18048 286.99689
 274.72231 262.63272 250.65513 239.96954 230.10496 221.22237 213.41778 206.43320
 200.28061 195.23202 191.82744 189.88285 188.93326 189.01068 189.85909 191.18050
 192.91892 195.02733 197.30374 199.67615 202.13457 204.62798 206.72939 208.58481
 210.22422 211.38263 211.62505 211.86646 211.81687 211.53529 211.18170 210.82511
 210.45553 210.17894 210.00035 209.87776 209.81918 210.16359 210.56300 210.96542
 211.77183 212.96324 214.22666 216.02307 217.96448 220.02090 222.12931 224.22572
 226.29914 228.39655 230.50696 232.62638 234.76879 236.95420 239.22361 241.60703
 244.24144 246.50585 248.52127 250.29968 251.73009 252.86651 253.70192 254.03133
 254.08175 253.86916 253.24257 252.20399 250.82340 248.99781 246.92022 244.76664
 242.57105 240.38846 238.22188 236.07429 233.94770 231.82812 229.86753 228.03794
 226.33436 224.81977 223.46318 222.24860 221.14401 220.11742 219.23483 218.38925
 217.64466 216.83807 215.94949 215.32690 214.79031 214.60855 214.17914 214.44414
 214.95044 215.46332 216.28917 217.52066 218.91365 221.58749 226.63219 231.51515
 235.54063 239.42345 242.72339 245.64853 248.58461 251.43051 254.55730 257.99139
 261.21143 264.21255 267.04199 269.76459 272.35699 274.65186 276.41345 277.93851
 279.44427 280.89297 282.37146 283.73343 284.91916 285.97156 286.93219 287.80692
 288.60248 289.31940 289.94794 290.77725
 366.78100 356.34857 345.79414 334.67371 323.09028 311.29785 299.18142 286.99799
 274.72356 262.63413 250.65670 239.97128 230.10685 221.22442 213.41999 206.43556
 200.28313 195.23470 191.83027 189.88584 188.93641 189.01398 189.86255 191.18412
 192.92269 195.03126 197.30783 199.68040 202.13897 204.63254 206.73411 208.58968
 210.22925 211.38783 211.63040 211.87197 211.82254 211.54111 211.18768 210.83125
 210.46182 210.18539 210.00696 209.88453 209.82610 210.17067 210.57024 210.97281
 211.77938 212.97095 214.23452 216.03109 217.97266 220.02923 222.13780 224.23438
 226.30795 228.40552 230.51609 232.63566 234.77823 236.96380 239.23337 241.61694
 244.25151 246.51608 248.53165 250.31022 251.74079 252.87736 253.71293 254.04250
 254.09307 253.88064 253.25421 252.21578 250.83535 249.00993 246.93250 244.77907
 242.58364 240.40121 238.23478 236.08735 233.96092 231.84149 229.88106 228.05163
 226.34820 224.83377 223.47734 222.26291 221.15848 220.13205 219.24962 218.40419
 217.65976 216.85333 215.96490 215.34248 214.80605 214.61757 214.17227 214.52072
 215.03192 215.56543 216.38484 217.55661 218.93979 221.61749 226.62944 231.50967
 235.50533 239.32167 242.55708 245.45267 248.40045 251.30199 254.48396 257.93311
 261.14847 264.13651 266.96371 269.70471 272.31097 274.60483 276.38065 277.93423
 279.46545 280.93454 282.41888 283.78116 284.96698 286.01843 286.97983 287.85202
 288.64914 289.36523 289.99399 290.82242
 366.78100 356.34869 345.79437 334.67406 323.09074 311.29843 299.18211 286.99880
 274.72449 262.63517 250.65786 239.97254 230.10823 221.22592 213.42160 206.43729
 200.28497 195.23666 191.83234 189.88803 188.93872 189.01640 189.86509 191.18677
 192.92546 195.03415 197.31083 199.68352 202.14220 204.63589 206.73757 208.59326
 210.23295 211.39163 211.63432 211.87600 211.82669 211.54538 211.19206 210.83575
 210.46643 210.19012 210.01180 209.88949 209.83118 210.17586 210.57555 210.97823
 211.78492 212.97660 214.24029 216.03698 217.97866 220.03535 222.14403 224.24072
 226.31441 228.41209 230.52278 232.64246 234.78515 236.97083 239.24052 241.62421
 244.25889 246.52358 248.53926 250.31795 251.74864 252.88532 253.72101 254.05069
 254.10138 253.88906 253.26275 252.22444 250.84412 249.01881 246.94149 244.78818
 242.59286 240.41055 238.24424 236.09692 233.97061 231.85129 229.89098 228.06167
 226.35835 224.84404 223.48772 222.27341 221.16909 220.14278 219.26047 218.41515
 217.67084 216.86452 215.97621 215.35390 214.81758 214.62349 214.16493 214.58437
 215.12488 215.67715 216.48415 217.59666 218.95995 221.64130 226.62502 231.50081
 235.46432 239.21379 242.38960 245.26248 248.22551 251.18343 254.41652 257.87512
 261.08353 264.05862 266.88589 269.64432 272.26294 274.55362 276.34570 277.92923
 279.48618 280.97482 282.46271 283.82483 285.01074 286.06302 287.02255 287.89813
 288.69275 289.40930 290.03909 290.86823
 366.78100 356.34863 345.79426 334.67389 323.09053 311.29816 299.18179 286.99842
 274.72405 262.63468 250.65731 239.97195 230.10758 221.22521 213.42084 206.43647
 200.28410 195.23574 191.83137 189.88700 188.93763 189.01526 189.86389 191.18552
 192.92416 195.03279 197.30942 199.68205 202.14068 204.63431 206.73594 208.59158
 210.23121 211.38984 211.63247 211.87410 211.82473 211.54337 211.19000 210.83363
 210.46426 210.18789 210.00952 209.88715 209.82879 210.17342 210.57305 210.97568
 211.78231 212.97394 214.23757 216.03421 217.97584 220.03247 222.14110 224.23773
 226.31136 228.40899 230.51963 232.63926 234.78189 236.96752 239.23715 241.62078
 244.25542 246.52005 248.53568 250.31431 251.74494 252.88157 253.71720 254.04684
 254.09747 253.88510 253.25873 252.22036 250.83999 249.01462 246.93726 244.78389
 242.58852 240.40615 238.23978 236.09241 233.96605 231.84668 229.88631 228.05694
 226.35357 224.83920 223.48283 222.26847 221.16410 220.13773 219.25536 218.40999
 217.66562 216.85925 215.97089 215.34852 214.81215 214.61948 214.16426 214.63873
 215.22269 215.78952 216.59024 217.64406 218.96597 221.65871 226.62167 231.49007
 235.41966 239.10280 242.22441 245.08096 248.06361 251.07729 254.35555 257.81732
 261.01654 263.97989 266.80835 269.58362 272.20987 274.49686 276.30344 277.91669
 279.49881 281.00742 282.50055 283.86249 285.04825 286.09940 287.05927 287.93414
 288.73044 289.44751 290.07819 290.90005
 366.78100 356.34856 345.79412 334.67367 323.09023 311.29779 299.18135 286.99791
 274.72347 262.63402 250.65658 239.97114 230.10670 221.22426 213.41982 206.43537
 200.28293 195.23449 191.83005 189.88561 188.93616 189.01372 189.86228 191.18384
 192.92240 195.03096 197.30751 199.68007 202.13863 204.63219 206.73375 208.58931
 210.22886 211.38742 211.62998 211.87154 211.82210 211.54066 211.18721 210.83077
 210.46133 210.18489 210.00645 209.88400 209.82556 210.17012 210.56968 210.97224
 211.77880 212.97035 214.23391 216.03047 217.97203 220.02859 222.13715 224.23370
 226.30726 228.40482 230.51538 232.63494 234.77749 236.96305 239.23261 241.61617
 244.25073 246.51529 248.53084 250.30940 251.73996 252.87652 253.71208 254.04164
 254.09219 253.87975 253.25331 252.21487 250.83443 249.00899 246.93154 244.77810
 242.58266 240.40022 238.23378 236.08633 233.95989 231.84045 229.88001 228.05057
 226.34713 224.83268 223.47624 222.26180 221.15736 220.13092 219.24848 218.40303
 217.65859 216.85215 215.96371 215.34127 214.80482 214.61316 214.16032 214.69099
 215.32867 215.90611 216.69640 217.69350 218.96228 221.67195 226.62155 231.47874
 235.37233 238.98970 242.06287 244.90936 247.91527 250.98323 254.29984 257.76077
 260.94873 263.90125 266.73221 269.52203 272.15198 274.43198 276.25278 277.89636
 279.50400 281.03189 282.52814 283.88980 285.07590 286.12631 287.08429 287.95963
 288.75696 289.47305 290.10440 290.92783
 366.78100 356.34834 345.79368 334.67303 323.08937 311.29671 299.18005 286.99639
 274.72174 262.63208 250.65442 239.96876 230.10410 221.22145 213.41679 206.43213
 200.27947 195.23081 191.82616 189.88150 188.93184 189.00918 189.85752 191.17887
 192.91721 195.02555 197.30189 199.67423 202.13258 204.62592 206.72726 208.58260
 210.22194 211.38029 211.62263 211.86397 211.81431 211.53266 211.17900 210.82234
 210.45268 210.17602 209.99737 209.87471 209.81605 210.16039 210.55973 210.96208
 211.76842 212.95976 214.22310 216.01944 217.96079 220.01713 222.12547 224.22181
 226.29515 228.39250 230.50284 232.62218 234.76452 236.94986 239.21921 241.60255
 244.23689 246.50123 248.51657 250.29492 251.72526 252.86160 253.69694 254.02628
 254.07663 253.86397 253.23731 252.19865 250.81799 248.99234 246.91468 244.76102
 242.56536 240.38270 238.21605 236.06839 233.94173 231.82207 229.86141 228.03176
 226.32810 224.81344 223.45678 222.24212 221.13747 220.11081 219.22815 218.38249
 217.63783 216.83118 215.94252 215.31986 214.78320 214.59752 214.15881 214.73924
 215.43733 216.02991 216.80772 217.74797 218.95659 221.68268 226.62486 231.46477
 235.31816 238.86984 241.89970 244.74442 247.77878 250.89960 254.24829 257.70456
 260.87991 263.82355 266.66025 269.46231 272.09155 274.36212 276.19458 277.86389
 279.49863 281.04532 282.54056 283.90277 285.08572 286.13605 287.09558 287.96890
 288.76450 289.48398 290.11295 290.93610
 366.78100 356.34793 345.79287 334.67180 323.08774 311.29467 299.17760 286.99354
 274.71847 262.62841 250.65034 239.96427 230.09921 221.21614 213.41108 206.42601
 200.27294 195.22388 191.81881 189.87375 188.92368 189.00061 189.84855 191.16948
 192.90742 195.01535 197.29128 199.66322 202.12115 204.61409 206.71502 208.56995
 210.20889 211.36682 211.60876 211.84969 211.79962 211.51756 211.16349 210.80643
 210.43636 210.15929 209.98023 209.85716 209.79810 210.14203 210.54096 210.94290
 211.74883 212.93977 214.20270 215.99863 217.93957 219.99550 222.10344 224.19937
 226.27230 228.36924 230.47917 232.59811 234.74004 236.92497 239.19391 241.57684
 244.21078 246.47471 248.48964 250.26758 251.69751 252.83345 253.66838 253.99731
 254.04725 253.83418 253.20712 252.16805 250.78698 248.96092 246.88285 244.72879
 242.53272 240.34965 238.18259 236.03452 233.90746 231.78739 229.82632 227.99626
 226.29219 224.77713 223.42006 222.20500 221.09993 220.07286 219.18980 218.34373
 217.59867 216.79160 215.90253 215.27947 214.74240 214.57159 214.16806 214.78146
 215.54111 216.15941 216.91756 217.80693 218.96529 221.69667 226.63205 231.44791
 235.25705 238.74408 241.73837 244.59033 247.65881 250.82922 254.20219 257.64899
 260.81079 263.74707 266.58936 269.40137 272.02618 274.28699 276.13211 277.82880
 279.48486 281.04721 282.53748 283.89731 285.08026 286.12927 287.08716 287.96017
 288.75574 289.47174 290.10217 290.92282
 366.78100 356.34806 345.79313 334.67219 323.08825 311.29532 299.17838 286.99445
 274.71951 262.62957 250.65164 239.96570 230.10076 221.21783 213.41289 206.42796
 200.27502 195.22608 191.82115 189.87621 188.92627 189.00334 189.85140 191.17247
 192.91053 195.01859 197.29466 199.66672 202.12478 204.61785 206.71891 208.57398
 210.21304 211.37110 211.61317 211.85423 211.80429 211.52236 211.16842 210.81148
 210.44155 210.16461 209.98568 209.86274 209.80380 210.14787 210.54693 210.94899
 211.75506 212.94612 214.20919 216.00525 217.94631 220.00238 222.11044 224.20650
 226.27957 228.37663 230.48670 232.60576 234.74782 236.93289 239.20195 241.58501
 244.21908 246.48314 248.49820 250.27627 251.70633 252.84240 253.67746 254.00652
 254.05659 253.84365 253.21671 252.17778 250.79684 248.97091 246.89297 244.73903
 242.54310 240.36016 238.19322 236.04529 233.91835 231.79842 229.83748 228.00754
 226.30361 224.78867 223.43173 222.21680 221.11186 220.08493 219.20199 218.35605
 217.61112 216.80418 215.91524 215.29231 214.75537 214.57498 214.14882 214.84009
 215.66272 216.28448 217.02354 217.85632 218.96854 221.70583 226.63939 231.42506
 235.18721 238.61157 241.57751 244.44626 247.55516 250.77202 254.16200 257.59518
 260.74097 263.67111 266.52118 269.33984 271.95840 274.20859 276.06503 277.78479
 279.46219 281.03699 282.52161 283.87982 285.06247 286.11053 287.06586 287.93848
 288.73325 289.44897 290.07935 290.89566
 366.78100 356.34845 345.79391 334.67336 323.08981 311.29726 299.18072 286.99717
 274.72262 262.63308 250.65553 239.96998 230.10543 221.22289 213.41834 206.43379
 200.28124 195.23270 191.82815 189.88360 188.93406 189.01151 189.85996 191.18141
 192.91987 195.02832 197.30477 199.67723 202.13568 204.62913 206.73058 208.58604
 210.22549 211.38394 211.62640 211.86785 211.81830 211.53675 211.18321 210.82666
 210.45711 210.18057 210.00202 209.87947 209.82092 210.16538 210.56483 210.96728
 211.77373 212.96519 214.22864 216.02509 217.96655 220.02300 222.13145 224.22790
 226.30136 228.39881 230.50926 232.62872 234.77117 236.95662 239.22607 241.60953
 244.24398 246.50843 248.52389 250.30234 251.73279 252.86924 253.70470 254.03415
 254.08460 253.87206 253.24551 252.20696 250.82641 249.00087 246.92332 244.76977
 242.57422 240.39168 238.22513 236.07758 233.95104 231.83149 229.87094 228.04139
 226.33785 224.82330 223.46675 222.25221 221.14766 220.12111 219.23856 218.39302
 217.64847 216.84192 215.95338 215.33083 214.79428 214.59586 214.12703 214.87482
 215.81569 216.43205 217.11722 217.88885 218.97037 221.70831 226.64108 231.39061
 235.10127 238.46185 241.40692 244.30495 247.46211 250.72398 254.12555 257.54007
 260.66730 263.59326 266.45291 269.27966 271.89093 274.13239 276.00275 277.74023
 279.43689 281.01913 282.49219 283.84665 285.02722 286.07440 287.02722 287.89990
 288.69086 289.40869 290.03448 290.85486
 366.78100 356.34870 345.79440 334.67411 323.09081 311.29851 299.18221 286.99891
 274.72462 262.63532 250.65802 239.97272 230.10842 221.22613 213.42183 206.43753
 200.28523 195.23693 191.83264 189.88834 188.93904 189.01674 189.86544 191.18715
 192.92585 195.03455 197.31125 199.68395 202.14266 204.63636 206.73806 208.59376
 210.23346 211.39217 211.63487 211.87657 211.82727 211.54597 211.19268 210.83638
 210.46708 210.19078 210.01248 209.89019 209.83189 210.17659 210.57629 210.97899
 211.78570 212.97740 214.24110 216.03780 217.97950 220.03621 222.14491 224.24161
 226.31531 228.41301 230.52372 232.64342 234.78612 236.97182 239.24152 241.62523
 244.25993 246.52463 248.54033 250.31903 251.74974 252.88644 253.72214 254.05184
 254.10254 253.89024 253.26395 252.22565 250.84535 249.02005 246.94275 244.78946
 242.59416 240.41186 238.24556 236.09826 233.97197 231.85267 229.89237 228.06307
 226.35977 224.84548 223.48918 222.27488 221.17058 220.14428 219.26199 218.41669
 217.67239 216.86609 215.97779 215.35550 214.81920 214.61113 214.11952 214.89343
 215.94113 216.58379 217.23845 217.92873 218.95886 221.69910 226.63707 231.34875
 235.00676 238.30788 241.24239 244.18152 247.39433 250.69791 254.10255 257.49307
 260.60004 263.52124 266.38782 269.21646 271.81665 274.04929 275.92380 277.68668
 279.40140 280.99115 282.45706 283.80719 284.98636 286.03061 286.98608 287.85449
 288.64758 289.36160 289.98785 290.80740
 366.78100 356.34832 345.79364 334.67296 323.08928 311.29660 299.17992 286.99624
 274.72156 262.63188 250.65420 239.96852 230.10384 221.22116 213.41649 206.43181
 200.27913 195.23045 191.82577 189.88109 188.93141 189.00873 189.85705 191.17837
 192.91669 195.02501 197.30133 199.67365 202.13197 204.62529 206.72661 208.58193
 210.22125 211.37957 211.62189 211.86321 211.81353 211.53185 211.17817 210.82149
 210.45181 210.17513 209.99646 209.87378 209.81510 210.15942 210.55874 210.96106
 211.76738 212.95870 214.22202 216.01834 217.95966 220.01598 222.12430 224.22062
 226.29394 228.39126 230.50158 232.62090 234.76322 236.94854 239.21786 241.60118
 244.23550 246.49982 248.51514 250.29346 251.72378 252.86011 253.69543 254.02475
 254.07507 253.86239 253.23571 252.19703 250.81635 248.99067 246.91299 244.75931
 242.56363 240.38095 238.21427 236.06659 233.93991 231.82023 229.85955 228.02987
 226.32619 224.81151 223.45483 222.24015 221.13547 220.10879 219.22611 218.38043
 217.63575 216.82908 215.94040 215.31772 214.78104 214.58641 214.12660 214.94002
 216.06383 216.70718 217.32269 217.96663 218.98055 221.70871 226.63634 231.30650
 234.91006 238.15285 241.08386 244.07333 247.34718 250.68896 254.08835 257.44824
 260.53177 263.44708 266.31961 269.14664 271.73685 273.95865 275.84561 277.63666
 279.36087 280.95026 282.40839 283.74500 284.92017 285.96265 286.91342 287.78000
 288.56866 289.28003 289.89844 290.69791
 366.78100 356.34757 345.79213 334.67070 323.08626 311.29283 299.17539 286.99096
 274.71553 262.62509 250.64666 239.96022 230.09479 221.21136 213.40592 206.42049
 200.26705 195.21762 191.81218 189.86675 188.91632 188.99288 189.84045 191.16101
 192.89858 195.00615 197.28171 199.65328 202.11084 204.60341 206.70397 208.55854
 210.19711 211.35467 211.59624 211.83680 211.78637 211.50394 211.14950 210.79207
 210.42163 210.14420 209.96476 209.84133 209.78190 210.12546 210.52403 210.92559
 211.73116 212.92173 214.18429 215.97986 217.92042 219.97599 222.08355 224.17912
 226.25169 228.34825 230.45782 232.57638 234.71795 236.90251 239.17108 241.55365
 244.18721 246.45078 248.46534 250.24291 251.67248 252.80804 253.64261 253.97117
 254.02074 253.80730 253.17987 252.14044 250.75900 248.93257 246.85413 244.69970
 242.50327 240.31983 238.15240 236.00396 233.87653 231.75609 229.79466 227.96423
 226.25979 224.74436 223.38692 222.17149 221.06606 220.03862 219.15519 218.30875
 217.56332 216.75588 215.86645 215.24302 214.70558 214.53342 214.12665 215.00531
 216.20198 216.86052 217.45078 218.01051 218.97331 221.69449 226.62093 231.24785
 234.79306 237.97746 240.91261 243.96442 247.30515 250.68118 254.06885 257.39182
 260.44806 263.35776 266.23782 269.06348 271.63367 273.84396 275.76379 277.56125
 279.29526 280.89215 282.34729 283.66754 284.83652 285.87399 286.82333 287.68695
 288.47235 289.17758 289.79529 290.58603
 366.78100 356.34731 345.79163 334.66994 323.08525 311.29156 299.17388 286.98919
 274.71350 262.62282 250.64413 239.95744 230.09176 221.20807 213.40238 206.41669
 200.26301 195.21332 191.80763 189.86195 188.91126 188.98757 189.83489 191.15520
 192.89251 194.99982 197.27514 199.64645 202.10376 204.59608 206.69639 208.55070
 210.18902 211.34633 211.58764 211.82795 211.77727 211.49458 211.13989 210.78221
 210.41152 210.13383 209.95415 209.83046 209.77077 210.11408 210.51240 210.91371
 211.71902 212.90934 214.17165 215.96696 217.90727 219.96259 222.06990 224.16521
 226.23753 228.33384 230.44315 232.56147 234.70278 236.88709 239.15540 241.53772
 244.17103 246.43434 248.44866 250.22597 251.65528 252.79060 253.62491 253.95322
 254.00253 253.78885 253.16116 252.12147 250.73979 248.91310 246.83441 244.67973
 242.48304 240.29935 238.13166 235.98298 233.85529 231.73460 229.77292 227.94223
 226.23754 224.72186 223.36417 222.14848 221.04279 220.01511 219.13142 218.28473
 217.53905 216.73136 215.84167 215.21798 214.68030 214.50705 214.09773 215.05618
 216.36926 217.05278 217.60777 218.04128 218.94345 221.66235 226.59320 231.17445
 234.65910 237.78783 240.73523 243.85834 247.26910 250.67332 254.04289 257.32349
 260.35007 263.25732 266.15057 268.97241 271.51651 273.70844 275.64056 277.46210
 279.22537 280.83521 282.28238 283.58450 284.73721 285.76807 286.71124 287.57422
 288.35675 289.05984 289.67322 290.46286
 366.78100 356.34762 345.79224 334.67086 323.08648 311.29310 299.17572 286.99133
 274.71595 262.62557 250.64719 239.96081 230.09543 221.21205 213.40667 206.42129
 200.26791 195.21853 191.81315 189.86777 188.91738 188.99400 189.84162 191.16224
 192.89986 195.00748 197.28310 199.65472 202.11234 204.60496 206.70558 208.56020
 210.19882 211.35643 211.59805 211.83867 211.78829 211.50591 211.15153 210.79415
 210.42377 210.14639 209.96701 209.84363 209.78425 210.12787 210.52648 210.92810
 211.73372 212.92434 214.18696 215.98258 217.92320 219.97882 222.08644 224.18206
 226.25468 228.35130 230.46091 232.57953 234.72115 236.90577 239.17439 241.55701
 244.19063 246.45425 248.46887 250.24649 251.67611 252.81173 253.64635 253.97496
 254.02458 253.81120 253.18382 252.14444 250.76306 248.93668 246.85830 244.70392
 242.50754 240.32416 238.15678 236.00840 233.88101 231.76063 229.79925 227.96887
 226.26449 224.74911 223.39173 222.17635 221.07097 220.04359 219.16021 218.31383
 217.56845 216.76106 215.87168 215.24830 214.71092 214.51852 214.06395 215.07291
 216.52258 217.25233 217.77727 218.08879 218.92206 221.63339 226.56340 231.09702
 234.52406 237.60490 240.57240 243.77258 247.25655 250.68596 254.03087 257.26883
 260.26535 263.16733 266.06363 268.87027 271.39062 273.56860 275.48364 277.34906
 279.15302 280.76154 282.19601 283.47723 284.60858 285.62045 286.55554 287.41534
 288.19507 288.89664 289.50500 290.29282
 366.78100 356.34787 345.79275 334.67162 323.08749 311.29436 299.17724 286.99311
 274.71798 262.62785 250.64973 239.96360 230.09847 221.21534 213.41022 206.42509
 200.27196 195.22284 191.81771 189.87258 188.92245 188.99933 189.84720 191.16807
 192.90594 195.01382 197.28969 199.66156 202.11943 204.61231 206.71318 208.56805
 210.20693 211.36480 211.60667 211.84754 211.79742 211.51529 211.16116 210.80403
 210.43391 210.15678 209.97765 209.85452 209.79540 210.13927 210.53814 210.94002
 211.74589 212.93676 214.19963 215.99551 217.93638 219.99225 222.10012 224.19600
 226.26887 228.36574 230.47561 232.59449 234.73636 236.92123 239.19011 241.57298
 244.20685 246.47072 248.48560 250.26347 251.69334 252.82921 253.66409 253.99296
 254.04283 253.82970 253.20258 252.16345 250.78232 248.95620 246.87807 244.72394
 242.52781 240.34469 238.17756 236.02943 233.90230 231.78218 229.82105 227.99092
 226.28680 224.77167 223.41454 222.19941 221.09429 220.06716 219.18403 218.33790
 217.59278 216.78565 215.89652 215.27339 214.73627 214.53120 214.04671 215.08528
 216.63078 217.41498 217.91992 218.14096 218.91141 221.61475 226.53842 231.02448
 234.39862 237.44080 240.43785 243.72183 247.28639 250.74043 254.05745 257.25549
 260.22021 263.10815 265.99564 268.78467 271.29361 273.44940 275.32025 277.24115
 279.05850 280.64529 282.05377 283.30118 284.39883 285.38074 286.29071 287.14175
 287.91562 288.60852 289.21594 290.00540
 366.78100 356.34805 345.79311 334.67216 323.08821 311.29527 299.17832 286.99438
 274.71943 262.62948 250.65154 239.96559 230.10064 221.21770 213.41275 206.42780
 200.27486 195.22591 191.82097 189.87602 188.92607 189.00313 189.85118 191.17223
 192.91029 195.01834 197.29439 199.66645 202.12450 204.61756 206.71861 208.57366
 210.21272 211.37077 211.61282 211.85388 211.80393 211.52198 211.16804 210.81109
 210.44115 210.16420 209.98525 209.86231 209.80336 210.14741 210.54647 210.94852
 211.75457 212.94563 214.20868 216.00474 217.94579 220.00184 222.10990 224.20595
 226.27900 228.37606 230.48611 232.60516 234.74722 236.93227 239.20133 241.58438
 244.21843 246.48249 248.49754 250.27559 251.70565 252.84170 253.67675 254.00581
 254.05586 253.84292 253.21597 252.17702 250.79608 248.97013 246.89218 244.73824
 242.54229 240.35934 238.19240 236.04445 233.91751 231.79756 229.83661 228.00667
 226.30272 224.78777 223.43083 222.21588 221.11093 220.08399 219.20104 218.35510
 217.61015 216.80320 215.91426 215.29131 214.75436 214.53644 214.02155 215.11992
 216.73616 217.55037 218.02184 218.17091 218.89444 221.59532 226.51001 230.94542
 234.26682 237.27449 240.30859 243.68440 247.33734 250.82390 254.11627 257.27872
 260.21588 263.08896 265.96524 268.74396 271.24457 273.38034 275.19183 277.16122
 278.93741 280.48999 281.85413 283.05258 284.09406 285.02173 285.87540 286.69250
 287.45398 288.13239 288.73068 289.52771
 366.78100 356.34854 345.79408 334.67362 323.09016 311.29770 299.18124 286.99778
 274.72332 262.63386 250.65640 239.97094 230.10648 221.22402 213.41956 206.43510
 200.28264 195.23418 191.82972 189.88526 188.93580 189.01334 189.86188 191.18342
 192.92195 195.03049 197.30703 199.67957 202.13811 204.63165 206.73319 208.58873
 210.22827 211.38681 211.62935 211.87089 211.82143 211.53997 211.18651 210.83005
 210.46059 210.18413 210.00567 209.88321 209.82475 210.16929 210.56883 210.97137
 211.77791 212.96945 214.23299 216.02953 217.97107 220.02761 222.13615 224.23269
 226.30623 228.40377 230.51431 232.63385 234.77639 236.96193 239.23147 241.61501
 244.24955 246.51409 248.52963 250.30817 251.73871 252.87525 253.71078 254.04032
 254.09086 253.87840 253.25194 252.21348 250.83302 249.00756 246.93010 244.77664
 242.58118 240.39872 238.23226 236.08480 233.95834 231.83888 229.87842 228.04896
 226.34550 224.83104 223.47458 222.26012 221.15566 220.12920 219.24674 218.40128
 217.65682 216.85036 215.96190 215.33944 214.80298 214.55478 213.96838 215.15739
 216.88620 217.70801 218.12100 218.18800 218.86792 221.56647 226.46872 230.84421
 234.10608 237.07527 240.14983 243.62360 247.36241 250.88239 254.16081 257.29419
 260.21146 263.08218 265.96027 268.73062 271.21939 273.35950 275.17581 277.11612
 278.85400 280.37415 281.68329 282.81778 283.78674 284.63321 285.40878 286.18445
 286.93643 287.62213 288.22775 289.02808
 366.78100 356.34918 345.79536 334.67554 323.09272 311.30089 299.18507 287.00225
 274.72843 262.63961 250.66279 239.97797 230.11415 221.23233 213.42851 206.44468
 200.29286 195.24504 191.84122 189.89740 188.94858 189.02676 189.87594 191.19812
 192.93730 195.04647 197.32365 199.69683 202.15601 204.65019 206.75237 208.60855
 210.24873 211.40791 211.65109 211.89326 211.84444 211.56362 211.21080 210.85498
 210.48616 210.21034 210.03252 209.91070 209.85287 210.19805 210.59823 211.00141
 211.80859 213.00077 214.26495 216.06213 218.00431 220.06149 222.17066 224.26784
 226.34202 228.44020 230.55138 232.67156 234.81474 237.00092 239.27110 241.65528
 244.29045 246.55563 248.57181 250.35099 251.78217 252.91935 253.75553 254.08571
 254.13689 253.92507 253.29924 252.26142 250.88160 249.05678 246.97996 244.82714
 242.63232 240.45050 238.28468 236.13785 234.01203 231.89321 229.93339 228.10457
 226.40175 224.88793 223.53211 222.31829 221.21447 220.18864 219.30682 218.46200
 217.71818 216.91236 216.02454 215.40272 214.86690 214.58273 213.91135 215.17375
 217.05757 217.89458 218.25119 218.22676 218.85248 221.53630 226.41833 230.72604
 233.92224 236.85083 239.96661 243.53629 247.34842 250.88647 254.15431 257.26807
 260.17856 263.06458 265.95877 268.72101 271.20557 273.36154 275.13626 277.10992
 278.82932 280.33417 281.61017 282.69348 283.59521 284.35715 285.02948 285.77856
 286.54196 287.23950 287.85193 288.66293
 366.78100 356.34954 345.79608 334.67662 323.09416 311.30270 299.18724 287.00478
 274.73132 262.64286 250.66640 239.98195 230.11849 221.23703 213.43357 206.45011
 200.29865 195.25119 191.84773 189.90427 188.95581 189.03435 189.88389 191.20643
 192.94597 195.05551 197.33305 199.70659 202.16613 204.66067 206.76321 208.61975
 210.26029 211.41984 211.66338 211.90592 211.85746 211.57700 211.22454 210.86908
 210.50062 210.22516 210.04770 209.92624 209.86878 210.21432 210.61486 211.01840
 211.82594 213.01848 214.28302 216.08056 218.02310 220.08064 222.19018 224.28773
 226.36227 228.46081 230.57235 232.69289 234.83643 237.02297 239.29351 241.67805
 244.31359 246.57913 248.59567 250.37521 251.80675 252.94429 253.78083 254.11137
 254.16291 253.95145 253.32599 252.28853 250.90907 249.08462 247.00816 244.85570
 242.66124 240.47978 238.31432 236.16786 234.04240 231.92394 229.96448 228.13602
 226.43356 224.92010 223.56464 222.35118 221.24772 220.22226 219.34080 218.49634
 217.75288 216.94742 216.05996 215.43851 214.90305 214.59875 213.87985 215.17540
 217.19646 218.07249 218.39865 218.29425 218.86066 221.51704 226.37076 230.61118
 233.74724 236.64185 239.79973 243.45837 247.32724 250.86737 254.12204 257.22122
 260.12869 263.03043 265.94257 268.69873 271.18579 273.34164 275.10263 277.11972
 278.81110 280.30042 281.55817 282.60168 283.44775 284.14038 284.74167 285.49286
 286.26129 286.96472 287.57916 288.39767
 366.78100 356.34946 345.79592 334.67639 323.09385 311.30231 299.18677 287.00423
 274.73069 262.64216 250.66562 239.98108 230.11754 221.23600 213.43246 206.44893
 200.29739 195.24985 191.84631 189.90277 188.95423 189.03270 189.88216 191.20462
 192.94408 195.05354 197.33100 199.70447 202.16393 204.65839 206.76085 208.61731
 210.25778 211.41724 211.66070 211.90316 211.85462 211.57408 211.22155 210.86601
 210.49747 210.22193 210.04439 209.92285 209.86532 210.21078 210.61124 211.01470
 211.82216 213.01462 214.27909 216.07655 218.01901 220.07647 222.18593 224.28339
 226.35786 228.45632 230.56778 232.68824 234.83170 237.01816 239.28863 241.67309
 244.30855 246.57401 248.59047 250.36994 251.80140 252.93886 253.77532 254.10578
 254.15724 253.94571 253.32017 252.28263 250.90309 249.07855 247.00201 244.84948
 242.65494 240.47340 238.30786 236.16132 234.03578 231.91725 229.95771 228.12917
 226.42663 224.91309 223.55755 222.34402 221.24048 220.21494 219.33340 218.48886
 217.74533 216.93979 216.05225 215.43071 214.89517 214.59326 213.87993 215.17334
 217.29109 218.22250 218.53729 218.36926 218.87662 221.50317 226.32707 230.50418
 233.58774 236.45982 239.66490 243.40863 247.32741 250.86514 254.10046 257.17752
 260.07675 262.99258 265.91733 268.68130 271.18524 273.33826 275.04285 277.13351
 278.79718 280.25046 281.48007 282.48047 283.28452 283.93915 284.48825 285.22998
 286.00116 286.70721 287.32413 288.14929
 366.78100 356.34911 345.79523 334.67534 323.09246 311.30057 299.18468 287.00180
 274.72791 262.63902 250.66214 239.97725 230.11337 221.23148 213.42759 206.44371
 200.29182 195.24393 191.84005 189.89616 188.94728 189.02539 189.87450 191.19662
 192.93573 195.04485 197.32196 199.69507 202.15419 204.64830 206.75041 208.60653
 210.24664 211.40576 211.64887 211.89098 211.84210 211.56121 211.20833 210.85244
 210.48355 210.20767 210.02978 209.90789 209.85001 210.19512 210.59524 210.99835
 211.80546 212.99758 214.26169 216.05880 218.00092 220.05803 222.16715 224.26426
 226.33837 228.43649 230.54760 232.66772 234.81083 236.99694 239.26706 241.65117
 244.28628 246.55140 248.56751 250.34663 251.77774 252.91485 253.75097 254.08108
 254.13220 253.92031 253.29442 252.25654 250.87665 249.05176 246.97488 244.82199
 242.62711 240.44522 238.27933 236.13245 234.00656 231.88767 229.92779 228.09890
 226.39602 224.88213 223.52624 222.31236 221.20847 220.18259 219.30070 218.45581
 217.71193 216.90604 216.01815 215.39627 214.86038 214.57257 213.89259 215.18604
 217.36882 218.35275 218.65364 218.43251 218.88362 221.48393 226.27823 230.39229
 233.42773 236.28793 239.54822 243.37744 247.34203 250.87999 254.08414 257.13474
 260.03162 262.95392 265.88095 268.66046 271.17203 273.32513 275.05704 277.09137
 278.75296 280.16840 281.36072 282.32071 283.09851 283.73642 284.25226 284.98410
 285.75699 286.46771 287.08490 287.91385
 366.78100 356.34891 345.79483 334.67474 323.09166 311.29957 299.18348 287.00040
 274.72631 262.63723 250.66014 239.97505 230.11097 221.22888 213.42480 206.44071
 200.28863 195.24054 191.83645 189.89237 188.94328 189.02120 189.87011 191.19202
 192.93094 195.03985 197.31677 199.68968 202.14859 204.64251 206.74442 208.60034
 210.24025 211.39916 211.64208 211.88399 211.83491 211.55382 211.20074 210.84465
 210.47556 210.19948 210.02139 209.89931 209.84122 210.18613 210.58605 210.98896
 211.79588 212.98779 214.25170 216.04862 217.99053 220.04745 222.15636 224.25327
 226.32719 228.42510 230.53602 232.65593 234.79884 236.98476 239.25467 241.63859
 244.27350 246.53842 248.55433 250.33324 251.76416 252.90107 253.73699 254.06690
 254.11781 253.90573 253.27964 252.24156 250.86147 249.03638 246.95930 244.80621
 242.61113 240.42904 238.26295 236.11587 233.98978 231.87070 229.91061 228.08153
 226.37844 224.86435 223.50827 222.29418 221.19010 220.16401 219.28192 218.43684
 217.69275 216.88667 215.99858 215.37649 214.84041 214.56010 213.89783 215.22279
 217.44115 218.47015 218.75867 218.48997 218.88252 221.46027 226.22679 230.27722
 233.26613 236.12065 239.44238 243.35683 247.36011 250.90125 254.06786 257.09546
 259.98547 262.90417 265.83420 268.61136 271.11243 273.28775 275.09375 277.00900
 278.67007 280.05951 281.21561 282.14648 282.90619 283.53955 284.05191 284.77344
 285.54489 286.25699 286.87457 287.70593
 366.78100 356.34876 345.79452 334.67428 323.09104 311.29880 299.18256 286.99932
 274.72508 262.63584 250.65860 239.97336 230.10912 221.22688 213.42264 206.43839
 200.28615 195.23791 191.83367 189.88943 188.94019 189.01795 189.86671 191.18847
 192.92723 195.03599 197.31275 199.68551 202.14427 204.63803 206.73979 208.59555
 210.23531 211.39407 211.63683 211.87859 211.82935 211.54811 211.19487 210.83863
 210.46939 210.19315 210.01491 209.89267 209.83443 210.17918 210.57894 210.98170
 211.78846 212.98022 214.24398 216.04074 217.98250 220.03926 222.14802 224.24478
 226.31854 228.41630 230.52706 232.64682 234.78958 236.97534 239.24510 241.62886
 244.26362 246.52838 248.54414 250.32290 251.75366 252.89042 253.72618 254.05594
 254.10670 253.89446 253.26822 252.22997 250.84973 249.02449 246.94725 244.79401
 242.59877 240.41653 238.25029 236.10305 233.97681 231.85757 229.89733 228.06809
 226.36485 224.85061 223.49437 222.28013 221.17589 220.14965 219.26741 218.42217
 217.67793 216.87169 215.98345 215.36121 214.82497 214.55106 213.90390 215.26065
 217.51088 218.58409 218.85094 218.54343 218.88713 221.43942 226.17445 230.16075
 233.10693 235.96056 239.34569 243.34349 247.39183 250.92950 254.05618 257.05200
 259.93381 262.85764 265.79376 268.55048 271.04892 273.24445 275.11694 276.93887
 278.57535 279.93973 281.06339 281.97705 282.73224 283.36432 283.85938 284.63748
 285.42593 286.14395 286.76154 287.59457
 366.78100 356.34835 345.79370 334.67305 323.08940 311.29675 299.18010 286.99645
 274.72179 262.63214 250.65449 239.96884 230.10419 221.22154 213.41689 206.43224
 200.27959 195.23094 191.82629 189.88164 188.93199 189.00934 189.85769 191.17904
 192.91738 195.02573 197.30208 199.67443 202.13278 204.62613 206.72748 208.58283
 210.22218 211.38053 211.62288 211.86423 211.81458 211.53293 211.17928 210.82262
 210.45297 210.17632 209.99767 209.87502 209.81637 210.16072 210.56007 210.96242
 211.76877 212.96012 214.22347 216.01982 217.96117 220.01752 222.12587 224.22221
 226.29556 228.39291 230.50326 232.62261 234.76496 236.95031 239.21966 241.60301
 244.23736 246.50171 248.51706 250.29541 251.72576 252.86211 253.69745 254.02680
 254.07715 253.86450 253.23785 252.19920 250.81855 248.99290 246.91525 244.76160
 242.56595 240.38330 238.21665 236.06900 233.94235 231.82270 229.86204 228.03239
 226.32874 224.81409 223.45744 222.24279 221.13814 220.11149 219.22884 218.38319
 217.63854 216.83189 215.94324 215.32059 214.78394 214.53230 213.93782 215.27216
 217.57448 218.68997 218.95018 218.59036 218.87144 221.40550 226.11900 230.04572
 232.94962 235.80763 239.25945 243.33018 247.42972 250.96240 254.05376 257.01962
 259.90723 262.83981 265.76147 268.50381 271.00195 273.20697 275.11273 276.90234
 278.49124 279.82376 280.91245 281.80682 282.54156 283.16507 283.73404 284.53897
 285.31561 286.00671 286.62216 287.44604
 366.78100 356.34789 345.79279 334.67168 323.08758 311.29447 299.17737 286.99326
 274.71816 262.62805 250.64994 239.96384 230.09873 221.21563 213.41052 206.42542
 200.27231 195.22321 191.81810 189.87300 188.92289 188.99978 189.84768 191.16857
 192.90647 195.01436 197.29026 199.66215 202.12005 204.61294 206.71383 208.56873
 210.20762 211.36552 211.60741 211.84831 211.79820 211.51610 211.16199 210.80489
 210.43478 210.15767 209.97857 209.85546 209.79636 210.14025 210.53915 210.94104
 211.74694 212.93783 214.20072 215.99662 217.93751 219.99341 222.10130 224.19720
 226.27009 228.36699 230.47688 232.59577 234.73767 236.92256 239.19146 241.57435
 244.20825 246.47214 248.48704 250.26493 251.69483 252.83072 253.66561 253.99451
 254.04440 253.83130 253.20419 252.16509 250.78398 248.95788 246.87977 244.72566
 242.52956 240.34645 238.17935 236.03124 233.90414 231.78403 229.82293 227.99282
 226.28872 224.77361 223.41650 222.20140 221.09629 220.06919 219.18608 218.33998
 217.59487 216.78777 215.89866 215.27555 214.73845 214.51845 213.99866 215.25923
 217.63780 218.78636 219.00038 218.62555 218.87047 221.37570 226.05757 229.91748
 232.78656 235.65677 239.17558 243.31598 247.49120 250.98990 254.04997 256.99988
 259.90533 262.84296 265.74182 268.47244 270.97095 273.19028 275.11697 276.91098
 278.44559 279.73367 280.78900 281.65393 282.35727 282.97452 283.60556 284.40683
 285.16373 285.76364 286.36096 287.19247
 366.78100 356.34738 345.79176 334.67014 323.08551 311.29189 299.17427 286.98965
 274.71403 262.62341 250.64478 239.95816 230.09254 221.20892 213.40330 206.41768
 200.26406 195.21443 191.80881 189.86319 188.91257 188.98895 189.83633 191.15670
 192.89408 195.00146 197.27684 199.64822 202.10560 204.59797 206.69835 208.55273
 210.19111 211.34849 211.58987 211.83025 211.77962 211.49700 211.14238 210.78476
 210.41414 210.13652 209.95689 209.83327 209.77365 210.11703 210.51541 210.91679
 211.72217 212.91254 214.17492 215.97030 217.91068 219.96606 222.07344 224.16881
 226.24119 228.33757 230.44695 232.56533 234.70671 236.89108 239.15946 241.54184
 244.17522 246.43860 248.45298 250.23036 251.65973 252.79511 253.62949 253.95787
 254.00725 253.79363 253.16600 252.12638 250.74476 248.91814 246.83952 244.68490
 242.48828 240.30465 238.13703 235.98841 233.86079 231.74017 229.77855 227.94792
 226.24330 224.72768 223.37006 222.15444 221.04882 220.02119 219.13757 218.29095
 217.54533 216.73771 215.84809 215.22447 214.68684 214.50270 214.06764 215.24477
 217.68083 218.91486 219.08128 218.61728 218.82193 221.32143 225.98816 229.79176
 232.62088 235.50980 239.10237 243.31056 247.53258 251.01224 254.05276 256.99274
 259.90585 262.85077 265.73831 268.45157 270.95007 273.18619 275.14227 276.93930
 278.42435 279.65924 280.67313 281.50980 282.19040 282.80655 283.45450 284.26822
 285.02948 285.64490 286.24155 287.06445
 366.78100 356.34631 345.78962 334.66693 323.08125 311.28656 299.16787 286.98218
 274.70549 262.61380 250.63411 239.94643 230.07974 221.19505 213.38836 206.40167
 200.24698 195.19629 191.78961 189.84292 188.89123 188.96654 189.81285 191.13216
 192.86847 194.97478 197.24910 199.61941 202.07572 204.56703 206.66634 208.51965
 210.15696 211.31328 211.55359 211.79290 211.74121 211.45752 211.10183 210.74314
 210.37146 210.09277 209.91208 209.78739 209.72670 210.06901 210.46632 210.86664
 211.67095 212.86026 214.12157 215.91588 217.85519 219.90950 222.01582 224.11013
 226.18144 228.27675 230.38506 232.50237 234.64268 236.82599 239.09331 241.47462
 244.10693 246.36924 248.38255 250.15886 251.58717 252.72149 253.55480 253.88211
 253.93042 253.71573 253.08704 252.04635 250.66367 248.83598 246.75629 244.60060
 242.40291 240.21822 238.04953 235.89985 233.77116 231.64947 229.68678 227.85509
 226.14940 224.63271 223.27403 222.05734 220.95065 219.92196 219.03727 218.18958
 217.44289 216.63420 215.74352 215.11883 214.58014 214.45462 214.15810 215.24487
 217.67493 219.02914 219.17307 218.59790 218.75877 221.26183 225.92058 229.67155
 232.46799 235.37921 239.03996 243.32260 247.59805 251.04352 254.05565 256.97723
 259.89273 262.84479 265.74136 268.43112 270.93195 273.18011 275.16660 276.95282
 278.39331 279.57709 280.55353 281.36899 282.04037 282.65283 283.32031 284.15189
 284.93436 285.58685 286.18631 287.00537
 366.78100 356.34447 345.78595 334.66142 323.07390 311.27737 299.15684 286.96932
 274.69079 262.59727 250.61574 239.92621 230.05769 221.17116 213.36263 206.37411
 200.21758 195.16506 191.75653 189.80800 188.85448 188.92795 189.77243 191.08990
 192.82437 194.92885 197.20132 199.56980 202.02427 204.51374 206.61122 208.46269
 210.09817 211.25264 211.49111 211.72859 211.67506 211.38954 211.03201 210.67148
 210.29796 210.01743 209.83490 209.70838 209.64585 209.98633 210.38180 210.78027
 211.58275 212.77022 214.02970 215.82217 217.75964 219.81212 221.91659 224.00907
 226.07854 228.17201 230.27849 232.39396 234.53244 236.71391 238.97938 241.35886
 243.98933 246.24981 248.26128 250.03575 251.46223 252.59470 253.42617 253.75165
 253.79812 253.58160 252.95107 251.90854 250.52402 248.69449 246.61297 244.45544
 242.25591 240.06939 237.89886 235.74734 233.61681 231.49328 229.52876 227.69523
 225.98771 224.46918 223.10865 221.89013 220.78160 219.75108 218.86455 218.01502
 217.26650 216.45597 215.56344 214.93692 214.39639 214.36369 214.28642 215.27734
 217.60301 219.08841 219.25349 218.57539 218.68991 221.19952 225.85614 229.56709
 232.33582 235.28032 239.00893 243.36226 247.65309 251.09189 254.06873 256.97952
 259.90869 262.86569 265.75986 268.42740 270.92130 273.17813 275.18512 276.93753
 278.34549 279.49823 280.43295 281.21252 281.86435 282.48456 283.15726 283.99487
 284.79404 285.47150 286.07632 286.90070
 366.78100 356.34266 345.78232 334.65599 323.06665 311.26831 299.14597 286.95664
 274.67630 262.58096 250.59762 239.90629 230.03595 221.14761 213.33727 206.34694
 200.18860 195.13426 191.72392 189.77359 188.81825 188.88991 189.73257 191.04824
 192.78090 194.88356 197.15422 199.52088 201.97355 204.46121 206.55687 208.40653
 210.04020 211.19286 211.42952 211.66518 211.60985 211.32251 210.96317 210.60083
 210.22550 209.94316 209.75882 209.63048 209.56615 209.90481 210.29847 210.69513
 211.49580 212.68146 213.93912 215.72978 217.66545 219.71611 221.81877 223.90943
 225.97709 228.06876 230.17342 232.28708 234.42374 236.60341 238.86707 241.24473
 243.87339 246.13206 248.14172 249.91438 251.33904 252.46971 253.29937 253.62303
 253.66769 253.44936 252.81702 251.77268 250.38634 248.55501 246.47167 244.31233
 242.11099 239.92265 237.75032 235.59698 233.46464 231.33930 229.37297 227.53763
 225.82829 224.30795 222.94562 221.72528 220.61494 219.58260 218.69427 217.84293
 217.09259 216.28025 215.38592 214.75758 214.21524 214.27322 214.41022 215.34608
 217.51048 219.08827 219.30016 218.55342 218.61813 221.12958 225.78000 229.43422
 232.18837 235.17418 238.97079 243.39619 247.71294 251.17749 254.13760 257.06757
 260.01117 262.94736 265.80545 268.43665 270.90570 273.15506 275.15964 276.88855
 278.24933 279.35080 280.26825 281.05719 281.69772 282.29495 283.17627 284.04095
 284.68024 285.18454 285.78201 286.62009
 366.78100 356.34187 345.78075 334.65362 323.06350 311.26437 299.14124 286.95112
 274.66999 262.57386 250.58974 239.89761 230.02649 221.13736 213.32623 206.33511
 200.17598 195.12086 191.70973 189.75860 188.80248 188.87335 189.71522 191.03010
 192.76197 194.86385 197.13372 199.49959 201.95147 204.43834 206.53321 208.38209
 210.01496 211.16684 211.40271 211.63758 211.58146 211.29333 210.93321 210.57008
 210.19395 209.91083 209.72570 209.59657 209.53145 209.86932 210.26220 210.65807
 211.45794 212.64282 213.89969 215.68957 217.62444 219.67431 221.77619 223.86606
 225.93293 228.02381 230.12768 232.24056 234.37643 236.55530 238.81818 241.19505
 243.82293 246.08080 248.08967 249.86155 251.28542 252.41529 253.24417 253.56704
 253.61092 253.39179 252.75866 251.71354 250.32641 248.49428 246.41016 244.25003
 242.04791 239.85878 237.68565 235.53153 233.39840 231.27228 229.30515 227.46902
 225.75890 224.23777 222.87464 221.65352 220.54239 219.50927 218.62014 217.76801
 217.01689 216.20376 215.30864 214.67951 214.13638 214.23804 214.47823 215.43794
 217.45207 219.06427 219.34528 218.57407 218.59637 221.07495 225.69666 229.29587
 232.01569 235.05231 238.92915 243.41696 247.75081 251.23967 254.18489 257.12653
 260.07062 262.99936 265.80566 268.40527 270.83167 273.07697 275.07938 276.78970
 278.15439 279.20410 280.11377 280.90604 281.53152 282.14752 283.05441 283.91537
 284.56079 285.14130 285.74323 286.57645
 366.78100 356.34247 345.78195 334.65542 323.06589 311.26736 299.14484 286.95531
 274.67478 262.57925 250.59573 239.90420 230.03367 221.14515 213.33462 206.34409
 200.18556 195.13104 191.72051 189.76998 188.81445 188.88593 189.72840 191.04387
 192.77635 194.87882 197.14929 199.51576 201.96824 204.45571 206.55118 208.40065
 210.03413 211.18660 211.42307 211.65855 211.60302 211.31549 210.95596 210.59344
 210.21791 209.93538 209.75085 209.62233 209.55780 209.89627 210.28975 210.68622
 211.48669 212.67216 213.92964 215.72011 217.65558 219.70606 221.80853 223.89900
 225.96647 228.05795 230.16242 232.27589 234.41236 236.59184 238.85531 241.23278
 243.86126 246.11973 248.12920 249.90167 251.32615 252.45662 253.28609 253.60956
 253.65404 253.43551 252.80298 251.75846 250.37193 248.54040 246.45687 244.29735
 242.09582 239.90729 237.73476 235.58124 233.44871 231.32318 229.35666 227.52113
 225.81160 224.29107 222.92855 221.70802 220.59749 219.56496 218.67644 217.82491
 217.07438 216.26186 215.36733 214.73880 214.19627 214.28214 214.48499 215.48926
 217.51488 219.11644 219.38974 218.56616 218.55630 221.02161 225.61923 229.14886
 231.86360 234.94080 238.91101 243.44742 247.75385 251.21088 254.15364 257.14368
 260.10660 263.01718 265.79388 268.33118 270.73755 272.97861 274.97940 276.69879
 278.02615 279.06879 279.95169 280.70413 281.28125 282.02289 282.98508 283.86969
 284.21957 284.58044 285.00375 285.66666
 366.78100 356.34320 345.78339 334.65759 323.06878 311.27098 299.14917 286.96037
 274.68056 262.58576 250.60295 239.91215 230.04234 221.15454 213.34473 206.35493
 200.19712 195.14332 191.73351 189.78371 188.82890 188.90110 189.74429 191.06049
 192.79368 194.89688 197.16807 199.53527 201.98846 204.47666 206.57285 208.42305
 210.05724 211.21044 211.44763 211.68383 211.62902 211.34222 210.98341 210.62161
 210.24680 209.96500 209.78119 209.65339 209.58958 209.92878 210.32297 210.72017
 211.52136 212.70756 213.96575 215.75695 217.69314 219.74434 221.84753 223.93873
 226.00692 228.09912 230.20432 232.31851 234.45571 236.63590 238.90010 241.27829
 243.90749 246.16668 248.17688 249.95007 251.37527 252.50646 253.33666 253.66085
 253.70605 253.48824 252.85644 251.81263 250.42683 248.59602 246.51322 244.35441
 242.15361 239.96580 237.79400 235.64119 233.50939 231.38458 229.41878 227.58397
 225.87517 224.35536 222.99356 221.77375 220.66395 219.63214 218.74434 217.89353
 217.14373 216.33192 215.43812 214.81031 214.26851 214.34761 214.53450 215.43254
 217.50784 219.15024 219.40253 218.48401 218.36526 220.85605 225.50415 229.03770
 231.67683 234.78514 238.87520 243.48592 247.76782 251.22766 254.20586 257.17407
 260.13940 263.04800 265.80750 268.32547 270.69379 272.90933 274.89450 276.57428
 277.86365 278.85571 279.66721 280.33279 280.96527 281.90219 282.76447 283.21991
 283.77713 284.44327 285.04938 285.82181
 366.78100 356.33970 345.77639 334.64709 323.05479 311.25349 299.12818 286.93588
 274.65258 262.55428 250.56797 239.87367 230.00037 221.10907 213.29576 206.30246
 200.14116 195.08385 191.67055 189.71725 188.75895 188.82764 189.66734 190.98004
 192.70974 194.80943 197.07713 199.44083 201.89052 204.37522 206.46792 208.31462
 209.94531 211.09501 211.32871 211.56141 211.50310 211.21280 210.85050 210.48520
 210.10689 209.82159 209.63429 209.50298 209.43568 209.77138 210.16208 210.55577
 211.35347 212.53617 213.79087 215.57856 217.51126 219.55896 221.65866 223.74635
 225.81105 227.89975 230.00144 232.11214 234.24584 236.42254 238.68323 241.05793
 243.68363 245.93933 247.94602 249.71572 251.13742 252.26511 253.09181 253.41251
 253.45421 253.23290 252.59760 251.55030 250.16100 248.32669 246.24039 244.07809
 241.87379 239.68248 237.50718 235.35088 233.21557 231.08727 229.11797 227.27967
 225.56736 224.04406 222.67876 221.45546 220.34215 219.30685 218.41555 217.56125
 216.80794 215.99264 215.09534 214.46403 213.91873 214.19283 214.84407 215.50323
 216.99329 218.80650 219.39383 218.64201 218.46062 220.86087 225.42941 229.01610
 231.60083 234.78033 238.91714 243.51358 247.74130 251.25084 254.31946 257.30600
 260.27597 263.17682 265.91287 268.41690 270.76080 272.93347 274.89633 276.53745
 277.77048 278.70587 279.44931 280.06494 280.81107 281.58774 282.16162 283.00195
 283.79990 284.51047 285.13120 285.92224
 366.78100 356.33490 345.76681 334.63271 323.03562 311.22952 299.09943 286.90233
 274.61424 262.51114 250.52005 239.82095 229.94286 221.04676 213.22867 206.23057
 200.06448 195.00238 191.58429 189.62619 188.66310 188.72700 189.56191 190.86981
 192.59472 194.68962 196.95253 199.31143 201.75634 204.23624 206.32415 208.16605
 209.79195 210.93686 211.16576 211.39367 211.33057 211.03548 210.66838 210.29829
 209.91519 209.62510 209.43300 209.29691 209.22481 209.55572 209.94162 210.33053
 211.12343 212.30134 213.55124 215.33415 217.26205 219.30496 221.39986 223.48277
 225.54267 227.62658 229.72348 231.82939 233.95829 236.13020 238.38610 240.75600
 243.37691 245.62781 247.62972 249.39462 250.81153 251.93443 252.75634 253.07224
 253.10915 252.88305 252.24296 251.19086 249.79677 247.95767 245.86658 243.69948
 241.49039 239.29429 237.11420 234.95310 232.81301 230.67991 228.70582 226.86272
 225.14563 223.61753 222.24744 221.01934 219.90124 218.86115 217.96505 217.10596
 216.34786 215.52777 214.62567 213.98958 213.43948 213.93983 215.12195 215.78566
 216.51691 218.41074 219.32893 218.81223 218.74072 221.02693 225.52776 228.99249
 231.59979 234.76945 238.95450 243.59708 247.79355 251.28117 254.35619 257.34290
 260.31091 263.20782 265.96075 268.47119 270.80536 273.00180 274.95538 276.61990
 277.91110 278.87305 279.64032 280.29398 280.84174 281.67612 282.53564 283.09299
 283.85690 284.65393 285.37274 286.28876
 366.78100 356.33713 345.77127 334.63940 323.04453 311.24066 299.11280 286.91793
 274.63206 262.53120 250.54233 239.84546 229.96960 221.07573 213.25986 206.26399
 200.10013 195.04026 191.62439 189.66853 188.70766 188.77379 189.61092 190.92106
 192.64819 194.74532 197.01046 199.37159 201.81872 204.30085 206.39099 208.23512
 209.86325 211.01039 211.24152 211.47165 211.41079 211.11792 210.75305 210.38518
 210.00432 209.71645 209.52658 209.39272 209.32285 209.65598 210.04411 210.43525
 211.23038 212.41051 213.66265 215.44778 217.37791 219.42305 221.52018 223.60531
 225.66744 227.75358 229.85271 231.96084 234.09198 236.26611 238.52424 240.89637
 243.51951 245.77264 247.77677 249.54391 250.96304 252.08817 252.91230 253.23044
 253.26957 253.04570 252.40784 251.35797 249.96610 248.12924 246.04037 243.87550
 241.66863 239.47477 237.29690 235.13803 233.00017 230.86930 228.89743 227.05656
 225.34170 223.81583 222.44796 221.22210 220.10623 219.06836 218.17449 217.31763
 216.56176 215.74389 214.84403 214.21016 213.66229 214.05705 214.98975 216.02075
 216.73752 218.33542 219.16873 218.72684 218.80942 221.06175 225.44460 228.81914
 231.47629 234.75938 238.98514 243.57449 247.69569 251.17058 254.28568 257.29831
 260.27209 263.16269 265.90179 268.40283 270.75052 272.96548 274.96548 276.67444
 278.02081 279.06073 279.87296 280.56796 281.34546 282.22021 282.92307 283.36914
 283.77826 284.44366 285.07797 286.01633
 366.78100 356.34207 345.78113 334.65420 323.06427 311.26534 299.14240 286.95247
 274.67154 262.57560 250.59167 239.89974 230.02881 221.13987 213.32894 206.33801
 200.17907 195.12414 191.71321 189.76228 188.80634 188.87741 189.71948 191.03454
 192.76661 194.86868 197.13875 199.50481 201.95688 204.44395 206.53901 208.38808
 210.02115 211.17322 211.40928 211.64435 211.58842 211.30048 210.94055 210.57762
 210.20169 209.91875 209.73382 209.60489 209.53996 209.87802 210.27109 210.66716
 211.46722 212.65229 213.90936 215.69943 217.63449 219.68456 221.78663 223.87669
 225.94376 228.03483 230.13890 232.25196 234.38803 236.56710 238.83016 241.20723
 243.83530 246.09337 248.10243 249.87450 251.29857 252.42863 253.25770 253.58077
 253.62484 253.40590 252.77297 251.72804 250.34110 248.50917 246.42524 244.26531
 242.06337 239.87444 237.70151 235.54757 233.41464 231.28871 229.32178 227.48584
 225.77591 224.25498 222.89204 221.67111 220.56018 219.52725 218.63831 217.78638
 217.03545 216.22251 215.32758 214.69865 214.15572 214.34883 214.80508 215.91310
 217.09384 218.57172 219.20625 218.58733 218.63579 220.93213 225.30708 228.60179
 231.28265 234.63901 238.97037 243.59380 247.66348 251.11591 254.26300 257.33517
 260.32605 263.20050 265.89450 268.36063 270.68738 272.92831 274.89151 276.61307
 278.00510 279.12787 279.99545 280.78769 281.74506 282.42200 283.05850 283.57742
 284.08496 284.74344 285.36893 286.30420
 366.78100 356.34215 345.78130 334.65445 323.06460 311.26576 299.14291 286.95306
 274.67221 262.57636 250.59251 239.90066 230.02981 221.14097 213.33012 206.33927
 200.18042 195.12557 191.71472 189.76387 188.80802 188.87918 189.72133 191.03648
 192.76863 194.87078 197.14093 199.50708 201.95923 204.44639 206.54154 208.39069
 210.02384 211.17599 211.41214 211.64729 211.59144 211.30360 210.94375 210.58090
 210.20505 209.92220 209.73735 209.60850 209.54365 209.88181 210.27496 210.67111
 211.47126 212.65641 213.91356 215.70371 217.63886 219.68902 221.79117 223.88132
 225.94847 228.03962 230.14377 232.25692 234.39307 236.57223 238.83538 241.21253
 243.84068 246.09883 248.10798 249.88013 251.30428 252.43444 253.26359 253.58674
 253.63089 253.41204 252.77919 251.73434 250.34749 248.51565 246.43180 244.27195
 242.07010 239.88125 237.70840 235.55455 233.42170 231.29586 229.32901 227.49316
 225.78331 224.26246 222.89961 221.67876 220.56791 219.53506 218.64622 217.79437
 217.04352 216.23067 215.33582 214.70697 214.16412 214.40376 214.97003 215.66830
 217.07155 218.72461 219.28700 218.44356 218.35641 220.72050 225.17958 228.50198
 231.07010 234.48755 238.95734 243.65091 247.68941 251.12495 254.30913 257.42990
 260.44623 263.31454 265.97351 268.40015 270.67691 272.81259 274.73160 276.44150
 277.85446 279.01767 279.96487 280.89331 281.80280 282.51096 283.15924 283.77472
 284.34451 284.93219 285.44559 286.09985
 366.78100 356.34063 345.77827 334.64990 323.05853 311.25816 299.13380 286.94243
 274.66006 262.56270 250.57733 239.88396 230.01160 221.12123 213.30886 206.31649
 200.15613 195.09976 191.68739 189.73503 188.77766 188.84729 189.68793 191.00156
 192.73219 194.83282 197.10146 199.46609 201.91672 204.40236 206.49599 208.34362
 209.97526 211.12589 211.36052 211.59415 211.53679 211.24742 210.88605 210.52169
 210.14432 209.85995 209.67359 209.54322 209.47685 209.81348 210.20512 210.59975
 211.39838 212.58202 213.83765 215.62628 217.55992 219.60855 221.70918 223.79781
 225.86345 227.95308 230.05571 232.16735 234.30198 236.47961 238.74125 241.11688
 243.74351 246.00014 248.00778 249.77841 251.20104 252.32968 253.15731 253.47894
 253.52157 253.30121 252.66684 251.62047 250.23211 248.39874 246.31337 244.15201
 241.94864 239.75827 237.58390 235.42854 233.29417 231.16680 229.19844 227.36107
 225.64970 224.12734 222.76297 221.54060 220.42823 219.39387 218.50350 217.65013
 216.89777 216.08340 215.18703 214.55667 214.01230 214.37106 215.21037 215.68629
 216.73863 218.32111 219.06464 218.46947 218.51993 220.79274 225.05984 228.56110
 231.12358 234.63594 239.04218 243.62642 247.65491 251.13593 254.37784 257.51810
 260.53683 263.39114 266.02707 268.42282 270.67401 272.70944 274.57013 276.30838
 277.73422 278.88934 279.99762 281.01636 281.83209 282.48407 283.23938 283.97299
 284.63275 285.22028 285.73355 286.38763
 366.78100 356.33982 345.77665 334.64747 323.05530 311.25412 299.12894 286.93677
 274.65359 262.55542 250.56924 239.87507 230.00189 221.11071 213.29754 206.30436
 200.14319 195.08601 191.67283 189.71966 188.76148 188.83031 189.67013 190.98295
 192.71278 194.81260 197.08043 199.44425 201.89408 204.37890 206.47172 208.31855
 209.94937 211.09920 211.33302 211.56584 211.50767 211.21749 210.85532 210.49014
 210.11196 209.82679 209.63961 209.50844 209.44126 209.77709 210.16791 210.56173
 211.35956 212.54238 213.79721 215.58503 217.51785 219.56568 221.66550 223.75333
 225.81815 227.90697 230.00880 232.11962 234.25345 236.43027 238.69110 241.06592
 243.69174 245.94757 247.95439 249.72422 251.14604 252.27386 253.10069 253.42151
 253.46334 253.24216 252.60698 251.55981 250.17063 248.33646 246.25028 244.08811
 241.88393 239.69275 237.51758 235.36140 233.22623 231.09805 229.12887 227.29070
 225.57852 224.05535 222.69017 221.46699 220.35382 219.31864 218.42747 217.57329
 216.82012 216.00494 215.10776 214.47659 213.93141 214.37238 215.37318 215.76878
 216.64075 218.05309 218.95448 218.68182 218.90347 221.04175 225.15605 228.62543
 231.25058 234.75774 239.14244 243.67094 247.64560 251.10703 254.36008 257.53201
 260.56369 263.41309 266.03894 268.43976 270.64804 272.59015 274.38898 276.20557
 277.60141 278.89423 280.00388 280.93777 282.00229 282.96585 283.84497 284.64139
 285.35767 285.99551 286.55273 287.26285
 366.78100 356.33708 345.77115 334.63923 323.04431 311.24038 299.11246 286.91754
 274.63162 262.53069 250.54177 239.84485 229.96892 221.07500 213.25908 206.26315
 200.09923 195.03931 191.62338 189.66746 188.70654 188.77262 189.60969 190.91977
 192.64685 194.74392 197.00900 199.37008 201.81715 204.29923 206.38931 208.23338
 209.86146 211.00854 211.23962 211.46969 211.40877 211.11585 210.75092 210.38300
 210.00208 209.71415 209.52423 209.39031 209.32038 209.65346 210.04154 210.43262
 211.22769 212.40777 213.65985 215.44492 217.37500 219.42008 221.51715 223.60223
 225.66431 227.75038 229.84946 231.95754 234.08862 236.26269 238.52077 240.89285
 243.51592 245.76900 247.77308 249.54015 250.95923 252.08431 252.90838 253.22646
 253.26554 253.04162 252.40369 251.35377 249.96185 248.12492 246.03600 243.87108
 241.66415 239.47023 237.29231 235.13338 232.99546 230.86454 228.89262 227.05169
 225.33677 223.81085 222.44292 221.21700 220.10108 219.06315 218.16923 217.31231
 216.55638 215.73846 214.83854 214.20462 213.65669 214.27982 215.61211 215.75746
 216.42979 217.86581 219.00621 218.95131 219.16350 221.18680 225.24490 228.57584
 231.20093 234.71332 239.15196 243.65955 247.57393 251.04910 254.36162 257.56726
 260.61060 263.47101 266.09891 268.49603 270.65884 272.53256 274.16205 275.93735
 277.45462 278.68283 280.00644 281.26837 282.36047 283.32672 284.20825 285.00687
 285.72513 286.36475 286.92352 287.63559
 366.78100 356.33627 345.76954 334.63681 323.04108 311.23635 299.10762 286.91189
 274.62516 262.52343 250.53370 239.83598 229.95925 221.06452 213.24779 206.25106
 200.08633 195.02560 191.60887 189.65214 188.69041 188.75568 189.59195 190.90122
 192.62749 194.72376 196.98803 199.34830 201.79457 204.27584 206.36511 208.20839
 209.83566 210.98193 211.21220 211.44147 211.37974 211.08601 210.72028 210.35155
 209.96982 209.68109 209.49036 209.35563 209.28490 209.61717 210.00444 210.39471
 211.18898 212.36825 213.61952 215.40380 217.33307 219.37734 221.47361 223.55788
 225.61915 227.70442 229.80269 231.90996 234.04023 236.21350 238.47077 240.84204
 243.46431 245.71658 247.71985 249.48612 250.90439 252.02866 252.85193 253.16921
 253.20748 252.98275 252.34402 251.29329 249.90056 248.06283 245.97310 243.80737
 241.59964 239.40491 237.22618 235.06645 232.92772 230.79599 228.82326 226.98153
 225.26580 223.73907 222.37034 221.14362 220.02689 218.98816 218.09343 217.23570
 216.47897 215.66024 214.75951 214.12478 213.57605 214.26961 215.74312 215.85143
 216.14096 217.56363 219.00652 219.14975 219.30319 221.22362 225.31171 228.53279
 231.13217 234.68773 239.13982 243.62157 247.53845 251.04802 254.41603 257.66418
 260.72552 263.59354 266.24323 268.66013 270.78238 272.55069 274.12006 275.76938
 277.30460 278.65579 280.16281 281.48636 282.63181 283.64520 284.56979 285.40738
 286.16074 286.83157 287.41760 288.16446
 366.78100 356.33958 345.77616 334.64673 323.05431 311.25289 299.12747 286.93504
 274.65162 262.55320 250.56678 239.87235 229.99893 221.10751 213.29409 206.30066
 200.13924 195.08182 191.66840 189.71497 188.75655 188.82513 189.66471 190.97728
 192.70686 194.80644 197.07402 199.43759 201.88717 204.37175 206.46433 208.31090
 209.94148 211.09106 211.32464 211.55721 211.49879 211.20837 210.84595 210.48052
 210.10210 209.81668 209.62926 209.49783 209.43041 209.76599 210.15657 210.55014
 211.34772 212.53030 213.78488 215.57245 217.50503 219.55261 221.65219 223.73976
 225.80434 227.89292 229.99450 232.10507 234.23865 236.41523 238.67581 241.05038
 243.67596 245.93154 247.93812 249.70769 251.12927 252.25685 253.08343 253.40401
 253.44558 253.22416 252.58874 251.54132 250.15189 248.31747 246.23105 244.06863
 241.86420 239.67278 237.49736 235.34094 233.20551 231.07709 229.10767 227.26925
 225.55682 224.03340 222.66798 221.44456 220.33113 219.29571 218.40429 217.54987
 216.79644 215.98102 215.08360 214.45218 213.90675 214.44405 215.66931 216.08878
 216.06306 217.23268 218.70029 219.03702 219.39561 221.35597 225.27730 228.49210
 231.07700 234.69391 239.16922 243.62469 247.53085 251.07697 254.48621 257.74292
 260.80206 263.67868 266.34598 268.75607 270.85440 272.58240 273.98615 275.75223
 277.18323 278.41904 279.97256 281.38229 282.60226 283.68161 284.66638 285.55850
 286.36087 287.07538 287.69955 288.49500
 366.78100 356.34166 345.78033 334.65299 323.06266 311.26332 299.13998 286.94965
 274.66831 262.57198 250.58764 239.89530 230.02397 221.13463 213.32330 206.33196
 200.17262 195.11729 191.70595 189.75462 188.79828 188.86894 189.71061 191.02527
 192.75694 194.85860 197.12826 199.49393 201.94559 204.43226 206.52692 208.37558
 210.00825 211.15991 211.39558 211.63024 211.57390 211.28557 210.92523 210.56190
 210.18556 209.90222 209.71689 209.58755 209.52222 209.85988 210.25255 210.64821
 211.44787 212.63254 213.88920 215.67887 217.61353 219.66319 221.76486 223.85452
 225.92119 228.01185 230.11551 232.22818 234.36384 236.54251 238.80517 241.18183
 243.80950 246.06716 248.07583 249.84749 251.27115 252.40082 253.22948 253.55215
 253.59581 253.37647 252.74314 251.69780 250.31047 248.47813 246.39379 244.23346
 242.03112 239.84179 237.66845 235.51411 233.38078 231.25444 229.28711 227.45077
 225.74043 224.21910 222.85576 221.63443 220.52309 219.48975 218.60042 217.74808
 216.99675 216.18341 215.28807 214.65874 214.11540 214.57852 215.66357 216.16318
 216.13905 217.23920 218.63356 218.86868 219.23947 221.25841 225.29424 228.45172
 231.02519 234.65416 239.14195 243.60043 247.50877 251.05095 254.46793 257.74200
 260.80487 263.68481 266.35556 268.72552 270.77521 272.61844 274.03497 275.50885
 276.75269 278.06393 279.69830 281.13342 282.37537 283.47418 284.47668 285.38489
 286.20172 286.92911 287.56454 288.37433
 366.78100 356.34010 345.77720 334.64829 323.05639 311.25549 299.13059 286.93868
 274.65578 262.55788 250.57198 239.87807 230.00517 221.11427 213.30137 206.30847
 200.14756 195.09066 191.67776 189.72486 188.76695 188.83605 189.67615 190.98925
 192.71934 194.81944 197.08754 199.45164 201.90174 204.38683 206.47993 208.32703
 209.95813 211.10822 211.34232 211.57542 211.51752 211.22762 210.86571 210.50081
 210.12291 209.83801 209.65110 209.52020 209.45330 209.78940 210.18049 210.57459
 211.37269 212.55579 213.81089 215.59898 217.53208 219.58018 221.68028 223.76837
 225.83347 227.92257 230.02467 232.13576 234.26986 236.44696 238.70806 241.08316
 243.70925 245.96535 247.97245 249.74255 251.16464 252.29274 253.11984 253.44094
 253.48303 253.26213 252.62723 251.58033 250.19143 248.35752 246.27162 244.10972
 241.90582 239.71491 237.54001 235.38411 233.24921 231.12131 229.15240 227.31450
 225.60260 224.07970 222.71479 221.49189 220.37899 219.34409 218.45318 217.59928
 216.84638 216.03148 215.13458 214.50367 213.95877 214.55717 215.85747 216.05545
 215.95882 217.28453 218.77396 218.85699 219.13988 221.02869 225.17059 228.33348
 231.07420 234.76683 239.18626 243.58575 247.50916 251.10889 254.55215 257.82571
 260.89584 263.77420 266.41187 268.71805 270.82346 272.57831 274.09201 275.55826
 276.74127 277.75357 278.62955 279.39871 280.06436 280.65329 281.19061 281.67737
 282.11517 282.50504 282.84561 283.27960
 366.78100 356.33907 345.77515 334.64522 323.05230 311.25037 299.12445 286.93152
 274.64760 262.54867 250.56175 239.86682 229.99290 221.10097 213.28705 206.29312
 200.13120 195.07327 191.65935 189.70542 188.74650 188.81457 189.65364 190.96572
 192.69479 194.79387 197.06094 199.42402 201.87309 204.35717 206.44924 208.29532
 209.92539 211.07447 211.30754 211.53962 211.48069 211.18977 210.82684 210.46092
 210.08199 209.79607 209.60814 209.47621 209.40829 209.74336 210.13344 210.52651
 211.32359 212.50566 213.75974 215.54681 217.47889 219.52596 221.62504 223.71211
 225.77619 227.86426 229.96534 232.07541 234.20849 236.38456 238.64464 241.01871
 243.64378 245.89886 247.90493 249.67401 251.09508 252.22216 253.04823 253.36831
 253.40938 253.18746 252.55153 251.50361 250.11368 248.27876 246.19183 244.02891
 241.82398 239.63206 237.45613 235.29920 233.16328 231.03435 229.06443 227.22550
 225.51258 223.98865 222.62273 221.39880 220.28488 219.24895 218.35703 217.50210
 216.74818 215.93225 215.03433 214.40240 213.85648 214.54704 216.01410 216.08392
 215.54013 216.84416 218.53323 218.82802 219.22270 221.23453 225.24516 228.46265
 231.13115 234.84006 239.28026 243.68002 247.66280 251.31111 254.75960 258.03693
 261.10934 263.98825 266.61417 268.91235 270.88525 272.64560 274.05383 275.05887
 275.92154 276.66098 277.30087 277.86270 278.34894 278.77914 279.17163 279.52719
 279.84698 280.13177 280.38052 280.69757
 366.78100 356.34146 345.77991 334.65237 323.06182 311.26228 299.13873 286.94819
 274.66664 262.57010 250.58555 239.89301 230.02147 221.13192 213.32038 206.32883
 200.16929 195.11374 191.70220 189.75065 188.79411 188.86456 189.70602 191.02047
 192.75193 194.85339 197.12284 199.48830 201.93975 204.42621 206.52066 208.36912
 210.00157 211.15303 211.38848 211.62294 211.56640 211.27785 210.91731 210.55376
 210.17722 209.89367 209.70813 209.57858 209.51304 209.85049 210.24295 210.63841
 211.43786 212.62232 213.87877 215.66823 217.60268 219.65214 221.75359 223.84305
 225.90950 227.99996 230.10342 232.21587 234.35133 236.52978 238.79224 241.16869
 243.79615 246.05360 248.06206 249.83351 251.25697 252.38642 253.21488 253.53734
 253.58079 253.36125 252.72770 251.68216 250.29461 248.46207 246.37752 244.21698
 242.01443 239.82489 237.65135 235.49680 233.36326 231.23671 229.26917 227.43262
 225.72208 224.20053 222.83699 221.61544 220.50390 219.47036 218.58081 217.72827
 216.97672 216.16318 215.26763 214.63809 214.09454 214.67578 216.00702 216.32660
 215.54568 216.43338 218.18382 218.56992 219.12453 221.24327 225.31335 228.58334
 231.26886 234.94197 239.37404 243.78258 247.76689 251.40857 254.85393 258.13934
 261.21674 264.10104 266.75748 269.08664 271.11401 272.85944 274.22818 275.53723
 276.65994 277.62228 278.45502 279.18622 279.81903 280.37888 280.88968 281.35242
 281.76859 282.13922 282.46298 282.87558
 366.78100 356.34326 345.78352 334.65778 323.06904 311.27130 299.14956 286.96082
 274.68108 262.58634 250.60359 239.91285 230.04311 221.15537 213.34563 206.35589
 200.19815 195.14441 191.73467 189.78493 188.83019 188.90245 189.74571 191.06197
 192.79523 194.89849 197.16975 199.53701 201.99027 204.47852 206.57478 208.42504
 210.05930 211.21256 211.44982 211.68608 211.63134 211.34460 210.98586 210.62412
 210.24938 209.96764 209.78390 209.65616 209.59242 209.93168 210.32594 210.72320
 211.52446 212.71071 213.96897 215.76023 217.69649 219.74775 221.85101 223.94227
 226.01053 228.10279 230.20805 232.32231 234.45957 236.63983 238.90409 241.28235
 243.91161 246.17087 248.18113 249.95439 251.37964 252.51090 253.34116 253.66542
 253.71068 253.49294 252.86120 251.81746 250.43172 248.60098 246.51824 244.35950
 242.15876 239.97102 237.79928 235.64654 233.51480 231.39006 229.42432 227.58957
 225.88083 224.36109 222.99935 221.77961 220.66987 219.63813 218.75039 217.89965
 217.14991 216.33817 215.44443 214.81669 214.27495 214.78453 215.99519 216.43007
 215.69487 216.35078 218.02481 218.33081 218.87390 221.11890 225.17848 228.52402
 231.27487 234.98058 239.38873 243.78732 247.75194 251.38292 254.84407 258.14371
 261.22186 264.10373 266.77844 269.12918 271.19250 272.96454 274.31384 276.35880
 278.86838 281.01947 282.88089 284.51535 285.92981 287.18127 288.32306 289.35739
 290.28769 291.11612 291.83981 292.76208
 366.78100 356.34224 345.78147 334.65471 323.06494 311.26618 299.14341 286.95365
 274.67288 262.57712 250.59335 239.90159 230.03082 221.14206 213.33129 206.34053
 200.18176 195.12700 191.71623 189.76547 188.80970 188.88094 189.72317 191.03841
 192.77064 194.87288 197.14311 199.50935 201.96158 204.44882 206.54405 208.39329
 210.02653 211.17876 211.41500 211.65023 211.59447 211.30670 210.94694 210.58417
 210.20841 209.92564 209.74088 209.61211 209.54735 209.88558 210.27882 210.67505
 211.47529 212.66052 213.91776 215.70799 217.64323 219.69346 221.79570 223.88593
 225.95317 228.04440 230.14864 232.26187 234.39811 236.57734 238.84058 241.21781
 243.84605 246.10429 248.11352 249.88576 251.30999 252.44023 253.26946 253.59270
 253.63693 253.41817 252.78540 251.74064 250.35387 248.52211 246.43834 244.27858
 242.07681 239.88805 237.71528 235.56152 233.42875 231.30299 229.33622 227.50046
 225.79069 224.26993 222.90716 221.68640 220.57563 219.54287 218.65410 217.80234
 217.05158 216.23881 215.34405 214.71528 214.17252 214.76053 216.09906 216.39485
 215.64128 216.28123 217.89023 218.25070 218.73100 221.12833 225.11021 228.54182
 231.31171 235.01218 239.41409 243.78891 247.75880 251.40021 254.87061 258.17715
 261.25925 264.14584 266.83301 269.22342 271.32196 273.16354 274.65866 276.49884
 278.72638 280.75659 282.51340 284.05603 285.39102 286.57217 287.64978 288.62601
 289.50403 290.28589 290.96893 291.83939
 366.78100 356.34089 345.77878 334.65067 323.05957 311.25946 299.13535 286.94424
 274.66213 262.56502 250.57992 239.88681 230.01470 221.12459 213.31248 206.32037
 200.16027 195.10416 191.69205 189.73994 188.78283 188.85272 189.69362 191.00751
 192.73840 194.83929 197.10818 199.47307 201.92397 204.40986 206.50375 208.35164
 209.98353 211.13442 211.36932 211.60321 211.54610 211.25699 210.89588 210.53177
 210.15466 209.87056 209.68445 209.55434 209.48823 209.82512 210.21701 210.61191
 211.41080 212.59469 213.85058 215.63947 217.57336 219.62226 221.72315 223.81204
 225.87793 227.96782 230.07071 232.18261 234.31750 236.49539 238.75728 241.13317
 243.76006 246.01696 248.02485 249.79574 251.21863 252.34752 253.17541 253.49731
 253.54020 253.32009 252.68598 251.63987 250.25176 248.41865 246.33355 244.17244
 241.96933 239.77922 237.60511 235.45000 233.31590 231.18879 229.22068 227.38357
 225.67246 224.15035 222.78625 221.56414 220.45203 219.41792 218.52781 217.67470
 216.92260 216.10849 215.21238 214.58227 214.03816 214.71323 216.21713 216.43098
 215.57898 216.08534 217.57933 218.09998 218.75294 221.25272 225.11295 228.64314
 231.37762 235.06046 239.46703 243.84161 247.81194 251.45274 254.92076 258.21997
 261.27496 264.12781 266.81012 269.22516 271.36981 273.30463 275.03458 276.65414
 278.45422 280.49359 282.30890 283.90289 285.28235 286.50281 287.61630 288.62506
 289.53232 290.34024 291.04602 291.94543
 366.78100 356.34103 345.77907 334.65110 323.06014 311.26017 299.13620 286.94524
 274.66327 262.56631 250.58134 239.88838 230.01641 221.12644 213.31448 206.32251
 200.16255 195.10658 191.69461 189.74265 188.78568 188.85572 189.69675 191.01079
 192.74182 194.84285 197.11189 199.47692 201.92796 204.41399 206.50802 208.35606
 209.98809 211.13913 211.37416 211.60819 211.55123 211.26226 210.90130 210.53733
 210.16037 209.87640 209.69043 209.56047 209.49450 209.83154 210.22357 210.61860
 211.41764 212.60167 213.85771 215.64674 217.58078 219.62981 221.73084 223.81988
 225.88591 227.97595 230.07898 232.19101 234.32605 236.50408 238.76612 241.14215
 243.76918 246.02622 248.03425 249.80529 251.22832 252.35736 253.18539 253.50742
 253.55046 253.33049 252.69653 251.65056 250.26259 248.42963 246.34466 244.18370
 241.98073 239.79077 237.61680 235.46183 233.32787 231.20090 229.23294 227.39597
 225.68500 224.16304 222.79907 221.57711 220.46514 219.43117 218.54121 217.68824
 216.93628 216.12231 215.22635 214.59638 214.05241 214.73941 216.26566 216.48296
 215.61578 215.96982 217.29903 217.83456 218.58611 221.17274 225.12845 228.61929
 231.39310 235.10811 239.52820 243.90788 247.89221 251.56531 255.05632 258.34052
 261.36230 264.18002 266.81906 269.20074 271.34485 273.31323 275.12469 276.67868
 278.38986 280.38971 282.13278 283.66333 284.98788 286.15976 287.22894 288.19754
 289.06866 289.84442 290.52213 291.38574
 366.78100 356.34187 345.78074 334.65361 323.06348 311.26435 299.14122 286.95109
 274.66996 262.57382 250.58969 239.89756 230.02643 221.13730 213.32617 206.33504
 200.17591 195.12078 191.70965 189.75852 188.80239 188.87326 189.71513 191.03000
 192.76187 194.86374 197.13360 199.49947 201.95134 204.43821 206.53308 208.38195
 210.01482 211.16669 211.40256 211.63743 211.58130 211.29317 210.93304 210.56991
 210.19378 209.91065 209.72552 209.59638 209.53125 209.86912 210.26199 210.65786
 211.45773 212.64260 213.89947 215.68934 217.62421 219.67408 221.77595 223.86582
 225.93269 228.02356 230.12743 232.24029 234.37616 236.55503 238.81790 241.19477
 243.82264 246.08051 248.08938 249.86125 251.28512 252.41499 253.24386 253.56673
 253.61060 253.39147 252.75834 251.71321 250.32607 248.49394 246.40981 244.24968
 242.04755 239.85842 237.68529 235.53116 233.39803 231.27190 229.30477 227.46864
 225.75851 224.23738 222.87425 221.65312 220.54199 219.50885 218.61972 217.76759
 217.01646 216.20333 215.30820 214.67907 214.13594 214.80002 216.27596 216.50905
 215.64528 215.88338 217.09639 217.60452 218.40196 221.03230 225.13716 228.58832
 231.37753 235.13692 239.58583 243.98688 248.00629 251.71303 255.23392 258.52744
 261.54016 264.32745 266.94223 269.31033 271.44647 273.43512 275.28827 276.76215
 278.76471 280.84955 282.65363 284.23773 285.60864 286.82153 287.92813 288.93063
 289.83228 290.63516 291.33658 292.23044
 366.78100 356.34195 345.78090 334.65386 323.06381 311.26476 299.14171 286.95166
 274.67062 262.57457 250.59052 239.89847 230.02743 221.13838 213.32733 206.33628
 200.17723 195.12219 191.71114 189.76009 188.80404 188.87499 189.71695 191.03190
 192.76385 194.86580 197.13575 199.50171 201.95366 204.44061 206.53556 208.38452
 210.01747 211.16942 211.40537 211.64032 211.58428 211.29623 210.93618 210.57313
 210.19708 209.91404 209.72899 209.59994 209.53489 209.87284 210.26580 210.66175
 211.46170 212.64665 213.90361 215.69356 217.62851 219.67846 221.78041 223.87037
 225.93732 228.02827 230.13222 232.24517 234.38113 236.56008 238.82303 241.19998
 243.82793 246.08589 248.09484 249.86679 251.29074 252.42070 253.24965 253.57260
 253.61655 253.39750 252.76446 251.71941 250.33236 248.50031 246.41626 244.25622
 242.05417 239.86512 237.69207 235.53802 233.40498 231.27893 229.31188 227.47583
 225.76579 224.24474 222.88169 221.66064 220.54959 219.51655 218.62750 217.77545
 217.02440 216.21135 215.31631 214.68726 214.14421 214.81380 216.30333 216.54988
 215.70026 215.77014 216.81073 217.38272 218.39069 221.11848 225.13834 228.59148
 231.34589 235.14317 239.64429 244.05540 248.08495 251.79820 255.31432 258.60181
 261.60620 264.40320 267.02969 269.43024 271.65146 273.75980 275.64166 277.09103
 278.68350 280.64786 282.42551 283.98639 285.33722 286.53238 287.62274 288.61057
 289.49899 290.29013 290.98126 291.86203
 366.78100 356.34221 345.78141 334.65462 323.06482 311.26603 299.14323 286.95344
 274.67264 262.57685 250.59305 239.90126 230.03046 221.14167 213.33088 206.34008
 200.18129 195.12649 191.71570 189.76490 188.80911 188.88031 189.72252 191.03772
 192.76993 194.87214 197.14234 199.50855 201.96075 204.44796 206.54316 208.39237
 210.02557 211.17778 211.41398 211.64919 211.59339 211.30560 210.94581 210.58301
 210.20722 209.92442 209.73963 209.61083 209.54604 209.88424 210.27745 210.67365
 211.47386 212.65906 213.91627 215.70648 217.64168 219.69189 221.79409 223.88430
 225.95150 228.04271 230.14691 232.26012 234.39632 236.57553 238.83874 241.21594
 243.84415 246.10235 248.11156 249.88376 251.30797 252.43817 253.26738 253.59058
 253.63479 253.41599 252.78320 251.73841 250.35161 248.51982 246.43602 244.27623
 242.07443 239.88564 237.71284 235.55905 233.42625 231.30046 229.33366 227.49787
 225.78808 224.26728 222.90449 221.68369 220.57290 219.54010 218.65131 217.79951
 217.04872 216.23592 215.34113 214.71234 214.16954 214.82335 216.30623 216.65805
 215.80322 215.60681 216.41713 217.10439 218.38063 221.13284 225.10817 228.61888
 231.33189 235.16760 239.71899 244.14296 248.15804 251.84619 255.31244 258.55850
 261.55728 264.35275 266.99014 269.44870 271.74078 273.88876 275.77679 277.30313
 278.55270 280.03534 281.61270 283.08719 284.36322 285.49222 286.52222 287.45535
 288.29459 289.04193 289.69482 290.52682
 366.78100 356.34308 345.78317 334.65725 323.06833 311.27042 299.14850 286.95958
 274.67967 262.58475 250.60183 239.91092 230.04100 221.15308 213.34317 206.35325
 200.19533 195.14142 191.73150 189.78158 188.82666 188.89875 189.74183 191.05791
 192.79100 194.89408 197.16516 199.53225 201.98533 204.47341 206.56950 208.41958
 210.05366 211.20675 211.44383 211.67991 211.62500 211.33808 210.97916 210.61725
 210.24233 209.96041 209.77650 209.64858 209.58466 209.92375 210.31783 210.71491
 211.51600 212.70208 213.96016 215.75125 217.68733 219.73841 221.84150 223.93258
 226.00066 228.09274 230.19783 232.31191 234.44899 236.62908 238.89316 241.27124
 243.90033 246.15941 248.16949 249.94258 251.36766 252.49874 253.32883 253.65291
 253.69799 253.48008 252.84816 251.80424 250.41833 248.58741 246.50449 244.34558
 242.14466 239.95674 237.78483 235.63191 233.49999 231.37508 229.40916 227.57424
 225.86533 224.34541 222.98349 221.76358 220.65366 219.62174 218.73382 217.88291
 217.13299 216.32107 215.42716 214.79924 214.25732 214.86914 216.27399 216.72141
 215.93976 215.58978 216.23158 216.83014 218.15556 220.97455 225.01785 228.52603
 231.32379 235.21785 239.77644 244.22357 248.26433 251.95398 255.41771 258.63657
 261.59616 264.35715 266.98050 269.44339 271.78421 273.96286 275.81403 277.27832
 278.37228 279.66266 281.20752 282.63480 283.90619 285.03107 286.05734 286.98706
 287.82324 288.56787 289.21838 290.04736
 366.78100 356.34423 345.78545 334.66068 323.07290 311.27613 299.15535 286.96758
 274.68880 262.59503 250.61326 239.92348 230.05471 221.16793 213.35916 206.37038
 200.21361 195.16083 191.75206 189.80328 188.84951 188.92274 189.76696 191.08419
 192.81841 194.92264 197.19486 199.56309 202.01731 204.50654 206.60377 208.45499
 210.09022 211.24444 211.48267 211.71989 211.66612 211.38034 211.02257 210.66180
 210.28802 210.00725 209.82447 209.69770 209.63492 209.97515 210.37037 210.76860
 211.57082 212.75805 214.01728 215.80950 217.74673 219.79895 221.90318 223.99540
 226.06463 228.15785 230.26408 232.37931 234.51753 236.69876 238.96398 241.34321
 243.97343 246.23366 248.24488 250.01911 251.44534 252.57756 253.40879 253.73401
 253.78024 253.56346 252.93269 251.88991 250.50514 248.67536 246.59359 244.43582
 242.23604 240.04927 237.87849 235.72672 233.59594 231.47217 229.50739 227.67362
 225.96585 224.44707 223.08630 221.86752 220.75875 219.72797 218.84120 217.99142
 217.24265 216.43187 215.53910 214.91233 214.37155 214.93608 216.23418 216.69067
 216.04863 215.67934 216.20169 216.69966 218.02925 220.85463 224.92165 228.43246
 231.23952 235.23671 239.85464 244.32707 248.37624 252.08401 255.55391 258.75043
 261.67715 264.41382 267.02927 269.50983 271.88602 274.07419 275.85345 277.26395
 278.37430 279.64310 281.16946 282.65167 283.94104 285.08179 286.12256 287.06540
 287.91339 288.66855 289.32825 290.16891
 366.78100 356.34580 345.78860 334.66541 323.07921 311.28401 299.16481 286.97862
 274.70142 262.60922 250.62902 239.94083 230.07363 221.18843 213.38123 206.39404
 200.23884 195.18764 191.78044 189.83324 188.88105 188.95585 189.80165 191.12045
 192.85626 194.96206 197.23586 199.60566 202.06147 204.55227 206.65107 208.50387
 210.14068 211.29648 211.53628 211.77508 211.72288 211.43869 211.08249 210.72329
 210.35109 210.07190 209.89070 209.76550 209.70430 210.04611 210.44291 210.84271
 211.64651 212.83532 214.09612 215.88992 217.82872 219.88252 221.98833 224.08213
 226.15293 228.24773 230.35554 232.47234 234.61214 236.79494 239.06175 241.44255
 244.07435 246.33615 248.34896 250.12476 251.55256 252.68636 253.51917 253.84597
 253.89377 253.67857 253.04937 252.00818 250.62498 248.79678 246.71658 244.56039
 242.36219 240.17699 238.00779 235.85760 233.72840 231.60620 229.64300 227.81081
 226.10461 224.58741 223.22821 222.01101 220.90382 219.87462 218.98942 218.14122
 217.39403 216.58483 215.69363 215.06843 214.52924 215.02289 216.17081 216.67679
 216.17337 215.76427 216.14481 216.55824 217.90897 220.75447 224.87706 228.35480
 231.17931 235.26839 239.93446 244.41327 248.46571 252.16893 255.62379 258.78973
 261.68649 264.41779 267.05280 269.57297 272.00604 274.21170 275.90775 277.21231
 278.32336 279.77805 281.41177 282.93811 284.25900 285.42767 286.49393 287.45984
 288.32861 289.10223 289.77805 290.63931
 366.78100 356.34708 345.79117 334.66925 323.08434 311.29042 299.17251 286.98759
 274.71168 262.62076 250.64185 239.95493 230.08902 221.20510 213.39919 206.41327
 200.25936 195.20944 191.80352 189.85761 188.90669 188.98278 189.82986 191.14995
 192.88703 194.99412 197.26920 199.64029 202.09737 204.58946 206.68954 208.54363
 210.18171 211.33880 211.57988 211.81996 211.76905 211.48613 211.13122 210.77330
 210.40239 210.12447 209.94456 209.82064 209.76073 210.10381 210.50190 210.90298
 211.70807 212.89815 214.16024 215.95532 217.89540 219.95049 222.05757 224.15266
 226.22474 228.32083 230.42991 232.54800 234.68908 236.87317 239.14125 241.52334
 244.15642 246.41951 248.43359 250.21068 251.63976 252.77484 253.60893 253.93701
 253.98610 253.77218 253.14427 252.10435 250.72244 248.89552 246.81661 244.66169
 242.46478 240.28086 238.11295 235.96403 233.83612 231.71520 229.75328 227.92237
 226.21745 224.70154 223.34362 222.12771 221.02179 219.99388 219.10996 218.26305
 217.51713 216.70922 215.81930 215.19539 214.65747 215.09879 216.12784 216.62106
 216.27574 215.94571 216.19632 216.42293 217.73874 220.54646 224.75439 228.19904
 231.18489 235.31367 239.96074 244.43901 248.50938 252.24104 255.70657 258.87256
 261.75974 264.49643 267.13889 269.65714 272.08228 274.27200 275.98318 277.26334
 278.48132 280.35852 282.15158 283.72601 285.08856 286.29404 287.39389 288.39026
 289.28638 290.08438 290.78149 291.66989
 366.78100 356.34608 345.78916 334.66624 323.08032 311.28540 299.16648 286.98056
 274.70364 262.61172 250.63180 239.94388 230.07696 221.19203 213.38511 206.39819
 200.24327 195.19235 191.78543 189.83851 188.88659 188.96167 189.80775 191.12683
 192.86291 194.96899 197.24307 199.61315 202.06923 204.56031 206.65939 208.51247
 210.14955 211.30563 211.54571 211.78479 211.73287 211.44895 211.09303 210.73410
 210.36218 210.08326 209.90234 209.77742 209.71650 210.05858 210.45566 210.85574
 211.65982 212.84890 214.10998 215.90406 217.84314 219.89722 222.00330 224.09738
 226.16846 228.26354 230.37162 232.48870 234.62878 236.81186 239.07894 241.46002
 244.09210 246.35417 248.36725 250.14333 251.57141 252.70549 253.53857 253.86565
 253.91373 253.69881 253.06989 252.02897 250.64605 248.81813 246.73821 244.58229
 242.38437 240.19945 238.03053 235.88061 233.75169 231.62977 229.66685 227.83493
 226.12901 224.61209 223.25316 222.03624 220.92932 219.90040 219.01548 218.16756
 217.42064 216.61172 215.72080 215.09588 214.55696 215.04985 216.16254 216.51726
 216.24707 216.07623 216.24123 216.39711 217.66063 220.51193 224.60486 228.06302
 231.08243 235.34093 240.05417 244.53856 248.60535 252.32935 255.78052 258.92694
 261.81216 264.56140 267.24658 269.85403 272.37866 274.57376 276.19443 277.47131
 278.90433 280.65332 282.36304 283.88727 285.20636 286.37341 287.43817 288.40277
 289.27032 290.04288 290.71777 291.57785
 366.78100 356.34508 345.78716 334.66324 323.07632 311.28040 299.16048 286.97356
 274.69564 262.60272 250.62180 239.93288 230.06496 221.17904 213.37112 206.38320
 200.22728 195.17535 191.76743 189.81951 188.86659 188.94067 189.78575 191.10383
 192.83891 194.94399 197.21707 199.58615 202.04123 204.53131 206.62939 208.48147
 210.11755 211.27263 211.51171 211.74979 211.69687 211.41195 211.05503 210.69511
 210.32219 210.04227 209.86035 209.73443 209.67251 210.01359 210.40967 210.80875
 211.61183 212.79991 214.05999 215.85306 217.79114 219.84422 221.94930 224.04238
 226.11246 228.20654 230.31362 232.42970 234.56878 236.75086 239.01694 241.39702
 244.02810 246.28918 248.30126 250.07634 251.50342 252.63650 253.46858 253.79466
 253.84174 253.62582 252.99590 251.95398 250.57006 248.74114 246.66022 244.50330
 242.30438 240.11846 237.94854 235.79762 233.66769 231.54477 229.58085 227.74793
 226.04101 224.52309 223.16317 221.94525 220.83733 219.80741 218.92149 218.07257
 217.32465 216.51473 215.62281 214.99689 214.45697 214.97913 216.17863 216.57686
 216.24489 215.97769 215.97238 216.18279 217.52710 220.46124 224.48709 228.04010
 231.24281 235.43416 240.11235 244.60080 248.66386 252.35989 255.75500 258.86008
 261.75681 264.56073 267.30167 269.93912 272.42233 274.62231 276.34744 277.71970
 278.98102 280.28333 281.62460 282.88278 284.05237 285.11053 286.07593 286.95050
 287.73712 288.43756 289.04950 289.82932
 366.78100 356.34525 345.78750 334.66375 323.07700 311.28125 299.16150 286.97475
 274.69700 262.60425 250.62350 239.93475 230.06700 221.18125 213.37350 206.38575
 200.23000 195.17826 191.77051 189.82276 188.87001 188.94426 189.78951 191.10776
 192.84301 194.94826 197.22151 199.59076 202.04601 204.53626 206.63451 208.48676
 210.12301 211.27826 211.51751 211.75576 211.70301 211.41826 211.06151 210.70176
 210.32901 210.04926 209.86751 209.74176 209.68001 210.02126 210.41751 210.81676
 211.62001 212.80826 214.06851 215.86177 217.80002 219.85327 221.95852 224.05177
 226.12202 228.21627 230.32352 232.43977 234.57902 236.76127 239.02752 241.40777
 244.03902 246.30027 248.31252 250.08777 251.51502 252.64827 253.48052 253.80677
 253.85402 253.63827 253.00852 251.96677 250.58302 248.75427 246.67352 244.51677
 242.31802 240.13227 237.96252 235.81177 233.68202 231.55928 229.59553 227.76278
 226.05603 224.53828 223.17853 221.96078 220.85303 219.82328 218.93753 218.08878
 217.34103 216.53128 215.63953 215.01378 214.47403 214.97704 216.14177 216.61053
 216.43712 216.06934 215.85136 215.82588 217.18088 220.27231 224.33585 227.86256
 231.18640 235.44868 240.16681 244.68813 248.78365 252.49989 255.89511 258.97906
 261.82419 264.58670 267.31314 269.95792 272.47458 274.72934 276.46692 277.75662
 278.92670 280.11700 281.24390 282.27750 283.41135 284.49780 285.48904 286.38705
 287.19470 287.91391 288.54221 289.34290
 366.78100 356.34648 345.78996 334.66743 323.08191 311.28739 299.16887 286.98335
 274.70683 262.61530 250.63578 239.94826 230.08174 221.19722 213.39070 206.40417
 200.24965 195.19913 191.79261 189.84609 188.89457 188.97004 189.81652 191.13600
 192.87248 194.97896 197.25344 199.62391 202.08039 204.57187 206.67135 208.52483
 210.16231 211.31878 211.55926 211.79874 211.74722 211.46370 211.10818 210.74965
 210.37813 210.09961 209.91909 209.79457 209.73405 210.07652 210.47400 210.87448
 211.67896 212.86844 214.12992 215.92439 217.86387 219.91835 222.02483 224.11931
 226.19079 228.28626 230.39474 232.51222 234.65270 236.83618 239.10366 241.48513
 244.11761 246.38009 248.39357 250.17005 251.59853 252.73300 253.56648 253.89396
 253.94244 253.72792 253.09940 252.05887 250.67635 248.84883 246.76931 244.61379
 242.41627 240.23174 238.06322 235.91370 233.78518 231.66366 229.70114 227.86961
 226.16409 224.64757 223.28905 222.07253 220.96601 219.93748 219.05296 218.20544
 217.45892 216.65040 215.75988 215.13535 214.59683 215.04109 216.06853 216.54248
 216.58945 216.25140 215.89340 215.70764 217.05342 220.16748 224.19443 227.76024
 231.12405 235.48595 240.22809 244.78268 248.90552 252.64323 256.05054 259.11789
 261.94156 264.67874 267.39868 270.06253 272.63428 274.93268 276.67682 278.00113
 279.19647 280.33636 281.38120 282.42072 283.65060 284.75980 285.77179 286.68857
 287.51312 288.24741 288.88882 289.70627
 366.78100 356.34740 345.79180 334.67020 323.08560 311.29201 299.17441 286.98981
 274.71421 262.62361 250.64501 239.95841 230.09281 221.20921 213.40361 206.41802
 200.26442 195.21482 191.80922 189.86362 188.91302 188.98942 189.83682 191.15722
 192.89462 195.00203 197.27743 199.64883 202.10623 204.59863 206.69903 208.55343
 210.19183 211.34923 211.59063 211.83104 211.78044 211.49784 211.14324 210.78564
 210.41504 210.13744 209.95784 209.83424 209.77464 210.11805 210.51645 210.91785
 211.72325 212.91365 214.17605 215.97145 217.91185 219.96725 222.07466 224.17006
 226.24246 228.33886 230.44826 232.56666 234.70806 236.89246 239.16086 241.54326
 244.17667 246.44007 248.45447 250.23187 251.66127 252.79667 253.63107 253.95947
 254.00887 253.79527 253.16768 252.12808 250.74648 248.91988 246.84128 244.68668
 242.49008 240.30648 238.13888 235.99028 233.86269 231.74209 229.78049 227.94989
 226.24529 224.72969 223.37209 222.15649 221.05089 220.02330 219.13970 218.29310
 217.54750 216.73990 215.85030 215.22670 214.68910 215.09160 216.01614 216.44147
 216.63745 216.43344 216.07732 215.76244 217.01820 220.09377 224.05130 227.61980
 231.04897 235.48869 240.26332 244.82823 248.92464 252.61725 255.97881 259.02835
 261.86102 264.62573 267.38327 270.08823 272.73340 275.14224 277.00696 278.34674
 279.56668 280.68085 281.64261 282.93311 284.19528 285.31195 286.33078 287.25375
 288.08386 288.82309 289.46884 290.29181
 366.78100 356.34556 345.78812 334.66468 323.07823 311.28279 299.16335 286.97691
 274.69947 262.60703 250.62658 239.93814 230.07070 221.18526 213.37782 206.39038
 200.23493 195.18349 191.77605 189.82861 188.87617 188.95073 189.79628 191.11484
 192.85040 194.95596 197.22952 199.59908 202.05463 204.54519 206.64375 208.49631
 210.13287 211.28843 211.52798 211.76654 211.71410 211.42966 211.07322 210.71378
 210.34133 210.06189 209.88045 209.75501 209.69357 210.03513 210.43169 210.83124
 211.63480 212.82336 214.08392 215.87748 217.81604 219.86959 221.97515 224.06871
 226.13927 228.23383 230.34139 232.45794 234.59750 236.78006 239.04662 241.42718
 244.05874 246.32029 248.33285 250.10841 251.53597 252.66953 253.50209 253.82864
 253.87620 253.66076 253.03132 251.98988 250.60644 248.77799 246.69755 244.54111
 242.34267 240.15723 237.98779 235.83734 233.70790 231.58546 229.62202 227.78958
 226.08314 224.56569 223.20625 221.98881 220.88137 219.85193 218.96649 218.11805
 217.37060 216.56116 215.66972 215.04428 214.50484 214.99480 216.10023 216.31813
 216.51196 216.53888 216.22630 215.81642 216.94707 220.03116 223.96281 227.51151
 231.05083 235.51221 240.29466 244.83957 248.90688 252.56619 255.89859 258.93298
 261.76813 264.54456 267.32635 270.09604 272.80569 275.23260 277.02966 278.43066
 279.70526 280.84479 281.87451 282.99084 284.11166 285.14355 286.08502 286.93790
 287.70499 288.38806 288.98480 289.74527
 366.78100 356.34560 345.78819 334.66479 323.07839 311.28299 299.16358 286.97718
 274.69978 262.60738 250.62697 239.93857 230.07117 221.18576 213.37836 206.39096
 200.23556 195.18415 191.77675 189.82935 188.87695 188.95154 189.79714 191.11574
 192.85133 194.95693 197.23053 199.60013 202.05572 204.54632 206.64492 208.49752
 210.13411 211.28971 211.52931 211.76790 211.71550 211.43110 211.07470 210.71529
 210.34289 210.06349 209.88209 209.75668 209.69528 210.03688 210.43347 210.83307
 211.63667 212.82527 214.08586 215.87946 217.81806 219.87166 221.97725 224.07085
 226.14145 228.23604 230.34364 232.46024 234.59984 236.78243 239.04903 241.42963
 244.06123 246.32282 248.33542 250.11102 251.53862 252.67221 253.50481 253.83141
 253.87900 253.66360 253.03420 251.99280 250.60939 248.78099 246.70059 244.54419
 242.34578 240.16038 237.99098 235.84057 233.71117 231.58877 229.62537 227.79296
 226.08656 224.56916 223.20976 221.99235 220.88495 219.85555 218.97014 218.12174
 217.37434 216.56494 215.67353 215.04813 214.50873 214.97563 216.06258 216.41631
 216.46825 216.38115 216.06438 215.62955 216.71510 219.90070 223.95070 227.36449
 231.06145 235.53622 240.34747 244.89394 248.97943 252.63766 255.96083 258.98999
 261.81827 264.57385 267.33304 270.08923 272.78711 275.19971 277.06363 278.52127
 279.80725 280.91229 281.81113 282.57932 283.31384 284.03506 284.90927 285.76724
 286.53888 287.22601 287.82632 288.59131
 366.78100 356.34782 345.79263 334.67145 323.08727 311.29408 299.17690 286.99272
 274.71753 262.62735 250.64917 239.96298 230.09780 221.21461 213.40943 206.42425
 200.27106 195.22188 191.81670 189.87151 188.92133 188.99815 189.84596 191.16678
 192.90460 195.01241 197.28823 199.66005 202.11786 204.61068 206.71150 208.56631
 210.20513 211.36295 211.60476 211.84558 211.79539 211.51321 211.15903 210.80184
 210.43166 210.15448 209.97529 209.85211 209.79293 210.13674 210.53556 210.93738
 211.74319 212.93401 214.19683 215.99264 217.93346 219.98928 222.09709 224.19291
 226.26573 228.36254 230.47236 232.59117 234.73299 236.91781 239.18662 241.56944
 244.20326 246.46707 248.48189 250.25971 251.68952 252.82534 253.66016 253.98897
 254.03879 253.82561 253.19842 252.15924 250.77806 248.95187 246.87369 244.71950
 242.52332 240.34014 238.17295 236.02477 233.89759 231.77740 229.81622 227.98604
 226.28185 224.76667 223.40949 222.19430 221.08912 220.06194 219.17875 218.33257
 217.58739 216.78020 215.89102 215.26784 214.73065 215.07509 215.88986 216.52440
 216.72592 216.50542 216.02763 215.42035 216.48203 219.74216 223.82562 227.15515
 231.00160 235.54649 240.40686 244.96260 249.05266 252.71800 256.05353 259.08765
 261.90021 264.61179 267.31940 270.05890 272.78513 275.25494 277.13940 278.58826
 279.89691 281.02658 281.90424 282.56543 283.10699 283.59296 284.16592 284.99051
 285.77277 286.46936 287.07791 287.85339
 366.78100 356.34734 345.79167 334.67001 323.08535 311.29168 299.17402 286.98936
 274.71369 262.62303 250.64436 239.95770 230.09204 221.20837 213.40271 206.41705
 200.26338 195.21372 191.80806 189.86239 188.91173 188.98807 189.83540 191.15574
 192.89308 195.00041 197.27575 199.64708 202.10442 204.59676 206.69709 208.55143
 210.18977 211.34710 211.58844 211.82878 211.77811 211.49545 211.14079 210.78312
 210.41246 210.13480 209.95513 209.83147 209.77180 210.11514 210.51348 210.91481
 211.72015 212.91049 214.17282 215.96816 217.90850 219.96383 222.07117 224.16651
 226.23884 228.33518 230.44452 232.56285 234.70419 236.88853 239.15686 241.53920
 244.17253 246.43587 248.45021 250.22754 251.65688 252.79222 253.62655 253.95489
 254.00423 253.79056 253.16290 252.12324 250.74157 248.91491 246.83625 244.68158
 242.48492 240.30125 238.13359 235.98493 233.85726 231.73660 229.77494 227.94427
 226.23961 224.72395 223.36628 222.15062 221.04496 220.01729 219.13363 218.28697
 217.54130 216.73364 215.84397 215.22031 214.68265 215.04831 215.91074 216.44203
 216.73430 216.64922 216.13257 215.40425 216.39412 219.67186 223.67346 227.03409
 230.95879 235.56239 240.44841 245.00009 249.07785 252.74371 256.09207 259.14209
 261.96088 264.64532 267.29681 270.00018 272.76517 275.32831 277.24881 278.69019
 280.01288 281.14160 281.99203 282.57123 282.96594 283.29916 283.86304 284.61060
 285.33237 285.97507 286.53653 287.25204
 366.78100 356.34565 345.78830 334.66496 323.07861 311.28326 299.16391 286.97757
 274.70022 262.60787 250.62752 239.93918 230.07183 221.18648 213.37913 206.39179
 200.23644 195.18509 191.77774 189.83039 188.87805 188.95270 189.79835 191.11700
 192.85266 194.95831 197.23196 199.60161 202.05727 204.54792 206.64657 208.49922
 210.13588 211.29153 211.53118 211.76983 211.71749 211.43314 211.07679 210.71744
 210.34509 210.06575 209.88440 209.75905 209.69770 210.03936 210.43601 210.83566
 211.63931 212.82797 214.08862 215.88227 217.82092 219.87458 221.98023 224.07388
 226.14453 228.23918 230.34684 232.46349 234.60314 236.78579 239.05245 241.43310
 244.06475 246.32640 248.33906 250.11471 251.54236 252.67601 253.50867 253.83532
 253.88297 253.66762 253.03827 251.99693 250.61358 248.78523 246.70488 244.54854
 242.35019 240.16484 237.99549 235.84515 233.71580 231.59345 229.63010 227.79776
 226.09141 224.57406 223.21471 221.99737 220.89002 219.86067 218.97532 218.12697
 217.37963 216.57028 215.67893 215.05358 214.51424 214.95924 216.00517 216.38048
 216.67503 216.70955 216.21936 215.41786 216.34691 219.59061 223.55713 226.95830
 230.93323 235.58165 240.48825 245.02713 249.08932 252.75661 256.11810 259.18411
 262.01547 264.68811 267.28876 269.94153 272.72812 275.38516 277.36517 278.80493
 280.13028 281.23798 282.01486 282.45682 282.73636 283.03641 283.59579 284.27710
 284.98517 285.61569 286.16650 286.86844
 366.78100 356.34592 345.78884 334.66576 323.07968 311.28460 299.16552 286.97944
 274.70236 262.61027 250.63019 239.94211 230.07503 221.18995 213.38287 206.39579
 200.24071 195.18963 191.78255 189.83547 188.88339 188.95831 189.80423 191.12315
 192.85907 194.96498 197.23890 199.60882 202.06474 204.55566 206.65458 208.50750
 210.14442 211.30034 211.54026 211.77918 211.72710 211.44302 211.08694 210.72786
 210.35578 210.07670 209.89561 209.77053 209.70945 210.05137 210.44829 210.84821
 211.65213 212.84105 214.10197 215.89589 217.83481 219.88873 221.99465 224.08857
 226.15949 228.25441 230.36232 232.47924 234.61916 236.80208 239.06900 241.44992
 244.08184 246.34376 248.35668 250.13260 251.56052 252.69444 253.52736 253.85428
 253.90220 253.68712 253.05804 252.01695 250.63387 248.80579 246.72571 244.56963
 242.37155 240.18647 238.01739 235.86731 233.73823 231.61615 229.65307 227.82099
 226.11491 224.59783 223.23875 222.02166 220.91458 219.88550 219.00042 218.15234
 217.40526 216.59618 215.70510 215.08002 214.54094 214.96555 215.96822 216.42447
 216.75029 216.71925 216.22072 215.36922 216.25397 219.49622 223.46907 226.85728
 230.91156 235.60173 240.53262 245.05904 249.11105 252.78110 256.15247 259.22549
 262.06317 264.72748 267.28250 269.87238 272.65179 275.40439 277.51089 278.99042
 280.30197 281.40192 282.14957 282.47516 282.68076 282.94138 283.44000 283.98401
 284.63058 285.25952 285.80896 286.50912
 366.78100 356.34649 345.78998 334.66747 323.08196 311.28745 299.16894 286.98343
 274.70692 262.61541 250.63590 239.94839 230.08188 221.19736 213.39085 206.40434
 200.24983 195.19932 191.79281 189.84630 188.89479 188.97028 189.81677 191.13626
 192.87275 194.97924 197.25373 199.62422 202.08071 204.57220 206.67169 208.52518
 210.16267 211.31916 211.55965 211.79914 211.74763 211.46412 211.10861 210.75009
 210.37858 210.10007 209.91956 209.79505 209.73454 210.07703 210.47452 210.87501
 211.67950 212.86899 214.13048 215.92497 217.86446 219.91895 222.02544 224.11993
 226.19142 228.28691 230.39540 232.51289 234.65338 236.83687 239.10436 241.48585
 244.11834 246.38082 248.39431 250.17080 251.59929 252.73378 253.56727 253.89476
 253.94325 253.72874 253.10023 252.05972 250.67721 248.84970 246.77019 244.61468
 242.41717 240.23266 238.06415 235.91464 233.78613 231.66462 229.70211 227.87060
 226.16509 224.64858 223.29007 222.07355 220.96704 219.93853 219.05402 218.20651
 217.46000 216.65149 215.76098 215.13647 214.59796 214.98895 215.91270 216.45433
 216.88449 216.75987 216.16908 215.33380 216.27277 219.40065 223.38797 226.79370
 230.89413 235.62331 240.58020 245.10219 249.14532 252.81779 256.19766 259.26910
 262.09756 264.73843 267.24274 269.77475 272.53870 275.40506 277.63672 279.15570
 280.44580 281.54404 282.25705 282.56903 282.71548 282.92752 283.39716 283.92587
 284.43030 284.99457 285.51788 286.18481
 366.78100 356.34580 345.78860 334.66539 323.07919 311.28399 299.16479 286.97859
 274.70138 262.60918 250.62898 239.94078 230.07358 221.18837 213.38117 206.39397
 200.23877 195.18756 191.78036 189.83316 188.88096 188.95576 189.80155 191.12035
 192.85615 194.96195 197.23575 199.60554 202.06134 204.55214 206.65094 208.50374
 210.14053 211.29633 211.53613 211.77493 211.72273 211.43852 211.08232 210.72312
 210.35092 210.07172 209.89051 209.76531 209.70411 210.04591 210.44270 210.84250
 211.64630 212.83510 214.09590 215.88969 217.82849 219.88229 221.98809 224.08189
 226.15268 228.24748 230.35528 232.47208 234.61188 236.79467 239.06147 241.44227
 244.07407 246.33587 248.34866 250.12446 251.55226 252.68606 253.51886 253.84565
 253.89345 253.67825 253.04905 252.00785 250.62464 248.79644 246.71624 244.56004
 242.36183 240.17663 238.00743 235.85723 233.72803 231.60582 229.64262 227.81042
 226.10422 224.58702 223.22781 222.01061 220.90341 219.87421 218.98901 218.14080
 217.39360 216.58440 215.69320 215.06800 214.52879 214.95222 215.95261 216.42493
 216.93182 216.82211 216.16237 215.25813 216.21114 219.30029 223.26796 226.79477
 230.89561 235.65378 240.60399 245.13028 249.17790 252.86650 256.26746 259.34586
 262.16998 264.77567 267.21750 269.66708 272.41476 275.39294 277.68219 279.21976
 280.54321 281.63666 282.30978 282.53748 282.64624 282.85358 283.29453 283.82632
 284.30511 284.80737 285.32251 285.97897
 366.78100 356.34534 345.78768 334.66403 323.07737 311.28171 299.16205 286.97540
 274.69774 262.60508 250.62442 239.93577 230.06811 221.18245 213.37479 206.38713
 200.23148 195.17982 191.77216 189.82450 188.87185 188.94619 189.79153 191.10987
 192.84522 194.95056 197.22390 199.59324 202.04858 204.53893 206.63727 208.48961
 210.12595 211.28130 211.52064 211.75898 211.70632 211.42167 211.06501 210.70535
 210.33269 210.05303 209.87138 209.74572 209.68406 210.02540 210.42175 210.82109
 211.62443 212.81277 214.07312 215.86646 217.80480 219.85814 221.96348 224.05683
 226.12717 228.22151 230.32885 232.44520 234.58454 236.76688 239.03322 241.41357
 244.04491 246.30625 248.31859 250.09393 251.52128 252.65462 253.48696 253.81330
 253.86065 253.64499 253.01533 251.97367 250.59002 248.76136 246.68070 244.52404
 242.32538 240.13973 237.97007 235.81941 233.68975 231.56710 229.60344 227.77078
 226.06412 224.54647 223.18681 221.96915 220.86149 219.83183 218.94618 218.09752
 217.34986 216.54020 215.64855 215.02289 214.48323 214.92850 215.98048 216.45322
 216.91267 216.81580 216.11375 215.15627 216.11389 219.20073 223.18504 226.77811
 230.89873 235.67593 240.63724 245.18015 249.24419 252.95375 256.37280 259.45392
 262.26486 264.84171 267.23529 269.62003 272.31747 275.34357 277.66745 279.20929
 280.54315 281.62271 282.27615 282.47147 282.56973 282.77127 283.17810 283.71173
 284.24402 284.77136 285.29709 285.96710
 354.97500 345.04800 334.58700 324.11500 313.32600 302.53700 291.65000 280.76700
 269.93100 259.19300 248.62200 238.61700 229.08700 220.35500 212.54000 205.53500
 199.46400 194.49300 191.14300 189.19000 188.08900 188.01400 188.72400 189.90600
 191.46900 193.38200 195.40300 197.55600 199.80700 202.06000 204.28800 206.47900
 208.55200 210.37800 212.02500 213.65900 214.99800 216.11800 217.17200 218.25900
 219.49400 220.64500 221.67900 222.61400 223.54500 224.98200 226.57100 228.19000
 229.79700 231.81100 233.86500 235.97200 238.24200 240.55300 242.89900 245.25300
 247.48800 249.53500 251.36600 252.84800 254.09800 255.16700 256.02700 256.25300
 256.09500 255.54300 253.93500 252.56600 251.38400 250.24500 249.05200 247.70100
 246.01600 243.99600 241.78400 239.39300 236.81300 234.22300 231.65800 229.14400
 226.74000 224.47300 222.33500 220.32500 218.44000 216.67700 214.96200 213.47200
 212.20000 211.10800 210.26000 209.63900 209.24400 209.03100 209.05800 209.33300
 209.78400 210.62600 211.33100 212.39100 213.62500 214.84668 217.72949 219.47640
 220.32566 220.86828 220.88710 220.27371 219.43733 218.84250 219.04934 220.86203
 222.60583 225.72206 229.03064 232.61777 236.12270 239.51333 242.70767 245.68587
 248.41061 250.90679 253.19353 254.91714 256.48655 257.94920 259.39966 260.69384
 261.81714 262.77997 263.71679 264.54570 265.26305 265.89772 266.47676 267.00133
 267.47312 267.89325 268.26027 268.72800
