|-------------------------------------------------------------------------|
|   File Name : in_temp.dat
|   Subject   : temperature profiles used for initial guess atmosphere
|   File Type : input of gmtr
|   Data Type : atmospherical data
|   Author/s  : WRF-Chem
|   Date      : Fri Jul 26 15:39:24 2024
|-------------------------------------------------------------------------|

 WRF-Chem temperature
#
 values of T (K)    (8f10.5)
#
 354.97500 345.04800 334.58700 324.11500 313.32600 302.53700 291.65000 280.76700
 269.93100 259.19300 248.62200 238.61700 229.08700 220.35500 212.54000 205.53500
 199.46400 194.49300 191.14300 189.19000 188.08900 188.01400 188.72400 189.90600
 191.46900 193.38200 195.40300 197.55600 199.80700 202.06000 204.28800 206.47900
 208.55200 210.37800 212.02500 213.65900 214.99800 216.11800 217.17200 218.25900
 219.49400 220.64500 221.67900 222.61400 223.54500 224.98200 226.57100 228.19000
 229.79700 231.81100 233.86500 235.97200 238.24200 240.55300 242.89900 245.25300
 247.48800 249.53500 251.36600 252.84800 254.09800 255.16700 256.02700 256.25300
 256.09500 255.54300 253.93500 252.56600 251.38400 250.24500 249.05200 247.70100
 246.01600 243.99600 241.78400 239.39300 236.81300 234.22300 231.65800 229.14400
 226.74000 224.47300 222.33500 220.32500 218.44000 216.67700 214.96200 213.47200
 212.20000 211.10800 210.26000 209.63900 209.24400 209.03100 209.05800 209.33300
 209.78400 210.62600 211.33100 212.39100 213.62500 214.84668 217.72949 219.47640
 220.32566 220.86828 220.88710 220.27371 219.43733 218.84250 219.04934 220.86203
 222.60583 225.72206 229.03064 232.61777 236.12270 239.51333 242.70767 245.68587
 248.41061 250.90679 253.19353 254.91714 256.48655 257.94920 259.39966 260.69384
 261.81714 262.77997 263.71679 264.54570 265.26305 265.89772 266.47676 267.00133
 267.47312 267.89325 268.26027 268.72800
 366.78100 356.33500 345.76700 334.63300 323.03600 311.23000 299.10000 286.90300
 274.61500 262.51200 250.52100 239.82200 229.94400 221.04800 213.23000 206.23200
 200.06600 195.00400 191.58600 189.62800 188.66500 188.72900 189.56400 190.87200
 192.59700 194.69200 196.95500 199.31400 201.75900 204.23900 206.32700 208.16900
 209.79500 210.94000 211.16900 211.39700 211.33400 211.03900 210.67200 210.30200
 209.91900 209.62900 209.43700 209.30100 209.22900 209.56000 209.94600 210.33500
 211.12800 212.30600 213.55600 215.33900 217.26700 219.31000 221.40500 223.48800
 225.54800 227.63200 229.72900 231.83500 233.96400 236.13600 238.39200 240.76200
 243.38300 245.63400 247.63600 249.40100 250.81800 251.94100 252.76300 253.07900
 253.11600 252.89000 252.25000 251.19800 249.80400 247.96500 245.87400 243.70700
 241.49800 239.30200 237.12200 234.96100 232.82100 230.68800 228.71400 226.87100
 225.15400 223.62600 222.25600 221.02800 219.91000 218.87000 217.97400 217.11500
 216.35700 215.53700 214.63500 213.99900 213.44900 212.85855 212.01316 212.61654
 214.26826 216.08686 218.14273 220.53346 223.40855 226.78828 231.49734 235.90155
 239.42278 243.28576 247.23140 251.11907 254.80144 258.23331 261.38913 264.27520
 266.89312 269.26852 271.44504 273.08845 274.58484 275.98591 277.39845 278.65879
 279.75272 280.69038 281.56708 282.34086 283.01050 283.60295 284.14348 284.63317
 285.07358 285.46577 285.80838 286.24500
 381.81900 372.39900 361.20600 349.77600 337.62200 324.85300 311.81000 298.35300
 284.86000 271.32400 258.56100 246.30400 236.08700 226.79600 218.44800 211.29000
 205.52200 200.89400 197.38100 194.84800 193.01500 192.31500 192.25000 192.43100
 192.91200 193.53700 194.13600 194.71200 195.26200 195.83100 196.39300 196.97600
 197.60400 198.14900 198.58400 199.05700 199.69500 200.37800 201.05400 201.70800
 202.31300 202.85700 203.35500 203.86200 204.56900 205.29700 206.02600 206.98700
 208.19300 209.44100 210.96900 212.57600 214.46200 216.51300 218.63000 220.85300
 223.34100 225.96200 228.73900 231.69700 234.70600 237.70600 240.69200 243.65700
 246.73700 249.69900 252.52100 255.06300 257.29000 259.23300 260.63300 261.68000
 262.46100 262.79800 262.69100 262.22400 261.06900 259.52500 257.70700 255.50700
 253.00100 250.30200 247.39800 244.45200 241.65400 239.05400 236.73300 234.59000
 232.59500 230.72500 228.83400 226.82600 224.66600 222.38700 220.10400 217.71500
 215.45900 213.06600 210.54600 208.09300 205.35400 202.08130 196.05959 200.71215
 209.01611 216.90438 223.84126 229.78593 235.00632 240.20838 245.98943 250.68668
 254.32982 257.93487 261.55666 264.96801 268.15192 271.06452 273.76717 276.25691
 278.57680 280.74479 282.77456 284.60533 286.27232 287.81705 289.31715 290.65561
 291.81734 292.81312 293.70701 294.49387 295.17482 295.77730 296.32696 296.82492
 297.27278 297.67160 298.02000 298.46400
 399.33000 389.90700 379.81300 368.66800 357.52200 345.30100 333.07400 320.22700
 307.21600 293.84800 280.37600 267.29600 254.61000 242.98700 232.15100 221.97700
 212.67200 204.28600 197.66900 192.82100 189.48600 187.45200 186.81400 187.08900
 187.78100 189.05400 190.64800 192.54200 194.63000 196.75200 198.67100 200.15800
 201.53500 202.48700 202.97500 203.34000 203.53900 203.49700 203.38500 203.24700
 203.00500 202.78600 202.60300 202.43700 202.42600 202.88800 203.42000 203.95100
 204.89500 205.99200 207.30100 208.95800 210.73800 213.10000 215.56400 218.18000
 220.96600 223.91800 226.96100 230.09200 233.29300 236.55700 239.95500 243.53700
 246.84500 249.39000 251.54200 253.47400 255.19500 256.48400 257.43100 258.05900
 258.21200 258.04000 257.58200 256.64300 255.23900 253.50700 251.40800 249.05600
 246.57600 243.99400 241.38900 238.83000 236.34400 233.98600 231.96900 230.11800
 228.42300 226.89900 225.54800 224.29700 223.10500 221.96500 220.95800 220.11300
 219.49000 218.92000 218.32500 217.88100 217.42300 216.96366 216.35568 216.80261
 217.73415 218.28582 218.64258 219.10077 220.44626 222.53987 226.38451 230.35736
 233.59734 237.39164 241.29814 245.22796 248.98002 252.51130 255.78595 258.80109
 261.54781 264.05210 266.34239 268.04198 269.58951 271.01303 272.35754 273.55718
 274.59842 275.49092 276.28989 276.99307 277.60161 278.14001 278.63122 279.07623
 279.47646 279.83287 280.14422 280.54100
 399.73800 389.78500 379.66200 368.15100 356.64100 344.35000 331.79200 318.88800
 305.72600 292.49300 279.20900 266.73800 254.69600 244.21100 234.45700 225.43300
 217.56900 210.45100 204.30000 199.30600 195.45800 192.57600 191.02700 190.38600
 190.23900 190.53400 191.16600 191.92500 192.79500 193.76600 194.73200 195.31200
 195.80000 196.05200 196.11500 196.11500 196.03900 195.72300 195.34000 194.98900
 194.75100 194.79200 195.13300 195.59800 196.50600 198.13600 199.85800 201.56600
 204.17900 206.82300 209.89300 213.28400 216.82800 220.60500 224.38700 228.20900
 232.03200 235.82500 239.56000 243.25800 246.84500 250.20100 253.70900 257.46800
 261.53000 264.22100 266.60100 268.68100 270.32900 271.74100 272.83600 273.47400
 273.89800 274.00200 273.75700 273.28800 272.37100 271.10000 269.58900 267.77900
 265.81600 263.72100 261.39300 258.91600 256.29800 253.42300 250.33100 247.11400
 243.83700 240.52900 237.24900 233.99900 230.72800 227.51500 224.25400 220.95200
 217.62700 213.65600 210.12100 206.78900 204.01000 201.99491 199.07309 198.76551
 199.40006 200.48994 201.46112 202.31912 203.45100 204.96110 207.47502 210.85391
 213.70530 217.29629 220.99574 224.72316 228.28753 231.64854 234.68024 237.40893
 239.70644 241.60899 243.46854 245.67368 247.68154 249.52395 251.24767 252.78566
 254.12057 255.26479 256.23740 257.09036 257.82852 258.48160 259.07744 259.61723
 260.10271 260.53504 260.91270 261.39400
 399.73800 389.78500 379.66200 368.15100 356.64100 344.35000 331.79200 318.88800
 305.72600 292.49300 279.20900 266.73800 254.69600 244.21100 234.45700 225.43300
 217.56900 210.45100 204.30000 199.30600 195.45800 192.57600 191.02700 190.38600
 190.23900 190.53400 191.16600 191.92500 192.79500 193.76600 194.73200 195.31200
 195.80000 196.05200 196.11500 196.11500 196.03900 195.72300 195.34000 194.98900
 194.75100 194.79200 195.13300 195.59800 196.50600 198.13600 199.85800 201.56600
 204.17900 206.82300 209.89300 213.28400 216.82800 220.60500 224.38700 228.20900
 232.03200 235.82500 239.56000 243.25800 246.84500 250.20100 253.70900 257.46800
 261.53000 264.22100 266.60100 268.68100 270.32900 271.74100 272.83600 273.47400
 273.89800 274.00200 273.75700 273.28800 272.37100 271.10000 269.58900 267.77900
 265.81600 263.72100 261.39300 258.91600 256.29800 253.42300 250.33100 247.11400
 243.83700 240.52900 237.24900 233.99900 230.72800 227.51500 224.25400 220.95200
 217.62700 213.65600 210.12100 206.78900 204.01000 201.99491 199.07309 198.76551
 199.40006 200.48994 201.46112 202.31912 203.45100 204.96110 207.47502 210.85391
 213.70530 217.29629 220.99574 224.72316 228.28753 231.64854 234.68024 237.40893
 239.70644 241.60899 243.46854 245.67368 247.68154 249.52395 251.24767 252.78566
 254.12057 255.26479 256.23740 257.09036 257.82852 258.48160 259.07744 259.61723
 260.10271 260.53504 260.91270 261.39400
 399.33000 389.90700 379.81300 368.66800 357.52200 345.30100 333.07400 320.22700
 307.21600 293.84800 280.37600 267.29600 254.61000 242.98700 232.15100 221.97700
 212.67200 204.28600 197.66900 192.82100 189.48600 187.45200 186.81400 187.08900
 187.78100 189.05400 190.64800 192.54200 194.63000 196.75200 198.67100 200.15800
 201.53500 202.48700 202.97500 203.34000 203.53900 203.49700 203.38500 203.24700
 203.00500 202.78600 202.60300 202.43700 202.42600 202.88800 203.42000 203.95100
 204.89500 205.99200 207.30100 208.95800 210.73800 213.10000 215.56400 218.18000
 220.96600 223.91800 226.96100 230.09200 233.29300 236.55700 239.95500 243.53700
 246.84500 249.39000 251.54200 253.47400 255.19500 256.48400 257.43100 258.05900
 258.21200 258.04000 257.58200 256.64300 255.23900 253.50700 251.40800 249.05600
 246.57600 243.99400 241.38900 238.83000 236.34400 233.98600 231.96900 230.11800
 228.42300 226.89900 225.54800 224.29700 223.10500 221.96500 220.95800 220.11300
 219.49000 218.92000 218.32500 217.88100 217.42300 216.96366 216.35568 216.80261
 217.73415 218.28582 218.64258 219.10077 220.44626 222.53987 226.38451 230.35736
 233.59734 237.39164 241.29814 245.22796 248.98002 252.51130 255.78595 258.80109
 261.54781 264.05210 266.34239 268.04198 269.58951 271.01303 272.35754 273.55718
 274.59842 275.49092 276.28989 276.99307 277.60161 278.14001 278.63122 279.07623
 279.47646 279.83287 280.14422 280.54100
 381.81900 372.39900 361.20600 349.77600 337.62200 324.85300 311.81000 298.35300
 284.86000 271.32400 258.56100 246.30400 236.08700 226.79600 218.44800 211.29000
 205.52200 200.89400 197.38100 194.84800 193.01500 192.31500 192.25000 192.43100
 192.91200 193.53700 194.13600 194.71200 195.26200 195.83100 196.39300 196.97600
 197.60400 198.14900 198.58400 199.05700 199.69500 200.37800 201.05400 201.70800
 202.31300 202.85700 203.35500 203.86200 204.56900 205.29700 206.02600 206.98700
 208.19300 209.44100 210.96900 212.57600 214.46200 216.51300 218.63000 220.85300
 223.34100 225.96200 228.73900 231.69700 234.70600 237.70600 240.69200 243.65700
 246.73700 249.69900 252.52100 255.06300 257.29000 259.23300 260.63300 261.68000
 262.46100 262.79800 262.69100 262.22400 261.06900 259.52500 257.70700 255.50700
 253.00100 250.30200 247.39800 244.45200 241.65400 239.05400 236.73300 234.59000
 232.59500 230.72500 228.83400 226.82600 224.66600 222.38700 220.10400 217.71500
 215.45900 213.06600 210.54600 208.09300 205.35400 202.08130 196.05959 200.71215
 209.01611 216.90438 223.84126 229.78593 235.00632 240.20838 245.98943 250.68668
 254.32982 257.93487 261.55666 264.96801 268.15192 271.06452 273.76717 276.25691
 278.57680 280.74479 282.77456 284.60533 286.27232 287.81705 289.31715 290.65561
 291.81734 292.81312 293.70701 294.49387 295.17482 295.77730 296.32696 296.82492
 297.27278 297.67160 298.02000 298.46400
 366.78100 356.32568 345.74836 334.60504 322.99872 311.18340 299.04409 286.83777
 274.54045 262.42813 250.42781 239.71949 229.83217 220.92685 213.09953 206.09221
 199.91689 194.84558 191.41826 189.45094 188.47862 188.53330 189.35898 190.65766
 192.37334 194.45902 196.71270 199.06238 201.49807 203.96875 206.04743 207.88011
 209.49679 210.63247 210.85215 211.07083 210.99851 210.69419 210.31787 209.93856
 209.54624 209.24692 209.04560 208.90028 208.81896 209.14064 209.51732 209.89700
 210.68068 211.84936 213.09004 214.86373 216.78241 218.81609 220.90177 222.97545
 225.02613 227.10081 229.18849 231.28517 233.40485 235.56753 237.81422 240.17490
 242.78658 245.02826 247.02094 248.77662 250.18430 251.29798 252.11066 252.41734
 252.44502 252.20971 251.56039 250.49907 249.09575 247.24743 245.14711 242.97079
 240.75247 238.54715 236.35783 234.18751 232.03820 229.89588 227.91256 226.06024
 224.33392 222.79660 221.41728 220.17996 219.05264 218.00332 217.09800 216.22969
 215.46237 214.63305 213.72173 213.07641 212.51709 212.44698 212.29263 213.51883
 215.23393 217.25183 218.34633 218.39879 219.63617 223.07556 228.32864 232.98357
 236.76321 240.55453 244.23918 247.76918 251.10727 253.87102 256.23270 258.74298
 261.92722 264.71335 266.79852 268.59186 270.45355 272.42624 274.20114 275.77499
 277.20679 278.65796 280.17270 281.53876 282.72424 283.77713 284.74350 285.62442
 286.42368 287.14157 287.77606 288.61685
 366.78100 356.32554 345.74807 334.60461 322.99814 311.18268 299.04321 286.83675
 274.53928 262.42682 250.42635 239.71789 229.83042 220.92496 213.09749 206.09003
 199.91456 194.84310 191.41563 189.44817 188.47570 188.53024 189.35577 190.65431
 192.36984 194.45538 196.70891 199.05845 201.49398 203.96452 206.04306 207.87559
 209.49213 210.62766 210.84720 211.06573 210.99327 210.68880 210.31234 209.93287
 209.54041 209.24094 209.03948 208.89401 208.81255 209.13408 209.51062 209.89015
 210.67369 211.84222 213.08276 214.85629 216.77483 218.80836 220.89390 222.96743
 225.01797 227.09251 229.18004 231.27658 233.39611 235.55865 237.80518 240.16572
 242.77725 245.01879 247.01132 248.76686 250.17439 251.28793 252.10046 252.40700
 252.43453 252.19907 251.54960 250.48814 249.08467 247.23621 245.13574 242.95928
 240.74081 238.53535 236.34588 234.17542 232.02595 229.88349 227.90003 226.04756
 224.32110 222.78363 221.40417 220.16670 219.03924 217.98977 217.08431 216.21584
 215.44838 214.61891 213.70745 213.06198 212.50252 212.46808 212.39659 213.65256
 215.32909 217.28500 218.45811 218.58647 219.77609 223.10869 228.26997 232.85417
 236.60318 240.39629 244.09909 247.63010 250.91895 253.63615 256.02347 258.61276
 261.77509 264.52975 266.62183 268.44165 270.31506 272.28326 274.05157 275.63177
 277.09195 278.57623 280.09735 281.46426 282.65033 283.70383 284.67020 285.55188
 286.35132 287.06946 287.70389 288.54550
 366.78100 356.32541 345.74781 334.60422 322.99762 311.18203 299.04244 286.83584
 274.53825 262.42566 250.42506 239.71647 229.82887 220.92328 213.09569 206.08809
 199.91250 194.84091 191.41331 189.44572 188.47312 188.52753 189.35294 190.65134
 192.36675 194.45216 196.70556 199.05497 201.49037 203.96078 206.03919 207.87159
 209.48800 210.62341 210.84281 211.06122 210.98862 210.68403 210.30744 209.92784
 209.53525 209.23566 209.03406 208.88847 208.80687 209.12828 209.50469 209.88409
 210.66750 211.83591 213.07631 214.84972 216.76812 218.80153 220.88694 222.96034
 225.01075 227.08516 229.17256 231.26897 233.38837 235.55078 237.79719 240.15759
 242.76900 245.01041 247.00281 248.75822 250.16562 251.27903 252.09144 252.39784
 252.42525 252.18966 251.54006 250.47847 249.07487 247.22628 245.12569 242.94909
 240.73050 238.52491 236.33531 234.16472 232.01512 229.87253 227.88894 226.03634
 224.30975 222.77216 221.39256 220.15497 219.02737 217.97778 217.07219 216.20359
 215.43600 214.60641 213.69481 213.04922 212.48962 212.49159 212.50481 213.79480
 215.40071 217.31857 218.57280 218.78049 219.93307 223.15680 228.21318 232.72920
 236.43709 240.22943 243.95139 247.47682 250.71622 253.39453 255.81268 258.47983
 261.61911 264.34109 266.44016 268.29050 270.18164 272.14941 273.91196 275.49966
 276.98782 278.49942 280.02441 281.39221 282.57944 283.63257 284.59976 285.48154
 286.28119 286.99973 287.63452 288.47714
 366.78100 356.32530 345.74760 334.60390 322.99719 311.18149 299.04179 286.83509
 274.53739 262.42469 250.42399 239.71529 229.82758 220.92188 213.09418 206.08648
 199.91078 194.83908 191.41138 189.44367 188.47097 188.52527 189.35057 190.64887
 192.36417 194.44947 196.70277 199.05206 201.48736 203.95766 206.03596 207.86826
 209.48456 210.61986 210.83915 211.05745 210.98475 210.68005 210.30335 209.92365
 209.53095 209.23125 209.02954 208.88384 208.80214 209.12344 209.49974 209.87904
 210.66234 211.83063 213.07093 214.84423 216.76253 218.79583 220.88113 222.95443
 225.00473 227.07902 229.16632 231.26262 233.38192 235.54422 237.79052 240.15082
 242.76211 245.00341 246.99571 248.75101 250.15831 251.27161 252.08391 252.39021
 252.41750 252.18180 251.53210 250.47040 249.06670 247.21800 245.11730 242.94059
 240.72189 238.51619 236.32649 234.15579 232.00609 229.86339 227.87969 226.02698
 224.30028 222.76258 221.38288 220.14518 219.01748 217.96778 217.06207 216.19337
 215.42567 214.59597 213.68427 213.03857 212.47887 212.51797 212.61775 213.93761
 215.46169 217.35414 218.67844 218.98648 220.11237 223.21297 228.15735 232.59949
 236.27135 240.06367 243.79457 247.30293 250.49577 253.14703 255.60167 258.34439
 261.46011 264.15036 266.25632 268.13858 270.05173 272.02356 273.78268 275.37769
 276.89316 278.42535 279.95428 281.32309 282.50955 283.56412 284.53210 285.41360
 286.21353 286.93225 287.56723 288.41116
 366.78100 356.32527 345.74754 334.60381 322.99707 311.18134 299.04161 286.83488
 274.53715 262.42442 250.42368 239.71495 229.82722 220.92149 213.09376 206.08603
 199.91030 194.83856 191.41083 189.44310 188.47037 188.52464 189.34991 190.64817
 192.36344 194.44871 196.70198 199.05125 201.48652 203.95679 206.03505 207.86732
 209.48359 210.61886 210.83813 211.05640 210.98366 210.67893 210.30220 209.92247
 209.52974 209.23001 209.02828 208.88254 208.80081 209.12208 209.49835 209.87762
 210.66089 211.82915 213.06942 214.84269 216.76096 218.79423 220.87950 222.95276
 225.00303 227.07730 229.16457 231.26084 233.38011 235.54238 237.78864 240.14891
 242.76018 245.00145 246.99372 248.74899 250.15625 251.26952 252.08179 252.38806
 252.41533 252.17960 251.52987 250.46813 249.06440 247.21567 245.11494 242.93821
 240.71948 238.51374 236.32401 234.15328 232.00355 229.86082 227.87709 226.02436
 224.29762 222.75989 221.38016 220.14243 219.01470 217.96497 217.05923 216.19050
 215.42277 214.59304 213.68131 213.03558 212.47585 212.54997 212.73099 214.07664
 215.52156 217.38765 218.78380 219.19600 220.30763 223.27867 228.10835 232.46713
 236.11053 239.90289 243.62808 247.10983 250.25748 252.89328 255.39090 258.20605
 261.29807 263.95813 266.06848 267.98376 269.92456 271.90518 273.66434 275.26703
 276.80084 278.35696 279.88779 281.25595 282.44379 283.49716 284.46594 285.34692
 286.14676 286.86392 287.50262 288.34430
 366.78100 356.32527 345.74754 334.60382 322.99709 311.18136 299.04163 286.83491
 274.53718 262.42445 250.42372 239.71499 229.82727 220.92154 213.09381 206.08608
 199.91036 194.83863 191.41090 189.44317 188.47045 188.52472 189.34999 190.64826
 192.36353 194.44881 196.70208 199.05135 201.48662 203.95690 206.03517 207.86744
 209.48371 210.61898 210.83826 211.05653 210.98380 210.67907 210.30235 209.92262
 209.52989 209.23016 209.02844 208.88271 208.80098 209.12225 209.49852 209.87780
 210.66107 211.82934 213.06961 214.84289 216.76116 218.79443 220.87970 222.95297
 225.00325 227.07752 229.16479 231.26106 233.38034 235.54261 237.78888 240.14915
 242.76043 245.00170 246.99397 248.74924 250.15651 251.26979 252.08206 252.38833
 252.41560 252.17988 251.53015 250.46842 249.06469 247.21596 245.11524 242.93851
 240.71978 238.51405 236.32433 234.15360 232.00387 229.86114 227.87742 226.02469
 224.29796 222.76023 221.38050 220.14278 219.01505 217.96532 217.05959 216.19087
 215.42314 214.59341 213.68168 213.03595 212.47623 212.58508 212.84673 214.21109
 215.57756 217.42122 218.89767 219.39998 220.50922 223.35439 228.06741 232.34396
 235.95703 239.74463 243.45296 246.89937 250.00360 252.63051 255.17451 258.05795
 261.12869 263.76120 265.87646 267.82520 269.79980 271.79453 273.55908 275.17007
 276.71652 278.28836 279.81967 281.18829 282.37659 283.43069 284.39774 285.27841
 286.07962 286.79880 287.43420 288.27936
 366.78100 356.32534 345.74767 334.60401 322.99735 311.18168 299.04202 286.83536
 274.53769 262.42503 250.42437 239.71570 229.82804 220.92238 213.09472 206.08705
 199.91139 194.83973 191.41206 189.44440 188.47174 188.52607 189.35141 190.64975
 192.36508 194.45042 196.70376 199.05309 201.48843 203.95877 206.03710 207.86944
 209.48578 210.62111 210.84045 211.05879 210.98613 210.68146 210.30480 209.92514
 209.53247 209.23281 209.03115 208.88548 208.80382 209.12516 209.50149 209.88083
 210.66417 211.83250 213.07284 214.84618 216.76451 218.79785 220.88319 222.95652
 225.00686 227.08120 229.16854 231.26487 233.38421 235.54655 237.79288 240.15322
 242.76456 245.00589 246.99823 248.75357 250.16090 251.27424 252.08658 252.39291
 252.42025 252.18459 251.53492 250.47326 249.06960 247.22093 245.12027 242.94361
 240.72495 238.51928 236.32962 234.15896 232.00929 229.86663 227.88297 226.03030
 224.30364 222.76598 221.38631 220.14865 219.02099 217.97132 217.06566 216.19700
 215.42933 214.59967 213.68801 213.04234 212.48268 212.62440 212.96248 214.34012
 215.63210 217.45619 219.01482 219.59720 220.71477 223.43823 228.03366 232.24066
 235.81528 239.59108 243.27286 246.67354 249.73489 252.35834 254.94949 257.89490
 260.94815 263.55780 265.68433 267.67065 269.68130 271.69373 273.46661 275.08728
 276.64395 278.21808 279.75046 281.11954 282.30847 283.36313 284.33044 285.21381
 286.01309 286.73245 287.36630 288.21378
 366.78100 356.32553 345.74807 334.60460 322.99814 311.18267 299.04320 286.83674
 274.53927 262.42680 250.42634 239.71787 229.83041 220.92494 213.09747 206.09001
 199.91454 194.84307 191.41561 189.44814 188.47568 188.53021 189.35574 190.65428
 192.36981 194.45535 196.70888 199.05841 201.49395 203.96448 206.04301 207.87555
 209.49208 210.62762 210.84715 211.06568 210.99322 210.68875 210.31228 209.93282
 209.54035 209.24089 209.03942 208.89395 208.81249 209.13402 209.51055 209.89009
 210.67362 211.84216 213.08269 214.85622 216.77476 218.80829 220.89383 222.96736
 225.01789 227.09243 229.17996 231.27649 233.39603 235.55856 237.80510 240.16563
 242.77716 245.01870 247.01123 248.76676 250.17430 251.28783 252.10037 252.40690
 252.43443 252.19897 251.54950 250.48804 249.08457 247.23610 245.13564 242.95917
 240.74070 238.53524 236.34577 234.17531 232.02584 229.88337 227.89991 226.04744
 224.32097 222.78351 221.40404 220.16658 219.03911 217.98964 217.08418 216.21571
 215.44825 214.61878 213.70731 213.06185 212.50238 212.67114 213.07201 214.46205
 215.69221 217.49582 219.12831 219.79051 220.92148 223.52745 228.00548 232.15318
 235.68916 239.44565 243.08913 246.43004 249.44772 252.07771 254.72115 257.72177
 260.75906 263.35114 265.49545 267.52347 269.57120 271.60242 273.38467 275.01425
 276.58057 278.14975 279.68097 281.05118 282.24072 283.29599 284.26425 285.14722
 285.94748 286.66754 287.30301 288.14868
 366.78100 356.32589 345.74878 334.60566 322.99955 311.18444 299.04533 286.83921
 274.54210 262.42999 250.42988 239.72176 229.83465 220.92954 213.10243 206.09531
 199.92020 194.84909 191.42198 189.45487 188.48275 188.53764 189.36353 190.66242
 192.37830 194.46419 196.71808 199.06797 201.50385 203.97474 206.05363 207.88652
 209.50340 210.63929 210.85918 211.07807 211.00596 210.70184 210.32573 209.94662
 209.55451 209.25539 209.05428 208.90917 208.82806 209.14994 209.52683 209.90672
 210.69061 211.85950 213.10038 214.87427 216.79316 218.82705 220.91293 222.98682
 225.03771 227.11260 229.20048 231.29737 233.41726 235.58015 237.82703 240.18792
 242.79981 245.04170 247.03459 248.79047 250.19836 251.31225 252.12514 252.43202
 252.45991 252.22480 251.57569 250.51457 249.11146 247.26335 245.16324 242.98712
 240.76901 238.56390 236.37479 234.20468 232.05556 229.91345 227.93034 226.07823
 224.35211 222.81500 221.43589 220.19878 219.07166 218.02255 217.11744 216.24933
 215.48221 214.65310 213.74199 213.09688 212.53777 212.72632 213.17290 214.57686
 215.75851 217.54453 219.24464 219.97980 221.12315 223.61934 227.97990 232.07098
 235.57567 239.30879 242.90308 246.17271 249.14685 251.79152 254.49043 257.54135
 260.56540 263.14655 265.31247 267.38208 269.46689 271.51797 273.31003 274.94904
 276.52802 278.08298 279.61383 280.98444 282.17462 283.23218 284.20004 285.08270
 285.88364 286.60394 287.24005 288.08749
 366.78100 356.32629 345.74957 334.60686 323.00115 311.18644 299.04772 286.84201
 274.54530 262.43359 250.43387 239.72616 229.83945 220.93473 213.10802 206.10131
 199.92660 194.85588 191.42917 189.46246 188.49075 188.54603 189.37232 190.67161
 192.38789 194.47418 196.72847 199.07876 201.51504 203.98633 206.06562 207.89891
 209.51619 210.65248 210.87277 211.09205 211.02034 210.71663 210.34092 209.96220
 209.57049 209.27178 209.07107 208.92635 208.84564 209.16793 209.54522 209.92550
 210.70979 211.87908 213.12036 214.89465 216.81394 218.84823 220.93451 223.00880
 225.06009 227.13538 229.22366 231.32095 233.44124 235.60452 237.85181 240.21310
 242.82539 245.06767 247.06096 248.81725 250.22554 251.33982 252.15311 252.46040
 252.48868 252.25397 251.60526 250.54455 249.14183 247.29412 245.19441 243.01870
 240.80098 238.59627 236.40756 234.23784 232.08913 229.94742 227.96471 226.11299
 224.38728 222.85057 221.47186 220.23514 219.10843 218.05972 217.15500 216.28729
 215.52058 214.69187 213.78115 213.13644 212.57773 212.78416 213.27202 214.67973
 215.83022 217.60533 219.36903 220.16599 221.31737 223.70921 227.95464 231.99121
 235.47511 239.18480 242.71852 245.90343 248.83276 251.49960 254.25961 257.35950
 260.37134 262.94061 265.12820 267.24310 269.37021 271.44220 273.24719 274.89508
 276.47910 278.02161 279.55087 280.92249 282.11200 283.17059 284.13855 285.02151
 285.82278 286.54391 287.18008 288.02893
 366.78100 356.32688 345.75076 334.60865 323.00353 311.18941 299.05129 286.84617
 274.55005 262.43894 250.43982 239.73270 229.84658 220.94246 213.11634 206.11023
 199.93611 194.86599 191.43987 189.47375 188.50264 188.55852 189.38540 190.68528
 192.40216 194.48904 196.74393 199.09481 201.53169 204.00357 206.08345 207.91733
 209.53522 210.67210 210.89298 211.11286 211.04174 210.73863 210.36351 209.98539
 209.59427 209.29615 209.09603 208.95192 208.87180 209.19468 209.57256 209.95344
 210.73832 211.90821 213.15009 214.92497 216.84485 218.87973 220.96662 223.04150
 225.09338 227.16926 229.25814 231.35602 233.47691 235.64079 237.88867 240.25055
 242.86343 245.10631 247.10020 248.85708 250.26596 251.38084 252.19472 252.50261
 252.53149 252.29737 251.64925 250.58913 249.18701 247.33990 245.24078 243.06566
 240.84854 238.64442 236.45630 234.28719 232.13907 229.99795 228.01583 226.16471
 224.43960 222.90348 221.52536 220.28924 219.16312 218.11500 217.21089 216.34377
 215.57765 214.74953 213.83941 213.19529 212.63718 212.85141 213.35753 214.78351
 215.89835 217.67642 219.50728 220.34947 221.50204 223.79019 227.92839 231.91370
 235.38008 239.06737 242.53476 245.63153 248.51842 251.21011 254.02907 257.17230
 260.16962 262.72617 264.94644 267.11288 269.28363 271.37683 273.19531 274.85043
 276.42834 277.96671 279.49460 280.86533 282.05630 283.11304 284.08151 284.96490
 285.76593 286.48651 287.12427 287.97482
 366.78100 356.32742 345.75183 334.61025 323.00566 311.19208 299.05449 286.84991
 274.55432 262.44374 250.44515 239.73857 229.85298 220.94940 213.12381 206.11823
 199.94464 194.87506 191.44947 189.48389 188.51330 188.56972 189.39713 190.69755
 192.41496 194.50238 196.75779 199.10921 201.54662 204.01904 206.09945 207.93387
 209.55228 210.68970 210.91111 211.13153 211.06094 210.75836 210.38377 210.00619
 209.61560 209.31802 209.11843 208.97485 208.89526 209.21868 209.59709 209.97851
 210.76392 211.93434 213.17675 214.95217 216.87258 218.90800 220.99541 223.07083
 225.12324 227.19966 229.28907 231.38749 233.50890 235.67332 237.92173 240.28415
 242.89756 245.14098 247.13539 248.89281 250.30222 251.41764 252.23205 252.54047
 252.56988 252.33630 251.68871 250.62913 249.22754 247.38096 245.28237 243.10779
 240.89120 238.68762 236.50003 234.33145 232.18387 230.04328 228.06170 226.21111
 224.48653 222.95094 221.57336 220.33777 219.21219 218.16460 217.26102 216.39443
 215.62885 214.80126 213.89168 213.24809 212.69051 212.91510 213.44574 214.87651
 215.97725 217.74249 219.64125 220.52179 221.68118 223.86641 227.91783 231.85608
 235.29834 238.96259 242.36177 245.36792 248.20262 250.91020 253.78444 256.96875
 259.95596 262.51285 264.77444 266.99591 269.20868 271.32233 273.15286 274.81271
 276.38617 277.91315 279.43912 280.80902 281.99988 283.05850 284.02768 284.91116
 285.71268 286.43365 287.07199 287.92401
 366.78100 356.32783 345.75267 334.61150 323.00734 311.19417 299.05700 286.85284
 274.55767 262.44750 250.44934 239.74317 229.85801 220.95484 213.12967 206.12451
 199.95134 194.88217 191.45701 189.49184 188.52168 188.57851 189.40634 190.70718
 192.42501 194.51284 196.76868 199.12051 201.55835 204.03118 206.11201 207.94685
 209.56568 210.70351 210.92535 211.14618 211.07602 210.77385 210.39968 210.02252
 209.63235 209.33518 209.13602 208.99285 208.91369 209.23752 209.61635 209.99819
 210.78402 211.95485 213.19769 214.97352 216.89436 218.93019 221.01802 223.09386
 225.14669 227.22352 229.31336 231.41219 233.53403 235.69886 237.94769 240.31053
 242.92436 245.16819 247.16303 248.92086 250.33070 251.44653 252.26136 252.57020
 252.60003 252.36686 251.71970 250.66053 249.25937 247.41320 245.31503 243.14087
 240.92470 238.72153 236.53437 234.36620 232.21904 230.07887 228.09770 226.24754
 224.52337 222.98820 221.61104 220.37587 219.25071 218.20354 217.30037 216.43421
 215.66904 214.84187 213.93271 213.28954 212.73238 212.97108 213.53508 214.97357
 216.06961 217.76302 219.73909 220.80368 221.86618 223.99229 227.88408 231.77075
 235.21371 238.85855 242.18175 245.08098 247.85435 250.58537 253.52838 256.76248
 259.74933 262.31488 264.62073 266.89374 269.14560 271.27716 273.11780 274.78226
 276.34570 277.86530 279.38846 280.75879 281.94977 283.00693 283.97723 284.86005
 285.66235 286.38428 287.02277 287.87692
 366.78100 356.32809 345.75319 334.61228 323.00837 311.19546 299.05856 286.85465
 274.55974 262.44983 250.45193 239.74602 229.86111 220.95820 213.13330 206.12839
 199.95548 194.88657 191.46167 189.49676 188.52685 188.58394 189.41204 190.71313
 192.43122 194.51931 196.77541 199.12750 201.56559 204.03868 206.11978 207.95487
 209.57396 210.71205 210.93415 211.15524 211.08533 210.78342 210.40952 210.03261
 209.64270 209.34579 209.14689 209.00398 208.92507 209.24916 209.62826 210.01035
 210.79644 211.96753 213.21063 214.98672 216.90781 218.94391 221.03200 223.10809
 225.16118 227.23828 229.32837 231.42746 233.54955 235.71465 237.96374 240.32683
 242.94092 245.18502 247.18011 248.93820 250.34829 251.46439 252.27948 252.58857
 252.61866 252.38576 251.73885 250.67994 249.27903 247.43313 245.33522 243.16131
 240.94540 238.74250 236.55559 234.38768 232.24077 230.10087 228.11996 226.27005
 224.54614 223.01124 221.63433 220.39942 219.27451 218.22761 217.32470 216.45879
 215.69388 214.86698 213.95807 213.31516 212.75826 213.01761 213.63036 215.05994
 216.15724 217.84052 219.85406 221.03040 222.02072 224.07353 227.86859 231.72710
 235.15271 238.76279 241.99263 244.76962 247.48787 250.25679 253.27893 256.56473
 259.55350 262.12610 264.47598 266.80347 269.09412 271.24225 273.09161 274.75766
 276.31064 277.81802 279.34000 280.71021 281.90170 282.95996 283.92917 284.81290
 285.61581 286.33832 286.97714 287.83505
 366.78100 356.32861 345.75422 334.61383 323.01044 311.19805 299.06166 286.85827
 274.56388 262.45449 250.45710 239.75171 229.86732 220.96493 213.14054 206.13615
 199.96376 194.89537 191.47098 189.50659 188.53720 188.59481 189.42342 190.72503
 192.44364 194.53225 196.78886 199.14147 201.58008 204.05369 206.13530 207.97091
 209.59052 210.72913 210.95174 211.17335 211.10396 210.80257 210.42918 210.05279
 209.66340 209.36701 209.16862 209.02623 208.94784 209.27245 209.65206 210.03467
 210.82128 211.99289 213.23650 215.01311 216.93472 218.97133 221.05994 223.13655
 225.19016 227.26777 229.35838 231.45799 233.58060 235.74621 237.99582 240.35943
 242.97404 245.21865 247.21426 248.97287 250.38348 251.50009 252.31570 252.62531
 252.65592 252.42353 251.77714 250.71875 249.31836 247.47297 245.37558 243.20219
 240.98680 238.78441 236.59802 234.43063 232.28424 230.14485 228.16446 226.31507
 224.59168 223.05729 221.68090 220.44651 219.32212 218.27573 217.37334 216.50795
 215.74356 214.91717 214.00878 213.36639 212.81000 213.07547 213.70265 215.14594
 216.26064 217.96666 219.95808 221.21422 222.15379 224.13853 227.88066 231.70753
 235.09415 238.64613 241.77087 244.43985 247.12488 249.94121 253.04128 256.37576
 259.36621 261.94852 264.34290 266.72299 269.05109 271.21463 273.07098 274.73734
 276.27338 277.77423 279.29446 280.66483 281.85754 282.91568 283.88394 284.76874
 285.57104 286.29663 286.93579 287.79477
 366.78100 356.32927 345.75554 334.61582 323.01309 311.20136 299.06563 286.86290
 274.56918 262.46045 250.46372 239.75899 229.87526 220.97354 213.14981 206.14608
 199.97435 194.90662 191.48290 189.51917 188.55044 188.60871 189.43799 190.74026
 192.45953 194.54880 196.80607 199.15935 201.59862 204.07289 206.15516 207.99143
 209.61171 210.75098 210.97425 211.19652 211.12779 210.82707 210.45434 210.07861
 209.68988 209.39415 209.19643 209.05470 208.97697 209.30224 209.68251 210.06579
 210.85306 212.02533 213.26960 215.04687 216.96915 219.00642 221.09569 223.17296
 225.22724 227.30551 229.39678 231.49705 233.62032 235.78660 238.03687 240.40114
 243.01641 245.26168 247.25796 249.01723 250.42850 251.54577 252.36204 252.67232
 252.70359 252.47186 251.82613 250.76840 249.36868 247.52395 245.42722 243.25449
 241.03976 238.83804 236.65231 234.48558 232.33985 230.20112 228.22140 226.37267
 224.64994 223.11621 221.74048 220.50676 219.38303 218.33730 217.43557 216.57085
 215.80712 214.98139 214.07366 213.43193 212.87621 213.13860 213.75853 215.23407
 216.37367 218.11037 220.06973 221.37096 222.29144 224.21207 227.90582 231.67393
 235.01546 238.49971 241.52223 244.10654 246.76802 249.63376 252.81319 256.19553
 259.19196 261.78909 264.22549 266.65268 269.01251 271.18661 273.04858 274.72018
 276.24915 277.73331 279.25162 280.62201 281.81406 282.87289 283.84290 284.72644
 285.52945 286.25345 286.89505 287.75403
 366.78100 356.32971 345.75642 334.61713 323.01484 311.20355 299.06826 286.86597
 274.57267 262.46438 250.46809 239.76380 229.88051 220.97922 213.15593 206.15264
 199.98135 194.91406 191.49077 189.52748 188.55919 188.61790 189.44761 190.75032
 192.47002 194.55973 196.81744 199.17115 201.61086 204.08557 206.16828 208.00499
 209.62570 210.76541 210.98912 211.21183 211.14354 210.84325 210.47096 210.09567
 209.70737 209.41208 209.21479 209.07350 208.99621 209.32192 209.70263 210.08634
 210.87405 212.04676 213.29147 215.06918 216.99189 219.02960 221.11931 223.19702
 225.25172 227.33043 229.42214 231.52285 233.64656 235.81327 238.06398 240.42869
 243.04440 245.29011 247.28682 249.04653 250.45824 251.57595 252.39266 252.70337
 252.73507 252.50378 251.85849 250.80120 249.40191 247.55762 245.46133 243.28904
 241.07475 238.87346 236.68817 234.52188 232.37659 230.23830 228.25901 226.41072
 224.68842 223.15513 221.77984 220.54655 219.42326 218.37797 217.47668 216.61239
 215.84910 215.02381 214.11652 213.47523 212.91994 213.18843 213.82277 215.31345
 216.49330 218.26038 220.19699 221.50887 222.44969 224.29387 227.92451 231.62520
 234.91774 238.33330 241.26311 243.77451 246.41008 249.32874 252.59244 256.02335
 259.03128 261.64386 264.12195 266.59390 268.98129 271.16129 273.02426 274.69376
 276.21344 277.69803 279.21591 280.58670 281.77753 282.83737 283.80801 284.69144
 285.49524 286.21875 286.86063 287.72113
 366.78100 356.32996 345.75691 334.61787 323.01582 311.20478 299.06973 286.86769
 274.57464 262.46660 250.47055 239.76651 229.88346 220.98242 213.15937 206.15633
 199.98529 194.91824 191.49520 189.53215 188.56411 188.62306 189.45302 190.75597
 192.47593 194.56588 196.82384 199.17779 201.61775 204.09270 206.17566 208.01262
 209.63357 210.77353 210.99748 211.22044 211.15239 210.85235 210.48030 210.10526
 209.71721 209.42217 209.22512 209.08408 209.00704 209.33299 209.71395 210.09790
 210.88586 212.05881 213.30377 215.08172 217.00468 219.04263 221.13259 223.21054
 225.26550 227.34445 229.43641 231.53737 233.66132 235.82828 238.07923 240.44419
 243.06014 245.30610 247.30305 249.06301 250.47496 251.59292 252.40987 252.72083
 252.75278 252.52174 251.87670 250.81965 249.42061 247.57656 245.48052 243.30847
 241.09443 238.89338 236.70834 234.54229 232.39725 230.25920 228.28016 226.43211
 224.71007 223.17703 221.80198 220.56894 219.44589 218.40085 217.49980 216.63576
 215.87271 215.04767 214.14062 213.49958 212.94453 213.22647 213.89256 215.38416
 216.62900 218.41838 220.31673 221.63730 222.62762 224.38165 227.92401 231.57112
 234.80893 238.14729 240.98946 243.43594 246.05537 249.03326 252.38246 255.86186
 258.88400 261.51102 264.02966 266.54413 268.95670 271.14200 273.00140 274.66031
 276.16217 277.66467 279.18646 280.55643 281.74878 282.80789 283.77774 284.66061
 285.46600 286.18970 286.83023 287.69269
 366.78100 356.33010 345.75719 334.61829 323.01638 311.20548 299.07058 286.86867
 274.57577 262.46786 250.47196 239.76806 229.88515 220.98425 213.16134 206.15844
 199.98754 194.92063 191.49773 189.53482 188.56692 188.62602 189.45611 190.75921
 192.47930 194.56940 196.82750 199.18159 201.62169 204.09678 206.17988 208.01698
 209.63807 210.77817 211.00226 211.22536 211.15746 210.85755 210.48565 210.11075
 209.72284 209.42794 209.23103 209.09013 209.01323 209.33932 209.72042 210.10451
 210.89261 212.06571 213.31080 215.08890 217.01199 219.05009 221.14019 223.21828
 225.27338 227.35247 229.44457 231.54567 233.66976 235.83686 238.08795 240.45305
 243.06915 245.31524 247.31234 249.07243 250.48453 251.60263 252.41972 252.73082
 252.76291 252.53201 251.88711 250.83020 249.43130 247.58739 245.49149 243.31959
 241.10568 238.90478 236.71987 234.55397 232.40907 230.27116 228.29226 226.44435
 224.72245 223.18955 221.81464 220.58174 219.45883 218.41393 217.51303 216.64912
 215.88622 215.06131 214.15441 213.51351 212.95860 213.25729 213.96298 215.45230
 216.77026 218.58696 220.43524 221.75864 222.81476 224.49069 227.91429 231.51553
 234.69357 237.93617 240.68150 243.07664 245.70645 248.75171 252.18430 255.71304
 258.75085 261.39746 263.95023 266.50281 268.93564 271.12326 272.97763 274.63394
 276.14105 277.63193 279.15103 280.52100 281.71338 282.77188 283.74103 284.62549
 285.42914 286.15463 286.79553 287.65738
 366.78100 356.33017 345.75734 334.61851 323.01669 311.20586 299.07103 286.86920
 274.57637 262.46854 250.47271 239.76888 229.88606 220.98523 213.16240 206.15957
 199.98874 194.92191 191.49908 189.53625 188.56843 188.62760 189.45777 190.76094
 192.48111 194.57128 196.82945 199.18362 201.62380 204.09897 206.18214 208.01931
 209.64048 210.78065 211.00482 211.22799 211.16017 210.86034 210.48851 210.11368
 209.72585 209.43102 209.23419 209.09336 209.01654 209.34271 209.72388 210.10805
 210.89622 212.06939 213.31456 215.09273 217.01591 219.05408 221.14425 223.22242
 225.27759 227.35676 229.44893 231.55010 233.67428 235.84145 238.09262 240.45779
 243.07396 245.32013 247.31730 249.07747 250.48965 251.60782 252.42499 252.73616
 252.76833 252.53750 251.89267 250.83584 249.43702 247.59319 245.49736 243.32553
 241.11170 238.91087 236.72604 234.56021 232.41539 230.27756 228.29873 226.45090
 224.72907 223.19624 221.82141 220.58858 219.46576 218.42093 217.52010 216.65627
 215.89344 215.06861 214.16178 213.52095 212.96613 213.28297 214.03159 215.52496
 216.91005 218.75195 220.56300 221.87315 222.99423 224.63045 227.91840 231.45868
 234.56540 237.69398 240.33386 242.69794 245.36414 248.48590 251.99838 255.57671
 258.63171 261.29916 263.88358 266.46545 268.91385 271.10345 272.95486 274.60764
 276.10306 277.60504 279.12646 280.49567 281.68723 282.74631 283.71542 284.59885
 285.40271 286.12564 286.77194 287.63416
 366.78100 356.33014 345.75727 334.61841 323.01655 311.20569 299.07082 286.86896
 274.57610 262.46824 250.47237 239.76851 229.88565 220.98479 213.16192 206.15906
 199.98820 194.92134 191.49847 189.53561 188.56775 188.62688 189.45702 190.76016
 192.48030 194.57043 196.82857 199.18271 201.62285 204.09798 206.18112 208.01826
 209.63940 210.77953 211.00367 211.22681 211.15895 210.85908 210.48722 210.11236
 209.72450 209.42963 209.23277 209.09191 209.01504 209.34118 209.72232 210.10646
 210.89459 212.06773 213.31287 215.09101 217.01414 219.05228 221.14242 223.22056
 225.27569 227.35483 229.44697 231.54811 233.67224 235.83938 238.09052 240.45565
 243.07179 245.31793 247.31507 249.07520 250.48734 251.60548 252.42262 252.73375
 252.76589 252.53503 251.89017 250.83330 249.43444 247.59058 245.49472 243.32285
 241.10899 238.90813 236.72327 234.55740 232.41254 230.27468 228.29581 226.44795
 224.72609 223.19323 221.81836 220.58550 219.46264 218.41778 217.51691 216.65305
 215.89019 215.06533 214.15846 213.51760 212.96274 213.30095 214.10004 215.60501
 217.04749 218.90692 220.69482 221.98602 223.15709 224.79417 227.95180 231.39835
 234.41808 237.41766 239.95081 242.30873 245.03127 248.23680 251.82668 255.45171
 258.52582 261.21063 263.82019 266.42355 268.88474 271.07663 272.92801 274.58676
 276.08472 277.58884 279.11145 280.48303 281.67609 282.73721 283.71024 284.59973
 285.41519 286.14905 286.79636 287.66293
 366.78100 356.32997 345.75694 334.61791 323.01588 311.20485 299.06982 286.86779
 274.57476 262.46672 250.47069 239.76666 229.88363 220.98260 213.15957 206.15654
 199.98551 194.91848 191.49545 189.53242 188.56439 188.62336 189.45333 190.75630
 192.47627 194.56623 196.82420 199.17817 201.61814 204.09311 206.17608 208.01305
 209.63402 210.77399 210.99796 211.22093 211.15290 210.85287 210.48084 210.10581
 209.71778 209.42274 209.22571 209.08468 209.00765 209.33362 209.71459 210.09856
 210.88653 212.05950 213.30447 215.08244 217.00541 219.04338 221.13335 223.21132
 225.26629 227.34525 229.43722 231.53819 233.66216 235.82913 238.08010 240.44507
 243.06104 245.30701 247.30398 249.06395 250.47592 251.59389 252.41086 252.72183
 252.75380 252.52276 251.87773 250.82070 249.42167 247.57764 245.48161 243.30958
 241.09555 238.89452 236.70949 234.54346 232.39843 230.26040 228.28137 226.43334
 224.71131 223.17827 221.80324 220.57021 219.44718 218.40215 217.50112 216.63709
 215.87406 215.04903 214.14200 213.50097 212.94594 213.30986 214.16965 215.69400
 217.18187 219.05496 220.82097 222.09435 223.31413 224.97296 228.01289 231.34753
 234.25261 237.09502 239.53241 241.91461 244.71143 248.00403 251.66953 255.33847
 258.43463 261.13644 263.76416 266.38440 268.85315 271.04382 272.88916 274.53366
 275.94937 277.61505 279.14551 280.50882 281.69644 282.75519 283.72495 284.61429
 285.42996 286.16287 286.80975 287.67572
 366.78100 356.32965 345.75631 334.61696 323.01462 311.20327 299.06792 286.86558
 274.57223 262.46389 250.46754 239.76320 229.87985 220.97850 213.15516 206.15181
 199.98047 194.91312 191.48977 189.52643 188.55808 188.61674 189.44639 190.74905
 192.46870 194.55835 196.81601 199.16966 201.60932 204.08397 206.16662 208.00328
 209.62393 210.76359 210.98724 211.20989 211.14155 210.84120 210.46886 210.09351
 209.70517 209.40982 209.21247 209.07113 208.99378 209.31944 209.70009 210.08374
 210.87140 212.04405 213.28871 215.06636 216.98901 219.02667 221.11632 223.19398
 225.24863 227.32729 229.41894 231.51959 233.64325 235.80990 238.06056 240.42521
 243.04086 245.28652 247.28317 249.04283 250.45448 251.57214 252.38879 252.69944
 252.73110 252.49975 251.85441 250.79706 249.39771 247.55337 245.45702 243.28468
 241.07033 238.86898 236.68364 234.51729 232.37195 230.23360 228.25426 226.40591
 224.68356 223.15022 221.77487 220.54153 219.41818 218.37283 217.47149 216.60714
 215.84380 215.01845 214.11111 213.46976 212.91441 213.30873 214.24033 215.79059
 217.31329 219.19368 220.93875 222.20134 223.47093 225.16699 228.09476 231.30154
 234.07275 236.74258 239.08200 241.50795 244.39983 247.78984 251.52826 255.23569
 258.35580 261.07364 263.71487 266.34882 268.82150 271.00668 272.84244 274.47690
 275.93182 277.59143 279.13300 280.50156 281.69186 282.75186 283.72318 284.61511
 285.42944 286.16391 286.81064 287.67810
 366.78100 356.32926 345.75552 334.61578 323.01304 311.20130 299.06556 286.86282
 274.56908 262.46034 250.46360 239.75886 229.87512 220.97338 213.14964 206.14590
 199.97416 194.90642 191.48268 189.51894 188.55020 188.60846 189.43772 190.73998
 192.45924 194.54850 196.80576 199.15902 201.59828 204.07254 206.15480 207.99106
 209.61132 210.75058 210.97384 211.19610 211.12736 210.82662 210.45388 210.07814
 209.68940 209.39366 209.19592 209.05418 208.97644 209.30170 209.68196 210.06522
 210.85248 212.02474 213.26900 215.04626 216.96852 219.00578 221.09504 223.17230
 225.22656 227.30482 229.39608 231.49634 233.61960 235.78586 238.03612 240.40038
 243.01564 245.26090 247.25716 249.01642 250.42768 251.54494 252.36120 252.67146
 252.70272 252.47098 251.82524 250.76750 249.36776 247.52302 245.42628 243.25354
 241.03880 238.83706 236.65132 234.48458 232.33884 230.20010 228.22036 226.37162
 224.64888 223.11514 221.73940 220.50566 219.38192 218.33618 217.43444 216.56970
 215.80596 214.98022 214.07248 213.43074 212.87500 213.30122 214.30824 215.90344
 217.43895 219.31622 221.05313 222.30424 223.63065 225.36639 228.19125 231.26857
 233.89513 236.36427 238.59927 241.09026 244.10307 247.59842 251.40102 255.14035
 258.28448 261.01941 263.67352 266.31564 268.79001 270.96887 272.79755 274.42203
 275.89343 277.58246 279.12625 280.49368 281.68341 282.74307 283.71512 284.60541
 285.42078 286.15543 286.80286 287.66891
 366.78100 356.32859 345.75417 334.61376 323.01034 311.19793 299.06151 286.85810
 274.56368 262.45427 250.45685 239.75144 229.86702 220.96461 213.14019 206.13578
 199.96336 194.89495 191.47053 189.50612 188.53671 188.59429 189.42288 190.72446
 192.44305 194.53163 196.78822 199.14080 201.57939 204.05297 206.13456 207.97014
 209.58973 210.72831 210.95090 211.17248 211.10307 210.80165 210.42824 210.05182
 209.66241 209.36600 209.16758 209.02517 208.94675 209.27134 209.65092 210.03351
 210.82009 211.99168 213.23526 215.01185 216.93343 218.97002 221.05860 223.13519
 225.18877 227.26636 229.35694 231.45653 233.57912 235.74470 237.99429 240.35787
 242.97246 245.21704 247.21263 248.97121 250.38180 251.49838 252.31397 252.62355
 252.65414 252.42172 251.77531 250.71689 249.31648 247.47106 245.37365 243.20024
 240.98482 238.78241 236.59599 234.42858 232.28216 230.14275 228.16233 226.31292
 224.58950 223.05509 221.67867 220.44426 219.31984 218.27343 217.37101 216.50560
 215.74118 214.91477 214.00636 213.36394 212.80753 213.27733 214.38730 216.01357
 217.57378 219.43829 221.13503 222.39262 223.80293 225.58311 228.28261 231.23810
 233.70918 235.96861 238.10329 240.68474 243.82503 247.42027 251.28442 255.05310
 258.22314 260.97510 263.63684 266.28305 268.75427 270.92560 272.74829 274.37964
 275.87769 277.56909 279.11145 280.47800 281.66733 282.72665 283.69781 284.58810
 285.40341 286.13904 286.78635 287.65070
 366.78100 356.32752 345.75205 334.61057 323.00609 311.19261 299.05514 286.85066
 274.55518 262.44470 250.44623 239.73975 229.85427 220.95079 213.12532 206.11984
 199.94636 194.87688 191.45141 189.48593 188.51545 188.57198 189.39950 190.70002
 192.41754 194.50507 196.76059 199.11211 201.54963 204.02216 206.10268 207.93720
 209.55572 210.69325 210.91477 211.13529 211.06481 210.76234 210.38786 210.01038
 209.61991 209.32243 209.12295 208.97947 208.90000 209.22352 209.60204 209.98356
 210.76909 211.93961 213.18213 214.95765 216.87818 218.91370 221.00122 223.07674
 225.12927 227.20579 229.29531 231.39384 233.51536 235.67988 237.92840 240.29093
 242.90445 245.14797 247.14249 248.90002 250.30954 251.42506 252.23958 252.54811
 252.57763 252.34415 251.69667 250.63720 249.23572 247.38924 245.29077 243.11629
 240.89981 238.69633 236.50886 234.34038 232.19290 230.05242 228.07095 226.22047
 224.49599 222.96051 221.58304 220.34756 219.22208 218.17460 217.27113 216.40465
 215.63917 214.81170 213.90222 213.25874 212.70126 213.23160 214.48459 216.11998
 217.70802 219.55193 221.22797 222.47250 223.91991 225.76854 228.42053 231.23871
 233.52715 235.56534 237.60858 240.27313 243.55235 247.25557 251.17722 254.96992
 258.16397 260.93729 263.60651 266.25403 268.72180 270.88675 272.70679 274.34354
 275.85730 277.55716 279.09918 280.46365 281.65277 282.71124 283.68237 284.57297
 285.38889 286.12610 286.77179 287.63684
 366.78100 356.32667 345.75034 334.60801 323.00267 311.18834 299.05001 286.84468
 274.54835 262.43702 250.43768 239.73035 229.84402 220.93969 213.11336 206.10703
 199.93270 194.86236 191.43603 189.46970 188.49837 188.55404 189.38071 190.68037
 192.39704 194.48371 196.73838 199.08905 201.52572 203.99738 206.07705 207.91072
 209.52839 210.66506 210.88573 211.10540 211.03406 210.73073 210.35540 209.97707
 209.58574 209.28741 209.08707 208.94274 208.86241 209.18508 209.56275 209.94342
 210.72809 211.89775 213.13942 214.91409 216.83376 218.86843 220.95510 223.02976
 225.08143 227.15710 229.24577 231.34344 233.46411 235.62778 237.87544 240.23711
 242.84978 245.09245 247.08612 248.84279 250.25145 251.36612 252.17979 252.48746
 252.51613 252.28180 251.63347 250.57313 249.17080 247.32347 245.22414 243.04881
 240.83148 238.62714 236.43881 234.26948 232.12115 229.97982 227.99749 226.14615
 224.42082 222.88449 221.50616 220.26983 219.14350 218.09517 217.19083 216.32350
 215.55717 214.72884 213.81851 213.17418 212.61584 213.19577 214.56589 216.23183
 217.84975 219.67944 221.31525 222.52393 224.03685 226.00739 228.48915 231.13647
 233.30751 235.17706 237.11316 239.87796 243.31061 247.12442 251.09528 254.90988
 258.13373 260.92279 263.58163 266.22003 268.67569 270.82550 272.63046 274.24918
 275.82324 277.56375 279.10635 280.47195 281.66061 282.71829 283.69086 284.58026
 285.39423 286.12848 286.76880 287.62167
 366.78100 356.32649 345.74998 334.60747 323.00196 311.18745 299.04894 286.84343
 274.54692 262.43541 250.43590 239.72839 229.84188 220.93736 213.11085 206.10434
 199.92983 194.85932 191.43281 189.46630 188.49479 188.55028 189.37677 190.67626
 192.39275 194.47924 196.73373 199.08422 201.52071 203.99220 206.07169 207.90518
 209.52267 210.65916 210.87965 211.09914 211.02763 210.72412 210.34861 209.97009
 209.57858 209.28007 209.07956 208.93505 208.85454 209.17703 209.55452 209.93501
 210.71950 211.88899 213.13048 214.90497 216.82446 218.85895 220.94544 223.01993
 225.07142 227.14691 229.23540 231.33289 233.45338 235.61687 237.86436 240.22585
 242.83834 245.08082 247.07431 248.83080 250.23929 251.35378 252.16727 252.47476
 252.50325 252.26874 251.62023 250.55972 249.15721 247.30970 245.21019 243.03468
 240.81717 238.61266 236.42415 234.25464 232.10613 229.96462 227.98211 226.13060
 224.40509 222.86858 221.49007 220.25355 219.12704 218.07853 217.17402 216.30651
 215.54000 214.71149 213.80098 213.15647 212.59796 213.19666 214.61131 216.33652
 217.99464 219.81047 221.40718 222.60181 224.16374 226.17271 228.48294 231.08304
 233.11790 234.77446 236.56058 239.46228 243.03554 247.01309 251.07358 254.93715
 258.17059 260.93701 263.56583 266.18060 268.61472 270.73071 272.50687 274.15088
 275.82187 277.47693 278.98285 280.33902 281.51947 282.56702 283.52930 284.40765
 285.20819 285.92694 286.56497 287.38013
 366.78100 356.32565 345.74831 334.60496 322.99862 311.18327 299.04392 286.83758
 274.54023 262.42789 250.42754 239.71919 229.83185 220.92650 213.09916 206.09181
 199.91646 194.84512 191.41777 189.45043 188.47808 188.53273 189.35839 190.65704
 192.37270 194.45835 196.71201 199.06166 201.49731 203.96797 206.04662 207.87928
 209.49593 210.63158 210.85124 211.06989 210.99755 210.69320 210.31685 209.93751
 209.54516 209.24582 209.04447 208.89912 208.81778 209.13943 209.51609 209.89574
 210.67939 211.84805 213.08870 214.86236 216.78101 218.81466 220.90032 222.97397
 225.02463 227.09928 229.18693 231.28359 233.40324 235.56590 237.81255 240.17320
 242.78486 245.02651 247.01917 248.77482 250.18247 251.29613 252.10878 252.41544
 252.44309 252.20775 251.55840 250.49705 249.09371 247.24536 245.14502 242.96867
 240.75032 238.54498 236.35563 234.18529 232.03594 229.89359 227.91025 226.05790
 224.33156 222.79421 221.41486 220.17752 219.05017 218.00083 217.09548 216.22713
 215.45979 214.63044 213.71910 213.07375 212.51440 213.16290 214.70184 216.46277
 218.07268 219.88216 221.49460 222.74483 224.28123 226.27676 228.50970 231.13394
 232.99503 234.40753 236.03867 239.07849 242.80571 246.88797 251.02762 254.91226
 258.16788 260.94168 263.57077 266.16302 268.57315 270.66409 272.44339 274.13937
 275.81247 277.40540 278.88358 280.22385 281.39746 282.44040 283.39764 284.27560
 285.07764 285.81345 286.46423 287.29361
 366.78100 356.32434 345.74569 334.60103 322.99337 311.17672 299.03606 286.82840
 274.52974 262.41609 250.41443 239.70477 229.81612 220.90946 213.08080 206.07215
 199.89549 194.82283 191.39417 189.42552 188.45186 188.50520 189.32955 190.62689
 192.34123 194.42558 196.67792 199.02626 201.46060 203.92995 206.00729 207.83863
 209.45398 210.58832 210.80666 211.02401 210.95035 210.64469 210.26703 209.88638
 209.49272 209.19206 208.98941 208.84275 208.76009 209.08044 209.45578 209.83412
 210.61646 211.78381 213.02315 214.79549 216.71284 218.74518 220.82952 222.90187
 224.95121 227.02455 229.11089 231.20624 233.32458 235.48592 237.73127 240.09061
 242.70095 244.94130 246.93264 248.68698 250.09332 251.20567 252.01701 252.32235
 252.34870 252.11204 251.46138 250.39873 248.99407 247.14441 245.04275 242.86510
 240.64544 238.43878 236.24813 234.07647 231.92581 229.78216 227.79750 225.94384
 224.21618 222.67753 221.29687 220.05821 218.92956 217.87890 216.97224 216.10259
 215.33393 214.50327 213.59061 212.94396 212.38330 213.10185 214.81374 216.61292
 218.14850 219.93634 221.55524 222.83167 224.34236 226.32002 228.51773 231.18066
 232.83046 234.00208 235.52957 238.71632 242.61218 246.82452 250.97218 254.86096
 258.15982 260.98016 263.61148 266.17499 268.55893 270.62924 272.36526 274.07697
 275.78833 277.38272 278.84967 280.17984 281.35025 282.39194 283.35172 284.23489
 285.07269 285.84277 286.51550 287.37280
 366.78100 356.32355 345.74410 334.59865 322.99020 311.17275 299.03130 286.82285
 274.52340 262.40895 250.40650 239.69605 229.80660 220.89915 213.06970 206.06025
 199.88281 194.80936 191.37991 189.41046 188.43601 188.48856 189.31211 190.60866
 192.32221 194.40576 196.65731 199.00486 201.43841 203.90696 205.98351 207.81406
 209.42861 210.56216 210.77971 210.99626 210.92181 210.61536 210.23691 209.85546
 209.46101 209.15956 208.95611 208.80866 208.72521 209.04476 209.41931 209.79686
 210.57842 211.74497 212.98352 214.75507 216.67162 218.70317 220.78672 222.85827
 224.90682 226.97937 229.06492 231.15947 233.27702 235.43757 237.68212 240.04067
 242.65022 244.88977 246.88032 248.63387 250.03942 251.15097 251.96152 252.26607
 252.29162 252.05417 251.40272 250.33927 248.93382 247.08337 244.98092 242.80247
 240.58203 238.37458 236.18313 234.01068 231.85923 229.71478 227.72933 225.87488
 224.14643 222.60698 221.22553 219.98608 218.85663 217.80518 216.89773 216.02728
 215.25783 214.42638 213.51293 212.86548 212.30403 213.06470 214.88167 216.72871
 218.31396 220.06610 221.61565 222.86465 224.39111 226.32033 228.51120 231.17558
 232.57751 233.53276 235.06636 238.38672 242.47298 246.81702 250.93922 254.81216
 258.14444 261.00107 263.64233 266.18427 268.55362 270.62753 272.19183 274.01593
 275.78540 277.38956 278.83951 280.15729 281.32666 282.37527 283.34894 284.25952
 285.11789 285.88223 286.54996 287.40091
 366.78100 356.32342 345.74384 334.59827 322.98969 311.17211 299.03053 286.82196
 274.52238 262.40780 250.40522 239.69465 229.80507 220.89749 213.06791 206.05834
 199.88076 194.80718 191.37760 189.40803 188.43345 188.48587 189.30929 190.60572
 192.31914 194.40256 196.65398 199.00141 201.43483 203.90325 205.97967 207.81010
 209.42452 210.55794 210.77536 210.99179 210.91721 210.61063 210.23205 209.85048
 209.45590 209.15432 208.95074 208.80317 208.71959 209.03901 209.41343 209.79085
 210.57228 211.73870 212.97712 214.74854 216.66497 218.69639 220.77981 222.85123
 224.89966 226.97208 229.05750 231.15192 233.26935 235.42977 237.67419 240.03261
 242.64204 244.88146 246.87188 248.62530 250.03073 251.14215 251.95257 252.25699
 252.28242 252.04484 251.39326 250.32968 248.92411 247.07353 244.97095 242.79237
 240.57180 238.36422 236.17264 234.00006 231.84849 229.70391 227.71833 225.86375
 224.13518 222.59560 221.21402 219.97444 218.84486 217.79329 216.88571 216.01513
 215.24555 214.41398 213.50040 212.85282 212.29124 213.06639 214.91899 216.82350
 218.47281 220.20795 221.71350 222.96025 224.50757 226.33252 228.56218 231.14056
 232.29152 233.06342 234.65862 238.08949 242.36331 246.81412 250.95215 254.82416
 258.18118 261.06531 263.69983 266.20563 268.53128 270.56766 272.15485 273.96106
 275.71738 277.33704 278.77771 280.07874 281.25186 282.30576 283.28732 284.20944
 285.07928 285.85391 286.53061 287.39297
 366.78100 356.32268 345.74236 334.59604 322.98672 311.16840 299.02608 286.81676
 274.51644 262.40112 250.39780 239.68648 229.79616 220.88784 213.05752 206.04720
 199.86888 194.79456 191.36424 189.39392 188.41860 188.47028 189.29296 190.58864
 192.30132 194.38400 196.63468 198.98136 201.41404 203.88172 205.95740 207.78708
 209.40076 210.53344 210.75012 210.96580 210.89048 210.58316 210.20384 209.82152
 209.42620 209.12388 208.91956 208.77124 208.68692 209.00560 209.37928 209.75596
 210.53665 211.70233 212.94001 214.71069 216.62637 218.65705 220.73973 222.81041
 224.85809 226.92977 229.01445 231.10813 233.22481 235.38449 237.62817 239.98585
 242.59453 244.83321 246.82289 248.57557 249.98025 251.09093 251.90061 252.20429
 252.22897 251.99065 251.33833 250.27401 248.86769 247.01637 244.91305 242.73373
 240.51241 238.30409 236.11177 233.93845 231.78613 229.64081 227.65449 225.79917
 224.06985 222.52953 221.14721 219.90689 218.77657 217.72425 216.81593 215.94461
 215.17429 214.34197 213.42765 212.77933 212.21701 213.03610 214.99469 216.94534
 218.54979 220.26126 221.79297 223.10002 224.65109 226.37204 228.61273 231.14771
 232.04384 232.69937 234.32317 237.87784 242.23952 246.72794 250.87305 254.73773
 258.13025 261.05087 263.70987 266.21201 268.52588 270.54547 272.24652 273.98355
 275.69272 277.29648 278.73090 280.02460 281.18533 282.23438 283.21967 284.14511
 284.98889 285.74026 286.39664 287.23315
 366.78100 356.32168 345.74037 334.59305 322.98273 311.16341 299.02010 286.80978
 274.50846 262.39214 250.38783 239.67551 229.78419 220.87487 213.04356 206.03224
 199.85292 194.77760 191.34629 189.37497 188.39865 188.44934 189.27102 190.56570
 192.27738 194.35907 196.60875 198.95443 201.38611 203.85280 205.92748 207.75616
 209.36884 210.50053 210.71621 210.93089 210.85457 210.54626 210.16594 209.78262
 209.38631 209.08299 208.87767 208.72835 208.64304 208.96072 209.33340 209.70908
 210.48877 211.65345 212.89013 214.65981 216.57450 218.60418 220.68586 222.75555
 224.80223 226.87291 228.95659 231.04928 233.16496 235.32364 237.56632 239.92301
 242.53069 244.76837 246.75705 248.50874 249.91242 251.02210 251.83078 252.13347
 252.15715 251.91783 251.26452 250.19920 248.79188 246.93956 244.83525 242.65493
 240.43261 238.22329 236.02998 233.85566 231.70234 229.55602 227.56871 225.71239
 223.98207 222.44075 221.05744 219.81612 218.68480 217.63149 216.72217 215.84985
 215.07853 214.24522 213.32990 212.68058 212.11726 212.99063 215.07330 217.11745
 218.66010 220.32196 221.83675 223.19424 224.75134 226.40781 228.68965 231.02586
 231.77229 232.35071 234.01222 237.78897 242.14920 246.55890 250.72108 254.62050
 258.07266 261.05927 263.74594 266.25235 268.56488 270.58820 272.34192 273.96579
 275.71051 277.37750 278.86469 280.19965 281.37244 282.42139 283.38715 284.28265
 285.10126 285.83023 286.46704 287.27859
 366.78100 356.32049 345.73798 334.58948 322.97797 311.15746 299.01295 286.80145
 274.49894 262.38143 250.37592 239.66241 229.76991 220.85940 213.02689 206.01438
 199.83387 194.75737 191.32486 189.35235 188.37484 188.42434 189.24483 190.53832
 192.24881 194.32930 196.57780 198.92229 201.35278 203.81827 205.89176 207.71926
 209.33075 210.46124 210.67573 210.88923 210.81172 210.50221 210.12070 209.73619
 209.33869 209.03418 208.82767 208.67716 208.59065 208.90715 209.27864 209.65313
 210.43162 211.59512 212.83061 214.59910 216.51259 218.54108 220.62158 222.69007
 224.73556 226.80505 228.88754 230.97904 233.09353 235.25102 237.49251 239.84801
 242.45450 244.69099 246.67848 248.42897 249.83147 250.93996 251.74745 252.04894
 252.07143 251.83093 251.17642 250.10991 248.70140 246.84790 244.74239 242.56088
 240.33737 238.12686 235.93236 233.75685 231.60234 229.45483 227.46632 225.60882
 223.87731 222.33480 220.95029 219.70779 218.57528 217.52077 216.61026 215.73675
 214.96425 214.12974 213.21323 212.56272 211.99821 212.93190 215.13991 217.33499
 218.80238 220.42326 221.91806 223.34143 224.88135 226.49069 228.84264 230.78859
 231.55836 232.10709 233.92654 237.63536 242.02579 246.43358 250.60292 254.51654
 257.98486 261.00650 263.71436 266.25674 268.60608 270.69080 272.42856 274.03232
 275.82397 277.47763 279.00723 280.36719 281.55197 282.60672 283.57892 284.47522
 285.29947 286.05875 286.74866 287.62787
 366.78100 356.31909 345.73518 334.58527 322.97237 311.15046 299.00455 286.79164
 274.48773 262.36882 250.36191 239.64701 229.75310 220.84119 213.00728 205.99337
 199.81146 194.73355 191.29965 189.32574 188.34683 188.39492 189.21401 190.50610
 192.21519 194.29428 196.54138 198.88447 201.31356 203.77765 205.84974 207.67583
 209.28592 210.41502 210.62811 210.84020 210.76129 210.45038 210.06747 209.68156
 209.28266 208.97675 208.76884 208.61693 208.52902 208.84411 209.21420 209.58730
 210.36439 211.52648 212.76057 214.52766 216.43975 218.46684 220.54594 222.61303
 224.65712 226.72521 228.80630 230.89639 233.00948 235.16557 237.40567 239.75976
 242.36485 244.59994 246.58603 248.33512 249.73621 250.84331 251.64940 251.94949
 251.97058 251.72867 251.07276 250.00485 248.59495 246.74004 244.63313 242.45022
 240.22531 238.01340 235.81749 233.64059 231.48468 229.33577 227.34586 225.48695
 223.75404 222.21013 220.82423 219.58032 218.44641 217.39050 216.47859 215.60368
 214.82977 213.99386 213.07596 212.42405 211.85814 212.86543 215.24524 217.52043
 218.87593 220.46164 222.00505 223.49953 225.02316 226.59459 228.93811 230.64827
 231.34508 231.85046 233.69452 237.42844 241.90076 246.32793 250.49324 254.39127
 257.85309 260.90027 263.65652 266.23618 268.61890 270.73990 272.50168 274.09015
 275.79120 277.51297 279.04865 280.41000 281.59262 282.64624 283.61282 284.50140
 285.31680 286.05225 286.68088 287.55350
 366.78100 356.31829 345.73358 334.58287 322.96916 311.14645 298.99975 286.78604
 274.48133 262.36162 250.35391 239.63820 229.74349 220.83078 212.99607 205.98136
 199.79865 194.71995 191.28524 189.31053 188.33082 188.37811 189.19640 190.48769
 192.19598 194.27427 196.52056 198.86285 201.29115 203.75444 205.82573 207.65102
 209.26031 210.38860 210.60089 210.81218 210.73247 210.42076 210.03705 209.65035
 209.25064 208.94393 208.73522 208.58251 208.49380 208.80809 209.17738 209.54967
 210.32596 211.48725 212.72055 214.48684 216.39813 218.42442 220.50271 222.56900
 224.61229 226.67958 228.75987 230.84916 232.96145 235.11675 237.35604 239.70933
 242.31362 244.54791 246.53320 248.28149 249.68178 250.78807 251.59336 251.89265
 251.91295 251.67024 251.01353 249.94482 248.53411 246.67840 244.57069 242.38698
 240.16127 237.94856 235.75185 233.57415 231.41744 229.26773 227.27702 225.41731
 223.68360 222.13889 220.75218 219.50747 218.37276 217.31606 216.40335 215.52764
 214.75293 213.91622 212.99751 212.34480 211.77809 212.83488 215.33165 217.67595
 218.92227 220.46986 222.07130 223.61833 225.16537 226.67838 228.97653 230.54895
 231.10242 231.53813 233.43837 237.26947 241.79677 246.23634 250.39055 254.27933
 257.75650 260.83975 263.63892 266.24362 268.64520 270.78552 272.54492 274.14050
 275.78464 277.51529 279.05634 280.41782 281.60150 282.65396 283.62128 284.50806
 285.32230 286.05771 286.68713 287.55847
 366.78100 356.31762 345.73225 334.58087 322.96650 311.14312 298.99574 286.78137
 274.47599 262.35562 250.34724 239.63087 229.73549 220.82211 212.98674 205.97136
 199.78799 194.70861 191.27323 189.29786 188.31748 188.36411 189.18173 190.47235
 192.17998 194.25760 196.50323 198.84485 201.27247 203.73510 205.80572 207.63035
 209.23897 210.36660 210.57822 210.78884 210.70847 210.39609 210.01172 209.62434
 209.22396 208.91659 208.70721 208.55384 208.46446 208.77808 209.14671 209.51833
 210.29396 211.45458 212.68721 214.45283 216.36345 218.38908 220.46670 222.53233
 224.57495 226.64157 228.72120 230.80982 232.92145 235.07607 237.31469 239.66732
 242.27094 244.50457 246.48919 248.23682 249.63644 250.74206 251.54669 251.84531
 251.86494 251.62156 250.96418 249.89481 248.48343 246.62706 244.51868 242.33430
 240.10793 237.89455 235.69718 233.51880 231.36142 229.21105 227.21967 225.35930
 223.62492 222.07955 220.69217 219.44679 218.31142 217.25404 216.34067 215.46429
 214.68891 213.85154 212.93216 212.27879 211.71141 212.81436 215.42018 217.79187
 219.00336 220.49754 222.13217 223.74181 225.27620 226.75407 228.99709 230.41019
 230.82590 231.22522 233.21994 237.14926 241.71753 246.14803 250.29703 254.18230
 257.68561 260.81595 263.65741 266.27609 268.68222 270.82996 272.58212 274.16153
 275.79031 277.52008 279.06534 280.42935 281.61249 282.66571 283.63297 284.52182
 285.33505 286.06873 286.70264 287.57507
 366.78100 356.31703 345.73106 334.57909 322.96412 311.14015 298.99217 286.77720
 274.47123 262.35026 250.34129 239.62432 229.72835 220.81438 212.97841 205.96244
 199.77847 194.69850 191.26252 189.28655 188.30558 188.35161 189.16864 190.45867
 192.16570 194.24273 196.48776 198.82879 201.25582 203.71785 205.78787 207.61190
 209.21993 210.34696 210.55799 210.76802 210.68705 210.37408 209.98911 209.60114
 209.20017 208.89220 208.68222 208.52825 208.43828 208.75131 209.11934 209.49037
 210.26540 211.42543 212.65746 214.42249 216.33252 218.35755 220.43457 222.49960
 224.54163 226.60766 228.68669 230.77472 232.88575 235.03978 237.27781 239.62984
 242.23287 244.46590 246.44992 248.19695 249.59598 250.70101 251.50504 251.80307
 251.82210 251.57813 250.92016 249.85019 248.43822 246.58125 244.47227 242.28730
 240.06033 237.84636 235.64839 233.46942 231.31145 229.16048 227.16851 225.30754
 223.57257 222.02660 220.63862 219.39265 218.25668 217.19871 216.28474 215.40777
 214.63180 213.79383 212.87386 212.21989 211.65192 212.79863 215.50789 217.89769
 219.08865 220.58766 222.15547 223.76683 225.40669 226.86455 229.03471 230.30219
 230.55125 230.86520 232.94829 237.02414 241.64978 246.09039 250.23546 254.11555
 257.63403 260.79980 263.67654 266.30353 268.71088 270.86523 272.60806 274.17166
 275.79538 277.52628 279.07352 280.43903 281.62326 282.67755 283.64401 284.53250
 285.34695 286.08209 286.71875 287.59641
 366.78100 356.31682 345.73064 334.57846 322.96328 311.13910 298.99092 286.77574
 274.46956 262.34838 250.33920 239.62202 229.72584 220.81166 212.97548 205.95929
 199.77511 194.69493 191.25875 189.28257 188.30139 188.34721 189.16403 190.45385
 192.16067 194.23749 196.48231 198.82313 201.24995 203.71177 205.78159 207.60541
 209.21323 210.34005 210.55087 210.76069 210.67951 210.36633 209.98115 209.59297
 209.19179 208.88361 208.67343 208.51925 208.42907 208.74188 209.10970 209.48052
 210.25534 211.41516 212.64698 214.41180 216.32162 218.34644 220.42326 222.48808
 224.52990 226.59572 228.67454 230.76236 232.87318 235.02700 237.26482 239.61664
 242.21946 244.45228 246.43610 248.18292 249.58174 250.68656 251.49038 251.78820
 251.80702 251.56284 250.90465 249.83447 248.42229 246.56511 244.45593 242.27075
 240.04357 237.82939 235.63121 233.45203 231.29385 229.14267 227.15049 225.28931
 223.55413 222.00795 220.61977 219.37359 218.23741 217.17923 216.26505 215.38787
 214.61169 213.77351 212.85333 212.19915 211.63097 212.80327 215.57297 218.01538
 219.17262 220.66364 222.25145 223.89006 225.42708 226.86908 229.07115 230.32051
 230.27577 230.34187 232.71585 236.97021 241.61192 246.06033 250.19295 254.05470
 257.58624 260.78760 263.69739 266.33237 268.74228 270.90189 272.63263 274.18030
 275.79797 277.53098 279.08157 280.44797 281.63397 282.68893 283.65906 284.54642
 285.36282 286.09958 286.74484 287.62445
 366.78100 356.31676 345.73051 334.57827 322.96302 311.13878 298.99054 286.77529
 274.46905 262.34781 250.33856 239.62132 229.72507 220.81083 212.97459 205.95834
 199.77410 194.69386 191.25761 189.28137 188.30012 188.34588 189.16264 190.45239
 192.15915 194.23590 196.48066 198.82142 201.24817 203.70993 205.77969 207.60344
 209.21120 210.33795 210.54871 210.75847 210.67722 210.36398 209.97874 209.59049
 209.18925 208.88100 208.67076 208.51652 208.42627 208.73903 209.10678 209.47754
 210.25230 211.41205 212.64381 214.40857 216.31832 218.34308 220.41983 222.48459
 224.52635 226.59210 228.67086 230.75861 232.86937 235.02313 237.26088 239.61264
 242.21540 244.44815 246.43191 248.17866 249.57742 250.68218 251.48593 251.78369
 251.80245 251.55820 250.89996 249.82971 248.41747 246.56023 244.45098 242.26574
 240.03849 237.82425 235.62601 233.44676 231.28852 229.13728 227.14503 225.28379
 223.54854 222.00230 220.61406 219.36781 218.23157 217.17333 216.25908 215.38184
 214.60559 213.76735 212.84711 212.19286 211.62462 212.81647 215.63235 218.12662
 219.26942 220.71745 222.37543 224.05188 225.46770 226.87196 229.00777 230.18109
 229.98186 229.96492 232.55386 236.93164 241.57961 246.02010 250.14044 253.99194
 257.53979 260.77856 263.72214 266.36639 268.77856 270.94144 272.65768 274.18970
 275.79935 277.53470 279.08737 280.45667 281.64407 282.69998 283.67239 284.56348
 285.38126 286.12225 286.77536 287.67938
 366.78100 356.31672 345.73044 334.57816 322.96287 311.13859 298.99031 286.77503
 274.46875 262.34747 250.33818 239.62090 229.72462 220.81034 212.97406 205.95778
 199.77350 194.69321 191.25693 189.28065 188.29937 188.34509 189.16181 190.45153
 192.15824 194.23496 196.47968 198.82040 201.24712 203.70884 205.77855 207.60227
 209.20999 210.33671 210.54743 210.75715 210.67587 210.36258 209.97730 209.58902
 209.18774 208.87946 208.66918 208.51490 208.42461 208.73733 209.10505 209.47577
 210.25049 211.41021 212.64192 214.40664 216.31636 218.34108 220.41780 222.48252
 224.52424 226.58995 228.66867 230.75639 232.86711 235.02083 237.25855 239.61027
 242.21298 244.44570 246.42942 248.17614 249.57486 250.67958 251.48329 251.78101
 251.79973 251.55545 250.89717 249.82689 248.41461 246.55732 244.44804 242.26276
 240.03548 237.82120 235.62292 233.44364 231.28535 229.13407 227.14179 225.28051
 223.54523 221.99895 220.61066 219.36438 218.22810 217.16982 216.25554 215.37826
 214.60198 213.76369 212.84341 212.18913 211.62085 212.83255 215.69531 218.22552
 219.37457 220.78621 222.45094 224.18867 225.59137 226.92706 228.87552 229.91452
 229.69058 229.71162 232.41289 236.88007 241.54611 245.98305 250.08411 253.92868
 257.49667 260.77322 263.75003 266.40292 268.81631 270.97998 272.68207 274.19733
 275.80014 277.53625 279.09036 280.46036 281.64825 282.70462 283.67670 284.56851
 285.38672 286.12714 286.78214 287.69025
 366.78100 356.31673 345.73047 334.57820 322.96294 311.13867 298.99041 286.77514
 274.46888 262.34761 250.33835 239.62108 229.72481 220.81055 212.97428 205.95802
 199.77375 194.69349 191.25722 189.28096 188.29969 188.34542 189.16216 190.45189
 192.15863 194.23536 196.48010 198.82083 201.24757 203.70930 205.77904 207.60277
 209.21050 210.33724 210.54797 210.75771 210.67644 210.36318 209.97791 209.58965
 209.18838 208.88012 208.66985 208.51558 208.42532 208.73805 209.10579 209.47652
 210.25126 211.41099 212.64273 214.40746 216.31719 218.34193 220.41866 222.48340
 224.52513 226.59087 228.66960 230.75734 232.86807 235.02181 237.25954 239.61127
 242.21401 244.44674 246.43048 248.17721 249.57595 250.68068 251.48442 251.78215
 251.80089 251.55662 250.89835 249.82809 248.41582 246.55856 244.44929 242.26403
 240.03676 237.82250 235.62423 233.44496 231.28670 229.13543 227.14317 225.28190
 223.54664 222.00037 220.61211 219.36584 218.22958 217.17131 216.25704 215.37978
 214.60351 213.76525 212.84498 212.19072 211.62245 212.85222 215.75766 218.32292
 219.46861 220.88228 222.50966 224.26076 225.74155 227.01224 228.73260 229.63884
 229.40793 229.49631 232.28046 236.81610 241.51456 245.94737 250.03323 253.86958
 257.45544 260.76865 263.77872 266.44028 268.85294 271.01471 272.70486 274.20303
 275.79825 277.53391 279.08987 280.45901 281.64856 282.70663 283.67783 284.56985
 285.38702 286.12796 286.78168 287.69690
 366.78100 356.31678 345.73057 334.57835 322.96313 311.13891 298.99070 286.77548
 274.46926 262.34804 250.33883 239.62161 229.72539 220.81117 212.97496 205.95874
 199.77452 194.69430 191.25809 189.28187 188.30065 188.34643 189.16322 190.45300
 192.15978 194.23656 196.48135 198.82213 201.24891 203.71069 205.78048 207.60426
 209.21204 210.33883 210.54961 210.75939 210.67817 210.36496 209.97974 209.59152
 209.19030 208.88209 208.67187 208.51765 208.42743 208.74022 209.10800 209.47878
 210.25356 211.41335 212.64513 214.40991 216.31969 218.34448 220.42126 222.48604
 224.52782 226.59361 228.67239 230.76017 232.87095 235.02474 237.26252 239.61430
 242.21709 244.44987 246.43365 248.18043 249.57922 250.68400 251.48778 251.78556
 251.80435 251.56013 250.90191 249.83169 248.41948 246.56226 244.45304 242.26782
 240.04061 237.82639 235.62817 233.44895 231.29074 229.13952 227.14730 225.28608
 223.55087 222.00465 220.61643 219.37022 218.23400 217.17578 216.26156 215.38435
 214.60813 213.76991 212.84969 212.19548 211.62726 212.87453 215.82130 218.40993
 219.56090 220.99680 222.59538 224.29123 225.83191 227.08440 228.61620 229.40059
 229.12082 229.28033 232.16502 236.75531 241.49088 245.91949 249.99153 253.81624
 257.41302 260.75879 263.80295 266.47501 268.88797 271.04593 272.72601 274.20905
 275.79593 277.53131 279.08792 280.45956 281.64862 282.70660 283.67767 284.56921
 285.38776 286.12762 286.78311 287.70044
 366.78100 356.31687 345.73074 334.57860 322.96347 311.13934 298.99121 286.77608
 274.46994 262.34881 250.33968 239.62255 229.72642 220.81228 212.97615 205.96002
 199.77589 194.69576 191.25962 189.28349 188.30236 188.34823 189.16510 190.45496
 192.16183 194.23870 196.48357 198.82444 201.25130 203.71317 205.78304 207.60691
 209.21478 210.34165 210.55251 210.76238 210.68125 210.36812 209.98299 209.59485
 209.19372 208.88559 208.67546 208.52133 208.43119 208.74406 209.11193 209.48280
 210.25767 211.41753 212.64940 214.41427 216.32414 218.34901 220.42587 222.49074
 224.53261 226.59848 228.67735 230.76521 232.87608 235.02995 237.26782 239.61969
 242.22255 244.45542 246.43929 248.18616 249.58503 250.68989 251.49376 251.79163
 251.81050 251.56637 250.90823 249.83810 248.42597 246.56884 244.45971 242.27457
 240.04744 237.83331 235.63518 233.45605 231.29791 229.14678 227.15465 225.29352
 223.55839 222.01225 220.62412 219.37799 218.24186 217.18373 216.26960 215.39246
 214.61633 213.77820 212.85807 212.20394 211.63580 212.89963 215.88559 218.48318
 219.66092 221.10492 222.68976 224.34012 225.89835 227.11755 228.52415 229.16988
 228.82828 229.07773 232.06284 236.70216 241.46185 245.89000 249.95581 253.77138
 257.37454 260.74689 263.82080 266.50562 268.91971 271.07190 272.74429 274.21310
 275.79144 277.52728 279.08502 280.45587 281.64603 282.70435 283.67535 284.56744
 285.38409 286.12448 286.77969 287.70193
 366.78100 356.31704 345.73108 334.57912 322.96416 311.14020 298.99224 286.77728
 274.47132 262.35036 250.34140 239.62443 229.72847 220.81451 212.97855 205.96259
 199.77863 194.69867 191.26271 189.28675 188.30579 188.35183 189.16887 190.45891
 192.16595 194.24299 196.48803 198.82907 201.25611 203.71815 205.78819 207.61223
 209.22027 210.34730 210.55834 210.76838 210.68742 210.37446 209.98950 209.60154
 209.20058 208.89262 208.68266 208.52870 208.43874 208.75178 209.11982 209.49086
 210.26590 211.42594 212.65798 214.42302 216.33306 218.35810 220.43514 222.50017
 224.54221 226.60825 228.68729 230.77533 232.88637 235.04041 237.27845 239.63049
 242.23353 244.46657 246.45061 248.19765 249.59669 250.70173 251.50577 251.80381
 251.82285 251.57889 250.92093 249.85097 248.43901 246.58204 244.47308 242.28812
 240.06116 237.84720 235.64924 233.47028 231.31232 229.16136 227.16940 225.30844
 223.57348 222.02752 220.63956 219.39360 218.25764 217.19968 216.28572 215.40876
 214.63280 213.79484 212.87488 212.22091 211.65295 212.93015 215.94765 218.54742
 219.76540 221.20599 222.78775 224.41920 225.94853 227.11627 228.45540 228.93491
 228.53506 228.90019 231.97136 236.64993 241.42216 245.85347 249.92076 253.73343
 257.34253 260.73471 263.83386 266.53168 268.94629 271.09296 272.75604 274.21320
 275.78537 277.52121 279.07904 280.45096 281.64133 282.69965 283.67139 284.56335
 285.37775 286.11716 286.77109 287.69681
 366.78100 356.31730 345.73160 334.57990 322.96520 311.14151 298.99381 286.77911
 274.47341 262.35271 250.34401 239.62731 229.73161 220.81792 212.98222 205.96652
 199.78282 194.70312 191.26742 189.29172 188.31102 188.35733 189.17463 190.46493
 192.17223 194.24953 196.49483 198.83613 201.26343 203.72574 205.79604 207.62034
 209.22864 210.35594 210.56724 210.77754 210.69684 210.38415 209.99945 209.61175
 209.21105 208.90335 208.69365 208.53995 208.45025 208.76356 209.13186 209.50316
 210.27846 211.43876 212.67106 214.43636 216.34666 218.37197 220.44927 222.51457
 224.55687 226.62317 228.70247 230.79077 232.90207 235.05637 237.29468 239.64698
 242.25028 244.48358 246.46788 248.21518 249.61448 250.71978 251.52409 251.82239
 251.84169 251.59799 250.94029 249.87059 248.45889 246.60219 244.49350 242.30880
 240.08210 237.86840 235.67070 233.49200 231.33430 229.18360 227.19191 225.33121
 223.59651 222.05081 220.66311 219.41741 218.28171 217.22401 216.31032 215.43362
 214.65792 213.82022 212.90052 212.24682 211.67912 212.96570 216.00539 218.60527
 219.86534 221.31029 222.89461 224.51041 225.97299 227.09723 228.39746 228.70277
 228.25510 228.75017 231.89209 236.59402 241.37547 245.81180 249.88496 253.69856
 257.31268 260.72031 263.84085 266.55090 268.96667 271.10699 272.76242 274.21130
 275.77802 277.51370 279.07242 280.44449 281.63486 282.69437 283.66592 284.55460
 285.37146 286.11130 286.76434 287.69305
 366.78100 356.31761 345.73223 334.58084 322.96646 311.14307 298.99569 286.78130
 274.47592 262.35553 250.34715 239.63076 229.73538 220.82199 212.98661 205.97122
 199.78784 194.70845 191.27307 189.29768 188.31730 188.36391 189.18153 190.47214
 192.17976 194.25737 196.50298 198.84460 201.27221 203.73483 205.80544 207.63006
 209.23867 210.36629 210.57790 210.78852 210.70813 210.39575 210.01136 209.62398
 209.22359 208.91621 208.70682 208.55344 208.46405 208.77767 209.14628 209.51790
 210.29351 211.45413 212.68674 214.45235 216.36297 218.38858 220.46620 222.53181
 224.57443 226.64104 228.72066 230.80927 232.92089 235.07550 237.31412 239.66673
 242.27035 244.50396 246.48858 248.23619 249.63581 250.74142 251.54604 251.84465
 251.86427 251.62088 250.96350 249.89411 248.48272 246.62634 244.51795 242.33357
 240.10718 237.89380 235.69641 233.51803 231.36064 229.21026 227.21887 225.35849
 223.62410 222.07872 220.69133 219.44595 218.31056 217.25318 216.33979 215.46341
 214.68802 213.85064 212.93125 212.27786 211.71048 213.00406 216.06027 218.65733
 219.95866 221.42050 223.00981 224.60188 225.98013 227.07399 228.33716 228.47664
 227.99435 228.62567 231.82576 236.53658 241.32401 245.76830 249.85056 253.66563
 257.28137 260.70050 263.83902 266.56396 268.98029 271.11133 272.76254 274.20767
 275.77078 277.50656 279.06601 280.43805 281.62964 282.68851 283.66095 284.55267
 285.36774 286.10785 286.76062 287.69489
 366.78100 356.31795 345.73291 334.58186 322.96781 311.14477 298.99772 286.78368
 274.47863 262.35858 250.35054 239.63449 229.73944 220.82640 212.99135 205.97631
 199.79326 194.71421 191.27917 189.30412 188.32407 188.37103 189.18898 190.47993
 192.18789 194.26584 196.51180 198.85375 201.28170 203.74466 205.81561 207.64056
 209.24952 210.37747 210.58943 210.80038 210.72033 210.40829 210.02424 209.63719
 209.23715 208.93010 208.72106 208.56801 208.47896 208.79292 209.16187 209.53382
 210.30978 211.47073 212.70368 214.46964 216.38059 218.40655 220.48450 222.55045
 224.59341 226.66036 228.74031 230.82927 232.94122 235.09618 237.33513 239.68808
 242.29204 244.52599 246.51094 248.25890 249.65885 250.76480 251.56976 251.86871
 251.88867 251.64562 250.98857 249.91953 248.50848 246.65243 244.54439 242.36034
 240.13430 237.92125 235.72420 233.54616 231.38911 229.23906 227.24802 225.38797
 223.65393 222.10888 220.72183 219.47679 218.34174 217.28469 216.37165 215.49560
 214.72055 213.88351 212.96446 212.31142 211.74437 213.04361 216.11322 218.70297
 220.04628 221.53787 223.12596 224.68657 225.98453 227.05403 228.26846 228.26184
 227.75674 228.51994 231.76785 236.47763 241.27052 245.72514 249.81874 253.63686
 257.25095 260.67618 263.82977 266.56989 268.98734 271.10648 272.75662 274.20230
 275.76535 277.50253 279.06281 280.43497 281.62631 282.68750 283.65927 284.55038
 285.36569 286.10861 286.76276 287.69598
 366.78100 356.31831 345.73362 334.58293 322.96924 311.14655 298.99986 286.78617
 274.48148 262.36179 250.35410 239.63841 229.74372 220.83103 212.99634 205.98165
 199.79896 194.72027 191.28558 189.31089 188.33120 188.37851 189.19682 190.48813
 192.19644 194.27475 196.52106 198.86337 201.29168 203.75499 205.82630 207.65160
 209.26091 210.38922 210.60153 210.81284 210.73315 210.42146 210.03777 209.65108
 209.25139 208.94470 208.73601 208.58332 208.49463 208.80894 209.17825 209.55056
 210.32687 211.48818 212.72149 214.48780 216.39911 218.42542 220.50373 222.57004
 224.61335 226.68066 228.76097 230.85028 232.96259 235.11790 237.35721 239.71052
 242.31483 244.54914 246.53445 248.28276 249.68307 250.78938 251.59469 251.89400
 251.91431 251.67162 251.01493 249.94624 248.53555 246.67986 244.57217 242.38848
 240.16279 237.95010 235.75341 233.57572 231.41903 229.26934 227.27865 225.41896
 223.68527 222.14058 220.75389 219.50920 218.37450 217.31781 216.40512 215.52943
 214.75474 213.91805 212.99936 212.34667 211.77998 213.08382 216.16428 218.74396
 220.13054 221.65730 223.24315 224.75983 225.98955 227.04648 228.19615 228.05199
 227.53537 228.43027 231.71921 236.41826 241.21304 245.68140 249.79076 253.61432
 257.22336 260.64819 263.81290 266.56870 268.98489 271.09033 272.74023 274.19028
 275.76138 277.49994 279.06082 280.43414 281.62787 282.68683 283.66028 284.55191
 285.36847 286.10922 286.76453 287.70056
 366.78100 356.31872 345.73443 334.58415 322.97086 311.14858 299.00229 286.78901
 274.48473 262.36544 250.35816 239.64287 229.74859 220.83630 213.00202 205.98774
 199.80545 194.72717 191.29288 189.31860 188.33931 188.38703 189.20575 190.49746
 192.20618 194.28489 196.53161 198.87432 201.30304 203.76676 205.83847 207.66419
 209.27390 210.40262 210.61533 210.82705 210.74777 210.43648 210.05320 209.66691
 209.26763 208.96134 208.75306 208.60078 208.51249 208.82721 209.19692 209.56964
 210.34635 211.50807 212.74179 214.50850 216.42022 218.44693 220.52565 222.59236
 224.63608 226.70380 228.78451 230.87423 232.98694 235.14266 237.38237 239.73609
 242.34081 244.57552 246.56124 248.30995 249.71067 250.81738 251.62310 251.92282
 251.94353 251.70125 251.04496 249.97668 248.56639 246.71111 244.60383 242.42054
 240.19526 237.98297 235.78669 233.60940 231.45312 229.30384 227.31355 225.45427
 223.72098 222.17670 220.79041 219.54613 218.41185 217.35556 216.44328 215.56799
 214.79371 213.95742 213.03914 212.38686 211.82057 213.12651 216.21196 218.78380
 220.21527 221.76692 223.35661 224.83977 226.00655 227.03658 228.12114 227.85777
 227.33022 228.34828 231.67000 236.35544 241.15579 245.64000 249.76683 253.59654
 257.19788 260.61853 263.78909 266.55939 268.97455 271.06512 272.71616 274.17755
 275.75772 277.49820 279.05917 280.43494 281.62753 282.68854 283.66107 284.55380
 285.36938 286.11264 286.76706 287.70306
 366.78100 356.31907 345.73513 334.58520 322.97227 311.15033 299.00440 286.79146
 274.48753 262.36860 250.36166 239.64673 229.75280 220.84086 213.00693 205.99300
 199.81106 194.73313 191.29919 189.32526 188.34633 188.39439 189.21346 190.50553
 192.21459 194.29366 196.54073 198.88379 201.31286 203.77692 205.84899 207.67506
 209.28512 210.41419 210.62726 210.83932 210.76039 210.44946 210.06652 209.68059
 209.28165 208.97572 208.76779 208.61585 208.52792 208.84299 209.21305 209.58612
 210.36319 211.52525 212.75932 214.52638 216.43845 218.46552 220.54458 222.61165
 224.65572 226.72378 228.80485 230.89492 233.00798 235.16405 237.40411 239.75818
 242.36325 244.59831 246.58438 248.33345 249.73451 250.84158 251.64765 251.94771
 251.96878 251.72684 251.07091 250.00298 248.59304 246.73811 244.63118 242.44824
 240.22331 238.01138 235.81544 233.63851 231.48257 229.33364 227.34371 225.48477
 223.75184 222.20791 220.82197 219.57804 218.44411 217.38817 216.47624 215.60130
 214.82737 213.99144 213.07350 212.42157 211.85564 213.16563 216.26067 218.82722
 220.28336 221.88118 223.46353 224.90843 226.03983 227.05676 228.03351 227.66733
 227.14821 228.27354 231.62955 236.29623 241.09373 245.59328 249.74287 253.58212
 257.17484 260.58710 263.76004 266.54422 268.95810 271.03452 272.68979 274.15561
 275.75668 277.49991 279.06277 280.43698 281.63077 282.69244 283.66629 284.55807
 285.37424 286.11548 286.77121 287.71072
 366.78100 356.31964 345.73628 334.58692 322.97456 311.15320 299.00784 286.79548
 274.49212 262.37376 250.36740 239.65304 229.75968 220.84832 213.01496 206.00160
 199.82024 194.74288 191.30952 189.33616 188.35780 188.40644 189.22608 190.51872
 192.22836 194.30800 196.55564 198.89928 201.32892 203.79356 205.86620 207.69284
 209.30348 210.43312 210.64676 210.85940 210.78104 210.47068 210.08832 209.70296
 209.30460 208.99924 208.79188 208.64052 208.55316 208.86880 209.23944 209.61308
 210.39072 211.55336 212.78800 214.55564 216.46829 218.49593 220.57557 222.64321
 224.68785 226.75649 228.83813 230.92877 233.04241 235.19905 237.43969 239.79433
 242.39997 244.63561 246.62225 248.37189 249.77353 250.88117 251.68781 251.98845
 252.01009 251.76873 251.11337 250.04601 248.63665 246.78229 244.67593 242.49357
 240.26921 238.05785 235.86249 233.68613 231.53077 229.38241 227.39305 225.53469
 223.80233 222.25897 220.87361 219.63025 218.49689 217.44153 216.53017 215.65581
 214.88245 214.04709 213.12973 212.47837 211.91301 213.21515 216.29158 218.88933
 220.34383 221.98132 223.57112 224.95789 226.05829 227.08482 228.00473 227.49550
 226.94557 228.19246 231.57159 236.22166 241.02675 245.55339 249.73071 253.57759
 257.15674 260.55521 263.72607 266.52158 268.93155 270.99146 272.65158 274.15051
 275.74945 277.49405 279.05725 280.43332 281.62848 282.69128 283.66568 284.55814
 285.37405 286.11487 286.77023 287.71091
 366.78100 356.32026 345.73753 334.58879 322.97705 311.15632 299.01158 286.79985
 274.49711 262.37937 250.37364 239.65990 229.76716 220.85643 213.02369 206.01096
 199.83022 194.75348 191.32075 189.34801 188.37027 188.41954 189.23980 190.53307
 192.24333 194.32359 196.57186 198.91612 201.34638 203.81165 205.88491 207.71218
 209.32344 210.45370 210.66797 210.88123 210.80349 210.49376 210.11202 209.72729
 209.32955 209.02481 208.81808 208.66734 208.58060 208.89687 209.26813 209.64239
 210.42066 211.58392 212.81919 214.58745 216.50071 218.52898 220.60924 222.67750
 224.72277 226.79203 228.87430 230.96556 233.07982 235.23709 237.47835 239.83361
 242.43988 244.67614 246.66341 248.41367 249.81593 250.92420 251.73146 252.03272
 252.05499 251.81425 251.15952 250.09278 248.68404 246.83031 244.72457 242.54283
 240.31910 238.10836 235.91363 233.73789 231.58315 229.43542 227.44668 225.58894
 223.85721 222.31447 220.92974 219.68700 218.55426 217.49953 216.58879 215.71505
 214.94232 214.10758 213.19084 212.54011 211.97537 213.26729 216.31960 218.93498
 220.41960 222.08163 223.74474 225.06880 226.00417 226.99339 227.93317 227.47385
 226.84679 228.03070 231.49770 236.16528 240.97809 245.53192 249.72591 253.57481
 257.13937 260.52084 263.68872 266.49387 268.90027 270.94351 272.60712 274.09314
 275.75137 277.50293 279.06485 280.43948 281.63397 282.69623 283.67010 284.56158
 285.37894 286.11902 286.77368 287.71591
 366.78100 356.32080 345.73860 334.59039 322.97919 311.15899 299.01479 286.80358
 274.50138 262.38418 250.37898 239.66578 229.77357 220.86337 213.03117 206.01897
 199.83876 194.76256 191.33036 189.35816 188.38096 188.43075 189.25155 190.54535
 192.25615 194.33694 196.58574 198.93054 201.36134 203.82714 205.90093 207.72873
 209.34053 210.47133 210.68612 210.89992 210.82272 210.51352 210.13232 209.74811
 209.35091 209.04671 208.84051 208.69030 208.60410 208.92090 209.29270 209.66750
 210.44629 211.61009 212.84589 214.61469 216.52848 218.55728 220.63808 222.70688
 224.75268 226.82247 228.90527 230.99707 233.11187 235.26966 237.51146 239.86726
 242.47406 244.71086 246.69865 248.44945 249.85225 250.96105 251.76884 252.07064
 252.09344 251.85324 251.19904 250.13283 248.72463 246.87143 244.76623 242.58502
 240.36182 238.15162 235.95742 233.78222 231.62801 229.48081 227.49261 225.63541
 223.90420 222.36200 220.97780 219.73560 218.60340 217.54919 216.63899 215.76579
 214.99359 214.15938 213.24318 212.59298 212.02878 213.31491 216.35353 218.96527
 220.51547 222.15506 223.85120 225.20978 226.06395 226.93022 227.76410 227.45233
 226.83182 227.89836 231.43661 236.12473 240.93478 245.50470 249.71230 253.56755
 257.12042 260.48624 263.64856 266.46240 268.86252 270.88846 272.55685 274.09714
 275.73145 277.48441 279.05170 280.42944 281.62814 282.69257 283.66837 284.56082
 285.37842 286.11765 286.77527 287.71603
 366.78100 356.32136 345.73972 334.59208 322.98144 311.16180 299.01817 286.80753
 274.50589 262.38925 250.38461 239.67197 229.78033 220.87069 213.03905 206.02741
 199.84778 194.77214 191.34050 189.36886 188.39222 188.44258 189.26394 190.55830
 192.26966 194.35102 196.60039 198.94575 201.37711 203.84347 205.91783 207.74619
 209.35855 210.48991 210.70527 210.91963 210.84300 210.53436 210.15372 209.77008
 209.37344 209.06980 208.86416 208.71452 208.62888 208.94624 209.31861 209.69397
 210.47333 211.63769 212.87405 214.64341 216.55777 218.58713 220.66849 222.73785
 224.78422 226.85458 228.93794 231.03030 233.14566 235.30402 237.54638 239.90274
 242.51010 244.74746 246.73582 248.48719 249.89055 250.99991 251.80827 252.11063
 252.13399 251.89435 251.24071 250.17507 248.76743 246.91480 244.81016 242.62952
 240.40688 238.19724 236.00360 233.82896 231.67532 229.52868 227.54104 225.68441
 223.95377 222.41213 221.02849 219.78685 218.65521 217.60157 216.69193 215.81929
 215.04765 214.21402 213.29838 212.64874 212.08510 213.36340 216.38353 218.99947
 220.60619 222.22960 223.90437 225.32114 226.18822 226.94344 227.58232 227.37012
 226.80960 227.80383 231.38850 236.08682 240.88776 245.47214 249.69925 253.56235
 257.10254 260.45123 263.60574 266.42444 268.81586 270.82272 272.49429 273.93939
 275.77704 277.52893 279.07245 280.44046 281.63019 282.69150 283.66525 284.55722
 285.37128 286.11115 286.76501 287.70792
 366.78100 356.32200 345.74100 334.59401 322.98401 311.16501 299.02201 286.81201
 274.51101 262.39502 250.39102 239.67902 229.78802 220.87902 213.04803 206.03703
 199.85803 194.78303 191.35203 189.38104 188.40504 188.45604 189.27804 190.57304
 192.28504 194.36705 196.61705 198.96305 201.39505 203.86205 205.93706 207.76606
 209.37906 210.51106 210.72706 210.94206 210.86607 210.55807 210.17807 209.79507
 209.39907 209.09608 208.89108 208.74208 208.65708 208.97508 209.34809 209.72409
 210.50409 211.66909 212.90609 214.67609 216.59110 218.62110 220.70310 222.77310
 224.82010 226.89111 228.97511 231.06811 233.18411 235.34311 237.58611 239.94312
 242.55112 244.78912 246.77812 248.53012 249.93413 251.04413 251.85313 252.15613
 252.18013 251.94114 251.28814 250.22314 248.81614 246.96414 244.86014 242.68015
 240.45815 238.24915 236.05615 233.88215 231.72916 229.58316 227.59616 225.74016
 224.01016 222.46916 221.08617 219.84517 218.71417 217.66117 216.75217 215.88018
 215.10918 214.27618 213.36118 212.71218 212.14919 213.41530 216.40663 219.04385
 220.68228 222.31291 223.94920 225.39386 226.31807 226.99265 227.43675 227.25323
 226.74557 227.72058 231.34715 236.04736 240.84082 245.44362 249.69209 253.56174
 257.08801 260.41782 263.56290 266.38483 268.76740 270.75650 272.42871 273.82785
 275.76877 277.53888 279.08362 280.44922 281.63806 282.69537 283.66766 284.55722
 285.37073 286.10889 286.76147 287.69977
 366.78100 356.32266 345.74233 334.59599 322.98665 311.16832 299.02598 286.81665
 274.51631 262.40097 250.39764 239.68630 229.79596 220.88763 213.05729 206.04695
 199.86862 194.79428 191.36395 189.39361 188.41827 188.46994 189.29260 190.58826
 192.30093 194.38359 196.63425 198.98092 201.41358 203.88125 205.95691 207.78657
 209.40024 210.53290 210.74956 210.96523 210.88989 210.58255 210.20322 209.82088
 209.42555 209.12321 208.91887 208.77054 208.68620 209.00486 209.37853 209.75519
 210.53585 211.70152 212.93918 214.70984 216.62551 218.65617 220.73884 222.80950
 224.85716 226.92883 229.01349 231.10715 233.22382 235.38348 237.62714 239.98481
 242.59347 244.83214 246.82180 248.57446 249.97913 251.08979 251.89945 252.20312
 252.22778 251.98944 251.33711 250.27277 248.86644 247.01510 244.91176 242.73243
 240.51109 238.30275 236.11042 233.93708 231.78474 229.63941 227.65307 225.79774
 224.06840 222.52806 221.14573 219.90539 218.77505 217.72272 216.81438 215.94304
 215.17271 214.34037 213.42604 212.77770 212.21536 213.46777 216.42674 219.08832
 220.75304 222.39378 224.00040 225.44875 226.43794 227.04874 227.33139 227.11690
 226.63852 227.64061 231.31157 236.00957 240.79866 245.42000 249.68689 253.56236
 257.07462 260.38498 263.51981 266.34238 268.71313 270.68146 272.35419 273.77942
 275.73532 277.51868 279.06927 280.43753 281.62552 282.68491 283.65552 284.54456
 285.35712 286.09564 286.74884 287.69083
 366.78100 356.32331 345.74362 334.59793 322.98924 311.17155 299.02986 286.82117
 274.52148 262.40679 250.40410 239.69341 229.80372 220.89603 213.06634 206.05665
 199.87896 194.80527 191.37559 189.40590 188.43121 188.48352 189.30683 190.60314
 192.31645 194.39976 196.65107 198.99838 201.43169 203.90000 205.97631 207.80662
 209.42093 210.55424 210.77155 210.98786 210.91317 210.60648 210.22779 209.84610
 209.45141 209.14972 208.94603 208.79834 208.71465 209.03396 209.40827 209.78558
 210.56689 211.73320 212.97151 214.74282 216.65914 218.69045 220.77376 222.84507
 224.89338 226.96569 229.05100 231.14531 233.26262 235.42293 237.66724 240.02555
 242.63486 244.87417 246.86448 248.61779 250.02310 251.13441 251.94472 252.24903
 252.27434 252.03665 251.38496 250.32127 248.91558 247.06489 244.96220 242.78351
 240.56282 238.35513 236.16344 233.99075 231.83906 229.69437 227.70869 225.85400
 224.12531 222.58562 221.20393 219.96424 218.83455 217.78286 216.87517 216.00448
 215.23479 214.40310 213.48941 212.84172 212.28003 213.51956 216.44806 219.12636
 220.82619 222.47066 224.05428 225.50034 226.54536 227.10690 227.25763 226.95911
 226.49257 227.56808 231.28403 235.97685 240.76315 245.39893 249.68225 253.56247
 257.06210 260.35477 263.47754 266.29953 268.65790 270.60602 272.28171 273.74283
 275.70197 277.48984 279.04373 280.41318 281.60373 282.66321 283.63434 284.52631
 285.33945 286.07620 286.73080 287.67325
 366.78100 356.32397 345.74494 334.59991 322.99187 311.17484 299.03381 286.82578
 274.52675 262.41272 250.41068 239.70065 229.81162 220.90459 213.07556 206.06653
 199.88949 194.81646 191.38743 189.41840 188.44437 188.49734 189.32130 190.61827
 192.33224 194.41621 196.66818 199.01615 201.45012 203.91908 205.99605 207.82702
 209.44199 210.57596 210.79393 211.01089 210.93686 210.63083 210.25280 209.87177
 209.47774 209.17670 208.97367 208.82664 208.74361 209.06358 209.43855 209.81652
 210.59848 211.76545 213.00442 214.77639 216.69336 218.72533 220.80929 222.88126
 224.93023 227.00320 229.08917 231.18414 233.30210 235.46307 237.70804 240.06701
 242.67698 244.91695 246.90791 248.66188 250.06785 251.17982 251.99079 252.29576
 252.32173 252.08469 251.43366 250.37063 248.96560 247.11557 245.01354 242.83550
 240.61547 238.40844 236.21741 234.04538 231.89435 229.75031 227.76528 225.91125
 224.18322 222.64419 221.26316 220.02412 218.89509 217.84406 216.93703 216.06700
 215.29797 214.46694 213.55390 212.90687 212.34584 213.57256 216.47079 219.15833
 220.89771 222.54619 224.10892 225.55199 226.64043 227.17125 227.20551 226.78174
 226.31769 227.50453 231.26405 235.94958 240.73369 245.38005 249.67586 253.56061
 257.04999 260.32623 263.43835 266.25763 268.60406 270.53549 272.21262 273.68314
 275.65335 277.45032 279.00992 280.38187 281.57428 282.63580 283.60968 284.49930
 285.31317 286.05219 286.70438 287.64719
 366.78100 356.32464 345.74629 334.60193 322.99458 311.17822 299.03787 286.83051
 274.53216 262.41880 250.41745 239.70809 229.81974 220.91338 213.08503 206.07667
 199.90031 194.82796 191.39960 189.43125 188.45789 188.51154 189.33618 190.63383
 192.34847 194.43312 196.68576 199.03441 201.46905 203.93870 206.01634 207.84798
 209.46363 210.59827 210.81692 211.03456 210.96121 210.65585 210.27850 209.89814
 209.50479 209.20443 209.00208 208.85572 208.77337 209.09401 209.46966 209.84830
 210.63094 211.79859 213.03823 214.81088 216.72852 218.76117 220.84581 222.91846
 224.96810 227.04175 229.12839 231.22404 233.34268 235.50433 237.74997 240.10961
 242.72026 244.96090 246.95255 248.70719 250.11384 251.22648 252.03813 252.34377
 252.37042 252.13406 251.48371 250.42135 249.01700 247.16764 245.06628 242.88893
 240.66957 238.46322 236.27286 234.10151 231.95115 229.80780 227.82344 225.97009
 224.24273 222.70438 221.32402 220.08567 218.95731 217.90695 217.00060 216.13124
 215.36289 214.53253 213.62018 212.97382 212.41347 213.62663 216.49287 219.18678
 220.96465 222.61581 224.16344 225.60484 226.72418 227.24541 227.17264 226.59230
 226.12379 227.44720 231.25023 235.92821 240.70886 245.36057 249.66565 253.55467
 257.03430 260.29654 263.39716 266.21136 268.54517 270.45883 272.13556 273.68176
 275.61743 277.40845 278.96851 280.34113 281.53589 282.59702 283.57153 284.46237
 285.27597 286.01370 286.66882 287.61102
 366.78100 356.32531 345.74761 334.60392 322.99723 311.18153 299.04184 286.83515
 274.53745 262.42476 250.42407 239.71537 229.82768 220.92199 213.09429 206.08660
 199.91091 194.83921 191.41152 189.44383 188.47114 188.52544 189.35075 190.64906
 192.36436 194.44967 196.70298 199.05228 201.48759 203.95790 206.03620 207.86851
 209.48482 210.62012 210.83943 211.05774 210.98504 210.68035 210.30366 209.92396
 209.53127 209.23158 209.02988 208.88419 208.80250 209.12380 209.50011 209.87942
 210.66272 211.83103 213.07134 214.84464 216.76295 218.79626 220.88156 222.95487
 225.00518 227.07948 229.16679 231.26310 233.38241 235.54471 237.79102 240.15133
 242.76263 245.00394 246.99625 248.75155 250.15886 251.27217 252.08447 252.39078
 252.41809 252.18239 251.53270 250.47101 249.06731 247.21862 245.11793 242.94123
 240.72254 238.51685 236.32715 234.15646 232.00677 229.86407 227.88038 226.02769
 224.30099 222.76330 221.38361 220.14591 219.01822 217.96853 217.06283 216.19414
 215.42645 214.59676 213.68506 213.03937 212.47968 213.67952 216.51427 219.21164
 221.03026 222.67667 224.21057 225.65353 226.79996 227.32829 227.15501 226.40776
 225.92943 227.39563 231.24121 235.91211 240.68750 245.33917 249.64929 253.53976
 257.01083 260.26013 263.35049 266.16202 268.48770 270.38934 272.06955 273.67468
 275.57114 277.35577 278.91693 280.29102 281.48535 282.54691 283.52301 284.41367
 285.22757 285.96606 286.61981 287.56161
 366.78100 356.32601 345.74902 334.60603 323.00004 311.18505 299.04606 286.84007
 274.54308 262.43109 250.43110 239.72311 229.83611 220.93112 213.10413 206.09714
 199.92215 194.85116 191.42417 189.45718 188.48519 188.54020 189.36621 190.66522
 192.38123 194.46724 196.72125 199.07126 201.50727 203.97828 206.05729 207.89030
 209.50731 210.64332 210.86333 211.08234 211.01034 210.70635 210.33036 209.95137
 209.55938 209.26039 209.05940 208.91441 208.83342 209.15543 209.53244 209.91245
 210.69646 211.86547 213.10648 214.88049 216.79950 218.83351 220.91952 222.99353
 225.04454 227.11955 229.20756 231.30456 233.42457 235.58758 237.83459 240.19560
 242.80761 245.04962 247.04263 248.79864 250.20665 251.32066 252.13367 252.44068
 252.46869 252.23370 251.58471 250.52372 249.12073 247.27274 245.17275 242.99676
 240.77877 238.57378 236.38478 234.21479 232.06580 229.92381 227.94082 226.08883
 224.36284 222.82585 221.44686 220.20987 219.08288 218.03389 217.12890 216.26091
 215.49392 214.66493 213.75394 213.10895 212.54996 213.73369 216.53040 219.24054
 221.09787 222.73157 224.25104 225.69283 226.86385 227.41806 227.14597 226.22649
 225.73982 227.34804 231.23566 235.90417 240.67323 245.31973 249.63289 253.52425
 256.98758 260.22357 263.30270 266.10925 268.42456 270.31320 271.98373 273.65225
 275.51898 277.29843 278.85855 280.23288 281.42789 282.49097 283.46664 284.35794
 285.17172 285.91223 286.56546 287.50690
 366.78100 356.32671 345.75042 334.60813 323.00284 311.18855 299.05026 286.84497
 274.54868 262.43739 250.43810 239.73081 229.84452 220.94023 213.11394 206.10765
 199.93336 194.86307 191.43678 189.47049 188.49920 188.55491 189.38162 190.68133
 192.39804 194.48474 196.73945 199.09016 201.52687 203.99858 206.07829 207.91200
 209.52971 210.66642 210.88713 211.10684 211.03555 210.73226 210.35697 209.97868
 209.58739 209.28910 209.08881 208.94452 208.86423 209.18694 209.56465 209.94536
 210.73007 211.89978 213.14149 214.91620 216.83591 218.87062 220.95733 223.03204
 225.08375 227.15946 229.24817 231.34588 233.46659 235.63030 237.87801 240.23972
 242.85243 245.09514 247.08885 248.84556 250.25427 251.36898 252.18269 252.49040
 252.51911 252.28482 251.63653 250.57623 249.17394 247.32665 245.22736 243.05207
 240.83478 238.63049 236.44220 234.27291 232.12462 229.98333 228.00104 226.14975
 224.42446 222.88817 221.50988 220.27359 219.14730 218.09901 217.19472 216.32743
 215.56114 214.73285 213.82256 213.17827 212.61998 213.78702 216.54430 219.26569
 221.17310 222.77608 224.28339 225.73459 226.92738 227.50665 227.14774 226.05788
 225.55193 227.30005 231.23384 235.89973 240.65996 245.29672 249.61018 253.50386
 256.96164 260.18643 263.25446 266.05859 268.36890 270.25128 271.93893 273.57361
 275.45779 277.23340 278.78970 280.16144 281.35422 282.41684 283.39185 284.28421
 285.09851 285.84073 286.49664 287.43835
 366.78100 356.32745 345.75191 334.61036 323.00582 311.19227 299.05473 286.85018
 274.55463 262.44409 250.44554 239.73900 229.85345 220.94991 213.12436 206.11881
 199.94527 194.87572 191.45018 189.48463 188.51409 188.57054 189.39799 190.69845
 192.41590 194.50336 196.75881 199.11027 201.54772 204.02017 206.10063 207.93508
 209.55354 210.69099 210.91245 211.13290 211.06235 210.75981 210.38526 210.00772
 209.61717 209.31963 209.12008 208.97653 208.89699 209.22044 209.59890 209.98035
 210.76581 211.93626 213.17871 214.95417 216.87462 218.91008 220.99753 223.07299
 225.12544 227.20189 229.29135 231.38980 233.51126 235.67571 237.92417 240.28662
 242.90007 245.14353 247.13798 248.89544 250.30489 251.42034 252.23480 252.54325
 252.57271 252.33916 251.69162 250.63207 249.23052 247.38398 245.28543 243.11089
 240.89434 238.69080 236.50325 234.33470 232.18716 230.04661 228.06507 226.21452
 224.48998 222.95443 221.57688 220.34134 219.21579 218.16825 217.26470 216.39816
 215.63261 214.80506 213.89552 213.25197 212.69443 213.84230 216.55426 219.29312
 221.24440 222.82645 224.29581 225.75386 227.00328 227.61984 227.14774 225.90117
 225.38988 227.25287 231.22401 235.89621 240.64928 245.27501 249.58650 253.47957
 256.93356 260.14795 263.20609 266.01019 268.31863 270.19162 271.88504 273.48502
 275.40189 277.16122 278.71011 280.07907 281.27039 282.33142 283.30515 284.19974
 285.01453 285.75925 286.41391 287.35507
 366.78100 356.32829 345.75359 334.61288 323.00917 311.19647 299.05976 286.85605
 274.56135 262.45164 250.45393 239.74823 229.86352 220.96081 213.13611 206.13140
 199.95869 194.88999 191.46528 189.50057 188.53087 188.58816 189.41645 190.71775
 192.43604 194.52433 196.78063 199.13292 201.57121 204.04451 206.12580 207.96109
 209.58039 210.71868 210.94097 211.16227 211.09256 210.79085 210.41715 210.04044
 209.65073 209.35403 209.15532 209.01261 208.93391 209.25820 209.63749 210.01979
 210.80608 211.97737 213.22067 214.99696 216.91825 218.95455 221.04284 223.11913
 225.17243 227.24972 229.34001 231.43931 233.56160 235.72689 237.97619 240.33948
 242.95377 245.19807 247.19336 248.95165 250.36195 251.47824 252.29353 252.60283
 252.63312 252.40041 251.75371 250.69500 249.29430 247.44859 245.35088 243.17718
 240.96147 238.75876 236.57206 234.40435 232.25764 230.11794 228.13723 226.28752
 224.56382 223.02911 221.65240 220.41770 219.29299 218.24628 217.34358 216.47787
 215.71316 214.88646 213.97775 213.33504 212.77834 213.90164 216.55556 219.32384
 221.31810 222.85884 224.32237 225.76422 227.03819 227.73579 227.19841 225.73605
 225.18753 227.20720 231.22636 235.90276 240.64578 245.25195 249.55637 253.44740
 256.89859 260.10513 263.15573 265.96054 268.26837 270.13290 271.83231 273.49084
 275.28079 277.04471 278.60336 279.97522 281.16946 282.23279 283.20877 284.10345
 284.92102 285.66568 286.32428 287.26846
 366.78100 356.32888 345.75476 334.61465 323.01153 311.19941 299.06329 286.86017
 274.56606 262.45694 250.45982 239.75470 229.87058 220.96847 213.14435 206.14023
 199.96811 194.89999 191.47588 189.51176 188.54264 188.60052 189.42940 190.73129
 192.45017 194.53905 196.79593 199.14882 201.58770 204.06158 206.14346 207.97934
 209.59923 210.73811 210.96099 211.18287 211.11375 210.81264 210.43952 210.06340
 209.67428 209.37816 209.18005 209.03793 208.95981 209.28469 209.66457 210.04746
 210.83434 212.00622 213.25010 215.02698 216.94887 218.98575 221.07463 223.15151
 225.20539 227.28328 229.37416 231.47404 233.59692 235.76280 238.01269 240.37657
 242.99145 245.23633 247.23221 248.99110 250.40198 251.51886 252.33474 252.64462
 252.67551 252.44339 251.79727 250.73915 249.33904 247.49392 245.39680 243.22368
 241.00856 238.80645 236.62033 234.45321 232.30709 230.16797 228.18786 226.33874
 224.61562 223.08150 221.70538 220.47127 219.34715 218.30103 217.39891 216.53379
 215.76968 214.94356 214.03544 213.39332 212.83720 213.94809 216.57268 219.32788
 221.41568 222.90573 224.27254 225.77953 227.14711 227.84909 227.22005 225.60959
 225.03047 227.16237 231.22440 235.90869 240.63792 245.21959 249.51564 253.40781
 256.86203 260.06427 263.10767 265.91452 268.22394 270.08453 271.78741 273.45972
 275.19952 276.95071 278.50742 279.88052 281.07468 282.13773 283.11490 284.00897
 284.82812 285.57541 286.23285 287.17603
 366.78100 356.32949 345.75598 334.61648 323.01397 311.20246 299.06695 286.86444
 274.57094 262.46243 250.46592 239.76141 229.87791 220.97640 213.15289 206.14938
 199.97787 194.91037 191.48686 189.52335 188.55484 188.61333 189.44283 190.74532
 192.46481 194.55430 196.81179 199.16529 201.60478 204.07927 206.16176 207.99825
 209.61875 210.75824 210.98173 211.20422 211.13572 210.83521 210.46270 210.08719
 209.69868 209.40318 209.20567 209.06416 208.98665 209.31214 209.69264 210.07613
 210.86362 212.03611 213.28060 215.05810 216.98059 219.01808 221.10757 223.18506
 225.23956 227.31805 229.40954 231.51003 233.63353 235.80002 238.05051 240.41500
 243.03049 245.27599 247.27248 249.03197 250.44346 251.56095 252.37745 252.68794
 252.71943 252.48792 251.84241 250.78491 249.38540 247.54089 245.44438 243.27187
 241.05737 238.85586 236.67035 234.50384 232.35834 230.21983 228.24032 226.39181
 224.66930 223.13580 221.76029 220.52678 219.40327 218.35776 217.45626 216.59175
 215.82824 215.00273 214.09522 213.45372 212.89821 213.99472 216.58537 219.33882
 221.48471 222.97495 224.28574 225.80885 227.21547 227.88962 227.19702 225.56155
 224.97380 227.11652 231.20122 235.90390 240.62115 245.18173 249.47331 253.37036
 256.82852 260.02652 263.06152 265.87042 268.18280 270.04095 271.74194 273.40546
 275.11905 276.86145 278.41586 279.78708 280.97931 282.04346 283.02011 283.91565
 284.73294 285.48145 286.14133 287.08505
 366.78100 356.33024 345.75748 334.61872 323.01696 311.20620 299.07144 286.86968
 274.57692 262.46916 250.47341 239.76965 229.88689 220.98613 213.16337 206.16061
 199.98985 194.92309 191.50033 189.53757 188.56981 188.62905 189.45929 190.76253
 192.48277 194.57301 196.83125 199.18549 201.62573 204.10098 206.18422 208.02146
 209.64270 210.78294 211.00718 211.23042 211.16266 210.86290 210.49114 210.11638
 209.72862 209.43386 209.23710 209.09634 209.01958 209.34582 209.72706 210.11130
 210.89955 212.07279 213.31803 215.09627 217.01951 219.05775 221.14799 223.22623
 225.28147 227.36071 229.45295 231.55419 233.67843 235.84567 238.09691 240.46215
 243.07839 245.32463 247.32187 249.08212 250.49436 251.61260 252.42984 252.74108
 252.77332 252.54256 251.89780 250.84104 249.44228 247.59852 245.50276 243.33100
 241.11724 238.91648 236.73172 234.56596 232.42120 230.28345 228.30469 226.45693
 224.73517 223.20241 221.82765 220.59489 219.47213 218.42737 217.52661 216.66285
 215.90009 215.07533 214.16857 213.52781 212.97305 214.04738 216.58562 219.36458
 221.54297 223.03024 224.32883 225.84087 227.24471 227.90178 227.17943 225.56337
 224.96495 227.06726 231.16591 235.89371 240.60303 245.14697 249.43564 253.33649
 256.79581 259.98813 263.01489 265.82608 268.14249 269.99969 271.69858 273.35727
 275.03729 276.76764 278.32059 279.69104 280.88226 281.94550 282.92227 283.81760
 284.63626 285.38336 286.04492 286.98380
 366.78100 356.33095 345.75891 334.62086 323.01981 311.20977 299.07572 286.87468
 274.58263 262.47558 250.48054 239.77749 229.89544 220.99540 213.17335 206.17131
 200.00126 194.93521 191.51317 189.55112 188.58407 188.64403 189.47498 190.77894
 192.49989 194.59084 196.84980 199.20475 201.64570 204.12166 206.20561 208.04357
 209.66552 210.80647 211.03143 211.25538 211.18833 210.88929 210.51824 210.14420
 209.75715 209.46310 209.26706 209.12701 209.05096 209.37792 209.75987 210.14483
 210.93378 212.10773 213.35369 215.13264 217.05659 219.09555 221.18650 223.26545
 225.32141 227.40136 229.49432 231.59627 233.72122 235.88918 238.14113 240.50708
 243.12404 245.37099 247.36895 249.12990 250.54285 251.66181 252.47976 252.79171
 252.82467 252.59462 251.95058 250.89453 249.49648 247.65344 245.55839 243.38734
 241.17430 238.97425 236.79021 234.62516 232.48111 230.34407 228.36602 226.51897
 224.79793 223.26588 221.89184 220.65979 219.53774 218.49370 217.59365 216.73060
 215.96856 215.14451 214.23847 213.59842 213.04437 214.09734 216.58507 219.38684
 221.60500 223.08171 224.36339 225.85539 227.25427 227.91968 227.18269 225.57327
 224.95633 227.01836 231.13094 235.88657 240.59090 245.11771 249.40074 253.30237
 256.76239 259.94882 262.96817 265.78235 268.10391 269.96121 271.65762 273.31009
 274.95566 276.67346 278.22302 279.59232 280.78418 281.84625 282.82321 283.71738
 284.53625 285.28378 285.94440 286.88223
 366.78100 356.33160 345.76020 334.62280 323.02240 311.21300 299.07960 286.87920
 274.58780 262.48140 250.48700 239.78460 229.90320 221.00380 213.18240 206.18100
 200.01160 194.94620 191.52480 189.56340 188.59700 188.65760 189.48920 190.79380
 192.51539 194.60699 196.86659 199.22219 201.66379 204.14039 206.22499 208.06359
 209.68619 210.82779 211.05339 211.27799 211.21159 210.91319 210.54279 210.16939
 209.78299 209.48959 209.29419 209.15479 209.07939 209.40699 209.78959 210.17519
 210.96479 212.13939 213.38599 215.16559 217.09019 219.12979 221.22139 223.30099
 225.35759 227.43819 229.53179 231.63439 233.75999 235.92859 238.18119 240.54779
 243.16539 245.41299 247.41159 249.17319 250.58679 251.70639 252.52498 252.83758
 252.87118 252.64178 251.99838 250.94298 249.54558 247.70318 245.60878 243.43838
 241.22598 239.02658 236.84318 234.67878 232.53538 230.39898 228.42158 226.57518
 224.85478 223.32338 221.94998 220.71858 219.59718 218.55378 217.65438 216.79198
 216.03058 215.20718 214.30178 213.66238 213.10898 214.14325 216.58684 219.40269
 221.66675 223.13651 224.38899 225.85449 227.25197 227.94127 227.19745 225.58066
 224.94461 226.97823 231.10431 235.88597 240.58380 245.09102 249.36586 253.26765
 256.72873 259.91022 262.92297 265.73923 268.06601 269.92542 271.61746 273.26141
 274.87698 276.57986 278.12585 279.49515 280.68564 281.74670 282.72150 283.61823
 284.43573 285.18457 285.84552 286.77664
 366.78100 356.33221 345.76141 334.62462 323.02483 311.21604 299.08324 286.88345
 274.59266 262.48687 250.49307 239.79128 229.91049 221.01170 213.19090 206.19011
 200.02132 194.95653 191.53573 189.57494 188.60915 188.67036 189.50256 190.80777
 192.52998 194.62218 196.88239 199.23860 201.68081 204.15801 206.24322 208.08243
 209.70564 210.84784 211.07405 211.29926 211.23347 210.93567 210.56588 210.19309
 209.80730 209.51450 209.31971 209.18092 209.10613 209.43433 209.81754 210.20375
 210.99395 212.16916 213.41637 215.19658 217.12178 219.16199 221.25420 223.33441
 225.39161 227.47282 229.56703 231.67024 233.79644 235.96565 238.21886 240.58607
 243.20427 245.45248 247.45169 249.21389 250.62810 251.74831 252.56752 252.88072
 252.91493 252.68614 252.04335 250.98855 249.59176 247.74997 245.65618 243.48638
 241.27459 239.07580 236.89301 234.72921 232.58642 230.45063 228.47384 226.62804
 224.90825 223.37746 222.00466 220.77387 219.65308 218.61029 217.71149 216.84970
 216.08891 215.26612 214.36132 213.72253 213.16974 214.18683 216.58984 219.41411
 221.72653 223.19351 224.41234 225.84648 227.23869 227.95534 227.21457 225.59335
 224.94179 226.94891 231.08481 235.88956 240.57889 245.06660 249.33333 253.23438
 256.69644 259.87311 262.87869 265.69702 268.02844 269.88916 271.57748 273.21356
 274.80252 276.48828 278.03082 279.39847 280.58865 281.64923 282.62457 283.51886
 284.33643 285.08340 285.74594 286.67130
 366.78100 356.33278 345.76256 334.62634 323.02712 311.21890 299.08668 286.88746
 274.59725 262.49203 250.49881 239.79759 229.91737 221.01915 213.19893 206.19871
 200.03049 194.96627 191.54605 189.58583 188.62061 188.68239 189.51517 190.82096
 192.54374 194.63652 196.89730 199.25408 201.69686 204.17464 206.26042 208.10020
 209.72398 210.86676 211.09354 211.31932 211.25410 210.95688 210.58767 210.21545
 209.83023 209.53801 209.34379 209.20557 209.13135 209.46013 209.84391 210.23069
 211.02147 212.19725 213.44503 215.22581 217.15159 219.19238 221.28516 223.36594
 225.42372 227.50550 229.60028 231.70406 233.83084 236.00062 238.25440 240.62218
 243.24096 245.48974 247.48952 249.25230 250.66708 251.78787 252.60765 252.92143
 252.95621 252.72799 252.08577 251.03155 249.63533 247.79411 245.70089 243.53167
 241.32045 239.12223 236.94001 234.77679 232.63458 230.49936 228.52314 226.67792
 224.95870 223.42848 222.05626 220.82604 219.70582 218.66360 217.76538 216.90416
 216.14394 215.32172 214.41750 213.77929 213.22707 214.22876 216.59538 219.42130
 221.78452 223.25294 224.43610 225.83603 227.21661 227.95403 227.22435 225.61639
 224.95529 226.92928 231.07184 235.89545 240.57538 245.04550 249.30438 253.20367
 256.66510 259.83673 262.83432 265.65283 267.99051 269.85406 271.53827 273.16687
 274.73474 276.39996 277.93646 279.30432 280.49286 281.55203 282.52667 283.41895
 284.23737 284.98007 285.64151 286.56360
 366.78100 356.33332 345.76364 334.62796 323.02929 311.22161 299.08993 286.89125
 274.60157 262.49689 250.50421 239.80353 229.92386 221.02618 213.20650 206.20682
 200.03914 194.97546 191.55578 189.59610 188.63143 188.69375 189.52707 190.83339
 192.55671 194.65003 196.91135 199.26867 201.71200 204.19032 206.27664 208.11696
 209.74128 210.88460 211.11192 211.33824 211.27357 210.97689 210.60821 210.23653
 209.85185 209.56017 209.36649 209.22882 209.15514 209.48446 209.86878 210.25610
 211.04742 212.22374 213.47206 215.25339 217.17971 219.22103 221.31435 223.39567
 225.45399 227.53631 229.63163 231.73596 233.86328 236.03360 238.28792 240.65624
 243.27556 245.52488 247.52520 249.28853 250.70385 251.82517 252.64549 252.95981
 252.99513 252.76745 252.12577 251.07210 249.67642 247.83574 245.74306 243.57438
 241.36370 239.16602 236.98434 234.82167 232.67999 230.54531 228.56963 226.72495
 225.00627 223.47659 222.10492 220.87524 219.75556 218.71388 217.81620 216.95552
 216.19584 215.37416 214.47049 213.83281 213.28113 214.26939 216.60431 219.42361
 221.83759 223.31566 224.46173 225.82339 227.18878 227.93526 227.22185 225.65022
 224.98730 226.91994 231.06554 235.90372 240.57475 245.03021 249.28099 253.17648
 256.63507 259.79974 262.79037 265.60715 267.94821 269.81403 271.49496 273.11905
 274.67917 276.31689 277.84692 279.21320 280.40152 281.46085 282.43445 283.32730
 284.14395 284.88892 285.55435 286.46878
 366.78100 356.33383 345.76465 334.62948 323.03130 311.22413 299.09295 286.89478
 274.60560 262.50143 250.50925 239.80908 229.92991 221.03273 213.21356 206.21438
 200.04721 194.98403 191.56486 189.60568 188.64151 188.70433 189.53816 190.84498
 192.56881 194.66264 196.92446 199.28229 201.72611 204.20494 206.29176 208.13259
 209.75741 210.90124 211.12906 211.35589 211.29172 210.99554 210.62737 210.25619
 209.87202 209.58084 209.38767 209.25049 209.17732 209.50714 209.89197 210.27980
 211.07162 212.24845 213.49727 215.27910 217.20592 219.24775 221.34157 223.42340
 225.48222 227.56505 229.66087 231.76570 233.89353 236.06435 238.31918 240.68800
 243.30783 245.55765 247.55848 249.32230 250.73813 251.85995 252.68078 252.99561
 253.03143 252.80426 252.16308 251.10991 249.71473 247.87456 245.78238 243.61421
 241.40403 239.20686 237.02569 234.86351 232.72234 230.58816 228.61299 226.76881
 225.05064 223.52146 222.15029 220.92111 219.80194 218.76076 217.86359 217.00342
 216.24424 215.42307 214.51989 213.88272 213.33154 214.30853 216.61678 219.42302
 221.88304 223.38213 224.49170 225.81052 227.15532 227.89725 227.20569 225.69002
 225.03281 226.92180 231.06642 235.91521 240.58044 245.02315 249.26414 253.15381
 256.60648 259.76315 262.74506 265.55869 267.90225 269.77011 271.44763 273.06723
 274.62790 276.23874 277.76291 279.12836 280.31720 281.37402 282.34833 283.24005
 284.05750 284.80823 285.47290 286.37570
 366.78100 356.33428 345.76556 334.63084 323.03312 311.22640 299.09569 286.89797
 274.60925 262.50553 250.51381 239.81409 229.93537 221.03865 213.21993 206.22121
 200.05449 194.99178 191.57306 189.61434 188.65062 188.71390 189.54818 190.85546
 192.57974 194.67402 196.93630 199.29458 201.73887 204.21815 206.30543 208.14671
 209.77199 210.91627 211.14455 211.37183 211.30811 211.01239 210.64467 210.27396
 209.89024 209.59952 209.40680 209.27008 209.19736 209.52764 209.91292 210.30120
 211.09348 212.27076 213.52005 215.30233 217.22961 219.27189 221.36617 223.44845
 225.50773 227.59101 229.68729 231.79257 233.92085 236.09214 238.34742 240.71670
 243.33698 245.58726 247.58854 249.35282 250.76910 251.89138 252.71266 253.02794
 253.06423 252.83751 252.19679 251.14407 249.74935 247.90963 245.81791 243.65019
 241.44047 239.24375 237.06303 234.90132 232.76060 230.62688 228.65216 226.80844
 225.09072 223.56200 222.19128 220.96256 219.84384 218.80312 217.90641 217.04669
 216.28797 215.46725 214.56453 213.92781 213.37709 214.34502 216.63184 219.42265
 221.91968 223.44946 224.52652 225.79962 227.11414 227.83842 227.17717 225.73027
 225.08472 226.93440 231.07458 235.93129 240.59473 245.02620 249.25470 253.13519
 256.57996 259.72742 262.70035 265.50861 267.85321 269.72382 271.39789 273.01157
 274.57190 276.16336 277.68134 279.04636 280.23395 281.29309 282.26315 283.15616
 283.97684 284.73358 285.40121 286.28949
 366.78100 356.33469 345.76639 334.63208 323.03478 311.22847 299.09817 286.90086
 274.61255 262.50925 250.51794 239.81864 229.94033 221.04403 213.22572 206.22741
 200.06111 194.99880 191.58050 189.62219 188.65889 188.72258 189.55727 190.86497
 192.58966 194.68436 196.94705 199.30575 201.75044 204.23013 206.31783 208.15952
 209.78522 210.92991 211.15861 211.38630 211.32299 211.02769 210.66038 210.29008
 209.90677 209.61646 209.42416 209.28785 209.21555 209.54624 209.93194 210.32063
 211.11332 212.29102 213.54071 215.32341 217.25110 219.29380 221.38849 223.47118
 225.53088 227.61457 229.71127 231.81696 233.94566 236.11735 238.37304 240.74274
 243.36343 245.61413 247.61582 249.38052 250.79721 251.91990 252.74160 253.05729
 253.09399 252.86768 252.22738 251.17507 249.78076 247.94146 245.85015 243.68285
 241.47354 239.27724 237.09693 234.93562 232.79532 230.66201 228.68771 226.84440
 225.12710 223.59879 222.22848 221.00018 219.88187 218.84157 217.94526 217.08596
 216.32765 215.50734 214.60504 213.96873 213.41843 214.37920 216.64911 219.42235
 221.94728 223.51633 224.56712 225.79079 227.06393 227.76236 227.13832 225.76476
 225.13776 226.95547 231.08827 235.95264 240.61858 245.04021 249.25380 253.12114
 256.55536 259.69220 262.65564 265.45660 267.80206 269.67654 271.34705 272.95157
 274.51248 276.08728 277.60184 278.96561 280.15268 281.20856 282.17697 283.06760
 283.89050 284.65457 285.30835 286.18478
 366.78100 356.33502 345.76704 334.63307 323.03609 311.23011 299.10013 286.90316
 274.61518 262.51220 250.52122 239.82224 229.94427 221.04829 213.23031 206.23233
 200.06635 195.00438 191.58640 189.62842 188.66544 188.72947 189.56449 190.87251
 192.59753 194.69255 196.95558 199.31460 201.75962 204.23964 206.32767 208.16969
 209.79571 210.94073 211.16975 211.39778 211.33480 211.03982 210.67284 210.30286
 209.91989 209.62991 209.43793 209.30195 209.22998 209.56100 209.94702 210.33604
 211.12906 212.30709 213.55711 215.34013 217.26815 219.31118 221.40620 223.48922
 225.54924 227.63326 229.73029 231.83631 233.96533 236.13735 238.39337 240.76340
 243.38442 245.63544 247.63746 249.40249 250.81951 251.94253 252.76455 253.08057
 253.11760 252.89162 252.25164 251.19966 249.80569 247.96671 245.87573 243.70875
 241.49977 239.30380 237.12382 234.96284 232.82286 230.68989 228.71591 226.87293
 225.15595 223.62797 222.25800 221.03002 219.91204 218.87206 217.97608 217.11711
 216.35913 215.53915 214.63717 214.00120 213.45122 214.40903 216.67195 219.41647
 221.96916 223.58376 224.61497 225.79112 227.00539 227.66742 227.08946 225.79086
 225.18564 226.98192 231.10678 235.97928 240.65213 245.06412 249.26012 253.11143
 256.53268 259.65909 262.61334 265.40811 267.75513 269.63361 271.29340 272.87698
 274.43134 276.01953 277.52191 278.88028 280.06418 281.11584 282.07498 282.96054
 283.79324 284.57086 285.21045 286.07880
 366.78100 356.33524 345.76748 334.63371 323.03695 311.23119 299.10143 286.90467
 274.61690 262.51414 250.52338 239.82462 229.94686 221.05109 213.23333 206.23557
 200.06981 195.00804 191.59028 189.63252 188.66976 188.73400 189.56923 190.87747
 192.60271 194.69795 196.96119 199.32042 201.76566 204.24590 206.33414 208.17638
 209.80261 210.94785 211.17709 211.40533 211.34257 211.04780 210.68104 210.31128
 209.92852 209.63876 209.44699 209.31123 209.23947 209.57071 209.95695 210.34618
 211.13942 212.31766 213.56790 215.35113 217.27937 219.32261 221.41785 223.50109
 225.56132 227.64556 229.74280 231.84904 233.97828 236.15051 238.40675 240.77699
 243.39823 245.64947 247.65170 249.41694 250.83418 251.95742 252.77966 253.09589
 253.13313 252.90737 252.26761 251.21585 249.82208 247.98332 245.89256 243.72580
 241.51703 239.32127 237.14151 234.98075 232.84099 230.70822 228.73446 226.89170
 225.17494 223.64718 222.27741 221.04965 219.93189 218.89213 217.99637 217.13760
 216.37984 215.56008 214.65832 214.02256 213.47279 214.43326 216.70245 219.40785
 221.97377 223.65158 224.67674 225.80457 226.95068 227.55997 227.01616 225.79327
 225.22668 227.01323 231.13025 236.01054 240.69263 245.09962 249.27962 253.11322
 256.51929 259.63007 262.57114 265.35703 267.70367 269.58221 271.23697 272.81763
 274.38321 275.92981 277.43164 278.79358 279.97961 281.04050 282.02527 282.93353
 283.75739 284.48575 285.11484 285.97519
 366.78100 356.33539 345.76777 334.63416 323.03754 311.23193 299.10231 286.90570
 274.61808 262.51547 250.52485 239.82624 229.94862 221.05301 213.23539 206.23778
 200.07216 195.01055 191.59293 189.63532 188.67270 188.73709 189.57247 190.88086
 192.60624 194.70163 196.96501 199.32440 201.76979 204.25017 206.33856 208.18094
 209.80733 210.95271 211.18210 211.41048 211.34787 211.05325 210.68664 210.31702
 209.93441 209.64479 209.45318 209.31756 209.24595 209.57733 209.96372 210.35310
 211.14649 212.32487 213.57526 215.35864 217.28703 219.33041 221.42580 223.50919
 225.56957 227.65396 229.75134 231.85773 233.98711 236.15950 238.41588 240.78627
 243.40765 245.65904 247.66142 249.42681 250.84419 251.96758 252.78996 253.10635
 253.14373 252.91812 252.27850 251.22689 249.83327 247.99466 245.90404 243.73743
 241.52881 239.33320 237.15359 234.99297 232.85336 230.72074 228.74713 226.90451
 225.18790 223.66028 222.29067 221.06305 219.94544 218.90582 218.01021 217.15159
 216.39398 215.57436 214.67275 214.03713 213.48752 214.45413 216.73785 219.40685
 221.94937 223.69275 224.74701 225.83543 226.90187 227.45955 226.93752 225.77367
 225.24113 227.03174 231.14606 236.05557 240.75758 245.15942 249.31735 253.12881
 256.52325 259.60852 262.53381 265.31348 267.65881 269.53873 271.17734 272.76129
 274.30420 275.84930 277.32986 278.68954 279.87576 280.93570 281.92484 282.83456
 283.64133 284.34451 284.96423 285.76840
 366.78100 356.33601 345.76902 334.63603 323.04004 311.23505 299.10606 286.91007
 274.62308 262.52109 250.53110 239.83311 229.95612 221.06113 213.24414 206.24715
 200.08216 195.02117 191.60418 189.64719 188.68520 188.75021 189.58622 190.89523
 192.62124 194.71725 196.98126 199.34127 201.78729 204.26830 206.35731 208.20032
 209.82733 210.97334 211.20335 211.43236 211.37037 211.07638 210.71039 210.34140
 209.95941 209.67042 209.47943 209.34444 209.27345 209.60546 209.99247 210.38248
 211.17649 212.35550 213.60651 215.39052 217.31953 219.36354 221.45955 223.54356
 225.60457 227.68958 229.78759 231.89460 234.02461 236.19762 238.45463 240.82564
 243.44765 245.69966 247.70267 249.46868 250.88669 252.01070 252.83371 253.15072
 253.18873 252.96374 252.32475 251.27376 249.88077 248.04278 245.95279 243.78680
 241.57881 239.38382 237.20484 235.04485 232.90586 230.77387 228.80088 226.95889
 225.24290 223.71591 222.34692 221.11993 220.00294 218.96395 218.06896 217.21097
 216.45398 215.63499 214.73400 214.09901 213.55002 214.49899 216.74104 219.40436
 221.95462 223.71724 224.76872 225.85670 226.86919 227.39148 226.90140 225.74899
 225.20845 227.02538 231.16301 236.08250 240.80637 245.22337 249.36798 253.16420
 256.52997 259.61389 262.52484 265.29294 267.63834 269.49167 271.08554 272.60187
 274.26468 275.78918 277.28012 278.63971 279.81741 280.87308 281.86142 282.75568
 283.48947 284.15317 284.77600 285.57727
 366.78100 356.33697 345.77095 334.63892 323.04390 311.23987 299.11184 286.91682
 274.63079 262.52977 250.54074 239.84371 229.96769 221.07366 213.25764 206.26161
 200.09759 195.03756 191.62153 189.66551 188.70448 188.77046 189.60743 190.91740
 192.64438 194.74135 197.00633 199.36730 201.81427 204.29625 206.38622 208.23020
 209.85817 211.00514 211.23612 211.46609 211.40507 211.11204 210.74702 210.37899
 209.99796 209.70994 209.51991 209.38589 209.31586 209.64883 210.03681 210.42778
 211.22276 212.40273 213.65470 215.43968 217.36965 219.41463 221.51160 223.59657
 225.65855 227.74452 229.84350 231.95147 234.08244 236.25642 238.51439 240.88637
 243.50934 245.76232 247.76629 249.53326 250.95224 252.07721 252.90119 253.21916
 253.25813 253.03411 252.39608 251.34606 249.95403 248.11700 246.02798 243.86295
 241.65593 239.46190 237.28387 235.12485 232.98682 230.85580 228.88377 227.04275
 225.32772 223.80169 222.43367 221.20764 220.09162 219.05359 218.15956 217.30254
 216.54651 215.72849 214.82846 214.19443 213.64641 214.56798 216.74529 219.38075
 221.96642 223.72020 224.76146 225.82271 226.78442 227.32053 226.90778 225.83688
 225.17497 226.97221 231.16438 236.10484 240.84270 245.27376 249.40417 253.18379
 256.54999 259.63153 262.55453 265.30869 267.64032 269.46881 270.98523 272.57663
 274.23605 275.70474 277.14444 278.29260 279.38907 280.42618 281.39117 282.23486
 282.90720 283.56412 284.16107 284.92184
 366.78100 356.33727 345.77154 334.63981 323.04509 311.24136 299.11363 286.91890
 274.63317 262.53244 250.54371 239.84698 229.97126 221.07753 213.26180 206.26607
 200.10234 195.04261 191.62688 189.67116 188.71043 188.77670 189.61397 190.92424
 192.65151 194.74878 197.01405 199.37533 201.82260 204.30487 206.39514 208.23941
 209.86768 211.01495 211.24622 211.47650 211.41577 211.12304 210.75831 210.39058
 210.00985 209.72212 209.53240 209.39867 209.32894 209.66221 210.05048 210.44175
 211.23702 212.41729 213.66957 215.45484 217.38511 219.43038 221.52765 223.61292
 225.67519 227.76147 229.86074 231.96901 234.10028 236.27455 238.53282 240.90509
 243.52836 245.78164 247.78591 249.55318 250.97245 252.09772 252.92199 253.24026
 253.27954 253.05581 252.41808 251.36835 249.97662 248.13989 246.05116 243.88643
 241.67971 239.48598 237.30825 235.14952 233.01179 230.88106 228.90933 227.06861
 225.35388 223.82815 222.46042 221.23469 220.11896 219.08123 218.18750 217.33078
 216.57505 215.75732 214.85759 214.22386 213.67613 214.59920 216.79782 219.33861
 221.91779 223.68585 224.76067 225.79007 226.71608 227.25453 226.90506 226.00975
 225.11531 226.93202 231.11845 236.11845 240.87735 245.28763 249.39771 253.14038
 256.50577 259.58810 262.53293 265.27914 267.61636 269.48349 270.92383 272.56927
 274.12076 275.63229 276.94821 278.05042 279.12363 280.16153 281.14157 282.04083
 282.85501 283.58005 284.21341 285.02057
 366.78100 356.33682 345.77064 334.63846 323.04328 311.23911 299.11093 286.91575
 274.62957 262.52839 250.53921 239.84203 229.96585 221.07167 213.25549 206.25932
 200.09514 195.03496 191.61878 189.66260 188.70142 188.76724 189.60406 190.91388
 192.64070 194.73753 197.00235 199.36317 201.80999 204.29181 206.38163 208.22545
 209.85327 211.00009 211.23092 211.46074 211.39956 211.10638 210.74120 210.37302
 209.99184 209.70366 209.51348 209.37930 209.30913 209.64195 210.02977 210.42059
 211.21541 212.39523 213.64705 215.43187 217.36169 219.40651 221.50334 223.58816
 225.64998 227.73580 229.83462 231.94244 234.07326 236.24708 238.50490 240.87673
 243.49955 245.75237 247.75619 249.52301 250.94183 252.06665 252.89047 253.20829
 253.24711 253.02294 252.38476 251.33458 249.94240 248.10522 246.01604 243.85086
 241.64368 239.44950 237.27132 235.11215 232.97397 230.84279 228.87061 227.02943
 225.31425 223.78807 222.41989 221.19371 220.07754 219.03936 218.14518 217.28800
 216.53182 215.71364 214.81346 214.17928 213.63110 214.58699 216.85909 219.35088
 221.87352 223.69395 224.82231 225.82870 226.67027 227.12480 226.87820 225.97482
 225.12631 227.00298 231.17413 236.13721 240.91225 245.31323 249.40846 253.13774
 256.49271 259.56226 262.51172 265.28607 267.68671 269.63821 271.19077 272.51419
 274.11160 275.64969 276.99033 278.06436 279.09659 280.15317 281.16092 282.08008
 282.94464 283.71457 284.38715 285.24426
 366.78100 356.33693 345.77085 334.63878 323.04371 311.23963 299.11156 286.91649
 274.63042 262.52934 250.54027 239.84320 229.96712 221.07305 213.25698 206.26090
 200.09683 195.03676 191.62068 189.66461 188.70354 188.76947 189.60639 190.91632
 192.64325 194.74017 197.00510 199.36603 201.81295 204.29488 206.38481 208.22873
 209.85666 211.00359 211.23452 211.46444 211.40337 211.11030 210.74522 210.37715
 209.99608 209.70800 209.51793 209.38386 209.31378 209.64671 210.03464 210.42557
 211.22049 212.40042 213.65235 215.43727 217.36720 219.41213 221.50905 223.59398
 225.65591 227.74184 229.84076 231.94869 234.07962 236.25354 238.51147 240.88340
 243.50632 245.75925 247.76318 249.53010 250.94903 252.07396 252.89789 253.21581
 253.25474 253.03067 252.39259 251.34252 249.95045 248.11337 246.02430 243.85923
 241.65215 239.45808 237.28001 235.12094 232.98286 230.85179 228.87972 227.03864
 225.32357 223.79750 222.42942 221.20335 220.08728 219.04920 218.15513 217.29806
 216.54199 215.72391 214.82384 214.18977 213.64169 214.59654 216.85251 219.41844
 221.89226 223.77882 224.93172 225.88780 226.61986 226.97194 226.80011 225.80615
 225.26190 227.15053 231.26578 236.17116 240.91692 245.35387 249.45384 253.14363
 256.47733 259.49466 262.42053 265.19525 267.61145 269.57941 271.22638 272.67303
 274.11319 275.65921 277.00726 278.19104 279.29410 280.33719 281.29565 282.10254
 282.86664 283.58029 284.23587 285.07135
 366.78100 356.33731 345.77161 334.63992 323.04523 311.24153 299.11384 286.91915
 274.63345 262.53276 250.54407 239.84737 229.97168 221.07799 213.26229 206.26660
 200.10291 195.04321 191.62752 189.67182 188.71113 188.77744 189.61474 190.92505
 192.65236 194.74966 197.01497 199.37628 201.82358 204.30589 206.39620 208.24050
 209.86881 211.01612 211.24742 211.47773 211.41704 211.12434 210.75965 210.39196
 210.01126 209.72357 209.53388 209.40018 209.33049 209.66380 210.05210 210.44341
 211.23872 212.41902 213.67133 215.45664 217.38694 219.43225 221.52955 223.61486
 225.67717 227.76347 229.86278 231.97109 234.10239 236.27670 238.53501 240.90731
 243.53062 245.78393 247.78823 249.55554 250.97485 252.10015 252.92446 253.24277
 253.28207 253.05838 252.42069 251.37099 249.97930 248.14261 246.05391 243.88922
 241.68253 239.48883 237.31114 235.15245 233.01475 230.88406 228.91237 227.07167
 225.35698 223.83128 222.46359 221.23790 220.12220 219.08451 218.19082 217.33412
 216.57843 215.76074 214.86104 214.22735 213.67966 214.62523 216.85925 219.44316
 221.90994 223.81261 224.99568 225.89049 226.55591 226.89175 226.74272 225.73370
 225.23340 227.17772 231.31419 236.19316 240.96255 245.39182 249.49275 253.18288
 256.50195 259.51251 262.39838 265.13348 267.52286 269.46533 271.06866 272.52414
 274.00980 275.53116 276.88910 278.13568 279.32437 280.39813 281.31647 282.01358
 282.68048 283.35931 283.98242 284.79407
 366.78100 356.33717 345.77133 334.63950 323.04466 311.24083 299.11299 286.91816
 274.63233 262.53149 250.54266 239.84582 229.96999 221.07615 213.26032 206.26449
 200.10065 195.04082 191.62498 189.66915 188.70831 188.77448 189.61165 190.92181
 192.64898 194.74614 197.01131 199.37247 201.81964 204.30181 206.39197 208.23614
 209.86430 211.01147 211.24263 211.47280 211.41197 211.11913 210.75430 210.38646
 210.00563 209.71779 209.52796 209.39413 209.32429 209.65746 210.04562 210.43679
 211.23196 212.41212 213.66429 215.44945 217.37962 219.42478 221.52195 223.60712
 225.66928 227.75545 229.85461 231.96278 234.09394 236.26811 238.52628 240.89844
 243.52161 245.77477 247.77894 249.54610 250.96527 252.09044 252.91460 253.23277
 253.27193 253.04810 252.41026 251.36043 249.96860 248.13176 246.04293 243.87809
 241.67126 239.47742 237.29959 235.14076 233.00292 230.87209 228.90025 227.05942
 225.34458 223.81875 222.45092 221.22508 220.10925 219.07141 218.17758 217.32074
 216.56491 215.74708 214.84724 214.21341 213.66557 214.62700 216.89848 219.42686
 221.89499 223.78964 225.00412 225.88940 226.52364 226.84306 226.71268 225.72202
 225.25748 227.21101 231.29431 236.18405 240.98784 245.41266 249.50836 253.18588
 256.50888 259.53006 262.41931 265.14072 267.53271 269.49652 271.08221 272.49890
 273.99420 275.46896 276.81064 278.05106 279.22400 280.28470 281.13205 281.76254
 282.44815 283.14590 283.79578 284.63535
 366.78100 356.33707 345.77113 334.63920 323.04427 311.24033 299.11240 286.91747
 274.63153 262.53060 250.54167 239.84473 229.96880 221.07487 213.25893 206.26300
 200.09906 195.03913 191.62320 189.66726 188.70633 188.77240 189.60946 190.91953
 192.64660 194.74366 197.00873 199.36980 201.81686 204.29893 206.38900 208.23306
 209.86113 211.00820 211.23926 211.46933 211.40840 211.11546 210.75053 210.38260
 210.00166 209.71373 209.52380 209.38986 209.31993 209.65299 210.04106 210.43213
 211.22719 212.40726 213.65933 215.44439 217.37446 219.41953 221.51659 223.60166
 225.66373 227.74979 229.84886 231.95693 234.08799 236.26206 238.52013 240.89219
 243.51526 245.76833 247.77239 249.53946 250.95853 252.08359 252.90766 253.22572
 253.26479 253.04086 252.40292 251.35299 249.96106 248.12412 246.03519 243.87026
 241.66332 239.46939 237.29146 235.13252 232.99459 230.86366 228.89172 227.05079
 225.33586 223.80992 222.44199 221.21606 220.10012 219.06219 218.16826 217.31132
 216.55539 215.73746 214.83752 214.20359 213.65565 214.62984 216.93144 219.44429
 221.87909 223.76129 225.00032 225.89803 226.50165 226.77745 226.62938 225.67557
 225.31052 227.30217 231.32477 236.18904 240.97899 245.42827 249.50948 253.16121
 256.47937 259.50455 262.40833 265.12695 267.51947 269.50647 271.12033 272.51816
 274.00632 275.47363 276.81735 278.03455 279.17621 280.23386 281.11014 281.78717
 282.48718 283.18643 283.84140 284.69089
 366.78100 356.33820 345.77340 334.64261 323.04881 311.24601 299.11921 286.92541
 274.64062 262.54082 250.55302 239.85722 229.98243 221.08963 213.27483 206.28003
 200.11723 195.05844 191.64364 189.68884 188.72904 188.79624 189.63445 190.94565
 192.67385 194.77205 197.03825 199.40046 201.84866 204.33186 206.42306 208.26827
 209.89747 211.04567 211.27787 211.50907 211.44928 211.15748 210.79368 210.42688
 210.04708 209.76029 209.57149 209.43869 209.36989 209.70409 210.09330 210.48550
 211.28170 212.46290 213.71611 215.50231 217.43351 219.47971 221.57791 223.66412
 225.72732 227.81452 229.91472 232.02392 234.15613 236.33133 238.59053 240.96373
 243.58793 245.84214 247.84734 249.61554 251.03574 252.16195 252.98715 253.30635
 253.34655 253.12375 252.48696 251.43816 250.04736 248.21156 246.12376 243.95997
 241.75417 239.56137 237.38457 235.22677 233.08998 230.96018 228.98938 227.14958
 225.43579 223.91099 222.54419 221.31939 220.20459 219.16780 218.27500 217.41920
 216.66440 215.84760 214.94881 214.31601 213.76921 214.69440 216.88025 219.50587
 221.84119 223.69496 225.03270 225.90027 226.45886 226.72096 226.56688 225.62399
 225.35251 227.39067 231.37152 236.20033 240.95934 245.40280 249.49004 253.16112
 256.46497 259.45587 262.36179 265.07675 267.46265 269.43817 271.03027 272.46616
 273.98297 275.47598 276.82324 278.08185 279.27316 280.26031 280.99304 281.79227
 282.57281 283.29767 283.96814 284.82263
 366.78100 356.33931 345.77561 334.64592 323.05323 311.25153 299.12584 286.93315
 274.64945 262.55076 250.56407 239.86937 229.99568 221.10399 213.29029 206.29660
 200.13491 195.07721 191.66352 189.70983 188.75113 188.81944 189.65875 190.97105
 192.70036 194.79967 197.06697 199.43028 201.87959 204.36389 206.45620 208.30251
 209.93281 211.08212 211.31543 211.54773 211.48904 211.19835 210.83565 210.46996
 210.09127 209.80557 209.61788 209.48619 209.41849 209.75380 210.14411 210.53741
 211.33472 212.51703 213.77133 215.55864 217.49095 219.53825 221.63756 223.72487
 225.78917 227.87748 229.97879 232.08909 234.22240 236.39871 238.65901 241.03332
 243.65863 245.91393 247.92024 249.68955 251.11086 252.23816 253.06447 253.38478
 253.42608 253.20439 252.56870 251.52100 250.13131 248.29662 246.20992 244.04723
 241.84254 239.65084 237.47515 235.31846 233.18276 231.05407 229.08438 227.24568
 225.53299 224.00930 222.64360 221.41991 220.30622 219.27052 218.37883 217.52414
 216.77044 215.95475 215.05706 214.42536 213.87967 214.76402 216.85341 219.52434
 221.81105 223.63902 225.01418 225.83743 226.40703 226.70639 226.54083 225.59233
 225.34967 227.43048 231.40428 236.20630 240.95161 245.37939 249.50769 253.15535
 256.45392 259.41891 262.31046 265.02405 267.42426 269.42700 271.05563 272.50974
 273.99823 275.48782 276.83441 278.11511 279.29990 280.25870 281.03787 281.89835
 282.69553 283.45667 284.12155 284.96887
 366.78100 356.33928 345.77557 334.64585 323.05314 311.25142 299.12571 286.93299
 274.64927 262.55056 250.56384 239.86913 229.99541 221.10370 213.28998 206.29626
 200.13455 195.07683 191.66312 189.70940 188.75069 188.81897 189.65825 190.97054
 192.69982 194.79911 197.06639 199.42968 201.87896 204.36324 206.45553 208.30181
 209.93210 211.08138 211.31466 211.54695 211.48823 211.19752 210.83480 210.46909
 210.09037 209.80465 209.61694 209.48522 209.41751 209.75279 210.14308 210.53636
 211.33364 212.51593 213.77021 215.55750 217.48978 219.53707 221.63635 223.72363
 225.78792 227.87620 229.97749 232.08777 234.22106 236.39734 238.65762 241.03191
 243.65719 245.91248 247.91876 249.68805 251.10933 252.23661 253.06290 253.38318
 253.42447 253.20275 252.56704 251.51932 250.12960 248.29489 246.20817 244.04546
 241.84074 239.64903 237.47331 235.31659 233.18088 231.05216 229.08245 227.24373
 225.53102 224.00730 222.64158 221.41787 220.30415 219.26844 218.37672 217.52200
 216.76829 215.95257 215.05486 214.42314 213.87743 214.77730 216.92096 219.46097
 221.84076 223.52153 224.81833 225.79083 226.47864 226.76044 226.46582 225.55013
 225.30244 227.42670 231.39146 236.19592 240.96718 245.40427 249.47534 253.13792
 256.43716 259.44772 262.30600 264.97766 267.36929 269.41858 271.12497 272.61075
 274.10611 275.56900 276.91525 278.15158 279.31216 280.33267 281.27960 282.20187
 283.10162 283.90283 284.60275 285.49472
 366.78100 356.33944 345.77589 334.64633 323.05378 311.25222 299.12667 286.93411
 274.65056 262.55200 250.56545 239.87089 229.99734 221.10578 213.29223 206.29867
 200.13712 195.07956 191.66601 189.71245 188.75390 188.82234 189.66179 190.97423
 192.70367 194.80312 197.07056 199.43401 201.88345 204.36790 206.46034 208.30679
 209.93723 211.08668 211.32012 211.55257 211.49401 211.20346 210.84090 210.47535
 210.09679 209.81124 209.62368 209.49213 209.42457 209.76002 210.15046 210.54390
 211.34135 212.52379 213.77824 215.56568 217.49813 219.54557 221.64502 223.73246
 225.79691 227.88535 229.98680 232.09724 234.23069 236.40713 238.66758 241.04202
 243.66747 245.92291 247.92936 249.69880 251.12025 252.24769 253.07413 253.39458
 253.43602 253.21447 252.57891 251.53136 250.14180 248.30725 246.22069 244.05814
 241.85358 239.66203 237.48647 235.32992 233.19436 231.06581 229.09625 227.25770
 225.54514 224.02159 222.65603 221.43248 220.31892 219.28336 218.39181 217.53725
 216.78370 215.96814 215.07059 214.43903 213.89348 214.79823 216.98381 219.45267
 221.75795 223.33264 224.71872 225.88545 226.64342 226.76276 226.31740 225.68793
 225.28758 227.41913 231.41772 236.18007 240.94875 245.39526 249.46985 253.16342
 256.45767 259.48178 262.32001 264.95786 267.31351 269.36566 271.13538 272.71652
 274.24493 275.65616 277.03864 278.41211 279.63773 280.78436 281.97043 283.04495
 284.01132 284.87192 285.62369 286.58176
 366.78100 356.33906 345.77513 334.64519 323.05225 311.25032 299.12438 286.93145
 274.64751 262.54857 250.56164 239.86670 229.99276 221.10083 213.28689 206.29295
 200.13102 195.07308 191.65915 189.70521 188.74627 188.81434 189.65340 190.96546
 192.69453 194.79359 197.06065 199.42372 201.87278 204.35684 206.44891 208.29497
 209.92504 211.07410 211.30716 211.53923 211.48029 211.18935 210.82642 210.46048
 210.08154 209.79561 209.60767 209.47574 209.40780 209.74286 210.13293 210.52599
 211.32305 212.50512 213.75918 215.54624 217.47831 219.52537 221.62444 223.71150
 225.77556 227.86363 229.96469 232.07475 234.20782 236.38388 238.64394 241.01801
 243.64307 245.89814 247.90420 249.67326 251.09433 252.22139 253.04745 253.36752
 253.40858 253.18664 252.55071 251.50277 250.11284 248.27790 246.19096 244.02803
 241.82309 239.63115 237.45522 235.29828 233.16234 231.03341 229.06347 227.22453
 225.51160 223.98766 222.62173 221.39779 220.28385 219.24792 218.35598 217.50104
 216.74711 215.93117 215.03323 214.40130 213.85536 214.78654 217.03566 219.46321
 221.68388 223.33075 224.80455 225.91818 226.53888 226.62509 226.31894 225.60782
 225.45631 227.45102 231.41312 236.18251 240.95959 245.41013 249.48657 253.17169
 256.46933 259.49396 262.32129 264.93875 267.27713 269.34406 271.16119 272.76340
 274.29358 275.80896 277.36478 278.75275 279.99716 281.20166 282.37741 283.44257
 284.40054 285.25363 285.99887 286.94858
 366.78100 356.33816 345.77332 334.64248 323.04864 311.24580 299.11896 286.92512
 274.64028 262.54044 250.55260 239.85675 229.98191 221.08907 213.27423 206.27939
 200.11655 195.05771 191.64287 189.68803 188.72819 188.79535 189.63351 190.94467
 192.67283 194.77099 197.03715 199.39931 201.84747 204.33063 206.42179 208.26695
 209.89611 211.04426 211.27642 211.50758 211.44774 211.15590 210.79206 210.42522
 210.04538 209.75854 209.56970 209.43686 209.36802 209.70218 210.09134 210.48350
 211.27966 212.46082 213.71398 215.50014 217.43130 219.47746 221.57561 223.66177
 225.72493 227.81209 229.91225 232.02141 234.15357 236.32873 238.58789 240.96105
 243.58521 245.83937 247.84453 249.61269 251.03285 252.15901 252.98417 253.30333
 253.34349 253.12065 252.48381 251.43497 250.04412 248.20828 246.12044 243.95660
 241.75076 239.55792 237.38108 235.22324 233.08640 230.95656 228.98572 227.14588
 225.43204 223.90720 222.54036 221.31552 220.20068 219.16384 218.27100 217.41516
 216.66032 215.84348 214.94463 214.31179 213.76495 214.74280 217.07509 219.45010
 221.68398 223.33501 224.69814 225.83459 226.38730 226.51451 226.47340 225.36989
 225.32832 227.36519 231.42084 236.18234 240.97235 245.43143 249.51373 253.21463
 256.52704 259.54272 262.34247 264.90750 267.17871 269.18637 271.03760 272.73962
 274.33597 275.90546 277.42142 278.78079 279.97202 281.04065 282.04382 283.03647
 283.92923 284.72424 285.41873 286.30380
 366.78100 356.33906 345.77512 334.64519 323.05225 311.25031 299.12437 286.93143
 274.64750 262.54856 250.56162 239.86668 229.99274 221.10081 213.28687 206.29293
 200.13099 195.07305 191.65911 189.70518 188.74624 188.81430 189.65336 190.96542
 192.69449 194.79355 197.06061 199.42367 201.87273 204.35680 206.44886 208.29492
 209.92498 211.07404 211.30711 211.53917 211.48023 211.18929 210.82635 210.46042
 210.08148 209.79554 209.60760 209.47566 209.40773 209.74279 210.13285 210.52591
 211.32297 212.50504 213.75910 215.54616 217.47822 219.52528 221.62434 223.71141
 225.77547 227.86353 229.96459 232.07465 234.20772 236.38378 238.64384 241.01790
 243.64296 245.89803 247.90409 249.67315 251.09421 252.22127 253.04734 253.36740
 253.40846 253.18652 252.55058 251.50265 250.11271 248.27777 246.19083 244.02789
 241.82296 239.63102 237.45508 235.29814 233.16220 231.03326 229.06333 227.22439
 225.51145 223.98751 222.62157 221.39764 220.28370 219.24776 218.35582 217.50088
 216.74695 215.93101 215.03307 214.40113 213.85519 214.79671 217.05432 219.48953
 221.65408 223.20290 224.62045 225.81973 226.38058 226.38829 226.42891 225.46233
 225.20770 227.41833 231.49254 236.20312 240.96730 245.42943 249.52769 253.26273
 256.61871 259.61761 262.40564 264.97040 267.21857 269.16162 270.92087 272.58710
 274.20697 275.83386 277.35501 278.71072 279.90500 280.98239 282.05103 283.06409
 283.97522 284.78659 285.49539 286.39868
 366.78100 356.34071 345.77842 334.65013 323.05884 311.25854 299.13425 286.94296
 274.66067 262.56338 250.57809 239.88480 230.01251 221.12222 213.30993 206.31763
 200.15734 195.10105 191.68876 189.73647 188.77918 188.84889 189.68960 191.00331
 192.73402 194.83472 197.10343 199.46814 201.91885 204.40456 206.49827 208.34598
 209.97769 211.12840 211.36311 211.59681 211.53952 211.25023 210.88894 210.52465
 210.14736 209.86307 209.67678 209.54649 209.48019 209.81690 210.20861 210.60332
 211.40203 212.58574 213.84145 215.63016 217.56387 219.61258 221.71328 223.80199
 225.86770 227.95741 230.06012 232.17183 234.30654 236.48425 238.74596 241.12167
 243.74837 246.00508 248.01279 249.78350 251.20621 252.33492 253.16263 253.48434
 253.52705 253.30676 252.67246 251.62617 250.23788 248.40459 246.31930 244.15801
 241.95472 239.76443 237.59014 235.43484 233.30055 231.17326 229.20497 227.36768
 225.65639 224.13410 222.76981 221.54752 220.43523 219.40093 218.51064 217.65735
 216.90506 216.09077 215.19448 214.56419 214.01990 214.89301 217.02679 219.53380
 221.62050 223.29205 224.78598 225.78986 226.26411 226.23483 226.25336 225.60835
 225.48494 227.62296 231.58394 236.23378 240.96851 245.42621 249.53357 253.28648
 256.67059 259.69174 262.45682 265.00244 267.26465 269.23621 271.00378 272.67133
 274.30469 275.90488 277.42145 278.80188 280.05191 281.26834 282.38586 283.39822
 284.30878 285.11960 285.82791 286.73059
 366.78100 356.34037 345.77775 334.64912 323.05750 311.25687 299.13224 286.94062
 274.65799 262.56037 250.57474 239.88111 230.00849 221.11786 213.30524 206.31261
 200.15198 195.09536 191.68273 189.73011 188.77248 188.84185 189.68223 190.99560
 192.72598 194.82635 197.09473 199.45910 201.90947 204.39485 206.48822 208.33560
 209.96697 211.11734 211.35172 211.58509 211.52747 211.23784 210.87621 210.51159
 210.13396 209.84934 209.66271 209.53208 209.46546 209.80183 210.19321 210.58758
 211.38595 212.56933 213.82470 215.61308 217.54645 219.59482 221.69520 223.78357
 225.84895 227.93832 230.04069 232.15207 234.28644 236.46382 238.72519 241.10056
 243.72694 245.98331 247.99069 249.76106 251.18344 252.31181 253.13918 253.46056
 253.50293 253.28231 252.64768 251.60105 250.21243 248.37880 246.29318 244.13155
 241.92792 239.73730 237.56267 235.40705 233.27242 231.14479 229.17617 227.33854
 225.62692 224.10429 222.73966 221.51704 220.40441 219.36979 218.47916 217.62553
 216.87291 216.05828 215.16166 214.53103 213.98640 214.88460 217.07050 219.52467
 221.54532 223.33292 224.83780 225.67827 226.08090 226.08159 226.19006 225.47289
 225.63145 227.71643 231.61777 236.26707 241.00534 245.46992 249.57999 253.32285
 256.68753 259.70786 262.42755 264.96368 267.27063 269.31815 271.15155 272.84332
 274.46280 276.01251 277.52454 278.90271 280.15067 281.32324 282.39786 283.37137
 284.24695 285.02664 285.70776 286.57578
 366.78100 356.33986 345.77672 334.64759 323.05545 311.25431 299.12917 286.93703
 274.65390 262.55576 250.56962 239.87548 230.00235 221.11121 213.29807 206.30493
 200.14379 195.08666 191.67352 189.72038 188.76224 188.83110 189.67097 190.98383
 192.71369 194.81355 197.08141 199.44528 201.89514 204.38000 206.47286 208.31973
 209.95059 211.10045 211.33431 211.56717 211.50904 211.21890 210.85676 210.49162
 210.11348 209.82835 209.64121 209.51007 209.44293 209.77880 210.16966 210.56352
 211.36138 212.54424 213.79911 215.58697 217.51983 219.56769 221.66755 223.75542
 225.82028 227.90914 230.01100 232.12186 234.25573 236.43259 238.69345 241.06831
 243.69418 245.95004 247.95690 249.72676 251.14862 252.27649 253.10335 253.42421
 253.46607 253.24493 252.60980 251.56266 250.17352 248.33938 246.25324 244.09111
 241.88697 239.69583 237.52069 235.36456 233.22942 231.10128 229.13214 227.29400
 225.58187 224.05873 222.69359 221.47045 220.35731 219.32218 218.43104 217.57690
 216.82376 216.00862 215.11149 214.48035 213.93521 214.86191 217.09418 219.53471
 221.49008 223.21465 224.76289 225.60155 225.93858 225.92479 226.12589 225.20189
 225.74539 227.77737 231.62036 236.28923 241.04005 245.51941 249.65602 253.41885
 256.77597 259.75314 262.42163 264.88474 267.16605 269.24622 271.15399 272.91776
 274.58057 276.12073 277.53531 278.89410 280.09061 281.18530 282.25726 283.22839
 284.10184 284.87964 285.55908 286.42499
 366.78100 356.34043 345.77785 334.64928 323.05771 311.25713 299.13256 286.94099
 274.65841 262.56084 250.57527 239.88169 230.00912 221.11854 213.30597 206.31340
 200.15282 195.09625 191.68368 189.73110 188.77353 188.84296 189.68338 190.99681
 192.72724 194.82766 197.09609 199.46052 201.91094 204.39637 206.48980 208.33722
 209.96865 211.11908 211.35350 211.58693 211.52936 211.23978 210.87821 210.51363
 210.13606 209.85149 209.66491 209.53434 209.46777 209.80419 210.19562 210.59005
 211.38847 212.57190 213.82733 215.61575 217.54918 219.59761 221.69803 223.78646
 225.85189 227.94131 230.04374 232.15517 234.28959 236.46702 238.72845 241.10387
 243.73030 245.98672 247.99415 249.76458 251.18700 252.31543 253.14286 253.46428
 253.50671 253.28614 252.65156 251.60499 250.21642 248.38284 246.29727 244.13570
 241.93212 239.74155 237.56698 235.41140 233.27683 231.14926 229.18068 227.34311
 225.63154 224.10896 222.74439 221.52181 220.40924 219.37467 218.48409 217.63052
 216.87795 216.06337 215.16680 214.53623 213.99165 214.89438 217.05263 219.56140
 221.55008 223.20718 224.66084 225.49867 225.77687 225.82462 225.86581 225.10458
 225.89592 227.90138 231.63107 236.31200 241.07437 245.56221 249.71959 253.52193
 256.91455 259.87057 262.48337 264.87216 267.08588 269.15005 271.08963 272.92551
 274.64337 276.19650 277.52649 278.75366 279.91272 280.96185 281.94601 282.90884
 283.78043 284.55658 285.23462 286.09869
 366.78100 356.34099 345.77898 334.65097 323.05996 311.25995 299.13594 286.94493
 274.66292 262.56591 250.58090 239.88790 230.01589 221.12588 213.31387 206.32186
 200.16185 195.10584 191.69383 189.74182 188.78481 188.85480 189.69579 191.00978
 192.74077 194.84176 197.11075 199.47574 201.92673 204.41272 206.50671 208.35471
 209.98670 211.13769 211.37268 211.60667 211.54966 211.26065 210.89964 210.53563
 210.15862 209.87461 209.68860 209.55859 209.49258 209.82957 210.22156 210.61655
 211.41554 212.59953 213.85552 215.64452 217.57851 219.62750 221.72849 223.81748
 225.88347 227.97346 230.07645 232.18844 234.32343 236.50142 238.76341 241.13940
 243.76639 246.02338 248.03137 249.80236 251.22535 252.35434 253.18233 253.50433
 253.54732 253.32731 252.69330 251.64729 250.25928 248.42627 246.34126 244.18025
 241.97724 239.78723 237.61322 235.45821 233.32420 231.19719 229.22918 227.39217
 225.68116 224.15915 222.79514 221.57314 220.46113 219.42712 218.53711 217.68410
 216.93209 216.11808 215.22207 214.59206 214.04805 214.93176 217.03705 219.54160
 221.60471 223.27382 224.54068 225.35413 225.64333 225.70924 225.60582 225.07959
 226.04007 228.12527 231.73245 236.36197 241.13397 245.62311 249.77882 253.60094
 257.02863 259.99658 262.56216 264.89398 267.05704 269.08994 271.04309 272.90060
 274.64758 276.22379 277.56976 278.71671 279.74991 280.72369 281.68793 282.62946
 283.51480 284.30319 284.99194 285.86966
 366.78100 356.34092 345.77884 334.65076 323.05968 311.25960 299.13552 286.94444
 274.66236 262.56528 250.58020 239.88712 230.01503 221.12495 213.31287 206.32079
 200.16071 195.10463 191.69255 189.74047 188.78339 188.85331 189.69423 191.00815
 192.73907 194.83999 197.10891 199.47383 201.92475 204.41067 206.50459 208.35251
 209.98443 211.13535 211.37026 211.60418 211.54710 211.25802 210.89694 210.53286
 210.15578 209.87170 209.68562 209.55554 209.48946 209.82638 210.21830 210.61322
 211.41214 212.59606 213.85198 215.64090 217.57482 219.62374 221.72466 223.81358
 225.87949 227.96941 230.07233 232.18425 234.31917 236.49709 238.75901 241.13493
 243.76185 246.01877 248.02669 249.79761 251.22053 252.34945 253.17737 253.49929
 253.54221 253.32213 252.68805 251.64197 250.25389 248.42081 246.33572 244.17464
 241.97156 239.78148 237.60740 235.45232 233.31824 231.19116 229.22308 227.38600
 225.67492 224.15284 222.78876 221.56668 220.45460 219.42052 218.53044 217.67736
 216.92528 216.11120 215.21512 214.58504 214.04095 214.94073 217.09230 219.47337
 221.61047 223.16183 224.37892 225.32433 225.56413 225.49933 225.38647 224.99783
 226.13812 228.21747 231.83664 236.45500 241.21751 245.70280 249.85481 253.67287
 257.10611 260.07816 262.62836 264.93140 267.06213 269.06946 271.02640 272.90845
 274.65729 276.21307 277.52805 278.66254 279.69662 280.74451 281.76062 282.75565
 283.65057 284.44751 285.14371 286.03091
 366.78100 356.34087 345.77874 334.65061 323.05948 311.25935 299.13522 286.94409
 274.66196 262.56483 250.57970 239.88657 230.01444 221.12431 213.31218 206.32005
 200.15992 195.10379 191.69166 189.73953 188.78241 188.85228 189.69315 191.00702
 192.73789 194.83876 197.10763 199.47250 201.92337 204.40924 206.50311 208.35098
 209.98285 211.13372 211.36859 211.60246 211.54533 211.25620 210.89507 210.53094
 210.15381 209.86968 209.68355 209.55342 209.48729 209.82416 210.21603 210.61090
 211.40977 212.59364 213.84951 215.63838 217.57225 219.62112 221.72199 223.81086
 225.87673 227.96660 230.06948 232.18135 234.31622 236.49409 238.75596 241.13183
 243.75870 246.01557 248.02344 249.79431 251.21718 252.34605 253.17392 253.49579
 253.53866 253.31853 252.68440 251.63827 250.25014 248.41701 246.33188 244.17075
 241.96762 239.77749 237.60336 235.44823 233.31410 231.18697 229.21884 227.38171
 225.67058 224.14845 222.78432 221.56219 220.45006 219.41593 218.52580 217.67267
 216.92054 216.10642 215.21029 214.58016 214.03603 214.95010 217.14255 219.42407
 221.61292 223.06546 224.33260 225.38342 225.44739 225.18974 225.21959 224.89244
 226.21022 228.38954 232.00632 236.58095 241.32248 245.80341 249.95174 253.75653
 257.16919 260.13544 262.68164 264.99008 267.11734 269.12738 271.08456 272.95499
 274.68707 276.21207 277.47186 278.58945 279.76743 280.86377 281.95090 282.93674
 283.82339 284.61295 285.30270 286.18170
 366.78100 356.34170 345.78039 334.65309 323.06278 311.26348 299.14017 286.94987
 274.66856 262.57226 250.58795 239.89565 230.02434 221.13504 213.32373 206.33243
 200.17312 195.11782 191.70651 189.75521 188.79890 188.86960 189.71129 191.02599
 192.75768 194.85938 197.12907 199.49477 201.94646 204.43316 206.52785 208.37655
 210.00924 211.16094 211.39664 211.63133 211.57503 211.28672 210.92642 210.56311
 210.18681 209.90350 209.71820 209.58889 209.52359 209.86128 210.25398 210.64967
 211.44937 212.63406 213.89076 215.68045 217.61515 219.66484 221.76654 223.85623
 225.92293 228.01362 230.11732 232.23001 234.36571 236.54440 238.80710 241.18379
 243.81149 246.06918 248.07788 249.84958 251.27327 252.40297 253.23166 253.55436
 253.59805 253.37875 252.74544 251.70014 250.31283 248.48053 246.39622 244.23592
 242.03361 239.84431 237.67100 235.51670 233.38339 231.25709 229.28978 227.45348
 225.74317 224.22187 222.85856 221.63726 220.52595 219.49265 218.60334 217.75104
 216.99973 216.18643 215.29112 214.66182 214.11852 214.99994 217.12564 219.44844
 221.57759 223.05620 224.37794 225.34631 225.24556 224.91698 225.01405 224.80017
 226.24620 228.52730 232.18358 236.72000 241.44101 245.91467 250.05981 253.85562
 257.23462 260.17462 262.70920 265.02994 267.18069 269.20081 271.16095 273.02255
 274.73642 276.23004 277.42694 278.63513 279.84692 280.99069 282.07980 283.06644
 283.95383 284.74405 285.43436 286.31409
 366.78100 356.34265 345.78230 334.65595 323.06660 311.26825 299.14590 286.95655
 274.67620 262.58085 250.59750 239.90615 230.03580 221.14744 213.33709 206.34674
 200.18839 195.13404 191.72369 189.77334 188.81799 188.88964 189.73229 191.04794
 192.78059 194.88324 197.15389 199.52054 201.97319 204.46084 206.55649 208.40614
 210.03979 211.19244 211.42909 211.66474 211.60939 211.32203 210.96268 210.60033
 210.22498 209.94263 209.75828 209.62993 209.56558 209.90423 210.29788 210.69453
 211.49518 212.68083 213.93848 215.72913 217.66478 219.71543 221.81808 223.90873
 225.97638 228.06803 230.17268 232.28633 234.42298 236.60262 238.86627 241.24392
 243.87257 246.13122 248.14087 249.91352 251.33817 252.46882 253.29847 253.62212
 253.66677 253.44842 252.81607 251.77172 250.38537 248.55402 246.47067 244.31132
 242.10997 239.92162 237.74927 235.59592 233.46357 231.33821 229.37186 227.53651
 225.82716 224.30681 222.94446 221.72411 220.61376 219.58141 218.69306 217.84171
 217.09136 216.27901 215.38466 214.75631 214.21396 215.05634 217.10472 219.48633
 221.51723 223.08391 224.41563 225.19911 225.08200 224.67918 224.75146 224.77194
 226.25192 228.69490 232.37000 236.87569 241.57494 246.03271 250.16191 253.95117
 257.31778 260.23303 262.76547 265.06509 267.20374 269.23166 271.20908 273.07758
 274.75916 276.20889 277.39996 278.74283 279.97897 281.17825 282.29388 283.30453
 284.21353 285.02301 285.73013 286.63129
 366.78100 356.34319 345.78338 334.65757 323.06876 311.27095 299.14913 286.96032
 274.68051 262.58570 250.60289 239.91208 230.04227 221.15446 213.34465 206.35484
 200.19703 195.14322 191.73340 189.78359 188.82878 188.90097 189.74416 191.06035
 192.79354 194.89673 197.16792 199.53511 201.98830 204.47649 206.57267 208.42286
 210.05705 211.21024 211.44743 211.68362 211.62881 211.34200 210.98319 210.62138
 210.24657 209.96475 209.78094 209.65313 209.58932 209.92851 210.32270 210.71989
 211.52108 212.70727 213.96546 215.75665 217.69284 219.74402 221.84721 223.93840
 226.00659 228.09878 230.20397 232.31816 234.45535 236.63554 238.89973 241.27792
 243.90710 246.16629 248.17648 249.94967 251.37486 252.50605 253.33624 253.66043
 253.70562 253.48781 252.85600 251.81219 250.42637 248.59556 246.51275 244.35394
 242.15313 239.96532 237.79351 235.64070 233.50889 231.38408 229.41827 227.58346
 225.87464 224.35483 222.99302 221.77321 220.66340 219.63159 218.74378 217.89297
 217.14316 216.33135 215.43754 214.80972 214.26791 215.09554 217.12823 219.48407
 221.49513 223.15622 224.47440 225.02194 224.88675 224.47980 224.47690 224.85683
 226.27965 228.83821 232.55231 237.05664 241.72849 246.16547 250.26456 254.04196
 257.41327 260.31033 262.84457 265.15280 267.26776 269.26614 271.23825 273.08881
 274.72321 276.10651 277.52246 278.92853 280.27872 281.51715 282.64703 283.67062
 284.59122 285.41101 286.12720 287.03986
 366.78100 356.34273 345.78246 334.65619 323.06692 311.26865 299.14637 286.95710
 274.67683 262.58156 250.59829 239.90702 230.03675 221.14848 213.33821 206.34794
 200.18967 195.13539 191.72512 189.77485 188.81958 188.89131 189.73404 191.04977
 192.78250 194.88523 197.15596 199.52269 201.97541 204.46314 206.55887 208.40860
 210.04233 211.19506 211.43179 211.66752 211.61225 211.32498 210.96571 210.60343
 210.22816 209.94589 209.76162 209.63335 209.56908 209.90781 210.30154 210.69827
 211.49900 212.68473 213.94245 215.73318 217.66891 219.71964 221.82237 223.91310
 225.98083 228.07256 230.17729 232.29102 234.42775 236.60747 238.87120 241.24893
 243.87766 246.13639 248.14612 249.91885 251.34358 252.47431 253.30404 253.62777
 253.67249 253.45422 252.82195 251.77768 250.39141 248.56014 246.47687 244.31760
 242.11633 239.92806 237.75579 235.60251 233.47024 231.34497 229.37870 227.54343
 225.83416 224.31389 222.95162 221.73135 220.62108 219.58880 218.70053 217.84926
 217.09899 216.28672 215.39245 214.76418 214.22191 215.08624 217.20157 219.43098
 221.49393 223.22748 224.49289 224.89131 224.67474 224.23094 224.31276 224.86226
 226.20265 228.91103 232.74260 237.25313 241.89804 246.31708 250.38438 254.12047
 257.45200 260.35287 262.91260 265.28149 267.44461 269.45261 271.37021 273.14728
 274.67776 276.11362 277.69296 279.20819 280.60355 281.83807 282.96442 283.98477
 284.90250 285.71973 286.43362 287.34344
 366.78100 356.34228 345.78155 334.65483 323.06511 311.26639 299.14366 286.95394
 274.67322 262.57750 250.59377 239.90205 230.03133 221.14261 213.33188 206.34116
 200.18244 195.12772 191.71699 189.76627 188.81055 188.88183 189.72410 191.03938
 192.77166 194.87394 197.14421 199.51049 201.96277 204.45005 206.54532 208.39460
 210.02788 211.18016 211.41643 211.65171 211.59599 211.30826 210.94854 210.58582
 210.21010 209.92737 209.74265 209.61393 209.54921 209.88748 210.28076 210.67704
 211.47732 212.66259 213.91987 215.71015 217.64543 219.69570 221.79798 223.88826
 225.95554 228.04681 230.15109 232.26437 234.40065 236.57992 238.84320 241.22048
 243.84876 246.10703 248.11631 249.88859 251.31286 252.44314 253.27242 253.59570
 253.63997 253.42125 252.78853 251.74381 250.35708 248.52536 246.44164 244.28192
 242.08019 239.89147 237.71875 235.56503 233.43230 231.30658 229.33986 227.50414
 225.79441 224.27369 222.91097 221.69025 220.57952 219.54680 218.65808 217.80636
 217.05563 216.24291 215.34819 214.71947 214.17674 215.07111 217.24303 219.40460
 221.43918 223.23805 224.42079 224.74486 224.54884 224.05667 224.02963 224.70663
 226.18716 229.01991 232.92487 237.43437 242.05803 246.45596 250.49950 254.21089
 257.50430 260.37646 262.92892 265.35349 267.63699 269.74249 271.69354 273.43521
 274.89478 276.17126 277.73685 279.22437 280.60287 281.82251 282.93524 283.94330
 284.84995 285.65732 286.36261 287.26141
 366.78100 356.34284 345.78269 334.65653 323.06737 311.26922 299.14706 286.95791
 274.67775 262.58259 250.59944 239.90828 230.03812 221.14997 213.33981 206.34966
 200.19150 195.13734 191.72719 189.77703 188.82187 188.89372 189.73656 191.05240
 192.78525 194.88809 197.15894 199.52578 201.97862 204.46647 206.56231 208.41215
 210.04600 211.19884 211.43569 211.67153 211.61637 211.32922 210.97006 210.60790
 210.23275 209.95059 209.76643 209.63828 209.57412 209.91297 210.30681 210.70365
 211.50450 212.69034 213.94818 215.73903 217.67487 219.72571 221.82856 223.91940
 225.98725 228.07909 230.18393 232.29778 234.43462 236.61446 238.87831 241.25615
 243.88500 246.14384 248.15368 249.92653 251.35137 252.48221 253.31206 253.63590
 253.68074 253.46259 252.83043 251.78628 250.40012 248.56896 246.48581 244.32665
 242.12549 239.93734 237.76518 235.61203 233.47987 231.35471 229.38856 227.55340
 225.84424 224.32409 222.96193 221.74177 220.63162 219.59946 218.71131 217.86015
 217.10999 216.29784 215.40368 214.77552 214.23337 215.09737 217.19513 219.46382
 221.32509 223.12123 224.28383 224.54767 224.44521 223.96304 223.76230 224.55388
 225.99722 229.02641 233.09296 237.62244 242.22548 246.59953 250.62923 254.31633
 257.59195 260.45337 262.98123 265.35352 267.65347 269.85873 271.92947 273.75659
 275.23840 276.40085 277.66772 279.05328 280.32199 281.53177 282.63547 283.63538
 284.53464 285.33548 286.03506 286.92661
 366.78100 356.34359 345.78418 334.65877 323.07036 311.27296 299.15155 286.96314
 274.68373 262.58932 250.60691 239.91650 230.04709 221.15969 213.35028 206.36087
 200.20346 195.15005 191.74064 189.79123 188.83682 188.90942 189.75301 191.06960
 192.80319 194.90678 197.17837 199.54596 201.99955 204.48815 206.58474 208.43533
 210.06992 211.22351 211.46110 211.69769 211.64328 211.35687 210.99847 210.63706
 210.26265 209.98124 209.79783 209.67042 209.60701 209.94660 210.34120 210.73879
 211.54038 212.72697 213.98556 215.77715 217.71374 219.76533 221.86893 223.96052
 226.02911 228.12170 230.22729 232.34188 234.47947 236.66006 238.92465 241.30325
 243.93284 246.19243 248.20302 249.97661 251.40220 252.53379 253.36438 253.68898
 253.73457 253.51716 252.88575 251.84234 250.45693 248.62652 246.54411 244.38571
 242.18530 239.99789 237.82648 235.67407 233.54266 231.41825 229.45284 227.61844
 225.91003 224.39062 223.02921 221.80980 220.70039 219.66898 218.78157 217.93116
 217.18176 216.37035 215.47694 214.84953 214.30812 215.13219 217.12172 219.54797
 221.27554 222.86096 224.11931 224.42355 224.29840 223.76521 223.49310 224.40109
 225.81314 229.02962 233.24847 237.80457 242.39847 246.75456 250.74771 254.40520
 257.66919 260.53119 263.09006 265.45450 267.69193 269.86026 271.93616 273.78494
 275.29144 276.49487 277.60410 278.93777 280.13696 281.24252 282.31381 283.29514
 284.17770 284.96368 285.65027 286.52524
 366.78100 356.34327 345.78354 334.65781 323.06908 311.27134 299.14961 286.96088
 274.68115 262.58642 250.60369 239.91296 230.04323 221.15549 213.34576 206.35603
 200.19830 195.14457 191.73484 189.78511 188.83038 188.90264 189.74591 191.06218
 192.79545 194.89872 197.16999 199.53726 201.99053 204.47879 206.57506 208.42533
 210.05960 211.21287 211.45014 211.68641 211.63168 211.34495 210.98621 210.62448
 210.24975 209.96802 209.78429 209.65656 209.59283 209.93210 210.32636 210.72363
 211.52490 212.71117 213.96944 215.76071 217.69698 219.74825 221.85151 223.94278
 226.01105 228.10332 230.20859 232.32286 234.46013 236.64040 238.90466 241.28293
 243.91220 246.17147 248.18174 249.95501 251.38028 252.51155 253.34182 253.66608
 253.71135 253.49362 252.86189 251.81816 250.43243 248.60170 246.51897 244.36023
 242.15950 239.97177 237.80004 235.64731 233.51558 231.39085 229.42512 227.59038
 225.88165 224.36192 223.00019 221.78046 220.67073 219.63900 218.75127 217.90053
 217.15080 216.33907 215.44534 214.81761 214.27588 215.12054 217.13892 219.51654
 221.38452 222.82347 223.98326 224.33961 224.09941 223.51573 223.33093 224.23232
 225.74384 229.08789 233.42587 238.00061 242.57782 246.90965 250.85994 254.48672
 257.74091 260.61182 263.19116 265.58902 267.85373 270.00562 272.05231 273.85529
 275.29446 276.45581 277.52371 278.78104 279.97354 281.06177 282.08777 283.07700
 283.96915 284.76361 285.45764 286.34210
 366.78100 356.34289 345.78278 334.65667 323.06757 311.26946 299.14735 286.95824
 274.67813 262.58302 250.59991 239.90881 230.03870 221.15059 213.34048 206.35037
 200.19226 195.13815 191.72805 189.77794 188.82283 188.89472 189.73761 191.05350
 192.78639 194.88929 197.16018 199.52707 201.97996 204.46785 206.56374 208.41363
 210.04753 211.20042 211.43731 211.67320 211.61809 211.33098 210.97187 210.60977
 210.23466 209.95255 209.76844 209.64033 209.57622 209.91511 210.30901 210.70590
 211.50679 212.69268 213.95057 215.74146 217.67735 219.72825 221.83114 223.92203
 225.98992 228.08181 230.18670 232.30059 234.43749 236.61738 238.88127 241.25916
 243.88805 246.14694 248.15683 249.92973 251.35462 252.48551 253.31540 253.63929
 253.68418 253.46608 252.83397 251.78986 250.40375 248.57264 246.48953 244.33042
 242.12932 239.94121 237.76910 235.61599 233.48388 231.35877 229.39266 227.55756
 225.84845 224.32834 222.96623 221.74612 220.63601 219.60390 218.71580 217.86469
 217.11458 216.30247 215.40836 214.78025 214.23814 215.10976 217.18184 219.46487
 221.45911 222.79401 223.88788 224.26660 223.86771 223.24625 223.12111 224.11650
 225.74817 229.20839 233.61235 238.19711 242.75421 247.06097 250.98325 254.58272
 257.81845 260.69391 263.28699 265.69052 267.97021 270.14560 272.20352 274.00403
 275.41382 276.58530 277.66357 278.72958 279.91757 280.99298 282.01187 282.98117
 283.86884 284.65927 285.34979 286.22980
 366.78100 356.34402 345.78504 334.66007 323.07209 311.27511 299.15413 286.96615
 274.68718 262.59320 250.61122 239.92124 230.05226 221.16529 213.35631 206.36733
 200.21035 195.15737 191.74840 189.79942 188.84544 188.91846 189.76248 191.07951
 192.81353 194.91755 197.18957 199.55759 202.01161 204.50064 206.59766 208.44868
 210.08370 211.23772 211.47575 211.71277 211.65879 211.37281 211.01483 210.65386
 210.27988 209.99890 209.81592 209.68894 209.62597 209.96599 210.36101 210.75903
 211.56105 212.74808 214.00710 215.79912 217.73614 219.78816 221.89219 223.98421
 226.05323 228.14625 230.25227 232.36730 234.50532 236.68634 238.95136 241.33038
 243.96041 246.22043 248.23145 250.00547 251.43149 252.56352 253.39454 253.71956
 253.76558 253.54860 252.91763 251.87465 250.48967 248.65969 246.57771 244.41974
 242.21976 240.03278 237.86180 235.70982 233.57884 231.45487 229.48989 227.65591
 225.94793 224.42895 223.06798 221.84900 220.74002 219.70904 218.82206 217.97209
 217.22311 216.41213 215.51915 214.89217 214.35120 215.17358 217.12904 219.53427
 221.42348 222.72421 223.87175 224.11646 223.61992 222.98332 222.88661 224.01015
 225.76291 229.33725 233.80508 238.39122 242.92514 247.20953 251.11446 254.69537
 257.91772 260.79733 263.40869 265.81757 268.08493 270.25055 272.29431 274.03812
 275.39774 276.55621 277.65524 278.87030 280.06055 281.13702 282.14700 283.10074
 283.97174 284.74738 285.42496 286.28845
 366.78100 356.34458 345.78616 334.66174 323.07432 311.27789 299.15747 286.97005
 274.69163 262.59821 250.61679 239.92737 230.05895 221.17253 213.36410 206.37568
 200.21926 195.16684 191.75842 189.81000 188.85658 188.93016 189.77474 191.09231
 192.82689 194.93147 197.20405 199.57263 202.02721 204.51679 206.61437 208.46595
 210.10153 211.25610 211.49468 211.73226 211.67884 211.39342 211.03600 210.67558
 210.30216 210.02174 209.83931 209.71289 209.65047 209.99105 210.38663 210.78521
 211.58779 212.77537 214.03495 215.82752 217.76510 219.81768 221.92226 224.01484
 226.08442 228.17800 230.28458 232.40016 234.53873 236.72031 238.98589 241.36547
 243.99605 246.25663 248.26821 250.04279 251.46937 252.60194 253.43352 253.75910
 253.80568 253.58926 252.95884 251.91642 250.53200 248.70258 246.62115 244.46373
 242.26431 240.07789 237.90747 235.75605 233.62563 231.50221 229.53779 227.70437
 225.99694 224.47852 223.11810 221.89968 220.79126 219.76084 218.87442 218.02500
 217.27658 216.46615 215.57373 214.94731 214.40689 215.20505 217.09076 219.57628
 221.43803 222.79771 223.81932 223.86295 223.36450 222.75989 222.73924 223.86082
 225.83890 229.50397 234.00087 238.57330 243.08766 247.35886 251.24803 254.82698
 258.04651 260.93164 263.56094 265.97913 268.23947 270.39474 272.40729 274.08994
 275.33859 276.38989 277.50186 278.78412 279.97272 281.03610 282.02618 282.93750
 283.76654 284.51385 285.16666 285.99863
 366.78100 356.34368 345.78437 334.65905 323.07073 311.27341 299.15210 286.96378
 274.68446 262.59014 250.60783 239.91751 230.04819 221.16087 213.35156 206.36224
 200.20492 195.15160 191.74229 189.79297 188.83865 188.91133 189.75502 191.07170
 192.80538 194.90907 197.18075 199.54843 202.00211 204.49080 206.58748 208.43816
 210.07284 211.22653 211.46421 211.70089 211.64657 211.36026 211.00194 210.64062
 210.26630 209.98499 209.80167 209.67435 209.61103 209.95072 210.34540 210.74308
 211.54477 212.73145 213.99013 215.78181 217.71850 219.77018 221.87386 223.96554
 226.03423 228.12691 230.23259 232.34727 234.48496 236.66564 238.93032 241.30900
 243.93869 246.19837 248.20905 249.98273 251.40842 252.54010 253.37078 253.69547
 253.74115 253.52383 252.89251 251.84920 250.46388 248.63356 246.55124 244.39293
 242.19261 240.00529 237.83397 235.68166 233.55034 231.42602 229.46070 227.62639
 225.91807 224.39875 223.03743 221.81812 220.70880 219.67748 218.79017 217.93985
 217.19053 216.37921 215.48590 214.85858 214.31726 215.16199 217.15776 219.50893
 221.50861 222.91640 223.71449 223.64526 223.11366 222.50430 222.57719 223.73888
 225.88466 229.66284 234.19395 238.75340 243.24010 247.48555 251.36940 254.93826
 258.15796 261.05829 263.70322 266.12711 268.38342 270.53720 272.57266 274.27896
 275.53802 276.53317 277.49374 278.52454 279.60873 280.65851 281.62949 282.52249
 283.32019 284.02576 284.65140 285.46585
 366.78100 356.34318 345.78336 334.65754 323.06872 311.27090 299.14908 286.96026
 274.68044 262.58562 250.60280 239.91198 230.04216 221.15434 213.34452 206.35470
 200.19687 195.14305 191.73323 189.78341 188.82859 188.90077 189.74395 191.06013
 192.79331 194.89649 197.16767 199.53485 201.98803 204.47621 206.57239 208.42257
 210.05675 211.20993 211.44711 211.68329 211.62847 211.34165 210.98283 210.62101
 210.24619 209.96437 209.78055 209.65273 209.58891 209.92809 210.32227 210.71944
 211.52062 212.70680 213.96498 215.75616 217.69234 219.74352 221.84670 223.93788
 226.00606 228.09824 230.20342 232.31760 234.45478 236.63496 238.89914 241.27732
 243.90650 246.16568 248.17586 249.94904 251.37422 252.50540 253.33558 253.65976
 253.70494 253.48712 252.85530 251.81148 250.42566 248.59484 246.51201 244.35319
 242.15237 239.96455 237.79273 235.63991 233.50809 231.38327 229.41745 227.58263
 225.87381 224.35399 222.99217 221.77235 220.66253 219.63071 218.74289 217.89207
 217.14225 216.33043 215.43661 214.80879 214.26697 215.14133 217.20711 219.45067
 221.52969 222.93582 223.61674 223.48875 222.89061 222.21976 222.33327 223.61368
 225.89267 229.79077 234.38782 238.94463 243.40509 247.63264 251.50204 255.05545
 258.27600 261.19193 263.84958 266.27814 268.53015 270.66916 272.69171 274.37436
 275.59903 276.60297 277.54968 278.54916 279.54263 280.56433 281.53494 282.42795
 283.22614 283.92664 284.54031 285.34253
 366.78100 356.34344 345.78388 334.65832 323.06976 311.27220 299.15065 286.96209
 274.68253 262.58797 250.60541 239.91485 230.04529 221.15773 213.34817 206.35861
 200.20105 195.14750 191.73794 189.78838 188.83382 188.90626 189.74970 191.06614
 192.79958 194.90302 197.17446 199.54190 201.99535 204.48379 206.58023 208.43067
 210.06511 211.21855 211.45599 211.69243 211.63787 211.35131 210.99275 210.63120
 210.25664 209.97508 209.79152 209.66396 209.60040 209.93984 210.33428 210.73172
 211.53316 212.71960 213.97805 215.76949 217.70593 219.75737 221.86081 223.95225
 226.02069 228.11313 230.21857 232.33301 234.47045 236.65090 238.91534 241.29378
 243.92322 246.18266 248.19310 249.96654 251.39198 252.52342 253.35386 253.67830
 253.72375 253.50619 252.87463 251.83107 250.44551 248.61495 246.53239 244.37383
 242.17327 239.98571 237.81415 235.66160 233.53004 231.40548 229.43992 227.60536
 225.89680 224.37724 223.01568 221.79612 220.68656 219.65500 218.76745 217.91689
 217.16733 216.35577 215.46221 214.83465 214.29309 215.16141 217.21291 219.43745
 221.51978 222.90799 223.54147 223.34270 222.66327 221.94547 222.07787 223.46796
 225.89108 229.90364 234.55917 239.14526 243.57787 247.77509 251.63377 255.18292
 258.41235 261.34576 264.01627 266.44690 268.68600 270.80167 272.80585 274.47745
 275.66632 276.63922 277.56885 278.57324 279.58121 280.60397 281.57486 282.46417
 283.25998 283.96164 284.57196 285.37573
 366.78100 356.34394 345.78487 334.65981 323.07174 311.27468 299.15362 286.96555
 274.68649 262.59243 250.61036 239.92030 230.05123 221.16417 213.35511 206.36604
 200.20898 195.15592 191.74685 189.79779 188.84372 188.91666 189.76060 191.07753
 192.81147 194.91541 197.18734 199.55528 202.00921 204.49815 206.59509 208.44602
 210.08096 211.23489 211.47283 211.70977 211.65570 211.36964 211.01158 210.65051
 210.27645 209.99538 209.81232 209.68526 209.62219 209.96213 210.35707 210.75500
 211.55694 212.74387 214.00281 215.79475 217.73168 219.78362 221.88756 223.97949
 226.04843 228.14136 230.24730 232.36224 234.50017 236.68111 238.94604 241.32498
 243.95492 246.21485 248.22579 249.99973 251.42566 252.55760 253.38853 253.71347
 253.75941 253.54234 252.91128 251.86822 250.48315 248.65309 246.57102 244.41296
 242.21290 240.02583 237.85477 235.70271 233.57164 231.44758 229.48251 227.64845
 225.94039 224.42132 223.06026 221.84119 220.73213 219.70107 218.81400 217.96394
 217.21488 216.40381 215.51075 214.88368 214.34262 215.19443 217.20692 219.43591
 221.49219 222.88240 223.48936 223.18898 222.41595 221.66931 221.81807 223.32329
 225.89301 230.00943 234.72459 239.35849 243.75676 247.91382 251.76511 255.31354
 258.55121 261.50198 264.18707 266.61673 268.84088 270.93094 272.91345 274.58194
 275.74353 276.68030 277.58893 278.58774 279.68030 280.71927 281.68906 282.57648
 283.37128 284.07455 284.68478 285.48514
 366.78100 356.34432 345.78565 334.66097 323.07330 311.27662 299.15594 286.96827
 274.68959 262.59592 250.61424 239.92456 230.05589 221.16921 213.36054 206.37186
 200.21519 195.16251 191.75383 189.80516 188.85148 188.92481 189.76913 191.08645
 192.82078 194.92510 197.19743 199.56575 202.02007 204.50940 206.60672 208.45805
 210.09337 211.24769 211.48602 211.72334 211.66967 211.38399 211.02632 210.66564
 210.29196 210.01129 209.82861 209.70194 209.63926 209.97958 210.37491 210.77323
 211.57556 212.76288 214.02220 215.81453 217.75185 219.80418 221.90850 224.00082
 226.07015 228.16347 230.26980 232.38512 234.52345 236.70477 238.97009 241.34942
 243.97974 246.24007 248.25139 250.02571 251.45204 252.58436 253.41569 253.74101
 253.78733 253.57066 252.93998 251.89731 250.51263 248.68295 246.60128 244.44360
 242.24393 240.05725 237.88658 235.73490 233.60422 231.48055 229.51587 227.68220
 225.97452 224.45584 223.09517 221.87649 220.76782 219.73714 218.85046 218.00079
 217.25211 216.44144 215.54876 214.92208 214.38141 215.22127 217.20551 219.43037
 221.45468 222.86562 223.45000 223.03239 222.15762 221.37787 221.55435 223.20430
 225.91078 230.10565 234.86946 239.56331 243.96661 248.05972 251.88390 255.43867
 258.69193 261.65817 264.35391 266.78467 268.99469 271.05878 273.01495 274.68704
 275.85468 276.77716 277.66165 278.65103 279.73648 280.77112 281.72330 282.59659
 283.40564 284.15097 284.76611 285.56323
 366.78100 356.34475 345.78650 334.66224 323.07499 311.27874 299.15849 286.97123
 274.69298 262.59973 250.61848 239.92922 230.06097 221.17472 213.36647 206.37821
 200.22196 195.16971 191.76146 189.81320 188.85995 188.93370 189.77845 191.09619
 192.83094 194.93569 197.20844 199.57718 202.03193 204.52168 206.61943 208.47117
 210.10692 211.26167 211.50042 211.73816 211.68491 211.39966 211.04241 210.68215
 210.30890 210.02865 209.84640 209.72014 209.65789 209.99864 210.39439 210.79313
 211.59588 212.78363 214.04338 215.83612 217.77387 219.82662 221.93137 224.02411
 226.09386 228.18761 230.29436 232.41010 234.54885 236.73060 238.99635 241.37609
 244.00684 246.26759 248.27934 250.05408 251.48083 252.61358 253.44533 253.77107
 253.81782 253.60157 252.97132 251.92906 250.54481 248.71556 246.63431 244.47705
 242.27780 240.09155 237.92130 235.77004 233.63979 231.51654 229.55229 227.71903
 226.01178 224.49353 223.13328 221.91502 220.80677 219.77652 218.89027 218.04101
 217.29276 216.48251 215.59026 214.96400 214.42375 215.24915 217.19922 219.43451
 221.40927 222.83142 223.43277 222.91202 221.88092 221.04756 221.27835 223.09248
 225.94418 230.21162 235.01411 239.75339 244.19589 248.21870 252.00073 255.56596
 258.84283 261.82300 264.52289 266.94907 269.14374 271.17731 273.09720 274.76401
 275.94717 276.89203 277.79303 278.77789 279.85245 280.88705 281.84296 282.71512
 283.52457 284.27225 284.89441 285.70056
 366.78100 356.34521 345.78743 334.66364 323.07686 311.28107 299.16129 286.97450
 274.69672 262.60393 250.62315 239.93436 230.06658 221.18079 213.37301 206.38522
 200.22944 195.17765 191.76987 189.82208 188.86930 188.94351 189.78873 191.10694
 192.84216 194.94737 197.22059 199.58980 202.04502 204.53523 206.63345 208.48566
 210.12188 211.27709 211.51631 211.75452 211.70174 211.41695 211.06017 210.70038
 210.32760 210.04781 209.86603 209.74024 209.67846 210.01967 210.41589 210.81510
 211.61831 212.80653 214.06674 215.85996 217.79817 219.85139 221.95660 224.04982
 226.12003 228.21425 230.32146 232.43768 234.57689 236.75911 239.02532 241.40554
 244.03675 246.29797 248.31018 250.08540 251.51261 252.64583 253.47804 253.80426
 253.85147 253.63569 253.00590 251.96412 250.58033 248.75155 246.67076 244.51398
 242.31519 240.12941 237.95962 235.80884 233.67905 231.55627 229.59248 227.75970
 226.05291 224.53513 223.17534 221.95756 220.84977 219.81999 218.93420 218.08542
 217.33763 216.52784 215.63606 215.01027 214.47049 215.27896 217.18906 219.43774
 221.37891 222.77248 223.39531 222.83849 221.68677 220.68936 220.91379 223.00586
 226.02202 230.33078 235.16742 239.92444 244.39296 248.43286 252.13097 255.68959
 258.99277 261.98770 264.68506 267.10464 269.28607 271.28989 273.16974 274.80917
 275.99316 276.95935 277.88794 278.91299 280.04135 281.08612 282.04312 282.91751
 283.72443 284.46741 285.10178 285.90936
 366.78100 356.34546 345.78791 334.66437 323.07782 311.28228 299.16273 286.97619
 274.69864 262.60610 250.62556 239.93701 230.06947 221.18392 213.37638 206.38883
 200.23329 195.18174 191.77420 189.82665 188.87411 188.94857 189.79402 191.11248
 192.84793 194.95339 197.22684 199.59630 202.05175 204.54221 206.64067 208.49312
 210.12958 211.28503 211.52449 211.76294 211.71040 211.42585 211.06931 210.70977
 210.33722 210.05768 209.87613 209.75059 209.68904 210.03050 210.42695 210.82641
 211.62987 212.81832 214.07878 215.87223 217.81069 219.86414 221.96960 224.06305
 226.13351 228.22796 230.33542 232.45188 234.59133 236.77379 239.04024 241.42070
 244.05215 246.31361 248.32606 250.10152 251.52898 252.66243 253.49489 253.82134
 253.86880 253.65325 253.02371 251.98216 250.59862 248.77008 246.68953 244.53299
 242.33444 240.14890 237.97935 235.82881 233.69926 231.57672 229.61318 227.78063
 226.07409 224.55654 223.19700 221.97945 220.87191 219.84236 218.95682 218.10827
 217.36073 216.55119 215.65964 215.03410 214.49455 215.29576 217.18869 219.42218
 221.36758 222.72784 223.30553 222.76537 221.53442 220.29051 220.60085 222.95691
 226.06804 230.42838 235.31908 240.09930 244.55719 248.63396 252.30238 255.80469
 259.13684 262.15018 264.84076 267.24661 269.41656 271.39087 273.23093 274.83725
 276.01773 277.00000 277.95114 279.07922 280.23453 281.28171 282.24130 283.11850
 283.92758 284.66940 285.31161 286.12888
 366.78100 356.34560 345.78820 334.66481 323.07841 311.28301 299.16361 286.97721
 274.69981 262.60742 250.62702 239.93862 230.07122 221.18582 213.37842 206.39103
 200.23563 195.18423 191.77683 189.82943 188.87703 188.95164 189.79724 191.11584
 192.85144 194.95704 197.23064 199.60025 202.05585 204.54645 206.64505 208.49765
 210.13425 211.28986 211.52946 211.76806 211.71566 211.43126 211.07486 210.71547
 210.34307 210.06367 209.88227 209.75687 209.69548 210.03708 210.43368 210.83328
 211.63688 212.82548 214.08609 215.87969 217.81829 219.87189 221.97749 224.07109
 226.14170 228.23630 230.34390 232.46050 234.60010 236.78270 239.04931 241.42991
 244.06151 246.32311 248.33571 250.11131 251.53892 252.67252 253.50512 253.83172
 253.87932 253.66392 253.03453 251.99313 250.60973 248.78133 246.70093 244.54453
 242.34614 240.16074 237.99134 235.84094 233.71154 231.58914 229.62575 227.79335
 226.08695 224.56955 223.21015 221.99276 220.88536 219.85596 218.97056 218.12216
 217.37476 216.56537 215.67397 215.04857 214.50917 215.30766 217.19418 219.39813
 221.35031 222.70221 223.21201 222.64154 221.36049 219.96677 220.29936 222.83086
 226.10426 230.55766 235.48050 240.27873 244.72382 248.80934 252.52290 255.94370
 259.25165 262.29160 264.97772 267.37198 269.52719 271.47736 273.28171 274.86002
 276.02448 277.00632 278.01389 279.22150 280.38644 281.43506 282.39313 283.27136
 284.07816 284.81854 285.46997 286.29666
 366.78100 356.34581 345.78861 334.66542 323.07923 311.28403 299.16484 286.97865
 274.70146 262.60926 250.62907 239.94088 230.07368 221.18849 213.38130 206.39410
 200.23891 195.18772 191.78052 189.83333 188.88114 188.95595 189.80175 191.12056
 192.85637 194.96217 197.23598 199.60579 202.06159 204.55240 206.65121 208.50402
 210.14082 211.29663 211.53644 211.77524 211.72305 211.43886 211.08266 210.72347
 210.35128 210.07208 209.89089 209.76570 209.70451 210.04631 210.44312 210.84293
 211.64673 212.83554 214.09635 215.89015 217.82896 219.88277 221.98857 224.08238
 226.15319 228.24800 230.35580 232.47261 234.61242 236.79522 239.06203 241.44284
 244.07464 246.33645 248.34926 250.12506 251.55287 252.68668 253.51949 253.84629
 253.89410 253.67891 253.04971 252.00852 250.62533 248.79713 246.71694 244.56075
 242.36255 240.17736 238.00817 235.85798 233.72878 231.60659 229.64340 227.81120
 226.10501 224.58782 223.22862 222.01143 220.90424 219.87505 218.98985 218.14166
 217.39447 216.58527 215.69408 215.06889 214.52969 215.32199 217.19389 219.38406
 221.32123 222.67665 223.13528 222.49057 221.15662 219.69507 220.01299 222.67827
 226.13829 230.69646 235.63686 240.44974 244.88255 248.97057 252.72440 256.13742
 259.36841 262.40735 265.09183 267.47076 269.61444 271.54865 273.32513 274.88058
 276.04068 276.98856 278.07977 279.31946 280.48373 281.52960 282.48788 283.36615
 284.17142 284.90878 285.56445 286.40198
 366.78100 356.34600 345.78900 334.66599 323.07999 311.28499 299.16599 286.97998
 274.70298 262.61098 250.63098 239.94297 230.07597 221.19097 213.38397 206.39696
 200.24196 195.19096 191.78396 189.83695 188.88495 188.95995 189.80595 191.12494
 192.86094 194.96694 197.24094 199.61093 202.06693 204.55793 206.65693 208.50992
 210.14692 211.30292 211.54292 211.78191 211.72991 211.44591 211.08991 210.73090
 210.35890 210.07990 209.89890 209.77389 209.71289 210.05489 210.45189 210.85188
 211.65588 212.84488 214.10588 215.89987 217.83887 219.89287 221.99887 224.09286
 226.16386 228.25886 230.36686 232.48385 234.62385 236.80685 239.07385 241.45484
 244.08684 246.34884 248.36184 250.13783 251.56583 252.69983 253.53283 253.85982
 253.90782 253.69282 253.06382 252.02281 250.63981 248.81181 246.73181 244.57580
 242.37780 240.19280 238.02380 235.87379 233.74479 231.62279 229.65979 227.82778
 226.12178 224.60478 223.24578 222.02877 220.92177 219.89277 219.00777 218.15976
 217.41276 216.60376 215.71276 215.08775 214.54875 215.33405 217.18938 219.37804
 221.29053 222.64330 223.06673 222.32234 220.93901 219.45052 219.74040 222.52022
 226.16942 230.83713 235.79382 240.61531 245.03796 249.11983 252.91170 256.35626
 259.52191 262.49625 265.18359 267.55325 269.66412 271.58582 273.33881 274.88034
 276.08548 277.07776 278.12900 279.37570 280.53076 281.57227 282.52921 283.40363
 284.20630 284.94138 285.59512 286.44940
 366.78100 356.34601 345.78901 334.66602 323.08002 311.28503 299.16603 286.98004
 274.70304 262.61105 250.63105 239.94306 230.07607 221.19107 213.38408 206.39708
 200.24209 195.19109 191.78410 189.83710 188.88511 188.96011 189.80612 191.12513
 192.86113 194.96714 197.24114 199.61115 202.06715 204.55816 206.65716 208.51017
 210.14717 211.30318 211.54319 211.78219 211.73020 211.44620 211.09021 210.73121
 210.35922 210.08022 209.89923 209.77423 209.71324 210.05525 210.45225 210.85226
 211.65626 212.84527 214.10627 215.90028 217.83928 219.89329 221.99929 224.09330
 226.16431 228.25931 230.36732 232.48432 234.62433 236.80733 239.07434 241.45534
 244.08735 246.34935 248.36236 250.13837 251.56637 252.70038 253.53338 253.86039
 253.90839 253.69340 253.06440 252.02341 250.64041 248.81242 246.73243 244.57643
 242.37844 240.19344 238.02445 235.87445 233.74546 231.62346 229.66047 227.82847
 226.12248 224.60549 223.24649 222.02950 220.92250 219.89351 219.00851 218.16052
 217.41352 216.60453 215.71353 215.08854 214.54955 215.33521 217.19142 219.36012
 221.26553 222.60364 223.00938 222.14647 220.72302 219.21754 219.48184 222.37924
 226.20673 230.97101 235.94849 240.77208 245.18938 249.27039 253.09003 256.56921
 259.71573 262.58151 265.22382 267.61450 269.74600 271.65601 273.33780 274.85321
 276.10876 277.21313 278.29669 279.43735 280.56650 281.59656 282.55035 283.42490
 284.22791 284.96262 285.61923 286.48676
 366.78100 356.34596 345.78892 334.66588 323.07984 311.28480 299.16576 286.97972
 274.70268 262.61064 250.63060 239.94256 230.07553 221.19049 213.38345 206.39641
 200.24137 195.19033 191.78329 189.83625 188.88421 188.95917 189.80513 191.12409
 192.86005 194.96601 197.23997 199.60993 202.06589 204.55685 206.65581 208.50877
 210.14573 211.30169 211.54165 211.78062 211.72858 211.44454 211.08850 210.72946
 210.35742 210.07838 209.89734 209.77230 209.71126 210.05322 210.45018 210.85014
 211.65410 212.84306 214.10402 215.89798 217.83694 219.89090 221.99686 224.09082
 226.16178 228.25675 230.36471 232.48167 234.62163 236.80459 239.07155 241.45251
 244.08447 246.34643 248.35939 250.13535 251.56331 252.69727 253.53023 253.85719
 253.90515 253.69011 253.06107 252.02003 250.63699 248.80895 246.72891 244.57287
 242.37484 240.18980 238.02076 235.87072 233.74168 231.61964 229.65660 227.82456
 226.11852 224.60148 223.24244 222.02540 220.91836 219.88932 219.00428 218.15624
 217.40920 216.60016 215.70912 215.08408 214.54504 215.33188 217.19087 219.34564
 221.23665 222.56343 222.94873 221.98521 220.45203 218.99255 219.26930 222.27080
 226.25363 231.09305 236.08371 240.90511 245.34052 249.44498 253.29306 256.80682
 259.93323 262.72266 265.26120 267.59247 269.69455 271.58432 273.29678 274.81702
 276.12683 277.33585 278.41943 279.42831 280.44431 281.44772 282.39542 283.26807
 284.07199 284.81247 285.47940 286.37183
 354.97500 345.04800 334.58700 324.11500 313.32600 302.53700 291.65000 280.76700
 269.93100 259.19300 248.62200 238.61700 229.08700 220.35500 212.54000 205.53500
 199.46400 194.49300 191.14300 189.19000 188.08900 188.01400 188.72400 189.90600
 191.46900 193.38200 195.40300 197.55600 199.80700 202.06000 204.28800 206.47900
 208.55200 210.37800 212.02500 213.65900 214.99800 216.11800 217.17200 218.25900
 219.49400 220.64500 221.67900 222.61400 223.54500 224.98200 226.57100 228.19000
 229.79700 231.81100 233.86500 235.97200 238.24200 240.55300 242.89900 245.25300
 247.48800 249.53500 251.36600 252.84800 254.09800 255.16700 256.02700 256.25300
 256.09500 255.54300 253.93500 252.56600 251.38400 250.24500 249.05200 247.70100
 246.01600 243.99600 241.78400 239.39300 236.81300 234.22300 231.65800 229.14400
 226.74000 224.47300 222.33500 220.32500 218.44000 216.67700 214.96200 213.47200
 212.20000 211.10800 210.26000 209.63900 209.24400 209.03100 209.05800 209.33300
 209.78400 210.62600 211.33100 212.39100 213.62500 214.84668 217.72949 219.47640
 220.32566 220.86828 220.88710 220.27371 219.43733 218.84250 219.04934 220.86203
 222.60583 225.72206 229.03064 232.61777 236.12270 239.51333 242.70767 245.68587
 248.41061 250.90679 253.19353 254.91714 256.48655 257.94920 259.39966 260.69384
 261.81714 262.77997 263.71679 264.54570 265.26305 265.89772 266.47676 267.00133
 267.47312 267.89325 268.26027 268.72800
