|-------------------------------------------------------------------------|
|   File Name : in_temp.dat
|   Subject   : temperature profiles used for initial guess atmosphere
|   File Type : input of gmtr
|   Data Type : atmospherical data
|   Author/s  : WRF-Chem
|   Date      : Fri Jul 26 15:39:24 2024
|-------------------------------------------------------------------------|

 WRF-Chem temperature
#
 values of T (K)    (8f10.5)
#
 354.97500 345.04800 334.58700 324.11500 313.32600 302.53700 291.65000 280.76700
 269.93100 259.19300 248.62200 238.61700 229.08700 220.35500 212.54000 205.53500
 199.46400 194.49300 191.14300 189.19000 188.08900 188.01400 188.72400 189.90600
 191.46900 193.38200 195.40300 197.55600 199.80700 202.06000 204.28800 206.47900
 208.55200 210.37800 212.02500 213.65900 214.99800 216.11800 217.17200 218.25900
 219.49400 220.64500 221.67900 222.61400 223.54500 224.98200 226.57100 228.19000
 229.79700 231.81100 233.86500 235.97200 238.24200 240.55300 242.89900 245.25300
 247.48800 249.53500 251.36600 252.84800 254.09800 255.16700 256.02700 256.25300
 256.09500 255.54300 253.93500 252.56600 251.38400 250.24500 249.05200 247.70100
 246.01600 243.99600 241.78400 239.39300 236.81300 234.22300 231.65800 229.14400
 226.74000 224.47300 222.33500 220.32500 218.44000 216.67700 214.96200 213.47200
 212.20000 211.10800 210.26000 209.63900 209.24400 209.03100 209.05800 209.33300
 209.78400 210.62600 211.33100 212.39100 213.62500 214.84668 217.72949 219.47640
 220.32566 220.86828 220.88710 220.27371 219.43733 218.84250 219.04934 220.86203
 222.60583 225.72206 229.03064 232.61777 236.12270 239.51333 242.70767 245.68587
 248.41061 250.90679 253.19353 254.91714 256.48655 257.94920 259.39966 260.69384
 261.81714 262.77997 263.71679 264.54570 265.26305 265.89772 266.47676 267.00133
 267.47312 267.89325 268.26027 268.72800
 366.78100 356.33500 345.76700 334.63300 323.03600 311.23000 299.10000 286.90300
 274.61500 262.51200 250.52100 239.82200 229.94400 221.04800 213.23000 206.23200
 200.06600 195.00400 191.58600 189.62800 188.66500 188.72900 189.56400 190.87200
 192.59700 194.69200 196.95500 199.31400 201.75900 204.23900 206.32700 208.16900
 209.79500 210.94000 211.16900 211.39700 211.33400 211.03900 210.67200 210.30200
 209.91900 209.62900 209.43700 209.30100 209.22900 209.56000 209.94600 210.33500
 211.12800 212.30600 213.55600 215.33900 217.26700 219.31000 221.40500 223.48800
 225.54800 227.63200 229.72900 231.83500 233.96400 236.13600 238.39200 240.76200
 243.38300 245.63400 247.63600 249.40100 250.81800 251.94100 252.76300 253.07900
 253.11600 252.89000 252.25000 251.19800 249.80400 247.96500 245.87400 243.70700
 241.49800 239.30200 237.12200 234.96100 232.82100 230.68800 228.71400 226.87100
 225.15400 223.62600 222.25600 221.02800 219.91000 218.87000 217.97400 217.11500
 216.35700 215.53700 214.63500 213.99900 213.44900 212.85855 212.01316 212.61654
 214.26826 216.08686 218.14273 220.53346 223.40855 226.78828 231.49734 235.90155
 239.42278 243.28576 247.23140 251.11907 254.80144 258.23331 261.38913 264.27520
 266.89312 269.26852 271.44504 273.08845 274.58484 275.98591 277.39845 278.65879
 279.75272 280.69038 281.56708 282.34086 283.01050 283.60295 284.14348 284.63317
 285.07358 285.46577 285.80838 286.24500
 381.81900 372.39900 361.20600 349.77600 337.62200 324.85300 311.81000 298.35300
 284.86000 271.32400 258.56100 246.30400 236.08700 226.79600 218.44800 211.29000
 205.52200 200.89400 197.38100 194.84800 193.01500 192.31500 192.25000 192.43100
 192.91200 193.53700 194.13600 194.71200 195.26200 195.83100 196.39300 196.97600
 197.60400 198.14900 198.58400 199.05700 199.69500 200.37800 201.05400 201.70800
 202.31300 202.85700 203.35500 203.86200 204.56900 205.29700 206.02600 206.98700
 208.19300 209.44100 210.96900 212.57600 214.46200 216.51300 218.63000 220.85300
 223.34100 225.96200 228.73900 231.69700 234.70600 237.70600 240.69200 243.65700
 246.73700 249.69900 252.52100 255.06300 257.29000 259.23300 260.63300 261.68000
 262.46100 262.79800 262.69100 262.22400 261.06900 259.52500 257.70700 255.50700
 253.00100 250.30200 247.39800 244.45200 241.65400 239.05400 236.73300 234.59000
 232.59500 230.72500 228.83400 226.82600 224.66600 222.38700 220.10400 217.71500
 215.45900 213.06600 210.54600 208.09300 205.35400 202.08130 196.05959 200.71215
 209.01611 216.90438 223.84126 229.78593 235.00632 240.20838 245.98943 250.68668
 254.32982 257.93487 261.55666 264.96801 268.15192 271.06452 273.76717 276.25691
 278.57680 280.74479 282.77456 284.60533 286.27232 287.81705 289.31715 290.65561
 291.81734 292.81312 293.70701 294.49387 295.17482 295.77730 296.32696 296.82492
 297.27278 297.67160 298.02000 298.46400
 399.33000 389.90700 379.81300 368.66800 357.52200 345.30100 333.07400 320.22700
 307.21600 293.84800 280.37600 267.29600 254.61000 242.98700 232.15100 221.97700
 212.67200 204.28600 197.66900 192.82100 189.48600 187.45200 186.81400 187.08900
 187.78100 189.05400 190.64800 192.54200 194.63000 196.75200 198.67100 200.15800
 201.53500 202.48700 202.97500 203.34000 203.53900 203.49700 203.38500 203.24700
 203.00500 202.78600 202.60300 202.43700 202.42600 202.88800 203.42000 203.95100
 204.89500 205.99200 207.30100 208.95800 210.73800 213.10000 215.56400 218.18000
 220.96600 223.91800 226.96100 230.09200 233.29300 236.55700 239.95500 243.53700
 246.84500 249.39000 251.54200 253.47400 255.19500 256.48400 257.43100 258.05900
 258.21200 258.04000 257.58200 256.64300 255.23900 253.50700 251.40800 249.05600
 246.57600 243.99400 241.38900 238.83000 236.34400 233.98600 231.96900 230.11800
 228.42300 226.89900 225.54800 224.29700 223.10500 221.96500 220.95800 220.11300
 219.49000 218.92000 218.32500 217.88100 217.42300 216.96366 216.35568 216.80261
 217.73415 218.28582 218.64258 219.10077 220.44626 222.53987 226.38451 230.35736
 233.59734 237.39164 241.29814 245.22796 248.98002 252.51130 255.78595 258.80109
 261.54781 264.05210 266.34239 268.04198 269.58951 271.01303 272.35754 273.55718
 274.59842 275.49092 276.28989 276.99307 277.60161 278.14001 278.63122 279.07623
 279.47646 279.83287 280.14422 280.54100
 399.73800 389.78500 379.66200 368.15100 356.64100 344.35000 331.79200 318.88800
 305.72600 292.49300 279.20900 266.73800 254.69600 244.21100 234.45700 225.43300
 217.56900 210.45100 204.30000 199.30600 195.45800 192.57600 191.02700 190.38600
 190.23900 190.53400 191.16600 191.92500 192.79500 193.76600 194.73200 195.31200
 195.80000 196.05200 196.11500 196.11500 196.03900 195.72300 195.34000 194.98900
 194.75100 194.79200 195.13300 195.59800 196.50600 198.13600 199.85800 201.56600
 204.17900 206.82300 209.89300 213.28400 216.82800 220.60500 224.38700 228.20900
 232.03200 235.82500 239.56000 243.25800 246.84500 250.20100 253.70900 257.46800
 261.53000 264.22100 266.60100 268.68100 270.32900 271.74100 272.83600 273.47400
 273.89800 274.00200 273.75700 273.28800 272.37100 271.10000 269.58900 267.77900
 265.81600 263.72100 261.39300 258.91600 256.29800 253.42300 250.33100 247.11400
 243.83700 240.52900 237.24900 233.99900 230.72800 227.51500 224.25400 220.95200
 217.62700 213.65600 210.12100 206.78900 204.01000 201.99491 199.07309 198.76551
 199.40006 200.48994 201.46112 202.31912 203.45100 204.96110 207.47502 210.85391
 213.70530 217.29629 220.99574 224.72316 228.28753 231.64854 234.68024 237.40893
 239.70644 241.60899 243.46854 245.67368 247.68154 249.52395 251.24767 252.78566
 254.12057 255.26479 256.23740 257.09036 257.82852 258.48160 259.07744 259.61723
 260.10271 260.53504 260.91270 261.39400
 399.73800 389.78500 379.66200 368.15100 356.64100 344.35000 331.79200 318.88800
 305.72600 292.49300 279.20900 266.73800 254.69600 244.21100 234.45700 225.43300
 217.56900 210.45100 204.30000 199.30600 195.45800 192.57600 191.02700 190.38600
 190.23900 190.53400 191.16600 191.92500 192.79500 193.76600 194.73200 195.31200
 195.80000 196.05200 196.11500 196.11500 196.03900 195.72300 195.34000 194.98900
 194.75100 194.79200 195.13300 195.59800 196.50600 198.13600 199.85800 201.56600
 204.17900 206.82300 209.89300 213.28400 216.82800 220.60500 224.38700 228.20900
 232.03200 235.82500 239.56000 243.25800 246.84500 250.20100 253.70900 257.46800
 261.53000 264.22100 266.60100 268.68100 270.32900 271.74100 272.83600 273.47400
 273.89800 274.00200 273.75700 273.28800 272.37100 271.10000 269.58900 267.77900
 265.81600 263.72100 261.39300 258.91600 256.29800 253.42300 250.33100 247.11400
 243.83700 240.52900 237.24900 233.99900 230.72800 227.51500 224.25400 220.95200
 217.62700 213.65600 210.12100 206.78900 204.01000 201.99491 199.07309 198.76551
 199.40006 200.48994 201.46112 202.31912 203.45100 204.96110 207.47502 210.85391
 213.70530 217.29629 220.99574 224.72316 228.28753 231.64854 234.68024 237.40893
 239.70644 241.60899 243.46854 245.67368 247.68154 249.52395 251.24767 252.78566
 254.12057 255.26479 256.23740 257.09036 257.82852 258.48160 259.07744 259.61723
 260.10271 260.53504 260.91270 261.39400
 399.33000 389.90700 379.81300 368.66800 357.52200 345.30100 333.07400 320.22700
 307.21600 293.84800 280.37600 267.29600 254.61000 242.98700 232.15100 221.97700
 212.67200 204.28600 197.66900 192.82100 189.48600 187.45200 186.81400 187.08900
 187.78100 189.05400 190.64800 192.54200 194.63000 196.75200 198.67100 200.15800
 201.53500 202.48700 202.97500 203.34000 203.53900 203.49700 203.38500 203.24700
 203.00500 202.78600 202.60300 202.43700 202.42600 202.88800 203.42000 203.95100
 204.89500 205.99200 207.30100 208.95800 210.73800 213.10000 215.56400 218.18000
 220.96600 223.91800 226.96100 230.09200 233.29300 236.55700 239.95500 243.53700
 246.84500 249.39000 251.54200 253.47400 255.19500 256.48400 257.43100 258.05900
 258.21200 258.04000 257.58200 256.64300 255.23900 253.50700 251.40800 249.05600
 246.57600 243.99400 241.38900 238.83000 236.34400 233.98600 231.96900 230.11800
 228.42300 226.89900 225.54800 224.29700 223.10500 221.96500 220.95800 220.11300
 219.49000 218.92000 218.32500 217.88100 217.42300 216.96366 216.35568 216.80261
 217.73415 218.28582 218.64258 219.10077 220.44626 222.53987 226.38451 230.35736
 233.59734 237.39164 241.29814 245.22796 248.98002 252.51130 255.78595 258.80109
 261.54781 264.05210 266.34239 268.04198 269.58951 271.01303 272.35754 273.55718
 274.59842 275.49092 276.28989 276.99307 277.60161 278.14001 278.63122 279.07623
 279.47646 279.83287 280.14422 280.54100
 381.81900 372.39900 361.20600 349.77600 337.62200 324.85300 311.81000 298.35300
 284.86000 271.32400 258.56100 246.30400 236.08700 226.79600 218.44800 211.29000
 205.52200 200.89400 197.38100 194.84800 193.01500 192.31500 192.25000 192.43100
 192.91200 193.53700 194.13600 194.71200 195.26200 195.83100 196.39300 196.97600
 197.60400 198.14900 198.58400 199.05700 199.69500 200.37800 201.05400 201.70800
 202.31300 202.85700 203.35500 203.86200 204.56900 205.29700 206.02600 206.98700
 208.19300 209.44100 210.96900 212.57600 214.46200 216.51300 218.63000 220.85300
 223.34100 225.96200 228.73900 231.69700 234.70600 237.70600 240.69200 243.65700
 246.73700 249.69900 252.52100 255.06300 257.29000 259.23300 260.63300 261.68000
 262.46100 262.79800 262.69100 262.22400 261.06900 259.52500 257.70700 255.50700
 253.00100 250.30200 247.39800 244.45200 241.65400 239.05400 236.73300 234.59000
 232.59500 230.72500 228.83400 226.82600 224.66600 222.38700 220.10400 217.71500
 215.45900 213.06600 210.54600 208.09300 205.35400 202.08130 196.05959 200.71215
 209.01611 216.90438 223.84126 229.78593 235.00632 240.20838 245.98943 250.68668
 254.32982 257.93487 261.55666 264.96801 268.15192 271.06452 273.76717 276.25691
 278.57680 280.74479 282.77456 284.60533 286.27232 287.81705 289.31715 290.65561
 291.81734 292.81312 293.70701 294.49387 295.17482 295.77730 296.32696 296.82492
 297.27278 297.67160 298.02000 298.46400
 366.78100 356.34218 345.78135 334.65453 323.06470 311.26588 299.14305 286.95323
 274.67241 262.57658 250.59276 239.90093 230.03011 221.14129 213.33046 206.33964
 200.18081 195.12599 191.71516 189.76434 188.80852 188.87969 189.72187 191.03704
 192.76922 194.87140 197.14157 199.50775 201.95992 204.44710 206.54227 208.39145
 210.02463 211.17680 211.41298 211.64815 211.59233 211.30450 210.94468 210.58186
 210.20603 209.92321 209.73838 209.60956 209.54474 209.88291 210.27609 210.67226
 211.47244 212.65761 213.91479 215.70497 217.64014 219.69032 221.79249 223.88267
 225.94984 228.04102 230.14520 232.25837 234.39455 236.57372 238.83690 241.21408
 243.84225 246.10043 248.10960 249.88178 251.30595 252.43613 253.26531 253.58848
 253.63266 253.41383 252.78101 251.73619 250.34936 248.51754 246.43371 244.27389
 242.07206 239.88324 237.71042 235.55659 233.42377 231.29794 229.33112 227.49529
 225.78547 224.26465 222.90182 221.68100 220.57017 219.53735 218.64853 217.79670
 217.04588 216.23305 215.33823 214.70940 214.16658 213.15077 210.75902 209.87437
 210.34311 210.80460 212.22498 215.26369 219.45197 224.17342 229.86844 234.94557
 238.83704 242.83437 247.06017 251.23682 255.03439 258.79785 261.66367 263.53879
 266.15552 268.88843 271.39850 273.65408 275.62399 277.34488 278.86185 280.45395
 282.20404 283.85898 285.40128 286.76187 287.94073 288.98541 289.93793 290.80261
 291.58105 292.27750 292.88577 293.68198
 366.78100 356.34197 345.78094 334.65392 323.06389 311.26486 299.14183 286.95180
 274.67077 262.57475 250.59072 239.89869 230.02766 221.13863 213.32761 206.33658
 200.17755 195.12252 191.71149 189.76046 188.80444 188.87541 189.71738 191.03235
 192.76432 194.86629 197.13627 199.50224 201.95421 204.44118 206.53615 208.38513
 210.01810 211.17007 211.40604 211.64101 211.58498 211.29696 210.93693 210.57390
 210.19787 209.91484 209.72982 209.60079 209.53576 209.87373 210.26670 210.66267
 211.46265 212.64762 213.90459 215.69456 217.62953 219.67950 221.78148 223.87145
 225.93842 228.02939 230.13336 232.24634 234.38231 236.56128 238.82425 241.20122
 243.82919 246.08717 248.09614 249.86811 251.29208 252.42205 253.25103 253.57400
 253.61797 253.39894 252.76591 251.72088 250.33386 248.50183 246.41780 244.25777
 242.05574 239.86672 237.69369 235.53966 233.40663 231.28060 229.31357 227.47755
 225.76752 224.24649 222.88346 221.66243 220.55140 219.51838 218.62935 217.77732
 217.02629 216.21326 215.31824 214.68921 214.14618 213.16837 210.86536 209.98485
 210.33997 210.87598 212.28293 215.18950 219.35089 224.10594 229.78357 234.85315
 238.73729 242.72946 246.96960 251.16650 254.97118 258.74936 261.63361 263.52151
 266.15375 268.88806 271.37390 273.58395 275.57324 277.33649 278.82718 280.38397
 282.12094 283.75998 285.29803 286.65793 287.83780 288.88162 289.83432 290.69965
 291.47891 292.17615 292.78317 293.58621
 366.78100 356.34171 345.78043 334.65314 323.06286 311.26357 299.14029 286.95000
 274.66872 262.57243 250.58815 239.89586 230.02458 221.13529 213.32401 206.33272
 200.17344 195.11815 191.70687 189.75558 188.79930 188.87001 189.71173 191.02644
 192.75816 194.85987 197.12959 199.49530 201.94702 204.43373 206.52845 208.37716
 210.00988 211.16159 211.39731 211.63202 211.57574 211.28745 210.92717 210.56388
 210.18760 209.90431 209.71903 209.58974 209.52446 209.86217 210.25489 210.65060
 211.45032 212.63503 213.89175 215.68146 217.61618 219.66589 221.76761 223.85732
 225.92404 228.01475 230.11847 232.23118 234.36690 236.54561 238.80833 241.18504
 243.81276 246.07047 248.07919 249.85090 251.27462 252.40433 253.23305 253.55576
 253.59948 253.38019 252.74691 251.70162 250.31434 248.48205 246.39777 244.23748
 242.03520 239.84591 237.67263 235.51834 233.38506 231.25877 229.29149 227.45520
 225.74492 224.22363 222.86035 221.63906 220.52778 219.49449 218.60521 217.75292
 217.00164 216.18835 215.29307 214.66378 214.12050 213.18236 210.97198 210.08820
 210.35570 210.92603 212.33844 215.14957 219.23804 224.01671 229.70148 234.76808
 238.64552 242.63155 246.88426 251.09972 254.90945 258.69882 261.59668 263.49905
 266.14813 268.88431 271.34793 273.51465 275.52441 277.33142 278.79691 280.31705
 282.04037 283.66400 285.19586 286.55420 287.73404 288.77866 289.73221 290.59818
 291.37872 292.07306 292.68506 293.48914
 366.78100 356.34138 345.77976 334.65214 323.06153 311.26191 299.13829 286.94767
 274.66605 262.56943 250.58481 239.89219 230.02058 221.13096 213.31934 206.32772
 200.16810 195.11248 191.70086 189.74924 188.79263 188.86301 189.70439 191.01877
 192.75015 194.85153 197.12091 199.48629 201.93768 204.42406 206.51844 208.36682
 209.99920 211.15058 211.38596 211.62034 211.56373 211.27511 210.91449 210.55087
 210.17425 209.89063 209.70501 209.57539 209.50978 209.84716 210.23954 210.63492
 211.43430 212.61868 213.87506 215.66445 217.59883 219.64821 221.74959 223.83897
 225.90535 227.99573 230.09911 232.21150 234.34688 236.52526 238.78764 241.16402
 243.79140 246.04878 248.05716 249.82855 251.25193 252.38131 253.20969 253.53207
 253.57545 253.35583 252.72221 251.67660 250.28898 248.45636 246.37174 244.21112
 242.00850 239.81888 237.64526 235.49065 233.35703 231.23041 229.26279 227.42617
 225.71555 224.19393 222.83031 221.60870 220.49708 219.46346 218.57384 217.72122
 216.96960 216.15598 215.26037 214.63075 214.08713 213.19168 211.08110 210.18822
 210.38286 210.96913 212.37825 215.12334 219.12839 223.92557 229.62730 234.68964
 238.55746 242.53601 246.79874 251.03148 254.84850 258.64609 261.55518 263.47372
 266.13776 268.87585 271.32053 273.44684 275.47571 277.32742 278.76999 280.25632
 281.96350 283.57312 285.09485 286.45450 287.63449 288.67932 289.63452 290.49908
 291.27893 291.97824 292.58798 293.39630
 366.78100 356.34111 345.77923 334.65134 323.06046 311.26057 299.13669 286.94580
 274.66392 262.56703 250.58215 239.88926 230.01738 221.12749 213.31561 206.32372
 200.16384 195.10795 191.69607 189.74418 188.78730 188.85741 189.69853 191.01264
 192.74376 194.84487 197.11399 199.47910 201.93022 204.41633 206.51045 208.35856
 209.99068 211.14179 211.37691 211.61102 211.55413 211.26525 210.90436 210.54048
 210.16359 209.87971 209.69382 209.56394 209.49805 209.83517 210.22728 210.62240
 211.42151 212.60563 213.86174 215.65086 217.58497 219.63409 221.73520 223.82432
 225.89043 227.98055 230.08366 232.19578 234.33089 236.50901 238.77112 241.14724
 243.77435 246.03147 248.03958 249.81070 251.23381 252.36293 253.19104 253.51315
 253.55627 253.33638 252.70250 251.65661 250.26873 248.43584 246.35096 244.19007
 241.98719 239.79730 237.62342 235.46853 233.33465 231.20776 229.23988 227.40299
 225.69211 224.17022 222.80634 221.58445 220.47257 219.43868 218.54880 217.69591
 216.94403 216.13014 215.23426 214.60437 214.06049 213.20363 211.18338 210.29507
 210.41542 211.00945 212.40610 215.10097 219.02834 223.83357 229.55855 234.61224
 238.46936 242.44044 246.71300 250.96237 254.78908 258.59412 261.51169 263.44574
 266.12265 268.86182 271.29001 273.37964 275.42688 277.32214 278.74683 280.20135
 281.89102 283.48792 284.99838 286.35803 287.53918 288.58234 289.53647 290.40277
 291.18613 291.88229 292.49411 293.30490
 366.78100 356.34094 345.77887 334.65081 323.05974 311.25968 299.13561 286.94455
 274.66248 262.56542 250.58035 239.88729 230.01522 221.12516 213.31310 206.32103
 200.16097 195.10490 191.69284 189.74077 188.78371 188.85364 189.69458 191.00851
 192.73945 194.84039 197.10932 199.47426 201.92519 204.41113 206.50506 208.35300
 209.98493 211.13587 211.37080 211.60474 211.54767 211.25861 210.89755 210.53348
 210.15642 209.87235 209.68629 209.55622 209.49016 209.82709 210.21903 210.61396
 211.41290 212.59684 213.85277 215.64171 217.57564 219.62458 221.72551 223.81445
 225.88038 227.97032 230.07325 232.18519 234.32012 236.49806 238.76000 241.13593
 243.76287 246.01980 248.02774 249.79867 251.22161 252.35054 253.17848 253.50041
 253.54335 253.32329 252.68922 251.64316 250.25509 248.42203 246.33696 244.17590
 241.97283 239.78277 237.60870 235.45364 233.31957 231.19251 229.22445 227.38738
 225.67632 224.15425 222.79019 221.56812 220.45606 219.42199 218.53193 217.67886
 216.92680 216.11274 215.21667 214.58661 214.04254 213.21887 211.27646 210.41109
 210.45285 211.04607 212.42851 215.07776 218.93657 223.73897 229.49316 234.53259
 238.38029 242.34650 246.62852 250.89444 254.73346 258.54413 261.46790 263.41522
 266.10153 268.84122 271.25595 273.31219 275.37540 277.31039 278.72467 280.15192
 281.82443 283.41040 284.90756 286.26733 287.44733 288.49286 289.44763 290.31430
 291.09564 291.79456 292.40781 293.21933
 366.78100 356.34076 345.77852 334.65028 323.05904 311.25880 299.13456 286.94331
 274.66107 262.56383 250.57859 239.88535 230.01311 221.12287 213.31063 206.31839
 200.15815 195.10191 191.68967 189.73742 188.78018 188.84994 189.69070 191.00446
 192.73522 194.83598 197.10474 199.46950 201.92026 204.40602 206.49978 208.34753
 209.97929 211.13005 211.36481 211.59857 211.54133 211.25209 210.89085 210.52661
 210.14937 209.86513 209.67889 209.54864 209.48240 209.81916 210.21092 210.60568
 211.40444 212.58820 213.84396 215.63272 217.56648 219.61524 221.71600 223.80475
 225.87051 227.96027 230.06303 232.17479 234.30955 236.48731 238.74907 241.12483
 243.75159 246.00835 248.01611 249.78686 251.20962 252.33838 253.16614 253.48790
 253.53066 253.31042 252.67618 251.62994 250.24170 248.40846 246.32322 244.16197
 241.95873 239.76849 237.59425 235.43901 233.30477 231.17753 229.20929 227.37205
 225.66081 224.13857 222.77433 221.55209 220.43984 219.40560 218.51536 217.66212
 216.90988 216.09564 215.19940 214.56916 214.02492 213.23337 211.36641 210.53262
 210.49467 211.08289 212.44345 215.05269 218.85304 223.64125 229.42670 234.45091
 238.29140 242.25467 246.54576 250.82851 254.68202 258.49707 261.42407 263.38217
 266.07413 268.81403 271.21677 273.24387 275.32028 277.29114 278.70297 280.10873
 281.76321 283.34006 284.82388 286.18304 287.36359 288.40939 289.36465 290.23145
 291.01437 291.71216 292.32715 293.14102
 366.78100 356.34054 345.77808 334.64962 323.05817 311.25771 299.13325 286.94179
 274.65933 262.56187 250.57641 239.88296 230.01050 221.12004 213.30758 206.31512
 200.15466 195.09820 191.68575 189.73329 188.77583 188.84537 189.68591 190.99945
 192.72999 194.83054 197.09908 199.46362 201.91416 204.39970 206.49324 208.34078
 209.97233 211.12287 211.35741 211.59095 211.53349 211.24403 210.88257 210.51812
 210.14066 209.85620 209.66974 209.53928 209.47282 209.80936 210.20091 210.59545
 211.39399 212.57753 213.83307 215.62161 217.55515 219.60370 221.70424 223.79278
 225.85832 227.94786 230.05040 232.16194 234.29649 236.47403 238.73557 241.11111
 243.73765 245.99419 248.00173 249.77228 251.19482 252.32336 253.15090 253.47244
 253.51498 253.29452 252.66007 251.61361 250.22515 248.39169 246.30623 244.14477
 241.94131 239.75086 237.57640 235.42094 233.28648 231.15902 229.19056 227.35310
 225.64165 224.11919 222.75473 221.53227 220.41981 219.38535 218.49489 217.64144
 216.88898 216.07452 215.17806 214.54760 214.00314 213.24542 211.45792 210.65166
 210.55121 211.11440 212.45213 215.03137 218.76660 223.54269 229.36063 234.37048
 238.20392 242.16479 246.46307 250.76192 254.63368 258.45239 261.37976 263.34613
 266.04117 268.77991 271.17395 273.17682 275.26300 277.26541 278.68307 280.07635
 281.71109 283.27521 284.74573 286.10461 287.28461 288.33093 289.28760 290.15256
 290.93713 291.63486 292.25134 293.06317
 366.78100 356.34033 345.77765 334.64898 323.05731 311.25664 299.13196 286.94029
 274.65762 262.55994 250.57427 239.88060 230.00793 221.11725 213.30458 206.31191
 200.15124 195.09456 191.68189 189.72922 188.77154 188.84087 189.68120 190.99453
 192.72485 194.82518 197.09351 199.45783 201.90816 204.39349 206.48682 208.33414
 209.96547 211.11580 211.35012 211.58345 211.52578 211.23611 210.87443 210.50976
 210.13209 209.84742 209.66074 209.53007 209.46340 209.79972 210.19105 210.58538
 211.38371 212.56703 213.82236 215.61069 217.54401 219.59234 221.69267 223.78100
 225.84632 227.93565 230.03798 232.14930 234.28363 236.46096 238.72229 241.09761
 243.72394 245.98027 247.98760 249.75792 251.18025 252.30858 253.13590 253.45723
 253.49956 253.27889 252.64421 251.59754 250.20887 248.37519 246.28952 244.12785
 241.92418 239.73350 237.55883 235.40316 233.26848 231.14081 229.17214 227.33447
 225.62279 224.10012 222.73545 221.51278 220.40010 219.36543 218.47476 217.62108
 216.86841 216.05374 215.15707 214.52639 213.98172 213.25726 211.54796 210.76796
 210.61839 211.15268 212.45021 215.00891 218.68793 223.44278 229.29158 234.28549
 238.11328 242.07349 246.37932 250.69482 254.58905 258.41180 261.33731 263.30896
 266.00238 268.73947 271.12756 273.11011 275.20309 277.23343 278.66583 280.05240
 281.66641 283.21661 284.67139 286.03064 287.21118 288.25711 289.21295 290.07962
 290.86337 291.56363 292.18021 292.99530
 366.78100 356.34046 345.77792 334.64939 323.05785 311.25731 299.13277 286.94123
 274.65869 262.56116 250.57562 239.88208 230.00954 221.11900 213.30646 206.31393
 200.15339 195.09685 191.68431 189.73177 188.77424 188.84370 189.68416 190.99762
 192.72808 194.82854 197.09701 199.46147 201.91193 204.39739 206.49085 208.33832
 209.96978 211.12024 211.35470 211.58816 211.53062 211.24109 210.87955 210.51501
 210.13747 209.85293 209.66639 209.53586 209.46932 209.80578 210.19724 210.59170
 211.39017 212.57363 213.82909 215.61755 217.55101 219.59947 221.69994 223.78840
 225.85386 227.94332 230.04578 232.15725 234.29171 236.46917 238.73063 241.10609
 243.73255 245.98902 247.99648 249.76694 251.18940 252.31786 253.14532 253.46679
 253.50925 253.28871 252.65417 251.60763 250.21910 248.38556 246.30002 244.13848
 241.93494 239.74440 237.56987 235.41433 233.27979 231.15225 229.18371 227.34618
 225.63464 224.11210 222.74756 221.52502 220.41248 219.37795 218.48741 217.63387
 216.88133 216.06679 215.17025 214.53972 213.99518 213.28622 211.61346 210.89914
 210.70248 211.18449 212.45480 214.97961 218.59358 223.33621 229.22125 234.20354
 238.02777 241.98790 246.29796 250.62816 254.54843 258.37473 261.29614 263.27170
 265.95956 268.69382 271.07812 273.04346 275.14172 277.19424 278.64932 280.03629
 281.62735 283.16287 284.60178 285.96069 287.14084 288.18585 289.14285 290.01147
 290.79437 291.49500 292.11194 292.92966
 366.78100 356.34050 345.77800 334.64951 323.05801 311.25751 299.13301 286.94152
 274.65902 262.56152 250.57602 239.88253 230.01003 221.11953 213.30703 206.31454
 200.15404 195.09754 191.68504 189.73255 188.77505 188.84455 189.68505 190.99855
 192.72906 194.82956 197.09806 199.46256 201.91307 204.39857 206.49207 208.33957
 209.97108 211.12158 211.35608 211.58958 211.53209 211.24259 210.88109 210.51659
 210.13909 209.85460 209.66810 209.53760 209.47110 209.80761 210.19911 210.59361
 211.39211 212.57562 213.83112 215.61962 217.55312 219.60163 221.70213 223.79063
 225.85613 227.94564 230.04814 232.15964 234.29414 236.47164 238.73315 241.10865
 243.73515 245.99165 247.99916 249.76966 251.19216 252.32066 253.14817 253.46967
 253.51217 253.29167 252.65718 251.61068 250.22218 248.38868 246.30318 244.14169
 241.93819 239.74769 237.57319 235.41770 233.28320 231.15570 229.18720 227.34971
 225.63821 224.11571 222.75121 221.52872 220.41622 219.38172 218.49122 217.63773
 216.88523 216.07073 215.17423 214.54373 213.99924 213.31123 211.68764 210.99754
 210.83263 211.23639 212.40425 214.95612 218.52986 223.23479 229.14813 234.11115
 237.92915 241.89183 246.20929 250.55663 254.50993 258.34424 261.26562 263.24344
 265.91843 268.64618 271.02707 272.97757 275.07483 277.14621 278.62878 280.02371
 281.59433 283.11057 284.53598 285.89401 287.07431 288.12076 289.07748 289.94504
 290.72806 291.43118 292.04697 292.86755
 366.78100 356.34088 345.77877 334.65065 323.05953 311.25942 299.13530 286.94419
 274.66207 262.56495 250.57984 239.88672 230.01460 221.12449 213.31237 206.32026
 200.16014 195.10402 191.69191 189.73979 188.78267 188.85256 189.69344 191.00732
 192.73821 194.83909 197.10798 199.47286 201.92374 204.40963 206.50351 208.35139
 209.98328 211.13416 211.36905 211.60293 211.54581 211.25670 210.89558 210.53146
 210.15435 209.87023 209.68411 209.55400 209.48788 209.82477 210.21665 210.61153
 211.41042 212.59430 213.85018 215.63907 217.57295 219.62184 221.72272 223.81160
 225.87749 227.96737 230.07025 232.18214 234.31702 236.49490 238.75679 241.13267
 243.75956 246.01644 248.02432 249.79521 251.21809 252.34697 253.17486 253.49674
 253.53963 253.31951 252.68539 251.63928 250.25116 248.41804 246.33293 244.17181
 241.96870 239.77858 237.60446 235.44935 233.31523 231.18811 229.22000 227.38288
 225.67176 224.14965 222.78553 221.56342 220.45130 219.41718 218.52707 217.67395
 216.92183 216.10772 215.21160 214.58149 214.03737 213.35284 211.73744 211.12749
 210.91309 211.31406 212.47693 214.89790 218.37178 223.09976 229.05884 234.00829
 237.83113 241.80386 246.13165 250.49982 254.48834 258.33096 261.25146 263.22144
 265.87311 268.58978 270.96521 272.90100 274.99930 277.08463 278.59805 280.00940
 281.56256 283.05984 284.47232 285.83066 287.01068 288.05664 289.01288 289.88159
 290.66400 291.36707 291.98465 292.80640
 366.78100 356.34157 345.78013 334.65270 323.06226 311.26283 299.13940 286.94896
 274.66753 262.57109 250.58666 239.89423 230.02279 221.13336 213.32192 206.33049
 200.17106 195.11562 191.70419 189.75276 188.79632 188.86689 189.70845 191.02302
 192.75459 194.85615 197.12572 199.49128 201.94285 204.42942 206.52398 208.37255
 210.00511 211.15668 211.39225 211.62681 211.57038 211.28194 210.92151 210.55808
 210.18164 209.89821 209.71277 209.58334 209.51791 209.85547 210.24804 210.64360
 211.44317 212.62774 213.88430 215.67387 217.60844 219.65800 221.75957 223.84913
 225.91570 228.00627 230.10983 232.22240 234.35796 236.53653 238.79910 241.17566
 243.80323 246.06079 248.06936 249.84093 251.26449 252.39406 253.22262 253.54519
 253.58876 253.36932 252.73589 251.69045 250.30302 248.47059 246.38615 244.22572
 242.02328 239.83385 237.66042 235.50598 233.37255 231.24612 229.27868 227.44225
 225.73181 224.21038 222.84695 221.62551 220.51408 219.48064 218.59121 217.73878
 216.98734 216.17391 215.27847 214.64904 214.10561 213.41008 211.76871 211.24146
 211.11578 211.36595 212.41518 214.78850 218.22914 222.97266 229.00467 233.95203
 237.77617 241.74954 246.07402 250.45642 254.47440 258.31558 261.21988 263.17615
 265.80930 268.51764 270.89001 272.81595 274.91962 277.01767 278.56741 280.00070
 281.53696 283.01270 284.41287 285.76898 286.95099 287.99518 288.95316 289.82138
 290.60544 291.30762 291.92572 292.74860
 366.78100 356.34159 345.78018 334.65277 323.06236 311.26295 299.13954 286.94913
 274.66772 262.57131 250.58690 239.89449 230.02307 221.13366 213.32225 206.33084
 200.17143 195.11602 191.70461 189.75320 188.79679 188.86738 189.70897 191.02356
 192.75515 194.85674 197.12633 199.49192 201.94351 204.43010 206.52469 208.37328
 210.00587 211.15746 211.39305 211.62763 211.57122 211.28281 210.92240 210.55899
 210.18258 209.89917 209.71376 209.58435 209.51894 209.85653 210.24912 210.64471
 211.44430 212.62889 213.88548 215.67507 217.60966 219.65925 221.76084 223.85043
 225.91702 228.00760 230.11119 232.22378 234.35937 236.53796 238.80055 241.17714
 243.80473 246.06232 248.07091 249.84250 251.26609 252.39568 253.22427 253.54686
 253.59045 253.37104 252.73763 251.69222 250.30481 248.47240 246.38799 244.22758
 242.02516 239.83575 237.66234 235.50793 233.37452 231.24811 229.28070 227.44429
 225.73388 224.21247 222.84906 221.62765 220.51624 219.48283 218.59342 217.74101
 216.98960 216.17619 215.28078 214.65137 214.10796 213.43764 211.85521 211.27856
 211.28052 211.39653 212.33617 214.73578 218.16031 222.88773 228.97823 233.92291
 237.73743 241.70099 246.01308 250.40253 254.44914 258.28186 261.16046 263.11060
 265.73581 268.44168 270.81653 272.74045 274.84692 276.95609 278.54959 280.00647
 281.52005 282.97208 284.35632 285.71155 286.89291 287.93890 288.89578 289.76364
 290.54846 291.25211 291.86969 292.69440
 366.78100 356.34155 345.78009 334.65264 323.06218 311.26273 299.13928 286.94882
 274.66737 262.57092 250.58646 239.89401 230.02255 221.13310 213.32165 206.33019
 200.17074 195.11529 191.70383 189.75238 188.79592 188.86647 189.70802 191.02256
 192.75411 194.85566 197.12520 199.49075 201.94229 204.42884 206.52339 208.37193
 210.00448 211.15603 211.39157 211.62612 211.56966 211.28121 210.92076 210.55730
 210.18085 209.89740 209.71194 209.58249 209.51703 209.85458 210.24713 210.64267
 211.44222 212.62676 213.88331 215.67286 217.60740 219.65695 221.75850 223.84804
 225.91459 228.00513 230.10868 232.22123 234.35677 236.53532 238.79787 241.17441
 243.80196 246.05950 248.06805 249.83960 251.26314 252.39269 253.22124 253.54378
 253.58733 253.36787 252.73442 251.68897 250.30151 248.46906 246.38461 244.22415
 242.02170 239.83224 237.65879 235.50434 233.37088 231.24443 229.27698 227.44052
 225.73007 224.20861 222.84516 221.62371 220.51225 219.47880 218.58935 217.73689
 216.98544 216.17198 215.27653 214.64708 214.10362 213.46091 211.94324 211.32423
 211.39429 211.43237 212.31229 214.71786 218.09732 222.82947 228.94679 233.87677
 237.67812 241.63397 245.93765 250.33548 254.41548 258.23923 261.09491 263.04688
 265.66589 268.37061 270.75043 272.67456 274.78076 276.89673 278.53506 280.01541
 281.50873 282.93423 284.30267 285.65720 286.83881 287.88348 288.83966 289.70886
 290.49265 291.19745 291.81522 292.64182
 366.78100 356.34186 345.78072 334.65358 323.06345 311.26431 299.14117 286.95103
 274.66989 262.57375 250.58962 239.89748 230.02634 221.13720 213.32606 206.33492
 200.17579 195.12065 191.70951 189.75837 188.80223 188.87309 189.71496 191.02982
 192.76168 194.86354 197.13340 199.49926 201.95113 204.43799 206.53285 208.38171
 210.01457 211.16643 211.40230 211.63716 211.58102 211.29288 210.93274 210.56960
 210.19346 209.91033 209.72519 209.59605 209.53091 209.86877 210.26163 210.65750
 211.45736 212.64222 213.89908 215.68894 217.62380 219.67367 221.77553 223.86539
 225.93225 228.02311 230.12697 232.23984 234.37570 236.55456 238.81742 241.19428
 243.82214 246.08001 248.08887 249.86073 251.28459 252.41445 253.24331 253.56618
 253.61004 253.39090 252.75776 251.71262 250.32548 248.49335 246.40921 244.24907
 242.04693 239.85779 237.68465 235.53051 233.39738 231.27124 229.30410 227.46796
 225.75782 224.23668 222.87355 221.65241 220.54127 219.50813 218.61899 217.76685
 217.01572 216.20258 215.30744 214.67830 214.13516 213.50131 212.00433 211.39943
 211.48257 211.47031 212.32529 214.70218 218.02695 222.78188 228.90817 233.81416
 237.60141 241.55397 245.85599 250.26599 254.38356 258.19971 261.03644 262.99081
 265.59830 268.29962 270.68228 272.60837 274.71298 276.83289 278.51349 280.02094
 281.49615 282.89786 284.25073 285.60690 286.78607 287.83047 288.78784 289.65768
 290.44266 291.14557 291.76553 292.59424
 366.78100 356.34234 345.78168 334.65503 323.06537 311.26671 299.14405 286.95440
 274.67374 262.57808 250.59442 239.90277 230.03211 221.14345 213.33279 206.34213
 200.18348 195.12882 191.71816 189.76750 188.81185 188.88319 189.72553 191.04087
 192.77321 194.87556 197.14590 199.51224 201.96458 204.45193 206.54727 208.39661
 210.02995 211.18230 211.41864 211.65398 211.59832 211.31066 210.95101 210.58835
 210.21269 209.93003 209.74538 209.61672 209.55206 209.89040 210.28374 210.68009
 211.48043 212.66577 213.92311 215.71346 217.64880 219.69914 221.80148 223.89183
 225.95917 228.05051 230.15485 232.26819 234.40454 236.58388 238.84722 241.22456
 243.85291 246.11125 248.12059 249.89293 251.31727 252.44762 253.27696 253.60030
 253.64464 253.42599 252.79333 251.74867 250.36201 248.53036 246.44670 244.28704
 242.08538 239.89672 237.72407 235.57041 233.43775 231.31209 229.34544 227.50978
 225.80012 224.27946 222.91680 221.69615 220.58549 219.55283 218.66417 217.81252
 217.06186 216.24920 215.35454 214.72589 214.18323 213.55008 212.05447 211.48715
 211.54958 211.52075 212.35004 214.68336 217.97327 222.74251 228.86392 233.74275
 237.51807 241.47096 245.77383 250.19847 254.35426 258.16113 260.97775 262.93320
 265.52783 268.22513 270.60883 272.53827 274.64233 276.76605 278.48788 280.02240
 281.48157 282.86258 284.20209 285.55734 286.73737 287.78226 288.73932 289.60660
 290.39359 291.09732 291.71719 292.54355
 366.78100 356.34287 345.78273 334.65660 323.06747 311.26934 299.14720 286.95807
 274.67794 262.58281 250.59967 239.90854 230.03841 221.15028 213.34014 206.35001
 200.19188 195.13774 191.72761 189.77748 188.82235 188.89421 189.73708 191.05295
 192.78582 194.88868 197.15955 199.52642 201.97929 204.46715 206.56302 208.41289
 210.04675 211.19962 211.43649 211.67236 211.61722 211.33009 210.97096 210.60883
 210.23369 209.95156 209.76743 209.63930 209.57516 209.91403 210.30790 210.70476
 211.50563 212.69150 213.94937 215.74023 217.67610 219.72697 221.82984 223.92070
 225.98857 228.08044 230.18531 232.29917 234.43604 236.61591 238.87977 241.25764
 243.88651 246.14538 248.15524 249.92811 251.35298 252.48385 253.31371 253.63758
 253.68245 253.46432 252.83218 251.78805 250.40192 248.57078 246.48765 244.32852
 242.12739 239.93925 237.76712 235.61399 233.48186 231.35672 229.39059 227.55546
 225.84633 224.32619 222.96406 221.74393 220.63379 219.60166 218.71353 217.86240
 217.11226 216.30013 215.40600 214.77787 214.23573 213.60056 212.09990 211.57771
 211.60075 211.58907 212.37971 214.66386 217.93620 222.70627 228.81276 233.66805
 237.43565 241.39027 245.69499 250.13391 254.32491 258.11801 260.91061 262.86816
 265.45312 268.14767 270.53198 272.46832 274.57303 276.70126 278.46130 280.02286
 281.46796 282.82919 284.15643 285.51077 286.68985 287.73517 288.69135 289.56088
 290.34787 291.04913 291.67130 292.49817
 366.78100 356.34341 345.78382 334.65824 323.06965 311.27206 299.15047 286.96189
 274.68230 262.58771 250.60512 239.91454 230.04495 221.15736 213.34777 206.35819
 200.20060 195.14701 191.73742 189.78784 188.83325 188.90566 189.74907 191.06548
 192.79890 194.90231 197.17372 199.54113 201.99455 204.48296 206.57937 208.42978
 210.06420 211.21761 211.45502 211.69143 211.63685 211.35026 210.99167 210.63008
 210.25549 209.97391 209.79032 209.66273 209.59914 209.93856 210.33297 210.73038
 211.53179 212.71821 213.97662 215.76803 217.70444 219.75586 221.85927 223.95068
 226.01909 228.11151 230.21692 232.33133 234.46874 236.64915 238.91357 241.29198
 243.92139 246.18080 248.19122 249.96463 251.39004 252.52145 253.35187 253.67628
 253.72169 253.50410 252.87252 251.82893 250.44334 248.61275 246.53017 244.37158
 242.17099 239.98340 237.81181 235.65923 233.52764 231.40305 229.43746 227.60288
 225.89429 224.37470 223.01311 221.79353 220.68394 219.65235 218.76476 217.91418
 217.16459 216.35300 215.45941 214.83183 214.29024 213.65157 212.14262 211.66434
 211.64566 211.66333 212.41710 214.64706 217.91673 222.66937 228.75626 233.59096
 237.35510 241.31189 245.61755 250.07051 254.29305 258.06650 260.83191 262.79712
 265.37695 268.06989 270.45514 272.40009 274.50708 276.63904 278.43451 280.02069
 281.45303 282.79773 284.11215 285.46622 286.64529 287.69040 288.64664 289.51627
 290.30209 291.00513 291.62909 292.45425
 366.78100 356.34394 345.78488 334.65982 323.07176 311.27470 299.15364 286.96559
 274.68653 262.59247 250.61041 239.92035 230.05129 221.16423 213.35517 206.36611
 200.20905 195.15599 191.74693 189.79787 188.84382 188.91676 189.76070 191.07764
 192.81158 194.91552 197.18746 199.55540 202.00934 204.49828 206.59522 208.44616
 210.08111 211.23505 211.47299 211.70993 211.65587 211.36981 211.01175 210.65069
 210.27663 209.99557 209.81251 209.68545 209.62239 209.96234 210.35728 210.75522
 211.55716 212.74410 214.00304 215.79498 217.73192 219.78386 221.88780 223.97974
 226.04868 228.14162 230.24757 232.36251 234.50045 236.68139 238.94633 241.32527
 243.95521 246.21515 248.22609 250.00003 251.42597 252.55791 253.38886 253.71380
 253.75974 253.54268 252.91162 251.86856 250.48350 248.65344 246.57138 244.41332
 242.21326 240.02620 237.85514 235.70309 233.57203 231.44797 229.48291 227.64885
 225.94079 224.42173 223.06067 221.84161 220.73255 219.70149 218.81443 217.96437
 217.21532 216.40426 215.51120 214.88414 214.34308 213.70137 212.18527 211.74135
 211.69560 211.73640 212.46385 214.63943 217.90164 222.63060 228.69867 233.51526
 237.27658 241.23447 245.54044 250.00713 254.25700 258.00552 260.74326 262.72110
 265.30054 267.99332 270.37738 272.33392 274.44318 276.57980 278.40543 280.01303
 281.43329 282.76434 284.07010 285.42407 286.60373 287.64673 288.60300 289.47321
 290.25830 290.96591 291.58398 292.41040
 366.78100 356.34449 345.78599 334.66148 323.07398 311.27747 299.15697 286.96946
 274.69096 262.59745 250.61594 239.92644 230.05793 221.17143 213.36292 206.37442
 200.21791 195.16540 191.75690 189.80839 188.85489 188.92838 189.77288 191.09037
 192.82487 194.92936 197.20185 199.57035 202.02484 204.51434 206.61183 208.46333
 210.09882 211.25331 211.49181 211.72930 211.67580 211.39029 211.03279 210.67228
 210.29878 210.01827 209.83576 209.70926 209.64675 209.98725 210.38274 210.78124
 211.58373 212.77122 214.03072 215.82321 217.76071 219.81320 221.91770 224.01019
 226.07968 228.17318 230.27967 232.39517 234.53366 236.71516 238.98065 241.36015
 243.99064 246.25113 248.26263 250.03712 251.46362 252.59611 253.42761 253.75310
 253.79960 253.58309 252.95258 251.91008 250.52557 248.69607 246.61456 244.45706
 242.25755 240.07104 237.90054 235.74903 233.61853 231.49502 229.53052 227.69701
 225.98950 224.47100 223.11049 221.89199 220.78348 219.75298 218.86647 218.01697
 217.26846 216.45795 215.56545 214.93894 214.39844 213.75186 212.22426 211.81073
 211.75578 211.80141 212.52060 214.64754 217.88406 222.59361 228.64531 233.44142
 237.19600 241.15355 245.46275 249.94391 254.21767 257.93610 260.64624 262.64069
 265.22476 267.91693 270.29959 272.26569 274.38104 276.52298 278.37289 279.99963
 281.41144 282.73132 284.03046 285.38416 286.56244 287.60641 288.56311 289.43268
 290.21906 290.92368 291.54492 292.37674
 366.78100 356.34507 345.78714 334.66322 323.07629 311.28036 299.16043 286.97350
 274.69557 262.60265 250.62172 239.93279 230.06486 221.17893 213.37100 206.38308
 200.22715 195.17522 191.76729 189.81936 188.86644 188.94051 189.78558 191.10365
 192.83872 194.94379 197.21687 199.58594 202.04101 204.53108 206.62915 208.48122
 210.11730 211.27237 211.51144 211.74951 211.69658 211.41166 211.05473 210.69480
 210.32187 210.04194 209.86001 209.73409 209.67216 210.01323 210.40930 210.80837
 211.61144 212.79952 214.05959 215.85266 217.79073 219.84380 221.94888 224.04195
 226.11202 228.20609 230.31316 232.42923 234.56831 236.75038 239.01645 241.39652
 244.02759 246.28866 248.30074 250.07581 251.50288 252.63595 253.46802 253.79410
 253.84117 253.62524 252.99531 251.95338 250.56945 248.74053 246.65960 244.50267
 242.30374 240.11781 237.94788 235.79696 233.66703 231.54410 229.58017 227.74724
 226.04032 224.52239 223.16246 221.94453 220.83660 219.80667 218.92075 218.07182
 217.32389 216.51396 215.62203 214.99610 214.45618 213.80293 212.25955 211.87259
 211.82491 211.86787 212.57697 214.66974 217.87326 222.55423 228.59106 233.36821
 237.11273 241.06929 245.38445 249.88245 254.17628 257.85938 260.53992 262.55655
 265.15073 267.84039 270.21960 272.19833 274.31985 276.46872 278.33997 279.98239
 281.38675 282.69745 283.99222 285.34525 286.52377 287.56863 288.52310 289.39365
 290.18027 290.88507 291.50647 292.33859
 366.78100 356.34581 345.78862 334.66543 323.07924 311.28405 299.16486 286.97867
 274.70148 262.60929 250.62910 239.94091 230.07372 221.18853 213.38134 206.39415
 200.23896 195.18777 191.78058 189.83339 188.88120 188.95601 189.80182 191.12063
 192.85644 194.96225 197.23606 199.60587 202.06168 204.55249 206.65130 208.50410
 210.14091 211.29672 211.53653 211.77534 211.72315 211.43896 211.08277 210.72358
 210.35139 210.07220 209.89101 209.76582 209.70463 210.04644 210.44325 210.84306
 211.64687 212.83568 214.09649 215.89030 217.82911 219.88292 221.98873 224.08254
 226.15335 228.24816 230.35597 232.47278 234.61259 236.79540 239.06221 241.44302
 244.07483 246.33664 248.34945 250.12526 251.55307 252.68688 253.51969 253.84650
 253.89431 253.67912 253.04993 252.00874 250.62555 248.79736 246.71717 244.56098
 242.36279 240.17760 238.00841 235.85822 233.72903 231.60684 229.64365 227.81146
 226.10527 224.58808 223.22889 222.01170 220.90450 219.87531 218.99012 218.14193
 217.39474 216.58555 215.69436 215.06917 214.52998 213.86134 212.28160 211.93394
 211.90411 211.93135 212.64334 214.70143 217.85275 222.51385 228.54280 233.29620
 237.02513 240.98048 245.30501 249.82277 254.13342 257.77518 260.42697 262.47031
 265.07971 267.76544 270.13770 272.12958 274.26083 276.41586 278.30499 279.96063
 281.36072 282.66718 283.95761 285.30969 286.48859 287.53168 288.48907 289.35751
 290.14386 290.84753 291.47031 292.29950
 366.78100 356.34658 345.79016 334.66774 323.08232 311.28790 299.16948 286.98406
 274.70764 262.61622 250.63680 239.94938 230.08296 221.19854 213.39212 206.40570
 200.25128 195.20086 191.79444 189.84802 188.89661 188.97219 189.81877 191.13835
 192.87493 194.98151 197.25609 199.62667 202.08325 204.57483 206.67441 208.52799
 210.16557 211.32215 211.56273 211.80231 211.75089 211.46747 211.11205 210.75363
 210.38221 210.10379 209.92337 209.79895 209.73853 210.08111 210.47869 210.87927
 211.68385 212.87343 214.13501 215.92959 217.86917 219.92375 222.03033 224.12491
 226.19649 228.29207 230.40065 232.51823 234.65882 236.84240 239.10998 241.49156
 244.12414 246.38672 248.40030 250.17688 251.60546 252.74004 253.57362 253.90120
 253.94978 253.73536 253.10694 252.06652 250.68410 248.85668 246.77726 244.62184
 242.42442 240.24000 238.07158 235.92216 233.79374 231.67232 229.70990 227.87848
 226.17306 224.65664 223.29822 222.08180 220.97538 219.94696 219.06254 218.21512
 217.46870 216.66028 215.76986 215.14544 214.60703 213.92065 212.29901 211.98573
 211.99542 212.00285 212.69572 214.73636 217.85458 222.47418 228.48807 233.21883
 236.93700 240.89288 245.22937 249.76776 254.09203 257.68661 260.30746 262.38135
 265.01001 267.68848 270.05096 272.05685 274.20084 276.36264 278.26666 279.93457
 281.33154 282.63516 283.92462 285.27658 286.45450 287.49915 288.45462 289.32449
 290.11005 290.81656 291.43747 292.26596
 366.78100 356.34731 345.79162 334.66993 323.08524 311.29155 299.17385 286.98916
 274.71347 262.62278 250.64409 239.95740 230.09171 221.20802 213.40233 206.41664
 200.26294 195.21325 191.80756 189.86187 188.91118 188.98749 189.83480 191.15511
 192.89242 194.99973 197.27503 199.64634 202.10365 204.59596 206.69627 208.55058
 210.18889 211.34620 211.58751 211.82782 211.77712 211.49443 211.13974 210.78205
 210.41136 210.13367 209.95398 209.83029 209.77060 210.11391 210.51221 210.91352
 211.71883 212.90914 214.17145 215.96676 217.90707 219.96238 222.06969 224.16500
 226.23730 228.33361 230.44292 232.56123 234.70254 236.88685 239.15516 241.53747
 244.17078 246.43409 248.44839 250.22570 251.65501 252.79032 253.62463 253.95294
 254.00225 253.78856 253.16087 252.12118 250.73948 248.91279 246.83410 244.67941
 242.48272 240.29903 238.13134 235.98265 233.85496 231.73427 229.77257 227.94188
 226.23719 224.72150 223.36381 222.14812 221.04243 220.01474 219.13105 218.28436
 217.53867 216.73097 215.84128 215.21759 214.67990 213.97607 212.31319 212.04280
 212.06606 212.07794 212.77463 214.77052 217.84343 222.43272 228.44415 233.15108
 236.85480 240.80902 245.15625 249.71516 254.04756 257.58868 260.17474 262.28662
 264.93912 267.60919 269.96042 271.98386 274.14114 276.31168 278.22787 279.90491
 281.30200 282.60565 283.89420 285.24680 286.42282 287.46909 288.42227 289.29227
 290.07990 290.78372 291.40558 292.23636
 366.78100 356.34803 345.79307 334.67210 323.08814 311.29517 299.17820 286.99424
 274.71927 262.62930 250.65134 239.96537 230.10041 221.21744 213.41247 206.42751
 200.27454 195.22557 191.82061 189.87564 188.92568 189.00271 189.85074 191.17178
 192.90981 195.01785 197.29388 199.66591 202.12395 204.61698 206.71801 208.57305
 210.21208 211.37012 211.61215 211.85318 211.80322 211.52125 211.16728 210.81032
 210.44035 210.16339 209.98442 209.86145 209.80249 210.14652 210.54555 210.94759
 211.75362 212.94466 214.20769 216.00372 217.94476 220.00079 222.10883 224.20486
 226.27789 228.37493 230.48496 232.60399 234.74603 236.93106 239.20010 241.58313
 244.21716 246.48120 248.49623 250.27426 251.70430 252.84033 253.67537 254.00440
 254.05443 253.84147 253.21450 252.17554 250.79457 248.96860 246.89064 244.73667
 242.54070 240.35774 238.19077 236.04281 233.91584 231.79587 229.83491 228.00494
 226.30097 224.78601 223.42904 222.21408 221.10911 220.08214 219.19918 218.35321
 217.60825 216.80128 215.91231 215.28935 214.75238 214.03058 212.32526 212.08047
 212.17317 212.13158 212.83435 214.84120 217.86076 222.39825 228.39189 233.06984
 236.76422 240.71997 245.08244 249.66301 253.99977 257.48236 260.03525 262.19144
 264.87100 267.53165 269.86911 271.91055 274.08316 276.26181 278.18759 279.87427
 281.27286 282.57864 283.86694 285.21796 286.39606 287.43896 288.39584 289.26343
 290.04834 290.75488 291.37668 292.20612
 366.78100 356.34829 345.79358 334.67288 323.08917 311.29646 299.17975 286.99604
 274.72133 262.63163 250.65392 239.96821 230.10350 221.22079 213.41609 206.43138
 200.27867 195.22996 191.82525 189.88054 188.93084 189.00813 189.85642 191.17771
 192.91600 195.02430 197.30059 199.67288 202.13117 204.62446 206.72575 208.58105
 210.22034 211.37863 211.62092 211.86221 211.81251 211.53080 211.17709 210.82038
 210.45067 210.17397 209.99526 209.87255 209.81384 210.15813 210.55742 210.95972
 211.76601 212.95730 214.22059 216.01688 217.95818 220.01447 222.12276 224.21905
 226.29234 228.38963 230.49993 232.61922 234.76151 236.94680 239.21609 241.59939
 244.23368 246.49797 248.51326 250.29155 251.72184 252.85814 253.69343 254.02272
 254.07301 253.86030 253.23360 252.19489 250.81418 248.98847 246.91076 244.75705
 242.56135 240.37864 238.21193 236.06422 233.93751 231.81781 229.85710 228.02739
 226.32368 224.80897 223.45226 222.23756 221.13285 220.10614 219.22343 218.37772
 217.63302 216.82631 215.93760 215.31489 214.77818 214.06078 212.36581 212.08679
 212.24081 212.29982 212.90224 214.85593 217.88577 222.33755 228.33496 232.98796
 236.67107 240.63199 245.01300 249.61557 253.95340 257.37518 259.89566 262.09894
 264.80475 267.45306 269.77502 271.83487 274.02332 276.21094 278.14328 279.83636
 281.23831 282.54980 283.84006 285.19284 286.37045 287.41425 288.36972 289.23807
 290.02435 290.73050 291.34967 292.18015
 366.78100 356.34840 345.79380 334.67319 323.08959 311.29699 299.18039 286.99678
 274.72218 262.63258 250.65498 239.96937 230.10477 221.22217 213.41757 206.43296
 200.28036 195.23176 191.82716 189.88255 188.93295 189.01035 189.85875 191.18014
 192.91854 195.02694 197.30334 199.67573 202.13413 204.62753 206.72893 208.58432
 210.22372 211.38212 211.62452 211.86592 211.81631 211.53471 211.18111 210.82451
 210.45490 210.17830 209.99970 209.87710 209.81849 210.16289 210.56229 210.96469
 211.77108 212.96248 214.22588 216.02228 217.96367 220.02007 222.12847 224.22487
 226.29826 228.39566 230.50606 232.62546 234.76785 236.95325 239.22265 241.60605
 244.24044 246.50484 248.52024 250.29864 251.72903 252.86543 253.70083 254.03023
 254.08063 253.86802 253.24142 252.20282 250.82222 248.99661 246.91901 244.76541
 242.56981 240.38720 238.22060 236.07300 233.94640 231.82679 229.86619 228.03659
 226.33299 224.81838 223.46178 222.24718 221.14258 220.11597 219.23337 218.38777
 217.64317 216.83656 215.94796 215.32536 214.78876 214.08089 212.40848 212.10330
 212.30272 212.44568 212.95863 214.86469 217.91748 222.29019 228.28902 232.91843
 236.58592 240.54971 244.94865 249.57211 253.90619 257.26364 259.74963 262.00317
 264.73621 267.37109 269.67651 271.75647 273.96448 276.16058 278.09930 279.79919
 281.20816 282.52661 283.81848 285.16882 286.34714 287.38971 288.34613 289.21323
 289.99942 290.70386 291.32648 292.15417
 366.78100 356.34861 345.79421 334.67382 323.09042 311.29803 299.18164 286.99824
 274.72385 262.63446 250.65706 239.97167 230.10727 221.22488 213.42049 206.43609
 200.28370 195.23530 191.83091 189.88652 188.93712 189.01473 189.86334 191.18494
 192.92355 195.03215 197.30876 199.68137 202.13997 204.63358 206.73518 208.59079
 210.23040 211.38900 211.63161 211.87322 211.82382 211.54243 211.18903 210.83264
 210.46325 210.18685 210.00846 209.88606 209.82767 210.17228 210.57188 210.97449
 211.78110 212.97270 214.23631 216.03291 217.97452 220.03113 222.13973 224.23634
 226.30995 228.40755 230.51816 232.63776 234.78037 236.96598 239.23558 241.61919
 244.25379 246.51840 248.53401 250.31261 251.74322 252.87983 253.71543 254.04504
 254.09564 253.88325 253.25686 252.21846 250.83807 249.01267 246.93528 244.78189
 242.58649 240.40410 238.23771 236.09031 233.96392 231.84452 229.88413 228.05474
 226.35134 224.83695 223.48055 222.26616 221.16177 220.13537 219.25298 218.40759
 217.66319 216.85680 215.96840 215.34601 214.80962 214.10359 212.43553 212.13893
 212.37215 212.55798 213.01764 214.89415 217.95375 222.25528 228.24376 232.85286
 236.50114 240.46635 244.88422 249.52753 253.85187 257.13965 259.59598 261.90576
 264.66650 267.28784 269.58038 271.68301 273.90997 276.11621 278.05930 279.76239
 281.17529 282.49890 283.79761 285.14984 286.32718 287.37149 288.32571 289.19382
 289.97852 290.68475 291.30539 292.13470
 366.78100 356.34886 345.79471 334.67457 323.09142 311.29928 299.18313 286.99999
 274.72585 262.63670 250.65956 239.97441 230.11027 221.22813 213.42398 206.43984
 200.28769 195.23955 191.83540 189.89126 188.94212 189.01997 189.86883 191.19068
 192.92954 195.03839 197.31525 199.68811 202.14696 204.64082 206.74267 208.59853
 210.23839 211.39724 211.64010 211.88195 211.83281 211.55166 211.19852 210.84238
 210.47323 210.19709 210.01894 209.89680 209.83865 210.18351 210.58337 210.98622
 211.79308 212.98493 214.24879 216.04565 217.98750 220.04436 222.15321 224.25007
 226.32392 228.42178 230.53264 232.65249 234.79535 236.98120 239.25106 241.63492
 244.26977 246.53463 248.55048 250.32934 251.76019 252.89705 253.73291 254.06276
 254.11362 253.90147 253.27533 252.23718 250.85704 249.03190 246.95475 244.80161
 242.60646 240.42432 238.25818 236.11103 233.98489 231.86574 229.90560 228.07645
 226.37331 224.85917 223.50302 222.28888 221.18473 220.15859 219.27644 218.43130
 217.68716 216.88101 215.99287 215.37072 214.83458 214.12517 212.44913 212.19427
 212.44034 212.63937 213.08672 214.94676 217.97771 222.22258 228.19644 232.78281
 236.41394 240.38208 244.82141 249.48430 253.79628 257.01309 259.44293 261.81232
 264.59894 267.20633 269.48413 271.60999 273.85779 276.07193 278.01898 279.72449
 281.14447 282.47522 283.77887 285.13040 286.30719 287.35089 288.30508 289.17300
 289.95807 290.66208 291.28433 292.11200
 366.78100 356.34937 345.79574 334.67612 323.09349 311.30186 299.18623 287.00361
 274.72998 262.64135 250.66472 239.98010 230.11647 221.23484 213.43121 206.44758
 200.29596 195.24833 191.84470 189.90107 188.95245 189.03082 189.88019 191.20256
 192.94194 195.05131 197.32868 199.70205 202.16142 204.65580 206.75817 208.61454
 210.25491 211.41429 211.65766 211.90003 211.85140 211.57078 211.21815 210.86252
 210.49389 210.21826 210.04064 209.91901 209.86138 210.20675 210.60713 211.01050
 211.81787 213.01024 214.27462 216.07199 218.01436 220.07173 222.18110 224.27848
 226.35285 228.45122 230.56259 232.68297 234.82634 237.01271 239.28308 241.66746
 244.30283 246.56820 248.58457 250.36394 251.79532 252.93269 253.76906 254.09943
 254.15081 253.93918 253.31355 252.27592 250.89630 249.07167 246.99504 244.84241
 242.64778 240.46616 238.30053 236.15390 234.02827 231.90965 229.95002 228.12139
 226.41876 224.90514 223.54951 222.33588 221.23225 220.20662 219.32500 218.48037
 217.73674 216.93111 216.04349 215.42186 214.88623 214.15883 212.44025 212.25578
 212.51932 212.71075 213.17171 215.01335 217.98233 222.18575 228.14792 232.70737
 236.32083 240.29616 244.75848 249.43976 253.73511 256.88425 259.29004 261.71902
 264.52832 267.11996 269.38815 271.53922 273.80835 276.03116 277.98251 279.69324
 281.12024 282.45596 283.76138 285.11176 286.28751 287.33090 288.28571 289.15250
 289.93713 290.64294 291.26068 292.09430
 366.78100 356.35008 345.79716 334.67824 323.09631 311.30539 299.19047 287.00855
 274.73563 262.64771 250.67178 239.98786 230.12494 221.24402 213.44110 206.45818
 200.30726 195.26033 191.85741 189.91449 188.96657 189.04565 189.89573 191.21881
 192.95888 195.06896 197.34704 199.72112 202.18120 204.67628 206.77935 208.63643
 210.27751 211.43759 211.68167 211.92475 211.87683 211.59690 211.24498 210.89006
 210.52214 210.24722 210.07030 209.94937 209.89245 210.23853 210.63961 211.04369
 211.85177 213.04485 214.30992 216.10800 218.05108 220.10916 222.21924 224.31732
 226.39239 228.49147 230.60355 232.72463 234.86871 237.05579 239.32687 241.71194
 244.34802 246.61410 248.63118 250.41126 251.84334 252.98142 253.81849 254.14957
 254.20165 253.99073 253.36581 252.32889 250.94996 249.12604 247.05012 244.89820
 242.70428 240.52336 238.35844 236.21251 234.08759 231.96967 230.01075 228.18283
 226.48091 224.96798 223.61306 222.40014 221.29722 220.27230 219.39138 218.54746
 217.80453 216.99961 216.11269 215.49177 214.95685 214.20273 212.42101 212.30785
 212.60207 212.77916 213.27423 215.09094 217.98709 222.15073 228.10120 232.63130
 236.22891 240.21448 244.69945 249.39594 253.66566 256.75040 259.14456 261.63412
 264.46121 267.04297 269.30554 271.47873 273.76453 275.99463 277.94745 279.65445
 281.08401 282.42798 283.74542 285.09909 286.27689 287.31943 288.27347 289.14246
 289.92575 290.63062 291.25204 292.07883
 366.78100 356.35054 345.79809 334.67963 323.09817 311.30772 299.19326 287.01180
 274.73935 262.65189 250.67644 239.99298 230.13052 221.25007 213.44761 206.46515
 200.31470 195.26824 191.86578 189.92333 188.97587 189.05541 189.90596 191.22950
 192.97005 195.08059 197.35913 199.73368 202.19422 204.68976 206.79331 208.65085
 210.29239 211.45294 211.69748 211.94102 211.89357 211.61411 211.26266 210.90820
 210.54074 210.26629 210.08983 209.96937 209.91292 210.25946 210.66100 211.06555
 211.87409 213.06763 214.33318 216.13172 218.07527 220.13381 222.24435 224.34290
 226.41844 228.51798 230.63053 232.75207 234.89661 237.08416 239.35570 241.74124
 244.37779 246.64433 248.66188 250.44242 251.87496 253.01351 253.85105 254.18259
 254.23514 254.02468 253.40022 252.36377 250.98531 249.16185 247.08640 244.93494
 242.74149 240.56103 238.39657 236.25112 234.12666 232.00920 230.05075 228.22329
 226.52183 225.00938 223.65492 222.44246 221.34001 220.31555 219.43510 218.59164
 217.84918 217.04473 216.15827 215.53781 215.00336 214.23271 212.41197 212.37238
 212.68596 212.82555 213.35573 215.15862 217.99103 222.11787 228.05365 232.55606
 236.14534 240.14079 244.64838 249.35887 253.60857 256.63947 259.01700 261.55457
 264.39557 266.96002 269.21518 271.41907 273.72433 275.95975 277.91458 279.62881
 281.06891 282.41721 283.72812 285.07733 286.25214 287.29709 288.24939 289.11838
 289.90051 290.60635 291.22540 292.05292
 366.78100 356.35083 345.79865 334.68048 323.09930 311.30913 299.19496 287.01378
 274.74161 262.65444 250.67926 239.99609 230.13391 221.25374 213.45157 206.46939
 200.31922 195.27304 191.87087 189.92870 188.98152 189.06135 189.91218 191.23600
 192.97683 195.08765 197.36648 199.74131 202.20213 204.69796 206.80178 208.65961
 210.30144 211.46226 211.70709 211.95092 211.90374 211.62457 211.27339 210.91922
 210.55205 210.27787 210.10170 209.98152 209.92535 210.27218 210.67400 211.07883
 211.88766 213.08148 214.34731 216.14613 218.08996 220.14879 222.25961 224.35844
 226.43427 228.53409 230.64692 232.76874 234.91357 237.10140 239.37322 241.75905
 244.39587 246.66270 248.68053 250.46135 251.89418 253.03301 253.87083 254.20266
 254.25548 254.04531 253.42114 252.38496 251.00679 249.18361 247.10844 244.95727
 242.76409 240.58392 238.41975 236.27457 234.15040 232.03322 230.07505 228.24788
 226.54670 225.03453 223.68035 222.46818 221.36601 220.34183 219.46166 218.61849
 217.87631 217.07214 216.18596 215.56579 215.03162 214.25117 212.40730 212.43324
 212.78513 212.89005 213.44429 215.21732 217.98999 222.07649 227.99258 232.46669
 236.04672 240.05669 244.58873 249.30649 253.51353 256.47870 258.85431 261.47214
 264.31473 266.87173 269.13348 271.35913 273.68213 275.92633 277.87921 279.58151
 281.01611 282.37485 283.71906 285.07623 286.25351 287.29910 288.25162 289.11786
 289.90125 290.60150 291.22116 292.03851
 366.78100 356.35053 345.79805 334.67958 323.09810 311.30763 299.19315 287.01168
 274.73920 262.65173 250.67626 239.99278 230.13031 221.24983 213.44736 206.46488
 200.31441 195.26793 191.86546 189.92299 188.97551 189.05504 189.90556 191.22909
 192.96961 195.08014 197.35866 199.73319 202.19372 204.68924 206.79277 208.65029
 210.29182 211.45234 211.69687 211.94039 211.89292 211.61345 211.26197 210.90750
 210.54002 210.26555 210.08907 209.96860 209.91212 210.25865 210.66018 211.06470
 211.87323 213.06675 214.33228 216.13080 218.07433 220.13285 222.24338 224.34191
 226.41743 228.51696 230.62948 232.75101 234.89553 237.08306 239.35458 241.74011
 244.37664 246.64316 248.66069 250.44121 251.87374 253.01226 253.84979 254.18132
 254.23384 254.02337 253.39889 252.36242 250.98394 249.16047 247.08499 244.93352
 242.74005 240.55957 238.39510 236.24962 234.12515 232.00767 230.04920 228.22172
 226.52025 225.00778 223.65330 222.44083 221.33835 220.31388 219.43340 218.58993
 217.84745 217.04298 216.15651 215.53603 215.00156 214.23698 212.43060 212.50954
 212.87709 212.92570 213.52086 215.29288 218.01573 222.06714 227.93706 232.39507
 235.97931 239.99777 244.54681 249.26895 253.45920 256.36792 258.74084 261.33438
 264.20044 266.74484 268.99988 271.27039 273.61957 275.85684 277.80170 279.51440
 280.97775 282.36334 283.70554 285.04922 286.21832 287.26212 288.21432 289.08005
 289.86307 290.56430 291.19012 292.01352
 366.78100 356.34891 345.79482 334.67472 323.09163 311.29954 299.18345 287.00036
 274.72626 262.63717 250.66008 239.97499 230.11090 221.22880 213.42471 206.44062
 200.28853 195.24044 191.83634 189.89225 188.94316 189.02107 189.86998 191.19188
 192.93079 195.03970 197.31661 199.68952 202.14842 204.64233 206.74424 208.60015
 210.24006 211.39896 211.64187 211.88378 211.83469 211.55360 211.20050 210.84441
 210.47532 210.19923 210.02114 209.89904 209.84095 210.18586 210.58577 210.98868
 211.79558 212.98749 214.25140 216.04831 217.99021 220.04712 222.15603 224.25294
 226.32685 228.42475 230.53566 232.65557 234.79848 236.98439 239.25429 241.63820
 244.27311 246.53802 248.55393 250.33283 251.76374 252.90065 253.73656 254.06647
 254.11737 253.90528 253.27919 252.24110 250.86101 249.03591 246.95882 244.80573
 242.61064 240.42855 238.26245 236.11536 233.98927 231.87018 229.91009 228.08099
 226.37790 224.86381 223.50772 222.29363 221.18953 220.16344 219.28135 218.43626
 217.69217 216.88607 215.99798 215.37589 214.83980 214.15614 212.55441 212.60538
 212.90773 212.92033 213.54509 215.30772 218.03882 222.06644 227.82236 232.34946
 235.90593 239.96814 244.51758 249.20377 253.33511 256.29236 258.65411 261.46255
 264.23758 266.76001 269.03558 271.27090 273.57602 275.77484 277.70023 279.37784
 280.83456 282.20724 283.60992 284.94986 286.11197 287.14682 288.09473 288.95203
 289.70001 290.28561 290.74399 291.32816
 366.78100 356.34689 345.79078 334.66866 323.08355 311.28944 299.17133 286.98621
 274.71010 262.61899 250.63988 239.95276 230.08665 221.20254 213.39643 206.41031
 200.25620 195.20609 191.79998 189.85386 188.90275 188.97864 189.82553 191.14541
 192.88230 194.98919 197.26408 199.63496 202.09185 204.58374 206.68363 208.53751
 210.17540 211.33229 211.57318 211.81306 211.76195 211.47884 211.12373 210.76561
 210.39450 210.11639 209.93628 209.81217 209.75205 210.09494 210.49283 210.89372
 211.69860 212.88849 214.15038 215.94527 217.88515 219.94004 222.04693 224.14182
 226.21370 228.30959 230.41848 232.53637 234.67725 236.86114 239.12903 241.51092
 244.14380 246.40669 248.42058 250.19747 251.62635 252.76124 253.59513 253.92302
 253.97190 253.75779 253.12968 252.08957 250.70745 248.88034 246.80123 244.64612
 242.44901 240.26489 238.09678 235.94767 233.81956 231.69844 229.73633 227.90522
 226.20011 224.68399 223.32588 222.10977 221.00366 219.97554 219.09143 218.24432
 217.49821 216.69009 215.79998 215.17587 214.63776 214.05249 212.69957 212.69475
 212.92752 212.85934 213.52237 215.28787 218.01729 222.05043 227.71091 232.27116
 235.81981 239.92465 244.48804 249.14619 253.20210 256.17398 258.70691 261.57452
 264.33694 266.81918 269.09344 271.32336 273.57672 275.70969 277.60007 279.24567
 280.65863 282.09399 283.53867 284.87579 286.04675 287.08130 288.01895 288.84760
 289.52942 290.12296 290.64148 291.30225
 366.78100 356.34710 345.79120 334.66929 323.08439 311.29049 299.17259 286.98769
 274.71178 262.62088 250.64198 239.95508 230.08918 221.20527 213.39937 206.41347
 200.25957 195.20967 191.80376 189.85786 188.90696 188.98306 189.83016 191.15025
 192.88735 194.99445 197.26955 199.64065 202.09774 204.58984 206.68994 208.54404
 210.18214 211.33923 211.58033 211.82043 211.76953 211.48663 211.13172 210.77382
 210.40292 210.12502 209.94512 209.82121 209.76131 210.10441 210.50251 210.90361
 211.70870 212.89880 214.16090 215.95600 217.89610 219.95119 222.05829 224.15339
 226.22549 228.32158 230.43068 232.54878 234.68988 236.87398 239.14207 241.52417
 244.15727 246.42037 248.43447 250.21156 251.64066 252.77576 253.60986 253.93796
 253.98705 253.77315 253.14525 252.10535 250.72345 248.89654 246.81764 244.66274
 242.46584 240.28194 238.11403 235.96513 233.83723 231.71633 229.75443 227.92352
 226.21862 224.70272 223.34482 222.12892 221.02301 219.99511 219.11121 218.26431
 217.51841 216.71050 215.82060 215.19670 214.65880 214.05138 212.63934 212.85522
 213.12814 212.91339 213.48354 215.24712 217.94951 221.95894 227.65201 232.15463
 235.73376 239.85085 244.44315 249.11955 253.19345 256.16589 258.70541 261.56348
 264.33694 266.81122 269.08054 271.33127 273.60068 275.75806 277.64374 279.27972
 280.73978 282.16647 283.61700 284.97736 286.16049 287.20578 288.16205 289.03046
 289.82401 290.57419 291.22952 292.06470
 366.78100 356.34815 345.79331 334.67246 323.08862 311.29577 299.17892 286.99508
 274.72023 262.63039 250.65254 239.96669 230.10185 221.21900 213.41416 206.42931
 200.27646 195.22762 191.82277 189.87793 188.92808 189.00523 189.85339 191.17454
 192.91270 195.02085 197.29701 199.66916 202.12731 204.62047 206.72162 208.57678
 210.21593 211.37408 211.61624 211.85739 211.80755 211.52570 211.17185 210.81501
 210.44516 210.16832 209.98947 209.86662 209.80778 210.15193 210.55109 210.95324
 211.75939 212.95055 214.21370 216.00986 217.95101 220.00716 222.11532 224.21147
 226.28463 228.38178 230.49193 232.61109 234.75324 236.93840 239.20755 241.59070
 244.22486 246.48901 248.50417 250.28232 251.71247 252.84863 253.68378 254.01294
 254.06309 253.85025 253.22340 252.18455 250.80371 248.97786 246.90002 244.74617
 242.55032 240.36748 238.20063 236.05279 233.92594 231.80609 229.84525 228.01540
 226.31156 224.79671 223.43986 222.22502 221.12017 220.09333 219.21048 218.36463
 217.61979 216.81294 215.92410 215.30125 214.76440 214.08844 212.49141 213.07359
 213.42903 213.03880 213.52625 215.17726 217.79840 221.84718 227.59837 231.99881
 235.61867 239.74640 244.38129 249.07448 253.12227 255.99780 258.51849 261.38824
 264.18600 266.68307 268.96982 271.25760 273.58160 275.79001 277.67572 279.32724
 280.79501 282.23297 283.67499 285.04269 286.22736 287.27615 288.23477 289.10791
 289.90125 290.61282 291.24005 292.05270
 366.78100 356.34951 345.79603 334.67654 323.09406 311.30257 299.18709 287.00460
 274.73111 262.64263 250.66614 239.98166 230.11817 221.23668 213.43320 206.44971
 200.29823 195.25074 191.84726 189.90377 188.95528 189.03380 189.88331 191.20583
 192.94534 195.05486 197.33237 199.70588 202.16540 204.65991 206.76243 208.61894
 210.25945 211.41897 211.66248 211.90500 211.85651 211.57603 211.22354 210.86805
 210.49957 210.22408 210.04660 209.92511 209.86763 210.21314 210.61365 211.01717
 211.82468 213.01720 214.28171 216.07922 218.02174 220.07925 222.18877 224.28628
 226.36080 228.45931 230.57082 232.69134 234.83485 237.02137 239.29188 241.67640
 244.31191 246.57742 248.59394 250.37345 251.80497 252.94248 253.77899 254.10951
 254.16102 253.94954 253.32405 252.28657 250.90708 249.08259 247.00611 244.85362
 242.65914 240.47765 238.31217 236.16568 234.04019 231.92171 229.96222 228.13374
 226.43125 224.91776 223.56228 222.34879 221.24531 220.21982 219.33834 218.49385
 217.75036 216.94488 216.05739 215.43591 214.90042 214.15427 212.39140 213.07922
 213.83456 213.25262 213.48337 215.14319 217.76050 221.83012 227.51097 231.86790
 235.51567 239.66652 244.33046 249.00612 252.96623 255.76694 258.30450 261.17337
 263.96655 266.48682 268.82178 271.15314 273.52954 275.75656 277.64496 279.31686
 280.80368 282.24741 283.69583 285.05600 286.23734 287.28192 288.23828 289.11142
 289.90784 290.62097 291.24142 292.04230
 366.78100 356.35000 345.79700 334.67800 323.09600 311.30500 299.19000 287.00801
 274.73501 262.64701 250.67101 239.98701 230.12401 221.24301 213.44001 206.45701
 200.30601 195.25901 191.85601 189.91302 188.96502 189.04402 189.89402 191.21702
 192.95702 195.06702 197.34502 199.71902 202.17902 204.67402 206.77702 208.63403
 210.27503 211.43503 211.67903 211.92203 211.87403 211.59403 211.24203 210.88703
 210.51903 210.24403 210.06703 209.94604 209.88904 210.23504 210.63604 211.04004
 211.84804 213.04104 214.30604 216.10404 218.04704 220.10504 222.21504 224.31304
 226.38805 228.48705 230.59905 232.72005 234.86405 237.05105 239.32205 241.70705
 244.34305 246.60905 248.62605 250.40605 251.83806 252.97606 253.81306 254.14406
 254.19606 253.98506 253.36006 252.32306 250.94406 249.12006 247.04406 244.89206
 242.69807 240.51707 238.35207 236.20607 234.08107 231.96307 230.00407 228.17607
 226.47407 224.96107 223.60607 222.39307 221.29007 220.26508 219.38408 218.54008
 217.79708 216.99208 216.10508 215.48408 214.94908 214.18739 212.38785 212.96057
 214.04095 213.50061 213.53046 215.20261 217.84138 221.75403 227.44687 231.79784
 235.44960 239.62242 244.29568 248.94162 252.83553 255.60275 258.15079 261.03381
 263.81750 266.34943 268.72202 271.08762 273.48737 275.70901 277.58856 279.26410
 280.77341 282.24567 283.70877 285.07138 286.24911 287.29361 288.24915 289.12274
 289.91940 290.63214 291.25311 292.04782
 366.78100 356.34971 345.79642 334.67713 323.09484 311.30355 299.18825 287.00596
 274.73267 262.64438 250.66809 239.98380 230.12051 221.23922 213.43593 206.45264
 200.30135 195.25405 191.85076 189.90747 188.95918 189.03789 189.88760 191.21031
 192.95002 195.05973 197.33744 199.71114 202.17085 204.66556 206.76827 208.62498
 210.26569 211.42540 211.66911 211.91182 211.86353 211.58324 211.23094 210.87565
 210.50736 210.23207 210.05478 209.93349 209.87620 210.22191 210.62262 211.02633
 211.83404 213.02674 214.29145 216.08916 218.03187 220.08958 222.19929 224.29700
 226.37171 228.47042 230.58213 232.70283 234.84654 237.03325 239.30396 241.68867
 244.32438 246.59009 248.60680 250.38651 251.81822 252.95593 253.79263 254.12334
 254.17505 253.96376 253.33847 252.30118 250.92189 249.09760 247.02131 244.86902
 242.67473 240.49343 238.32814 236.18185 234.05656 231.93827 229.97898 228.15069
 226.44840 224.93511 223.57982 222.36653 221.26323 220.23794 219.35665 218.51236
 217.76907 216.96378 216.07649 215.45520 214.91991 214.18213 212.43903 212.92987
 214.06551 213.61859 213.60779 215.29453 217.92931 221.68338 227.39949 231.77306
 235.40865 239.60210 244.27393 248.89429 252.74088 255.47861 258.04233 260.92319
 263.68719 266.22842 268.64584 271.03613 273.44510 275.66061 277.53177 279.21451
 280.74677 282.23337 283.69595 285.04147 286.21646 287.25845 288.21432 289.08890
 289.88608 290.59802 291.22009 292.01614
 366.78100 356.34900 345.79500 334.67501 323.09201 311.30001 299.18401 287.00101
 274.72702 262.63802 250.66102 239.97602 230.11202 221.23003 213.42603 206.44203
 200.29003 195.24203 191.83804 189.89404 188.94504 189.02304 189.87204 191.19405
 192.93305 195.04205 197.31905 199.69205 202.15106 204.64506 206.74706 208.60306
 210.24306 211.40207 211.64507 211.88707 211.83807 211.55707 211.20408 210.84808
 210.47908 210.20308 210.02508 209.90308 209.84509 210.19009 210.59009 210.99309
 211.80009 212.99210 214.25610 216.05310 217.99510 220.05210 222.16111 224.25811
 226.33211 228.43011 230.54111 232.66112 234.80412 236.99012 239.26012 241.64412
 244.27913 246.54413 248.56013 250.33913 251.77013 252.90714 253.74314 254.07314
 254.12414 253.91214 253.28615 252.24815 250.86815 249.04315 246.96615 244.81316
 242.61816 240.43616 238.27016 236.12316 233.99717 231.87817 229.91817 228.08917
 226.38617 224.87218 223.51618 222.30218 221.19818 220.17218 219.29019 218.44519
 217.70119 216.89519 216.00719 215.38520 214.84920 214.15395 212.51132 212.96635
 214.05396 213.66020 213.65938 215.34085 217.95306 221.61209 227.35822 231.73744
 235.36499 239.58276 244.26309 248.87578 252.69513 255.45993 258.00916 260.88443
 263.63257 266.18463 268.63327 271.03259 273.44244 275.66205 277.51624 279.18185
 280.71136 282.21451 283.68478 285.03870 286.21301 287.25305 288.20468 289.07422
 289.86566 290.57358 291.18900 291.97049
 366.78100 356.34872 345.79443 334.67415 323.09087 311.29859 299.18230 286.99902
 274.72474 262.63546 250.65817 239.97289 230.10861 221.22632 213.42204 206.43776
 200.28548 195.23719 191.83291 189.88863 188.93934 189.01706 189.86578 191.18750
 192.92621 195.03493 197.31165 199.68437 202.14308 204.63680 206.73852 208.59423
 210.23395 211.39267 211.63539 211.87710 211.82782 211.54654 211.19326 210.83697
 210.46769 210.19141 210.01312 209.89084 209.83256 210.17728 210.57699 210.97971
 211.78643 212.97814 214.24186 216.03858 217.98030 220.03701 222.14573 224.24245
 226.31617 228.41388 230.52460 232.64432 234.78703 236.97275 239.24247 241.62619
 244.26090 246.52562 248.54134 250.32006 251.75077 252.88749 253.72321 254.05292
 254.10364 253.89136 253.26508 252.22679 250.84651 249.02123 246.94395 244.79066
 242.59538 240.41310 238.24681 236.09953 233.97325 231.85397 229.89368 228.06440
 226.36112 224.84683 223.49055 222.27627 221.17199 220.14570 219.26342 218.41814
 217.67386 216.86757 215.97929 215.35701 214.82072 214.14661 212.55394 213.02022
 214.08130 213.71622 213.72748 215.38350 217.95834 221.53999 227.31004 231.65366
 235.30690 239.54440 244.23868 248.82974 252.60069 255.37367 257.94775 260.83963
 263.57687 266.14670 268.62747 271.02850 273.43887 275.64545 277.47568 279.13327
 280.66858 282.18964 283.67374 285.02908 286.19702 287.23367 288.18152 289.04752
 289.83200 290.53723 291.14615 291.89920
 366.78100 356.34896 345.79492 334.67488 323.09184 311.29981 299.18377 287.00073
 274.72669 262.63765 250.66061 239.97557 230.11153 221.22950 213.42546 206.44142
 200.28938 195.24134 191.83730 189.89326 188.94422 189.02219 189.87115 191.19311
 192.93207 195.04103 197.31799 199.69095 202.14991 204.64388 206.74584 208.60180
 210.24176 211.40072 211.64368 211.88564 211.83660 211.55557 211.20253 210.84649
 210.47745 210.20141 210.02337 209.90133 209.84329 210.18826 210.58822 210.99118
 211.79814 212.99010 214.25406 216.05102 217.99298 220.04995 222.15891 224.25587
 226.32983 228.42779 230.53875 232.65871 234.80167 236.98764 239.25760 241.64156
 244.27652 246.54148 248.55744 250.33640 251.76736 252.90433 253.74029 254.07025
 254.12121 253.90917 253.28313 252.24509 250.86505 249.04001 246.96298 244.80994
 242.61490 240.43286 238.26682 236.11978 233.99374 231.87470 229.91467 228.08563
 226.38259 224.86855 223.51251 222.29847 221.19443 220.16839 219.28636 218.44132
 217.69728 216.89124 216.00320 215.38116 214.84512 214.17062 212.57706 213.03473
 214.15585 213.80318 213.82254 215.45358 217.98645 221.49895 227.23248 231.56822
 235.24373 239.50623 244.20041 248.74471 252.45013 255.21660 257.84647 260.74606
 263.47025 266.05643 268.57385 270.98853 273.39346 275.57172 277.39438 279.06943
 280.63574 282.17670 283.66571 285.00677 286.15994 287.18436 288.12595 288.99005
 289.78036 290.48541 291.09256 291.81134
 366.78100 356.34925 345.79549 334.67574 323.09298 311.30123 299.18547 287.00272
 274.72897 262.64021 250.66346 239.97870 230.11495 221.23319 213.42944 206.44568
 200.29393 195.24618 191.84242 189.89867 188.94991 189.02816 189.87740 191.19965
 192.93890 195.04814 197.32539 199.69863 202.15788 204.65212 206.75437 208.61062
 210.25086 211.41011 211.65335 211.89560 211.84684 211.56609 211.21333 210.85758
 210.48883 210.21307 210.03532 209.91356 209.85581 210.20105 210.60130 211.00455
 211.81179 213.00404 214.26828 216.06553 218.00777 220.06502 222.17427 224.27151
 226.34576 228.44400 230.55525 232.67549 234.81874 237.00499 239.27523 241.65948
 244.29472 246.55997 248.57621 250.35546 251.78670 252.92395 253.76020 254.09044
 254.14169 253.92993 253.30418 252.26642 250.88667 249.06192 246.98516 244.83241
 242.63765 240.45590 238.29014 236.14339 234.01764 231.89888 229.93913 228.11037
 226.40762 224.89386 223.53811 222.32435 221.22060 220.19485 219.31309 218.46834
 217.72458 216.91883 216.03107 215.40932 214.87357 214.20047 212.61018 213.01222
 214.22775 213.91296 213.94009 215.53954 218.03300 221.47055 227.16048 231.49792
 235.18617 239.47035 244.16023 248.65816 252.29799 255.05956 257.73462 260.63437
 263.33994 265.93802 268.48474 270.91241 273.31537 275.46909 277.29272 278.97214
 280.58710 282.15408 283.63486 284.95825 286.10025 287.11826 288.05585 288.91565
 289.69958 290.39801 290.99371 291.68161
 366.78100 356.34960 345.79621 334.67681 323.09441 311.30302 299.18762 287.00522
 274.73183 262.64343 250.66703 239.98264 230.11924 221.23784 213.43445 206.45105
 200.29965 195.25226 191.84886 189.90546 188.95707 189.03567 189.88527 191.20788
 192.94748 195.05708 197.33469 199.70829 202.16789 204.66250 206.76510 208.62170
 210.26231 211.42191 211.66551 211.90812 211.85972 211.57932 211.22693 210.87153
 210.50313 210.22774 210.05034 209.92894 209.87155 210.21715 210.61775 211.02136
 211.82896 213.02156 214.28617 216.08377 218.02637 220.08398 222.19358 224.29118
 226.36579 228.46439 230.57599 232.69660 234.84020 237.02680 239.29741 241.68201
 244.31761 246.58322 248.59982 250.37942 251.81103 252.94863 253.78523 254.11584
 254.16744 253.95604 253.33065 252.29325 250.91385 249.08946 247.01306 244.86066
 242.66627 240.48487 238.31947 236.17308 234.04768 231.92928 229.96989 228.14149
 226.43909 224.92570 223.57030 222.35690 221.25351 220.22811 219.34671 218.50232
 217.75892 216.95352 216.06613 215.44473 214.90933 214.23575 212.64432 212.98621
 214.28583 214.00851 214.03175 215.63092 218.08459 221.45255 227.09712 231.43781
 235.13419 239.43759 244.11945 248.57635 252.16183 254.92561 257.63333 260.52850
 263.22107 265.83020 268.40457 270.84958 273.23660 275.36249 277.16998 278.91156
 280.51984 282.10223 283.57657 284.89035 286.02145 287.02548 287.94897 288.79736
 289.56644 290.25186 290.84137 291.50891
 366.78100 356.34896 345.79493 334.67489 323.09186 311.29982 299.18378 287.00075
 274.72671 262.63768 250.66064 239.97561 230.11157 221.22953 213.42550 206.44146
 200.28943 195.24139 191.83735 189.89332 188.94428 189.02225 189.87121 191.19318
 192.93214 195.04110 197.31807 199.69103 202.15000 204.64396 206.74592 208.60189
 210.24185 211.40082 211.64378 211.88574 211.83671 211.55567 211.20264 210.84660
 210.47757 210.20153 210.02349 209.90146 209.84342 210.18839 210.58835 210.99131
 211.79828 212.99024 214.25421 216.05117 217.99313 220.05010 222.15906 224.25603
 226.32999 228.42796 230.53892 232.65888 234.80185 236.98781 239.25778 241.64174
 244.27670 246.54167 248.55763 250.33660 251.76756 252.90453 253.74049 254.07045
 254.12142 253.90938 253.28335 252.24531 250.86527 249.04024 246.96320 244.81017
 242.61513 240.43309 238.26706 236.12002 233.99399 231.87495 229.91492 228.08588
 226.38284 224.86881 223.51277 222.29874 221.19470 220.16866 219.28663 218.44159
 217.69756 216.89152 216.00348 215.38145 214.84541 214.21651 212.73064 213.00580
 214.27397 214.05534 214.11450 215.71071 218.13037 221.43933 227.04671 231.39075
 235.09247 239.40256 244.07700 248.50214 252.04263 254.81729 257.55804 260.45172
 263.12534 265.75116 268.34821 270.77228 273.14957 275.23877 277.07162 278.70230
 280.44019 282.02426 283.49280 284.77698 285.89075 286.88809 287.80298 288.64713
 289.40982 290.06799 290.53461 291.04071
 366.78100 356.34539 345.78778 334.66418 323.07757 311.28196 299.16235 286.97574
 274.69813 262.60553 250.62492 239.93631 230.06870 221.18309 213.37548 206.38788
 200.23227 195.18066 191.77305 189.82544 188.87283 188.94723 189.79262 191.11101
 192.84640 194.95179 197.22519 199.59458 202.04997 204.54036 206.63875 208.49114
 210.12754 211.28293 211.52232 211.76071 211.70810 211.42349 211.06689 210.70728
 210.33467 210.05506 209.87345 209.74785 209.68624 210.02763 210.42402 210.82341
 211.62680 212.81520 214.07559 215.86898 217.80737 219.86076 221.96615 224.05955
 226.12994 228.22433 230.33172 232.44811 234.58750 236.76990 239.03629 241.41668
 244.04807 246.30946 248.32186 250.09725 251.52464 252.65803 253.49042 253.81681
 253.86421 253.64860 253.01899 251.97738 250.59377 248.76516 246.68456 244.52795
 242.32934 240.14373 237.97412 235.82351 233.69391 231.57130 229.60769 227.77508
 226.06847 224.55087 223.19126 221.97365 220.86604 219.83643 218.95082 218.10222
 217.35461 216.54500 215.65339 215.02778 214.48817 214.03827 212.97533 213.13898
 214.13153 213.90846 214.04317 215.69670 218.14403 221.45793 226.99263 231.41010
 235.09373 239.41119 244.06522 248.48055 252.05020 254.87302 257.61035 260.47168
 263.15405 265.77969 268.37170 270.81174 273.12015 275.16550 276.89819 278.74753
 280.37177 281.97745 283.38632 284.67160 285.76538 286.71036 287.58444 288.40637
 289.13583 289.61740 290.07593 290.67606
 366.78100 356.34347 345.78394 334.65841 323.06988 311.27235 299.15082 286.96229
 274.68276 262.58823 250.60570 239.91517 230.04564 221.15811 213.34858 206.35905
 200.20152 195.14799 191.73846 189.78893 188.83440 188.90687 189.75034 191.06681
 192.80028 194.90376 197.17523 199.54270 201.99617 204.48464 206.58111 208.43158
 210.06605 211.21952 211.45699 211.69346 211.63893 211.35240 210.99387 210.63234
 210.25781 209.97628 209.79275 209.66522 209.60169 209.94116 210.33563 210.73310
 211.53457 212.72104 213.97951 215.77098 217.70745 219.75892 221.86239 223.95386
 226.02233 228.11480 230.22027 232.33474 234.47221 236.65268 238.91715 241.29562
 243.92509 246.18456 248.19503 249.96850 251.39397 252.52544 253.35591 253.68038
 253.72585 253.50832 252.87680 251.83327 250.44774 248.61721 246.53468 244.37615
 242.17562 239.98809 237.81656 235.66403 233.53250 231.40797 229.44244 227.60791
 225.89938 224.37985 223.01832 221.79879 220.68926 219.65773 218.77020 217.91967
 217.17014 216.35861 215.46508 214.83755 214.29602 213.93199 213.08018 213.38162
 214.20535 213.84200 213.91602 215.55484 218.00354 221.37823 226.87485 231.32924
 235.03488 239.37250 244.00616 248.37888 251.96722 255.03355 257.89783 260.69595
 263.34558 265.97421 268.52664 270.87256 273.13043 275.08255 276.89658 278.79498
 280.25522 281.71191 283.11133 284.25909 285.25473 286.16803 287.01932 287.73874
 288.24960 288.39615 288.41345 288.43552
 366.78100 356.34525 345.78751 334.66376 323.07701 311.28126 299.16152 286.97477
 274.69702 262.60427 250.62353 239.93478 230.06703 221.18128 213.37354 206.38579
 200.23004 195.17829 191.77055 189.82280 188.87005 188.94430 189.78956 191.10781
 192.84306 194.94831 197.22157 199.59082 202.04607 204.53632 206.63458 208.48683
 210.12308 211.27834 211.51759 211.75584 211.70309 211.41835 211.06160 210.70185
 210.32910 210.04936 209.86761 209.74186 209.68011 210.02137 210.41762 210.81687
 211.62012 212.80838 214.06863 215.86188 217.80013 219.85339 221.95864 224.05189
 226.12214 228.21640 230.32365 232.43990 234.57916 236.76141 239.02766 241.40791
 244.03917 246.30042 248.31267 250.08792 251.51518 252.64843 253.48068 253.80693
 253.85419 253.63844 253.00869 251.96694 250.58320 248.75445 246.67370 244.51695
 242.31821 240.13246 237.96271 235.81196 233.68222 231.55947 229.59572 227.76297
 226.05623 224.53848 223.17873 221.96099 220.85324 219.82349 218.93774 218.08900
 217.34125 216.53150 215.63975 215.01401 214.47426 214.02803 213.00516 213.46722
 214.50755 214.10374 213.98981 215.46906 217.85426 221.28909 226.68085 231.16058
 234.88736 239.24858 243.84103 248.10182 251.64622 254.82339 257.89935 260.79425
 263.44522 266.07404 268.62799 270.91910 273.05017 274.98376 276.99252 278.78613
 280.12045 281.29941 282.63522 283.78302 284.74207 285.61362 286.40790 286.93246
 286.86243 286.69925 286.55670 286.37503
 366.78100 356.34761 345.79222 334.67083 323.08645 311.29306 299.17567 286.99128
 274.71589 262.62550 250.64711 239.96073 230.09534 221.21195 213.40656 206.42117
 200.26778 195.21839 191.81301 189.86762 188.91723 188.99384 189.84145 191.16206
 192.89967 195.00729 197.28290 199.65451 202.11212 204.60473 206.70534 208.55995
 210.19857 211.35618 211.59779 211.83840 211.78801 211.50562 211.15123 210.79385
 210.42346 210.14607 209.96668 209.84329 209.78390 210.12751 210.52613 210.92774
 211.73335 212.92396 214.18657 215.98218 217.92279 219.97841 222.08602 224.18163
 226.25424 228.35085 230.46046 232.57907 234.72069 236.90530 239.17391 241.55652
 244.19013 246.45374 248.46836 250.24597 251.67558 252.81119 253.64580 253.97441
 254.02402 253.81064 253.18325 252.14386 250.76247 248.93608 246.85769 244.70330
 242.50692 240.32353 238.15614 236.00775 233.88036 231.75997 229.79858 227.96820
 226.26381 224.74842 223.39103 222.17564 221.07025 220.04286 219.15948 218.31309
 217.56770 216.76031 215.87092 215.24753 214.71014 214.17534 212.99490 213.42921
 214.54321 214.28545 214.30130 215.64406 217.89987 221.35004 226.51601 231.03809
 234.77751 239.13388 243.66495 247.77531 251.27132 254.49925 257.70218 260.69788
 263.47058 266.18192 268.70926 270.94260 272.92389 275.07568 277.08789 278.74594
 280.02435 281.11319 282.23416 283.29630 284.24030 284.92831 285.21768 285.47986
 285.71564 285.92560 286.10904 286.34277
 366.78100 356.35035 345.79770 334.67905 323.09740 311.30675 299.19210 287.01044
 274.73779 262.65014 250.67449 239.99084 230.12819 221.24754 213.44489 206.46224
 200.31159 195.26494 191.86229 189.91963 188.97198 189.05133 189.90168 191.22503
 192.96538 195.07573 197.35408 199.72843 202.18878 204.68413 206.78748 208.64482
 210.28617 211.44652 211.69087 211.93422 211.88657 211.60692 211.25527 210.90062
 210.53297 210.25832 210.08167 209.96101 209.90436 210.25071 210.65206 211.05641
 211.86476 213.05811 214.32346 216.12181 218.06516 220.12351 222.23386 224.33220
 226.40755 228.50690 230.61925 232.74060 234.88495 237.07230 239.34365 241.72900
 244.36535 246.63170 248.64905 250.42939 251.86174 253.00009 253.83744 254.16879
 254.22114 254.01049 253.38584 252.34919 250.97054 249.14689 247.07124 244.91958
 242.72593 240.54528 238.38063 236.23498 234.11033 231.99268 230.03403 228.20638
 226.50473 224.99208 223.63743 222.42477 221.32212 220.29747 219.41682 218.57317
 217.83052 217.02587 216.13922 215.51857 214.98392 214.35342 212.99123 213.34552
 214.56366 214.52155 214.70229 215.96407 218.07585 221.49692 226.53204 230.99393
 234.74582 239.08551 243.58929 247.61409 251.08463 254.29507 257.53915 260.59280
 263.47003 266.21472 268.73679 270.89978 272.85928 275.17578 277.03876 278.62872
 279.87997 280.96555 282.04391 283.01456 283.93698 284.75705 285.50522 286.18301
 286.79263 287.33548 287.80972 288.41406
 366.78100 356.35023 345.79746 334.67868 323.09691 311.30614 299.19137 287.00959
 274.73682 262.64905 250.67328 239.98950 230.12673 221.24596 213.44319 206.46042
 200.30964 195.26287 191.86010 189.91733 188.96955 189.04878 189.89901 191.22224
 192.96247 195.07269 197.35092 199.72515 202.18538 204.68060 206.78383 208.64106
 210.28229 211.44251 211.68674 211.92997 211.88220 211.60243 211.25065 210.89588
 210.52811 210.25334 210.07656 209.95579 209.89902 210.24525 210.64647 211.05070
 211.85893 213.05216 214.31739 216.11561 218.05884 220.11707 222.22730 224.32552
 226.40075 228.49998 230.61221 232.73344 234.87766 237.06489 239.33612 241.72135
 244.35757 246.62380 248.64103 250.42126 251.85348 252.99171 253.82894 254.16017
 254.21240 254.00162 253.37685 252.34008 250.96131 249.13753 247.06176 244.90999
 242.71622 240.53544 238.37067 236.22490 234.10013 231.98236 230.02358 228.19581
 226.49404 224.98127 223.62649 222.41372 221.31095 220.28618 219.40540 218.56163
 217.81886 217.01409 216.12732 215.50654 214.97177 214.37865 213.07007 213.20001
 214.46153 214.60881 214.92679 216.22699 218.24809 221.56824 226.56125 231.00270
 234.74626 239.06836 243.55223 247.57014 251.05431 254.23434 257.47742 260.57211
 263.46622 266.24179 268.81931 270.89261 272.94241 275.17593 276.96915 278.51315
 279.76993 280.96976 282.03781 283.17197 284.20859 285.12573 285.96249 286.72055
 287.40231 288.00943 288.53983 289.21573
 366.78100 356.34702 345.79104 334.66906 323.08408 311.29010 299.17211 286.98713
 274.71115 262.62017 250.64119 239.95421 230.08823 221.20425 213.39827 206.41229
 200.25831 195.20832 191.80234 189.85636 188.90538 188.98140 189.82842 191.14844
 192.88546 194.99248 197.26750 199.63852 202.09553 204.58755 206.68757 208.54159
 210.17961 211.33663 211.57765 211.81767 211.76669 211.48371 211.12873 210.77074
 210.39976 210.12178 209.94180 209.81782 209.75784 210.10086 210.49888 210.89990
 211.70492 212.89494 214.15695 215.95197 217.89199 219.94701 222.05403 224.14905
 226.22107 228.31709 230.42611 232.54413 234.68515 236.86916 239.13718 241.51920
 244.15222 246.41524 248.42926 250.20628 251.63530 252.77032 253.60434 253.93236
 253.98137 253.76739 253.13941 252.09943 250.71745 248.89047 246.81149 244.65651
 242.45953 240.27555 238.10757 235.95858 233.83060 231.70962 229.74764 227.91666
 226.21168 224.69570 223.33772 222.12174 221.01576 219.98778 219.10379 218.25681
 217.51083 216.70285 215.81287 215.18889 214.65091 214.21634 213.22993 213.18327
 214.28030 214.53915 214.94009 216.29451 218.34537 221.55013 226.50487 231.01370
 234.75465 239.04257 243.44345 247.45058 250.93733 254.16460 257.42630 260.51425
 263.41833 266.21280 268.76343 270.88998 272.94882 275.09021 276.84729 278.40012
 279.81631 281.14182 282.25824 283.24530 284.16333 284.88638 285.51404 286.08264
 286.59402 287.04944 287.44727 287.95425
 366.78100 356.34540 345.78780 334.66420 323.07760 311.28200 299.16240 286.97580
 274.69820 262.60560 250.62500 239.93640 230.06880 221.18320 213.37560 206.38800
 200.23240 195.18080 191.77321 189.82561 188.87301 188.94741 189.79281 191.11121
 192.84661 194.95201 197.22541 199.59481 202.05021 204.54061 206.63901 208.49141
 210.12781 211.28321 211.52261 211.76101 211.70841 211.42381 211.06721 210.70761
 210.33501 210.05541 209.87381 209.74821 209.68661 210.02801 210.42441 210.82381
 211.62721 212.81561 214.07601 215.86941 217.80782 219.86122 221.96662 224.06002
 226.13042 228.22482 230.33222 232.44862 234.58802 236.77042 239.03682 241.41722
 244.04862 246.31002 248.32242 250.09782 251.52522 252.65862 253.49102 253.81742
 253.86482 253.64922 253.01962 251.97802 250.59442 248.76582 246.68522 244.52862
 242.33002 240.14442 237.97482 235.82422 233.69462 231.57202 229.60842 227.77583
 226.06923 224.55163 223.19203 221.97443 220.86683 219.83723 218.95163 218.10303
 217.35543 216.54583 215.65423 215.02863 214.48903 214.12256 213.28586 213.29890
 214.29198 214.43144 214.83983 216.29697 218.36426 221.44539 226.43083 230.95589
 234.70096 238.96532 243.31258 247.30020 250.78886 254.01202 257.33270 260.43570
 263.29379 266.06113 268.58194 270.70166 272.96948 275.09961 276.78955 278.29678
 279.67252 281.07904 282.23413 283.19931 284.03152 284.82190 285.35236 285.73715
 286.08322 286.39142 286.66064 287.00375
 366.78100 356.34481 345.78662 334.66243 323.07524 311.27905 299.15886 286.97167
 274.69348 262.60029 250.61909 239.92990 230.06171 221.17552 213.36733 206.37914
 200.22295 195.17076 191.76257 189.81438 188.86119 188.93500 189.77981 191.09762
 192.83243 194.93724 197.21005 199.57886 202.03367 204.52347 206.62128 208.47309
 210.10890 211.26371 211.50252 211.74033 211.68714 211.40195 211.04476 210.68457
 210.31138 210.03119 209.84900 209.72281 209.66062 210.00143 210.39724 210.79605
 211.59885 212.78666 214.04647 215.83928 217.77709 219.82990 221.93471 224.02752
 226.09733 228.19114 230.29795 232.41376 234.55257 236.73438 239.00019 241.38000
 244.01081 246.27162 248.28342 250.05823 251.48504 252.61785 253.44966 253.77547
 253.82228 253.60609 252.97590 251.93371 250.54952 248.72033 246.63914 244.48195
 242.28276 240.09657 237.92638 235.77519 233.64500 231.52180 229.55761 227.72442
 226.01723 224.49904 223.13885 221.92066 220.81247 219.78228 218.89609 218.04690
 217.29871 216.48852 215.59633 214.97014 214.42995 214.10257 213.35367 213.31171
 214.30807 214.47404 214.96324 216.47836 218.50212 221.51230 226.38097 230.90979
 234.64272 238.87820 243.16838 247.09184 250.55168 253.93109 257.29703 260.43790
 263.32944 266.08224 268.60687 270.74225 273.06512 275.06796 276.75623 278.21915
 279.46127 280.64658 281.75186 282.64236 283.54721 284.30817 284.79092 285.22827
 285.62164 285.97192 286.27792 286.66788
 366.78100 356.34412 345.78525 334.66037 323.07250 311.27562 299.15474 286.96687
 274.68799 262.59412 250.61224 239.92236 230.05349 221.16661 213.35774 206.36886
 200.21198 195.15911 191.75023 189.80136 188.84748 188.92060 189.76473 191.08185
 192.81598 194.92010 197.19223 199.56035 202.01447 204.50360 206.60072 208.45185
 210.08697 211.24109 211.47922 211.71634 211.66247 211.37659 211.01871 210.65784
 210.28396 210.00309 209.82021 209.69333 209.63046 209.97058 210.36571 210.76383
 211.56595 212.75308 214.01220 215.80433 217.74145 219.79357 221.89770 223.98982
 226.05895 228.15207 230.25819 232.37332 234.51144 236.69257 238.95769 241.33681
 243.96694 246.22706 248.23819 250.01231 251.43844 252.57056 253.40168 253.72681
 253.77293 253.55606 252.92518 251.88230 250.49743 248.66755 246.58568 244.42780
 242.22792 240.04105 237.87017 235.71830 233.58742 231.46354 229.49867 227.66479
 225.95692 224.43804 223.07716 221.85829 220.74941 219.71854 218.83166 217.98178
 217.23291 216.42203 215.52916 214.90228 214.36140 214.09048 213.45863 213.28459
 214.18797 214.65459 215.27348 216.71342 218.64684 221.63275 226.40170 230.91379
 234.64517 238.85281 243.10234 246.98247 250.41640 253.93541 257.42267 260.46347
 263.31082 266.02783 268.47708 270.88971 273.13394 275.03650 276.69565 278.12918
 279.37912 280.37863 281.23926 282.11426 283.05652 283.90622 284.68143 285.38373
 286.01538 286.57785 287.06921 287.69540
 366.78100 356.34453 345.78605 334.66158 323.07411 311.27764 299.15716 286.96969
 274.69122 262.59774 250.61627 239.92680 230.05832 221.17185 213.36338 206.37491
 200.21843 195.16596 191.75749 189.80901 188.85554 188.92907 189.77359 191.09112
 192.82565 194.93018 197.20270 199.57123 202.02576 204.51528 206.61281 208.46434
 210.09986 211.25439 211.49292 211.73045 211.67697 211.39150 211.03403 210.67355
 210.30008 210.01961 209.83714 209.71066 209.64819 209.98872 210.38424 210.78277
 211.58530 212.77282 214.03235 215.82488 217.76241 219.81493 221.91946 224.01199
 226.08151 228.17504 230.28157 232.39709 234.53562 236.71715 238.98268 241.36220
 243.99273 246.25326 248.26478 250.03931 251.46584 252.59836 253.42989 253.75542
 253.80195 253.58547 252.95500 251.91253 250.52805 248.69858 246.61711 244.45964
 242.26016 240.07369 237.90322 235.75174 233.62127 231.49780 229.53332 227.69985
 225.99238 224.47391 223.11343 221.89496 220.78649 219.75601 218.86954 218.02007
 217.27159 216.46112 215.56865 214.94218 214.40170 214.13786 213.51447 213.28084
 214.08836 214.77625 215.48643 216.86014 218.70375 221.65880 226.40659 230.91539
 234.65419 238.84294 243.07585 246.94157 250.37083 253.90805 257.49875 260.46426
 263.25717 265.96182 268.52725 271.00778 273.15759 274.99893 276.61993 278.03473
 279.25919 280.15875 280.95126 282.02051 283.08435 284.02554 284.88428 285.66220
 286.36188 286.98495 287.52924 288.22287
 366.78100 356.34231 345.78161 334.65492 323.06522 311.26653 299.14383 286.95414
 274.67345 262.57775 250.59406 239.90236 230.03167 221.14297 213.33228 206.34158
 200.18289 195.12820 191.71750 189.76681 188.81111 188.88242 189.72472 191.04003
 192.77234 194.87464 197.14495 199.51125 201.96356 204.45086 206.54617 208.39548
 210.02878 211.18109 211.41739 211.65270 211.59700 211.30931 210.94961 210.58692
 210.21123 209.92853 209.74384 209.61514 209.55045 209.88875 210.28206 210.67837
 211.47867 212.66398 213.92128 215.71159 217.64689 219.69720 221.79951 223.88981
 225.95712 228.04842 230.15273 232.26603 234.40234 236.58164 238.84495 241.22226
 243.85056 246.10887 248.11817 249.89048 251.31478 252.44509 253.27440 253.59770
 253.64201 253.42331 252.79062 251.74592 250.35923 248.52754 246.44384 244.28415
 242.08245 239.89376 237.72106 235.56737 233.43467 231.30898 229.34229 227.50659
 225.79690 224.27620 222.91351 221.69281 220.58212 219.54943 218.66073 217.80904
 217.05834 216.24565 215.35095 214.72226 214.17957 214.05312 213.69525 213.22412
 213.86586 214.71434 215.58832 217.05507 218.87030 221.74858 226.43840 230.92531
 234.65994 238.82588 243.04390 246.89647 250.30769 253.86641 257.53693 260.55280
 263.30331 265.99402 268.58609 271.12045 273.18509 274.93945 276.53217 277.95563
 279.22717 280.21814 280.95633 282.19373 283.34259 284.35904 285.28638 286.12653
 286.88211 287.55496 288.14276 288.89185
 366.78100 356.33807 345.77314 334.64221 323.04828 311.24535 299.11842 286.92449
 274.63956 262.53963 250.55170 239.85577 229.98084 221.08791 213.27298 206.27805
 200.11512 195.05619 191.64126 189.68633 188.72640 188.79347 189.63154 190.94261
 192.67068 194.76875 197.03482 199.39688 201.84495 204.32802 206.41909 208.26416
 209.89323 211.04130 211.27337 211.50444 211.44451 211.15258 210.78865 210.42172
 210.04179 209.75486 209.56593 209.43300 209.36407 209.69814 210.08721 210.47928
 211.27535 212.45642 213.70949 215.49556 217.42663 219.47270 221.57077 223.65684
 225.71991 227.80698 229.90705 232.01612 234.14819 236.32326 238.58233 240.95540
 243.57947 245.83354 247.83861 249.60668 251.02675 252.15282 252.97789 253.29696
 253.33703 253.11410 252.47717 251.42824 250.03731 248.20138 246.11345 243.94952
 241.74359 239.55065 237.37372 235.21579 233.07886 230.94893 228.97800 227.13807
 225.42414 223.89921 222.53228 221.30735 220.19242 219.15549 218.26256 217.40663
 216.65170 215.83477 214.93584 214.30291 213.75598 213.83849 213.93782 213.28220
 213.47504 214.44119 215.57262 217.16818 219.07674 221.93629 226.50583 230.98694
 234.70418 238.82881 242.98766 246.81334 250.26160 253.86884 257.58426 260.64307
 263.39929 266.06396 268.69467 271.14255 273.17206 274.91461 276.45859 277.82144
 279.04590 280.17355 281.08322 282.14267 283.21539 284.16296 285.02747 285.81067
 286.51508 287.14233 287.69031 288.38861
 366.78100 356.33913 345.77526 334.64538 323.05251 311.25064 299.12477 286.93190
 274.64803 262.54915 250.56228 239.86741 229.99354 221.10167 213.28779 206.29392
 200.13205 195.07418 191.66031 189.70644 188.74756 188.81569 189.65482 190.96695
 192.69608 194.79520 197.06233 199.42546 201.87459 204.35872 206.45084 208.29697
 209.92710 211.07623 211.30936 211.54149 211.48261 211.19174 210.82887 210.46300
 210.08413 209.79825 209.61038 209.47851 209.41064 209.74577 210.13590 210.52902
 211.32615 212.50828 213.76241 215.54954 217.48166 219.52879 221.62792 223.71505
 225.77918 227.86731 229.96843 232.07856 234.21169 236.38782 238.64795 241.02207
 243.64720 245.90233 247.90846 249.67759 251.09872 252.22584 253.05197 253.37210
 253.41323 253.19136 252.55548 251.50761 250.11774 248.28287 246.19600 244.03312
 241.82825 239.63638 237.46051 235.30364 233.16777 231.03889 229.06902 227.23015
 225.51728 223.99341 222.62753 221.40366 220.28979 219.25392 218.36205 217.50718
 216.75330 215.93743 215.03956 214.40769 213.86182 213.88162 213.87923 213.52431
 213.61980 214.37958 215.48566 217.06218 218.99620 221.92645 226.47615 230.94958
 234.66779 238.76187 242.88496 246.68617 250.09814 253.80058 257.50995 260.58627
 263.37500 266.09982 268.80905 271.22375 273.16055 274.73529 276.29648 277.63205
 278.62878 279.39639 280.46667 281.75900 282.88226 283.87607 284.78278 285.60416
 286.34293 287.00079 287.57550 288.30789
 366.78100 356.34435 345.78570 334.66105 323.07340 311.27675 299.15610 286.96845
 274.68980 262.59615 250.61450 239.92486 230.05621 221.16956 213.36091 206.37226
 200.21561 195.16296 191.75431 189.80566 188.85201 188.92536 189.76971 191.08706
 192.82141 194.92576 197.19811 199.56646 202.02081 204.51016 206.60751 208.45887
 210.09422 211.24857 211.48692 211.72427 211.67062 211.38497 211.02732 210.66667
 210.29302 210.01237 209.82972 209.70307 209.64042 209.98077 210.37612 210.77447
 211.57682 212.76417 214.02352 215.81587 217.75323 219.80558 221.90993 224.00228
 226.07163 228.16498 230.27133 232.38668 234.52503 236.70638 238.97173 241.35108
 243.98143 246.24178 248.25313 250.02748 251.45383 252.58618 253.41753 253.74288
 253.78923 253.57259 252.94194 251.89929 250.51464 248.68499 246.60334 244.44569
 242.24604 240.05939 237.88874 235.73709 233.60644 231.48279 229.51814 227.68449
 225.97684 224.45819 223.09754 221.87889 220.77024 219.73960 218.85295 218.00330
 217.25465 216.44400 215.55135 214.92470 214.38405 214.17421 213.68967 213.58240
 214.05965 214.69176 215.59402 216.95978 218.75035 221.73529 226.41472 230.87402
 234.57228 238.61919 242.67384 246.44157 250.03220 253.81139 257.39954 260.52991
 263.40726 266.20093 268.92914 271.25354 273.04468 274.60300 276.10349 277.29199
 278.31146 279.53741 280.96942 282.22681 283.31500 284.27774 285.15613 285.95187
 286.66754 287.30487 287.86160 288.57114
 366.78100 356.34486 345.78672 334.66259 323.07545 311.27931 299.15917 286.97204
 274.69390 262.60076 250.61962 239.93048 230.06235 221.17621 213.36807 206.37993
 200.22380 195.17166 191.76352 189.81538 188.86225 188.93611 189.78097 191.09883
 192.83369 194.93856 197.21142 199.58028 202.03514 204.52501 206.62287 208.47473
 210.11059 211.26545 211.50432 211.74218 211.68904 211.40390 211.04677 210.68663
 210.31349 210.03335 209.85122 209.72508 209.66294 210.00380 210.39966 210.79853
 211.60139 212.78925 214.04911 215.84198 217.77984 219.83270 221.93756 224.03042
 226.10029 228.19415 230.30101 232.41687 234.55574 236.73760 239.00346 241.38332
 244.01418 246.27505 248.28691 250.06177 251.48863 252.62150 253.45336 253.77922
 253.82608 253.60995 252.97981 251.93767 250.55353 248.72439 246.64326 244.48612
 242.28698 240.10084 237.93071 235.77957 233.64943 231.52629 229.56215 227.72902
 226.02188 224.50374 223.14360 221.92547 220.81733 219.78719 218.90105 218.05192
 217.30378 216.49364 215.60150 214.97536 214.43523 214.24104 213.73392 213.47772
 214.05954 214.86708 215.77095 217.04245 218.80373 221.66986 226.45360 230.89832
 234.57190 238.58385 242.62404 246.41991 250.02254 253.86288 257.45105 260.61099
 263.54984 266.33508 268.96771 271.23651 273.02054 274.48962 275.97342 277.18826
 278.65817 280.50565 282.10437 283.50815 284.72299 285.79782 286.77844 287.66681
 288.46579 289.17731 289.79886 290.59097
 366.78100 356.34246 345.78192 334.65538 323.06584 311.26730 299.14477 286.95523
 274.67469 262.57915 250.59561 239.90407 230.03353 221.14499 213.33445 206.34391
 200.18538 195.13084 191.72030 189.76976 188.81422 188.88568 189.72814 191.04360
 192.77606 194.87852 197.14899 199.51545 201.96791 204.45537 206.55083 208.40029
 210.03375 211.18621 211.42267 211.65813 211.60260 211.31506 210.95552 210.59298
 210.21744 209.93490 209.75036 209.62182 209.55728 209.89574 210.28921 210.68567
 211.48613 212.67159 213.92905 215.71951 217.65497 219.70543 221.80789 223.89835
 225.96582 228.05728 230.16174 232.27520 234.41166 236.59112 238.85458 241.23204
 243.86050 246.11896 248.12843 249.90089 251.32535 252.45581 253.28527 253.60873
 253.65319 253.43465 252.80211 251.75757 250.37104 248.53950 246.45596 244.29642
 242.09488 239.90634 237.73380 235.58026 233.44772 231.32218 229.35565 227.52011
 225.81057 224.29003 222.92749 221.70695 220.59641 219.56387 218.67533 217.82379
 217.07325 216.26072 215.36618 214.73764 214.19510 214.13638 213.88626 213.46388
 213.90204 214.85170 215.91696 217.14087 218.81552 221.68555 226.46178 230.91582
 234.56573 238.52414 242.51793 246.33438 249.98094 253.81612 257.41956 260.57883
 263.57114 266.38034 268.96146 271.19424 273.01218 274.41791 275.92859 277.54211
 279.09280 281.02136 282.69992 284.17383 285.44934 286.57785 287.60745 288.54019
 289.37909 290.12616 290.77875 291.61041
 366.78100 356.34071 345.77842 334.65013 323.05884 311.25855 299.13426 286.94297
 274.66068 262.56339 250.57810 239.88481 230.01252 221.12222 213.30993 206.31764
 200.15735 195.10106 191.68877 189.73648 188.77919 188.84890 189.68961 191.00332
 192.73403 194.83474 197.10345 199.46816 201.91887 204.40458 206.49829 208.34600
 209.97771 211.12842 211.36313 211.59684 211.53955 211.25025 210.88896 210.52467
 210.14738 209.86309 209.67680 209.54651 209.48022 209.81693 210.20864 210.60335
 211.40206 212.58577 213.84148 215.63019 217.56390 219.61261 221.71332 223.80203
 225.86774 227.95745 230.06016 232.17187 234.30658 236.48428 238.74599 241.12170
 243.74841 246.00512 248.01283 249.78354 251.20625 252.33496 253.16267 253.48438
 253.52709 253.30680 252.67251 251.62622 250.23793 248.40464 246.31935 244.15806
 241.95477 239.76448 237.59019 235.43490 233.30061 231.17331 229.20502 227.36773
 225.65644 224.13415 222.76986 221.54757 220.43528 219.40099 218.51070 217.65741
 216.90512 216.09083 215.19454 214.56425 214.01996 214.06909 213.99471 213.43256
 213.87471 214.86441 215.98759 217.26427 218.90347 221.65678 226.42671 230.87851
 234.51518 238.42606 242.35342 246.14282 249.82011 253.72556 257.32690 260.49588
 263.51160 266.33267 268.93448 271.10919 272.85956 274.33963 275.89072 277.56406
 279.27158 281.13797 282.75302 284.17117 285.39844 286.48425 287.47491 288.37238
 289.17953 289.89832 290.52625 291.32645
 366.78100 356.33827 345.77353 334.64280 323.04907 311.24633 299.11960 286.92587
 274.64113 262.54140 250.55367 239.85793 229.98320 221.09046 213.27573 206.28100
 200.11826 195.05953 191.64480 189.69006 188.73033 188.79760 189.63586 190.94713
 192.67540 194.77366 197.03993 199.40220 201.85046 204.33373 206.42500 208.27026
 209.89953 211.04779 211.28006 211.51133 211.45159 211.15986 210.79613 210.42939
 210.04966 209.76293 209.57419 209.44146 209.37273 209.70699 210.09626 210.48853
 211.28479 212.46606 213.71933 215.50559 217.43686 219.48312 221.58139 223.66766
 225.73092 227.81819 229.91846 232.02772 234.15999 236.33526 238.59452 240.96779
 243.59206 245.84632 247.85159 249.61986 251.04012 252.16639 252.99166 253.31092
 253.35119 253.12845 252.49172 251.44299 250.05225 248.21652 246.12879 243.96505
 241.75932 239.56659 237.38985 235.23212 233.09539 230.96565 228.99492 227.15519
 225.44145 223.91672 222.54999 221.32525 220.21052 219.17378 218.28105 217.42532
 216.67058 215.85385 214.95512 214.32238 213.77565 213.96863 214.14465 213.37447
 213.67944 214.85069 216.13698 217.45892 219.06715 221.71136 226.47443 230.89922
 234.51378 238.38766 242.26833 246.03613 249.74910 253.73077 257.32812 260.52396
 263.56210 266.39139 268.93753 271.01477 272.69650 274.25711 275.81110 277.54971
 279.46317 281.32495 282.93600 284.35065 285.57489 286.65802 287.64624 288.54147
 289.34665 290.06366 290.69000 291.48825
 366.78100 356.34034 345.77767 334.64901 323.05735 311.25668 299.13202 286.94036
 274.65770 262.56003 250.57437 239.88071 230.00804 221.11738 213.30472 206.31205
 200.15139 195.09473 191.68207 189.72940 188.77174 188.84108 189.68141 190.99475
 192.72509 194.82542 197.09376 199.45810 201.90844 204.39377 206.48711 208.33445
 209.96578 211.11612 211.35046 211.58379 211.52613 211.23647 210.87480 210.51014
 210.13248 209.84782 209.66115 209.53049 209.46383 209.80016 210.19150 210.58584
 211.38417 212.56751 213.82285 215.61119 217.54452 219.59286 221.69320 223.78153
 225.84687 227.93621 230.03854 232.14988 234.28422 236.46155 238.72289 241.09823
 243.72457 245.98090 247.98824 249.75858 251.18091 252.30925 253.13659 253.45792
 253.50026 253.27960 252.64494 251.59827 250.20961 248.37595 246.29028 244.12862
 241.92496 239.73429 237.55963 235.40397 233.26931 231.14164 229.17298 227.33532
 225.62365 224.10099 222.73633 221.51366 220.40100 219.36634 218.47567 217.62201
 216.86935 216.05469 215.15802 214.52736 213.98270 214.05374 214.10536 213.59897
 213.55220 214.64169 216.08466 217.44733 219.08533 221.81369 226.50923 230.94389
 234.54398 238.39015 242.23418 245.98602 249.76401 253.73181 257.33377 260.55386
 263.62204 266.44489 268.90479 270.89188 272.59521 274.16064 275.79520 277.61194
 279.42670 281.20053 282.73550 284.08334 285.24976 286.28174 287.22327 288.07623
 288.84338 289.52652 290.12332 290.88385
 366.78100 356.34408 345.78516 334.66024 323.07231 311.27539 299.15447 286.96655
 274.68763 262.59371 250.61179 239.92186 230.05294 221.16602 213.35710 206.36818
 200.21126 195.15834 191.74941 189.80049 188.84657 188.91965 189.76373 191.08081
 192.81489 194.91896 197.19104 199.55912 202.01320 204.50228 206.59936 208.45044
 210.08551 211.23959 211.47767 211.71475 211.66083 211.37491 211.01699 210.65606
 210.28214 210.00122 209.81830 209.69138 209.62846 209.96854 210.36361 210.76169
 211.56377 212.75085 214.00993 215.80201 217.73909 219.79116 221.89524 223.98732
 226.05640 228.14948 230.25556 232.37064 234.50871 236.68979 238.95487 241.33395
 243.96403 246.22411 248.23519 250.00926 251.43534 252.56742 253.39850 253.72358
 253.76966 253.55274 252.92181 251.87889 250.49397 248.66405 246.58213 244.42421
 242.22429 240.03736 237.86644 235.71452 233.58360 231.45968 229.49476 227.66084
 225.95291 224.43399 223.07307 221.85415 220.74523 219.71431 218.82739 217.97746
 217.22854 216.41762 215.52470 214.89778 214.35686 214.22635 213.95425 213.81683
 213.71892 214.57059 215.98813 217.30939 218.97670 221.89160 226.41545 230.90602
 234.48938 238.30870 242.12233 245.88135 249.73833 253.67856 257.28256 260.54318
 263.64529 266.44449 268.83386 270.78198 272.52130 274.06674 275.73022 277.43906
 279.01437 280.71991 282.25467 283.60233 284.76859 285.80045 286.74185 287.59470
 288.36172 289.04480 289.64151 290.40192
 366.78100 356.34191 345.78082 334.65373 323.06364 311.26455 299.14146 286.95137
 274.67028 262.57419 250.59010 239.89800 230.02691 221.13782 213.32673 206.33564
 200.17655 195.12146 191.71037 189.75928 188.80319 188.87410 189.71601 191.03092
 192.76283 194.86474 197.13465 199.50056 201.95247 204.43938 206.53429 208.38320
 210.01611 211.16801 211.40392 211.63883 211.58274 211.29465 210.93456 210.57147
 210.19538 209.91229 209.72720 209.59811 209.53302 209.87093 210.26384 210.65975
 211.45966 212.64457 213.90148 215.69139 217.62630 219.67621 221.77811 223.86802
 225.93493 228.02584 230.12975 232.24266 234.37857 236.55748 238.82039 241.19730
 243.82521 246.08312 248.09203 249.86394 251.28785 252.41776 253.24667 253.56958
 253.61349 253.39440 252.76131 251.71622 250.32912 248.49703 246.41294 244.25285
 242.05076 239.86167 237.68858 235.53449 233.40140 231.27531 229.30822 227.47213
 225.76204 224.24095 222.87786 221.65677 220.54568 219.51259 218.62350 217.77141
 217.02032 216.20723 215.31213 214.68304 214.13995 214.13441 214.07272 213.76930
 213.75209 214.65407 216.06140 217.38403 219.07042 221.97624 226.30438 230.84015
 234.39612 238.17928 241.96840 245.76064 249.68027 253.62157 257.23477 260.53674
 263.66498 266.44534 268.76498 270.69308 272.44510 273.97266 275.64722 277.27158
 278.62448 280.02911 281.50327 282.79767 283.91788 284.90897 285.81317 286.63235
 287.36908 288.02518 288.59830 289.32867
 366.78100 356.33753 345.77206 334.64060 323.04613 311.24266 299.11519 286.92072
 274.63525 262.53479 250.54632 239.84985 229.97438 221.08091 213.26545 206.26998
 200.10651 195.04704 191.63157 189.67610 188.71564 188.78217 189.61970 190.93023
 192.65776 194.75529 197.02083 199.38236 201.82989 204.31242 206.40295 208.24749
 209.87602 211.02355 211.25508 211.48561 211.42514 211.13268 210.76821 210.40074
 210.02027 209.73280 209.54334 209.40987 209.34040 209.67393 210.06246 210.45399
 211.24953 212.43006 213.68259 215.46812 217.39865 219.44418 221.54172 223.62725
 225.68978 227.77631 229.87584 231.98438 234.11591 236.29044 238.54897 240.92150
 243.54503 245.79857 247.80310 249.57063 250.99016 252.11569 252.94023 253.25876
 253.29829 253.07482 252.43735 251.38788 249.99642 248.15995 246.07148 243.90701
 241.70054 239.50707 237.32961 235.17114 233.03367 230.90320 228.93173 227.09127
 225.37680 223.85133 222.48386 221.25839 220.14292 219.10546 218.21199 217.35552
 216.60005 215.78258 214.88312 214.24965 213.70218 213.93275 214.32990 213.77020
 213.54616 214.57585 216.06337 217.49619 219.23112 222.08415 226.36180 230.85054
 234.36403 238.10054 241.86516 245.68515 249.65562 253.61072 257.23013 260.55417
 263.70276 266.46255 268.71597 270.60953 272.37653 273.86057 275.56680 277.25064
 278.41965 279.74197 281.21835 282.51468 283.63657 284.62915 285.53473 286.35510
 287.09296 287.75000 288.32401 289.05548
 366.78100 356.33788 345.77275 334.64163 323.04750 311.24438 299.11726 286.92313
 274.63801 262.53788 250.54976 239.85363 229.97851 221.08539 213.27026 206.27514
 200.11201 195.05289 191.63777 189.68264 188.72252 188.78939 189.62727 190.93815
 192.66602 194.76390 197.02977 199.39165 201.83952 204.32240 206.41328 208.25815
 209.88703 211.03490 211.26678 211.49766 211.43753 211.14541 210.78128 210.41416
 210.03404 209.74691 209.55779 209.42466 209.35554 209.68941 210.07829 210.47017
 211.26604 212.44692 213.69979 215.48567 217.41655 219.46242 221.56030 223.64617
 225.70905 227.79592 229.89580 232.00468 234.13655 236.31143 238.57030 240.94318
 243.56706 245.82093 247.82581 249.59368 251.01356 252.13944 252.96431 253.28319
 253.32306 253.09994 252.46281 251.41369 250.02257 248.18644 246.09832 243.93419
 241.72807 239.53495 237.35782 235.19970 233.06257 230.93245 228.96133 227.12120
 225.40708 223.88195 222.51483 221.28970 220.17458 219.13746 218.24433 217.38821
 216.63308 215.81596 214.91684 214.28371 213.73659 213.95268 214.36209 213.94580
 213.50446 214.39781 215.89133 217.39798 219.20250 222.10544 226.45375 230.88016
 234.37372 238.07535 241.82332 245.66216 249.66626 253.62804 257.25461 260.58060
 263.74182 266.52298 268.77768 270.61377 272.35626 273.78531 275.63058 277.40021
 278.54001 280.00143 281.56671 282.94113 284.13058 285.18292 286.14304 287.01282
 287.79510 288.49173 289.10031 289.87585
 366.78100 356.34042 345.77783 334.64925 323.05766 311.25708 299.13249 286.94091
 274.65832 262.56074 250.57516 239.88157 230.00899 221.11840 213.30582 206.31323
 200.15265 195.09606 191.68348 189.73090 188.77331 188.84273 189.68314 190.99656
 192.72697 194.82739 197.09580 199.46022 201.91064 204.39605 206.48947 208.33688
 209.96830 211.11871 211.35313 211.58654 211.52896 211.23938 210.87779 210.51321
 210.13562 209.85104 209.66445 209.53387 209.46728 209.80370 210.19512 210.58953
 211.38795 212.57136 213.82678 215.61519 217.54861 219.59702 221.69744 223.78586
 225.85127 227.94069 230.04310 232.15452 234.28893 236.46635 238.72776 241.10318
 243.72960 245.98601 247.99343 249.76384 251.18626 252.31467 253.14209 253.46350
 253.50592 253.28534 252.65075 251.60417 250.21558 248.38200 246.29641 244.13483
 241.93124 239.74066 237.56607 235.41049 233.27591 231.14832 229.17974 227.34215
 225.63057 224.10798 222.74340 221.52081 220.40823 219.37365 218.48306 217.62948
 216.87689 216.06231 215.16572 214.53514 213.99055 214.08128 214.27191 214.07695
 213.66272 214.37932 215.76956 217.22978 219.08435 222.08607 226.40866 230.84937
 234.33226 238.00331 241.74245 245.61243 249.63939 253.60469 257.22842 260.55811
 263.73334 266.52618 268.78802 270.64020 272.39413 273.83099 275.86230 277.70227
 279.10507 280.93317 282.88226 284.59372 286.07483 287.38522 288.58078 289.66385
 290.63797 291.50543 292.26321 293.22894
 366.78100 356.34126 345.77953 334.65179 323.06105 311.26131 299.13758 286.94684
 274.66510 262.56836 250.58363 239.89089 230.01915 221.12942 213.31768 206.32594
 200.16620 195.11047 191.69873 189.74699 188.79025 188.86052 189.70178 191.01604
 192.74731 194.84857 197.11783 199.48309 201.93436 204.42062 206.51488 208.36314
 209.99541 211.14667 211.38193 211.61620 211.55946 211.27072 210.90998 210.54625
 210.16951 209.88577 209.70003 209.57030 209.50456 209.84182 210.23408 210.62935
 211.42861 212.61287 213.86914 215.65840 217.59266 219.64192 221.74319 223.83245
 225.89871 227.98897 230.09224 232.20450 234.33976 236.51803 238.78029 241.15655
 243.78381 246.04108 248.04934 249.82060 251.24386 252.37313 253.20139 253.52365
 253.56692 253.34718 252.71344 251.66770 250.27997 248.44723 246.36249 244.20175
 241.99902 239.80928 237.63554 235.48081 233.34707 231.22033 229.25259 227.41586
 225.70512 224.18338 222.81964 221.59791 220.48617 219.45243 218.56270 217.70996
 216.95822 216.14448 215.24875 214.61901 214.07527 214.13554 214.25798 214.09499
 213.76706 214.44095 215.80429 217.22850 219.08150 222.10013 226.35939 230.77490
 234.22339 237.85788 241.58835 245.49409 249.56099 253.53606 257.16129 260.49457
 263.63336 266.41705 268.63846 270.49088 272.27676 273.92279 275.88614 277.78503
 279.39496 281.15320 282.88431 284.48663 285.87332 287.10019 288.21951 289.23355
 290.14557 290.95770 291.66718 292.57132
 366.78100 356.33922 345.77544 334.64566 323.05288 311.25110 299.12532 286.93254
 274.64876 262.54998 250.56320 239.86842 229.99463 221.10285 213.28907 206.29529
 200.13351 195.07573 191.66195 189.70817 188.74939 188.81761 189.65683 190.96905
 192.69827 194.79749 197.06471 199.42793 201.87715 204.36137 206.45359 208.29981
 209.93003 211.07925 211.31247 211.54468 211.48590 211.19512 210.83234 210.46656
 210.08778 209.80200 209.61422 209.48244 209.41466 209.74988 210.14010 210.53332
 211.33054 212.51276 213.76698 215.55420 217.48642 219.53364 221.63286 223.72008
 225.78430 227.87252 229.97373 232.08395 234.21717 236.39339 238.65361 241.02783
 243.65305 245.90827 247.91449 249.68371 251.10493 252.23215 253.05837 253.37859
 253.41981 253.19803 252.56225 251.51447 250.12469 248.28991 246.20313 244.04035
 241.83557 239.64378 237.46800 235.31122 233.17544 231.04666 229.07688 227.23810
 225.52532 224.00154 222.63576 221.41198 220.29820 219.26242 218.37064 217.51586
 216.76208 215.94630 215.04852 214.41674 213.87096 214.04944 214.40030 214.08211
 213.68076 214.36537 215.82852 217.33798 219.20201 222.18716 226.40219 230.74268
 234.14809 237.73016 241.44360 245.38441 249.51414 253.50215 257.12674 260.45847
 263.56818 266.28500 268.48849 270.37466 272.20383 273.86050 275.78958 277.73459
 279.31815 280.94064 282.54480 284.13190 285.50537 286.72055 287.82922 288.83359
 289.73691 290.54132 291.24405 292.13959
 366.78100 356.33598 345.76897 334.63595 323.03994 311.23492 299.10591 286.90989
 274.62288 262.52086 250.53085 239.83283 229.95582 221.06080 213.24379 206.24677
 200.08176 195.02074 191.60372 189.64671 188.68469 188.74968 189.58566 190.89465
 192.62063 194.71662 196.98060 199.34059 201.78657 204.26756 206.35654 208.19953
 209.82651 210.97250 211.20248 211.43146 211.36945 211.07543 210.70942 210.34040
 209.95839 209.66937 209.47836 209.34334 209.27233 209.60431 209.99130 210.38128
 211.17527 212.35425 213.60524 215.38922 217.31820 219.36219 221.45817 223.54216
 225.60314 227.68813 229.78611 231.89310 234.02308 236.19607 238.45305 240.82404
 243.44602 245.69801 247.70099 249.46697 250.88496 252.00894 252.83193 253.14891
 253.18690 252.96188 252.32287 251.27185 249.87884 248.04082 245.95081 243.78479
 241.57678 239.38176 237.20275 235.04273 232.90371 230.77170 228.79868 226.95667
 225.24065 223.71364 222.34462 221.11761 220.00059 218.96158 218.06656 217.20855
 216.45153 215.63252 214.73150 214.09649 213.54747 213.89565 214.60484 214.14357
 213.50215 214.16313 215.72105 217.36110 219.29991 222.28958 226.52296 230.78398
 234.15639 237.69740 241.39409 245.35767 249.52957 253.51561 257.13242 260.45996
 263.54303 266.19977 268.37903 270.28964 272.15332 273.83789 275.63626 277.59244
 279.08707 280.57520 282.10965 283.59335 284.92032 286.09433 287.16544 288.13577
 289.00848 289.78568 290.46457 291.32977
 366.78100 356.33621 345.76942 334.63662 323.04083 311.23604 299.10725 286.91146
 274.62466 262.52287 250.53308 239.83529 229.95850 221.06370 213.24691 206.25012
 200.08533 195.02453 191.60774 189.65095 188.68916 188.75437 189.59057 190.89978
 192.62599 194.72220 196.98641 199.34661 201.79282 204.27403 206.36324 208.20645
 209.83365 210.97986 211.21007 211.43928 211.37749 211.08369 210.71790 210.34911
 209.96732 209.67853 209.48773 209.35294 209.28215 209.61436 210.00157 210.39177
 211.18598 212.36519 213.61640 215.40060 217.32981 219.37402 221.47023 223.55444
 225.61564 227.70085 229.79906 231.90627 234.03648 236.20968 238.46689 240.83810
 243.46031 245.71252 247.71572 249.48193 250.90014 252.02435 252.84756 253.16476
 253.20297 252.97818 252.33939 251.28860 249.89580 248.05801 245.96822 243.80243
 241.59463 239.39984 237.22105 235.06126 232.92247 230.79067 228.81788 226.97609
 225.26030 223.73351 222.36471 221.13792 220.02113 218.98234 218.08755 217.22975
 216.47296 215.65417 214.75338 214.11859 213.56979 213.90918 214.62201 214.30911
 213.54222 214.07494 215.55504 217.23233 219.24417 222.30579 226.61620 230.80991
 234.17790 237.67601 241.34761 245.35112 249.53354 253.50726 257.12061 260.45792
 263.54083 266.18314 268.30847 270.21875 272.10861 273.74393 275.64987 277.54312
 278.75839 279.91290 281.11682 282.46796 283.65533 284.70584 285.66431 286.53259
 287.31351 288.00894 288.61642 289.39062
 366.78100 356.34077 345.77853 334.65030 323.05906 311.25883 299.13459 286.94336
 274.66112 262.56389 250.57866 239.88542 230.01319 221.12295 213.31072 206.31848
 200.15825 195.10201 191.68978 189.73755 188.78031 188.85008 189.69084 191.00461
 192.73537 194.83614 197.10491 199.46967 201.92044 204.40620 206.49997 208.34773
 209.97950 211.13026 211.36503 211.59880 211.54156 211.25233 210.89109 210.52686
 210.14962 209.86539 209.67915 209.54892 209.48269 209.81945 210.21122 210.60598
 211.40475 212.58851 213.84428 215.63304 217.56681 219.61558 221.71634 223.80511
 225.87087 227.96064 230.06340 232.17517 234.30994 236.48770 238.74947 241.12523
 243.75200 246.00876 248.01653 249.78729 251.21006 252.33883 253.16659 253.48836
 253.53112 253.31089 252.67665 251.63042 250.24218 248.40895 246.32372 244.16248
 241.95925 239.76901 237.59478 235.43954 233.30531 231.17807 229.20984 227.37261
 225.66137 224.13914 222.77490 221.55267 220.44043 219.40620 218.51596 217.66273
 216.91050 216.09626 215.20003 214.56979 214.02556 214.14818 214.45250 214.41794
 213.76407 214.18892 215.50818 217.11780 219.10286 222.20061 226.64436 230.77827
 234.11108 237.61276 241.31413 245.33937 249.49747 253.45740 257.08298 260.44046
 263.51715 266.12332 268.25699 270.20450 272.08487 273.80930 275.60764 277.29898
 278.52975 279.74496 281.29257 282.65152 283.82755 284.86804 285.81735 286.67734
 287.45081 288.13959 288.74130 289.50809
 366.78100 356.34395 345.78490 334.65985 323.07180 311.27475 299.15369 286.96564
 274.68659 262.59254 250.61049 239.92044 230.05139 221.16434 213.35529 206.36624
 200.20918 195.15613 191.74708 189.79803 188.84398 188.91693 189.76088 191.07783
 192.81178 194.91573 197.18767 199.55562 202.00957 204.49852 206.59547 208.44642
 210.08137 211.23532 211.47327 211.71022 211.65616 211.37011 211.01206 210.65101
 210.27696 209.99591 209.81286 209.68581 209.62276 209.96271 210.35766 210.75560
 211.55755 212.74450 214.00345 215.79540 217.73235 219.78430 221.88825 223.98020
 226.04915 228.14209 230.24804 232.36299 234.50094 236.68189 238.94684 241.32579
 243.95574 246.21569 248.22664 250.00058 251.42653 252.55848 253.38943 253.71438
 253.76033 253.54328 252.91223 251.86918 250.48413 248.65407 246.57202 244.41397
 242.21392 240.02687 237.85582 235.70377 233.57272 231.44867 229.48362 227.64957
 225.94151 224.42246 223.06141 221.84236 220.73331 219.70226 218.81521 217.96516
 217.21611 216.40506 215.51200 214.88495 214.34390 214.33186 214.39024 214.42323
 213.83177 214.19009 215.47266 217.12814 219.15701 222.14490 226.69061 230.78761
 234.06499 237.54575 241.25720 245.32074 249.49957 253.46010 257.09369 260.45197
 263.50351 266.09332 268.20370 270.18005 272.10342 273.94705 275.60849 277.11209
 279.07593 280.94907 282.56992 283.99316 285.22488 286.31461 287.30884 288.20953
 289.01959 289.74097 290.37115 291.17426
 366.78100 356.34269 345.78238 334.65607 323.06676 311.26844 299.14613 286.95682
 274.67651 262.58120 250.59789 239.90658 230.03627 221.14795 213.33764 206.34733
 200.18902 195.13471 191.72440 189.77409 188.81878 188.89046 189.73315 191.04884
 192.78153 194.88422 197.15491 199.52160 201.97429 204.46198 206.55766 208.40735
 210.04104 211.19373 211.43042 211.66611 211.61080 211.32349 210.96417 210.60186
 210.22655 209.94424 209.75993 209.63162 209.56731 209.90600 210.29968 210.69637
 211.49706 212.68275 213.94044 215.73113 217.66682 219.71751 221.82020 223.91088
 225.97857 228.07026 230.17495 232.28864 234.42533 236.60502 238.86871 241.24639
 243.87508 246.13377 248.14346 249.91615 251.34084 252.47153 253.30122 253.62490
 253.66959 253.45128 252.81897 251.77466 250.38835 248.55704 246.47373 244.31442
 242.11310 239.92479 237.75248 235.59917 233.46686 231.34155 229.37524 227.53993
 225.83061 224.31030 222.94799 221.72768 220.61737 219.58506 218.69675 217.84544
 217.09513 216.28281 215.38850 214.76019 214.21788 214.30450 214.49609 214.43077
 213.89098 214.04907 215.37259 217.14009 219.20763 222.20062 226.67982 230.79948
 234.05769 237.49901 241.18024 245.29367 249.49409 253.45680 257.10037 260.47009
 263.52463 266.05811 268.13629 270.18213 272.18021 273.94501 275.51654 277.28864
 279.38666 281.18500 282.74115 284.10757 285.29010 286.33633 287.29086 288.15561
 288.93335 289.62592 290.23093 291.00195
 366.78100 356.34061 345.77821 334.64982 323.05843 311.25803 299.13364 286.94225
 274.65985 262.56246 250.57706 239.88367 230.01128 221.12088 213.30849 206.31610
 200.15570 195.09931 191.68692 189.73452 188.77713 188.84674 189.68734 191.00095
 192.73155 194.83216 197.10077 199.46537 201.91598 204.40159 206.49519 208.34280
 209.97441 211.12501 211.35962 211.59323 211.53583 211.24644 210.88504 210.52065
 210.14326 209.85886 209.67247 209.54208 209.47568 209.81229 210.20390 210.59850
 211.39711 212.58072 213.83632 215.62493 217.55853 219.60714 221.70775 223.79635
 225.86196 227.95157 230.05417 232.16578 234.30039 236.47799 238.73960 241.11521
 243.74181 245.99842 248.00602 249.77663 251.19924 252.32784 253.15545 253.47706
 253.51966 253.29927 252.66488 251.61848 250.23009 248.39670 246.31130 244.14991
 241.94651 239.75612 237.58173 235.42633 233.29194 231.16455 229.19615 227.35876
 225.64737 224.12497 222.76058 221.53819 220.42579 219.39140 218.50100 217.64761
 216.89522 216.08082 215.18443 214.55404 214.00964 214.23741 214.62335 214.41975
 213.98987 214.16676 215.30650 216.88620 219.05653 222.17081 226.59587 230.72945
 233.97446 237.39294 241.11226 245.26079 249.45517 253.41025 257.05667 260.42941
 263.47137 266.02063 268.11496 270.19925 272.19754 273.88916 275.45032 277.19391
 278.88403 280.33273 281.58633 282.68710 283.63974 284.48254 285.25150 285.94812
 286.57465 287.13257 287.61996 288.24109
 366.78100 356.33976 345.77651 334.64727 323.05503 311.25379 299.12854 286.93630
 274.65306 262.55482 250.56857 239.87433 230.00109 221.10985 213.29660 206.30336
 200.14212 195.08488 191.67163 189.71839 188.76015 188.82891 189.66866 190.98142
 192.71118 194.81094 197.07869 199.44245 201.89221 204.37697 206.46972 208.31648
 209.94724 211.09700 211.33075 211.56351 211.50527 211.21503 210.85278 210.48754
 210.10930 209.82405 209.63681 209.50557 209.43833 209.77408 210.16484 210.55860
 211.35636 212.53911 213.79387 215.58163 217.51439 219.56214 221.66190 223.74966
 225.81442 227.90317 230.00493 232.11569 234.24945 236.42620 238.68696 241.06172
 243.68748 245.94323 247.94999 249.71975 251.14151 252.26926 253.09602 253.41678
 253.45854 253.23729 252.60205 251.55481 250.16557 248.33132 246.24508 244.08284
 241.87859 239.68735 237.51211 235.35587 233.22062 231.09238 229.12314 227.28490
 225.57265 224.04941 222.68417 221.46093 220.34768 219.31244 218.42120 217.56696
 216.81371 215.99847 215.10123 214.46999 213.92474 214.22314 214.71286 214.37199
 213.88579 214.27853 215.31853 216.70729 218.95068 222.20183 226.56761 230.69403
 233.91313 237.34193 241.09595 245.26721 249.46861 253.41754 257.05612 260.43832
 263.50806 266.05890 268.17303 270.23651 272.23108 273.89847 275.44199 276.73642
 277.85992 278.82294 279.65628 280.38803 281.02127 281.58154 282.09268 282.55576
 282.97226 283.34314 283.66711 284.08002
 366.78100 356.34042 345.77784 334.64926 323.05768 311.25709 299.13251 286.94093
 274.65835 262.56077 250.57519 239.88161 230.00903 221.11845 213.30586 206.31328
 200.15270 195.09612 191.68354 189.73096 188.77338 188.84280 189.68322 190.99663
 192.72705 194.82747 197.09589 199.46031 201.91073 204.39615 206.48957 208.33699
 209.96840 211.11882 211.35324 211.58666 211.52908 211.23950 210.87792 210.51334
 210.13576 209.85118 209.66459 209.53401 209.46743 209.80385 210.19527 210.58969
 211.38811 212.57153 213.82695 215.61536 217.54878 219.59720 221.69762 223.78604
 225.85146 227.94088 230.04330 232.15472 234.28913 236.46655 238.72797 241.10339
 243.72981 245.98623 247.99365 249.76407 251.18649 252.31490 253.14232 253.46374
 253.50616 253.28558 252.65100 251.60442 250.21584 248.38226 246.29667 244.13509
 241.93151 239.74093 237.56635 235.41077 233.27619 231.14861 229.18003 227.34244
 225.63086 224.10828 222.74370 221.52112 220.40854 219.37396 218.48338 217.62980
 216.87721 216.06263 215.16605 214.53547 213.99089 214.25674 214.74431 214.40552
 213.83290 214.39070 215.33807 216.54390 218.90994 222.25920 226.67664 230.74374
 233.93726 237.34920 241.10799 245.31187 249.49553 253.41684 257.06299 260.45255
 263.48099 266.05539 268.23654 270.32516 272.25909 273.92697 275.54016 277.78696
 280.07953 282.04459 283.74506 285.23816 286.53033 287.67358 288.71661 289.66150
 290.51135 291.26816 291.92926 292.77179
 366.78100 356.34131 345.77963 334.65194 323.06125 311.26157 299.13788 286.94719
 274.66550 262.56882 250.58413 239.89144 230.01976 221.13007 213.31838 206.32670
 200.16701 195.11132 191.69964 189.74795 188.79126 188.86157 189.70289 191.01720
 192.74851 194.84983 197.11914 199.48445 201.93577 204.42208 206.51639 208.36471
 209.99702 211.14833 211.38364 211.61796 211.56127 211.27258 210.91190 210.54821
 210.17152 209.88784 209.70215 209.57246 209.50678 209.84409 210.23640 210.63171
 211.43103 212.61534 213.87165 215.66097 217.59528 219.64459 221.74591 223.83522
 225.90153 227.99184 230.09516 232.20747 234.34278 236.52110 238.78341 241.15972
 243.78704 246.04435 248.05266 249.82398 251.24729 252.37660 253.20491 253.52723
 253.57054 253.35085 252.71717 251.67148 250.28379 248.45111 246.36642 244.20573
 242.00305 239.81336 237.63967 235.48498 233.35130 231.22461 229.25692 227.42024
 225.70955 224.18786 222.82418 221.60249 220.49080 219.45712 218.56743 217.71474
 216.96305 216.14937 215.25368 214.62399 214.08031 214.30151 214.73976 214.47548
 213.95222 214.49423 215.28912 216.27383 218.70551 222.25415 226.64494 230.69879
 233.87054 237.32504 241.12057 245.28320 249.44716 253.35794 256.98795 260.33032
 263.30124 265.85284 268.09882 270.27744 272.27036 273.95322 275.59930 277.24518
 279.29205 281.19046 282.83325 284.27570 285.52405 286.62851 287.63614 288.54901
 289.37003 290.10117 290.73984 291.55377
 366.78100 356.34254 345.78208 334.65562 323.06615 311.26769 299.14523 286.95577
 274.67531 262.57985 250.59639 239.90493 230.03446 221.14600 213.33554 206.34508
 200.18662 195.13216 191.72170 189.77123 188.81577 188.88731 189.72985 191.04539
 192.77793 194.88047 197.15101 199.51754 201.97008 204.45762 206.55316 208.40270
 210.03624 211.18878 211.42531 211.66085 211.60539 211.31793 210.95847 210.59601
 210.22055 209.93808 209.75362 209.62516 209.56070 209.89924 210.29278 210.68932
 211.48986 212.67539 213.93293 215.72347 217.65901 219.70955 221.81209 223.90263
 225.97016 228.06170 230.16624 232.27978 234.41632 236.59586 238.85940 241.23694
 243.86547 246.12401 248.13355 249.90609 251.33063 252.46117 253.29071 253.61424
 253.65878 253.44032 252.80786 251.76340 250.37694 248.54548 246.46202 244.30255
 242.10109 239.91263 237.74017 235.58671 233.45425 231.32879 229.36232 227.52686
 225.81740 224.29694 222.93448 221.71402 220.60356 219.57110 218.68263 217.83117
 217.08071 216.26825 215.37379 214.74533 214.20287 214.37967 214.73956 214.51256
 213.98473 214.44225 215.18497 216.25980 218.71902 222.26675 226.70988 230.70543
 233.83499 237.25600 241.06456 245.25294 249.41484 253.32707 256.96313 260.28204
 263.18875 265.70798 268.02399 270.27454 272.30997 273.97522 275.58197 277.04047
 278.75919 280.39227 281.80542 283.04626 284.12012 285.07022 285.93701 286.72229
 287.42856 288.05746 288.60690 289.30707
 366.78100 356.34352 345.78404 334.65855 323.07007 311.27259 299.15111 286.96263
 274.68314 262.58866 250.60618 239.91570 230.04622 221.15874 213.34925 206.35977
 200.20229 195.14881 191.73933 189.78984 188.83536 188.90788 189.75140 191.06792
 192.80143 194.90495 197.17647 199.54399 201.99751 204.48603 206.58254 208.43306
 210.06758 211.22110 211.45862 211.69513 211.64065 211.35417 210.99569 210.63421
 210.25972 209.97824 209.79476 209.66728 209.60380 209.94332 210.33783 210.73535
 211.53687 212.72339 213.98191 215.77342 217.70994 219.76146 221.86498 223.95650
 226.02501 228.11753 230.22305 232.33757 234.47509 236.65561 238.92012 241.29864
 243.92816 246.18768 248.19820 249.97171 251.39723 252.52875 253.35927 253.68379
 253.72930 253.51182 252.88034 251.83686 250.45138 248.62090 246.53841 244.37993
 242.17945 239.99197 237.82049 235.66800 233.53652 231.41204 229.44656 227.61208
 225.90359 224.38411 223.02263 221.80315 220.69367 219.66218 218.77470 217.92422
 217.17474 216.36326 215.46978 214.84229 214.30081 214.45760 214.77336 214.57326
 213.90898 214.15439 215.01204 216.30434 218.80566 222.32823 226.84595 230.80154
 233.89722 237.26353 241.08130 245.29855 249.46521 253.40160 257.06052 260.35965
 263.16193 265.63043 268.01361 270.30942 272.40656 273.94910 275.47882 276.85861
 277.99744 278.97360 279.81830 280.56003 281.20190 281.76981 282.28793 282.75732
 283.17947 283.55542 283.88385 284.30237
 366.78100 356.34334 345.78368 334.65802 323.06936 311.27170 299.15005 286.96139
 274.68173 262.58707 250.60441 239.91375 230.04409 221.15643 213.34677 206.35711
 200.19946 195.14580 191.73614 189.78648 188.83182 188.90416 189.74750 191.06384
 192.79718 194.90052 197.17187 199.53921 201.99255 204.48089 206.57723 208.42757
 210.06191 211.21525 211.45259 211.68893 211.63427 211.34762 210.98896 210.62730
 210.25264 209.97098 209.78732 209.65966 209.59600 209.93534 210.32968 210.72703
 211.52837 212.71471 213.97305 215.76439 217.70073 219.75207 221.85541 223.94675
 226.01509 228.10743 230.21278 232.32712 234.46446 236.64480 238.90914 241.28748
 243.91682 246.17616 248.18650 249.95984 251.38519 252.51653 253.34687 253.67121
 253.71655 253.49889 252.86723 251.82357 250.43791 248.60725 246.52460 244.36594
 242.16528 239.97762 237.80596 235.65330 233.52164 231.39698 229.43132 227.59666
 225.88800 224.36835 223.00669 221.78703 220.67737 219.64571 218.75805 217.90739
 217.15773 216.34607 215.45241 214.82476 214.28310 214.48346 214.85509 214.66562
 213.80205 213.91789 214.77231 216.06357 218.66841 222.34074 226.86900 230.84428
 233.94095 237.35304 241.19099 245.38956 249.55988 253.48798 257.13129 260.40851
 263.20920 265.64728 268.00629 270.32074 272.48196 273.85950 275.32315 276.57852
 277.66812 278.60205 279.41025 280.11987 280.73401 281.27737 281.77310 282.22220
 282.62610 282.98578 283.29999 283.70041
 366.78100 356.34266 345.78232 334.65598 323.06664 311.26830 299.14596 286.95662
 274.67628 262.58094 250.59760 239.90626 230.03592 221.14758 213.33724 206.34690
 200.18856 195.13422 191.72388 189.77354 188.81820 188.88986 189.73252 191.04818
 192.78084 194.88350 197.15416 199.52082 201.97348 204.46114 206.55680 208.40646
 210.04012 211.19278 211.42944 211.66510 211.60976 211.32242 210.96308 210.60074
 210.22540 209.94306 209.75872 209.63038 209.56604 209.90470 210.29836 210.69502
 211.49568 212.68134 213.93900 215.72966 217.66532 219.71598 221.81864 223.90930
 225.97696 228.06862 230.17328 232.28694 234.42360 236.60326 238.86692 241.24458
 243.87324 246.13190 248.14156 249.91422 251.33888 252.46954 253.29920 253.62286
 253.66752 253.44918 252.81684 251.77250 250.38616 248.55482 246.47148 244.31214
 242.11080 239.92246 237.75012 235.59678 233.46444 231.33910 229.37276 227.53742
 225.82808 224.30774 222.94540 221.72506 220.61472 219.58238 218.69404 217.84270
 217.09236 216.28002 215.38568 214.75734 214.21500 214.47899 214.94743 214.74878
 213.64137 213.85275 214.71764 215.85815 218.52592 222.23338 226.80000 230.79449
 233.90074 237.33568 241.22540 245.48434 249.68105 253.60333 257.27011 260.61063
 263.43317 265.87997 268.16852 270.37802 272.49371 273.84607 274.82477 275.61298
 276.29709 276.88351 277.39093 277.83652 278.22211 278.56326 278.87451 279.15649
 279.41010 279.63593 279.83322 280.08463
 366.78100 356.34188 345.78077 334.65365 323.06354 311.26442 299.14130 286.95119
 274.67007 262.57396 250.58984 239.89772 230.02661 221.13749 213.32637 206.33526
 200.17614 195.12103 191.70991 189.75879 188.80268 188.87356 189.71545 191.03033
 192.76221 194.86410 197.13398 199.49987 201.95175 204.43863 206.53352 208.38240
 210.01528 211.16717 211.40305 211.63794 211.58182 211.29370 210.93359 210.57047
 210.19436 209.91124 209.72612 209.59701 209.53189 209.86978 210.26266 210.65854
 211.45843 212.64331 213.90020 215.69008 217.62496 219.67485 221.77673 223.86661
 225.93350 228.02438 230.12827 232.24115 234.37703 236.55592 238.81880 241.19569
 243.82357 246.08145 248.09034 249.86222 251.28611 252.41599 253.24487 253.56776
 253.61164 253.39252 252.75941 251.71429 250.32718 248.49506 246.41094 244.25083
 242.04871 239.85960 237.68648 235.53236 233.39925 231.27313 229.30602 227.46990
 225.75978 224.23867 222.87555 221.65444 220.54332 219.51020 218.62109 217.76897
 217.01785 216.20474 215.30962 214.68051 214.13739 214.45485 215.03255 214.72517
 213.72433 213.87936 214.83914 215.87737 218.52263 222.13353 226.71603 230.66652
 233.76761 237.23985 241.18765 245.47688 249.65184 253.57730 257.27228 260.68823
 263.71368 266.27216 268.55148 270.73730 272.75140 274.00259 275.37537 276.48251
 277.44348 278.26715 278.97992 279.60577 280.14740 280.62662 281.06381 281.45987
 281.81610 282.13333 282.41043 282.76358
 366.78100 356.34144 345.77988 334.65231 323.06175 311.26219 299.13863 286.94807
 274.66650 262.56994 250.58538 239.89282 230.02125 221.13169 213.32013 206.32857
 200.16901 195.11344 191.70188 189.75032 188.79376 188.86420 189.70563 191.02007
 192.75151 194.85295 197.12239 199.48782 201.93926 204.42570 206.52014 208.36857
 210.00101 211.15245 211.38789 211.62233 211.56576 211.27720 210.91664 210.55308
 210.17652 209.89295 209.70739 209.57783 209.51227 209.84970 210.24214 210.63758
 211.43702 212.62146 213.87789 215.66733 217.60177 219.65121 221.75265 223.84208
 225.90852 227.99896 230.10240 232.21484 234.35027 236.52871 238.79115 241.16759
 243.79502 246.05246 248.06090 249.83234 251.25578 252.38521 253.21365 253.53609
 253.57953 253.35997 252.72640 251.68084 250.29328 248.46072 246.37616 244.21559
 242.01303 239.82347 237.64991 235.49534 233.36178 231.23522 229.26766 227.43110
 225.72053 224.19897 222.83541 221.61385 220.50229 219.46872 218.57916 217.72660
 216.97504 216.16148 215.26591 214.63635 214.09279 214.43466 215.08812 214.68031
 213.92084 213.99303 214.74286 215.75012 218.44534 222.22099 226.65788 230.62862
 233.70921 237.19446 241.14529 245.41953 249.53856 253.38272 257.00494 260.36139
 263.41232 266.11719 268.56339 270.87024 272.96243 274.54520 275.74817 277.83133
 280.32327 282.50485 284.39264 286.05026 287.48480 288.75397 289.91193 290.96094
 291.90442 292.74460 293.47855 294.41388
 366.78100 356.34104 345.77908 334.65112 323.06016 311.26020 299.13625 286.94529
 274.66333 262.56637 250.58141 239.88845 230.01649 221.12653 213.31457 206.32261
 200.16265 195.10669 191.69474 189.74278 188.78582 188.85586 189.69690 191.01094
 192.74198 194.84302 197.11206 199.47710 201.92814 204.41418 206.50823 208.35627
 209.98831 211.13935 211.37439 211.60843 211.55147 211.26251 210.90155 210.53759
 210.16063 209.87667 209.69072 209.56076 209.49480 209.83184 210.22388 210.61892
 211.41796 212.60200 213.85804 215.64708 217.58112 219.63017 221.73121 223.82025
 225.88629 227.97633 230.07937 232.19141 234.32645 236.50449 238.76653 241.14257
 243.76961 246.02666 248.03470 249.80574 251.22878 252.35782 253.18586 253.50790
 253.55094 253.33098 252.69702 251.65106 250.26310 248.43015 246.34519 244.18423
 241.98127 239.79131 237.61735 235.46239 233.32843 231.20147 229.23351 227.39655
 225.68560 224.16364 222.79968 221.57772 220.46576 219.43180 218.54184 217.68888
 216.93692 216.12296 215.22700 214.59704 214.05309 214.41621 215.14182 214.71011
 213.89969 214.01341 214.49373 215.55885 218.32408 222.28914 226.61823 230.73239
 233.80879 237.31029 241.24136 245.47508 249.58635 253.41460 256.98270 260.24054
 263.14197 265.75150 268.19174 270.50836 272.59076 274.37729 275.89053 277.37820
 278.96808 280.67789 282.35107 283.82022 285.09167 286.21655 287.24286 288.17261
 289.00882 289.75348 290.40399 291.23297
 366.78100 356.34043 345.77785 334.64928 323.05771 311.25713 299.13256 286.94098
 274.65841 262.56084 250.57526 239.88169 230.00912 221.11854 213.30597 206.31340
 200.15282 195.09625 191.68367 189.73110 188.77353 188.84295 189.68338 190.99681
 192.72723 194.82766 197.09609 199.46051 201.91094 204.39637 206.48979 208.33722
 209.96864 211.11907 211.35350 211.58692 211.52935 211.23978 210.87820 210.51363
 210.13606 209.85148 209.66491 209.53433 209.46776 209.80419 210.19561 210.59004
 211.38847 212.57189 213.82732 215.61575 217.54917 219.59760 221.69802 223.78645
 225.85188 227.94130 230.04373 232.15516 234.28958 236.46701 238.72844 241.10386
 243.73029 245.98671 247.99414 249.76457 251.18699 252.31542 253.14285 253.46427
 253.50670 253.28613 252.65155 251.60498 250.21641 248.38283 246.29726 244.13568
 241.93211 239.74154 237.56696 235.41139 233.27682 231.14924 229.18067 227.34310
 225.63152 224.10895 222.74437 221.52180 220.40923 219.37465 218.48408 217.63051
 216.87793 216.06336 215.16679 214.53621 213.99164 214.38608 215.21371 214.81290
 213.82631 213.77885 214.33080 215.53455 218.26241 222.19250 226.67404 230.76704
 233.85414 237.38116 241.31570 245.58977 249.71181 253.54013 257.09811 260.33224
 263.17654 265.70016 268.07474 270.34866 272.41415 274.21741 275.81171 277.23447
 278.58981 279.87210 281.07343 282.45901 283.67462 284.75012 285.73138 286.62030
 287.41980 288.13174 288.75369 289.54630
 366.78100 356.34114 345.77928 334.65142 323.06055 311.26069 299.13683 286.94597
 274.66411 262.56725 250.58239 239.88953 230.01766 221.12780 213.31594 206.32408
 200.16422 195.10836 191.69650 189.74463 188.78777 188.85791 189.69905 191.01319
 192.74433 194.84547 197.11461 199.47974 201.93088 204.41702 206.51116 208.35930
 209.99144 211.14258 211.37771 211.61185 211.55499 211.26613 210.90527 210.54141
 210.16455 209.88069 209.69482 209.56496 209.49910 209.83624 210.22838 210.62352
 211.42266 212.60679 213.86293 215.65207 217.58621 219.63535 221.73649 223.82563
 225.89177 227.98190 230.08504 232.19718 234.33232 236.51046 238.77260 241.14874
 243.77587 246.03301 248.04115 249.81229 251.23543 252.36457 253.19271 253.51485
 253.55798 253.33812 252.70426 251.65840 250.27054 248.43768 246.35282 244.19195
 241.98909 239.79923 237.62537 235.47051 233.33665 231.20979 229.24192 227.40506
 225.69420 224.17234 222.80848 221.58662 220.47476 219.44090 218.55103 217.69817
 216.94631 216.13245 215.23659 214.60673 214.06287 214.43246 215.21651 214.88898
 213.90404 213.58078 214.17743 215.53613 218.25142 222.12473 226.67548 230.65738
 233.77629 237.33414 241.31834 245.61716 249.73787 253.56645 257.12869 260.37415
 263.21585 265.69254 268.03549 270.32886 272.40372 274.20358 275.82965 277.13873
 278.37024 279.66757 280.98465 282.34042 283.56775 284.65359 285.64429 286.54178
 287.34897 288.06778 288.69571 289.49594
 366.78100 356.34321 345.78343 334.65764 323.06886 311.27107 299.14928 286.96050
 274.68071 262.58593 250.60314 239.91236 230.04257 221.15478 213.34500 206.35521
 200.19743 195.14364 191.73385 189.78407 188.82928 188.90150 189.74471 191.06093
 192.79414 194.89735 197.16857 199.53578 201.98900 204.47721 206.57342 208.42364
 210.05785 211.21107 211.44828 211.68450 211.62971 211.34292 210.98414 210.62235
 210.24757 209.96578 209.78199 209.65421 209.59042 209.92964 210.32385 210.72107
 211.52228 212.70849 213.96671 215.75792 217.69414 219.74535 221.84856 223.93978
 226.00799 228.10021 230.20542 232.31964 234.45685 236.63706 238.90128 241.27949
 243.90871 246.16792 248.17813 249.95135 251.37656 252.50778 253.33799 253.66221
 253.70742 253.48963 252.85785 251.81406 250.42828 248.59749 246.51470 244.35592
 242.15513 239.96735 237.79556 235.64278 233.51099 231.38620 229.42042 227.58563
 225.87685 224.35706 222.99527 221.77549 220.66570 219.63392 218.74613 217.89535
 217.14556 216.33377 215.43999 214.81220 214.27042 214.55537 215.15878 214.92308
 214.00433 213.51025 214.08372 215.60585 218.27686 222.08029 226.68448 230.59525
 233.70197 237.27377 241.30220 245.64752 249.77356 253.60684 257.16623 260.41354
 263.26852 265.73505 268.01303 270.31921 272.39941 274.16821 275.83453 277.13443
 278.22476 279.62735 281.14798 282.55798 283.78070 284.86252 285.84949 286.74362
 287.54782 288.26395 288.88953 289.68677
 366.78100 356.34504 345.78707 334.66311 323.07614 311.28018 299.16021 286.97325
 274.69529 262.60232 250.62136 239.93239 230.06443 221.17846 213.37050 206.38254
 200.22657 195.17461 191.76664 189.81868 188.86572 188.93975 189.78479 191.10282
 192.83786 194.94289 197.21593 199.58497 202.04000 204.53004 206.62807 208.48011
 210.11614 211.27118 211.51022 211.74825 211.69529 211.41032 211.05336 210.69339
 210.32043 210.04047 209.85850 209.73254 209.67057 210.01161 210.40764 210.80668
 211.60972 212.79775 214.05779 215.85082 217.78886 219.84190 221.94693 224.03997
 226.11000 228.20404 230.31107 232.42711 234.56615 236.74818 239.01422 241.39425
 244.02529 246.28632 248.29836 250.07340 251.50043 252.63347 253.46550 253.79154
 253.83857 253.62261 252.99265 251.95068 250.56672 248.73775 246.65679 244.49982
 242.30086 240.11490 237.94493 235.79397 233.66400 231.54104 229.57708 227.74411
 226.03715 224.51918 223.15922 221.94125 220.83329 219.80333 218.91736 218.06840
 217.32043 216.51047 215.61850 214.99254 214.45258 214.65671 215.10941 215.01050
 214.07898 213.55461 213.93066 215.35617 218.12050 222.00357 226.67661 230.57901
 233.69991 237.29915 241.35690 245.72000 249.85376 253.67078 257.20721 260.45453
 263.32672 265.80301 268.03244 270.29031 272.35367 274.14081 275.81598 277.13657
 278.19281 279.54074 281.02032 282.39508 283.62051 284.70471 285.69388 286.59000
 287.39594 288.11365 288.74063 289.53961
 366.78100 356.34643 345.78986 334.66729 323.08172 311.28716 299.16859 286.98302
 274.70645 262.61488 250.63531 239.94774 230.08117 221.19660 213.39003 206.40347
 200.24890 195.19833 191.79176 189.84519 188.89362 188.96905 189.81548 191.13491
 192.87134 194.97778 197.25221 199.62264 202.07907 204.57050 206.66993 208.52336
 210.16079 211.31722 211.55765 211.79709 211.74552 211.46195 211.10638 210.74781
 210.37624 210.09767 209.91710 209.79253 209.73196 210.07440 210.47183 210.87226
 211.67669 212.86612 214.12755 215.92198 217.86141 219.91584 222.02228 224.11671
 226.18814 228.28357 230.39200 232.50943 234.64986 236.83329 239.10072 241.48215
 244.11459 246.37702 248.39045 250.16688 251.59531 252.72974 253.56317 253.89060
 253.93903 253.72446 253.09590 252.05533 250.67276 248.84519 246.76562 244.61005
 242.41248 240.22791 238.05934 235.90977 233.78121 231.65964 229.69707 227.86550
 226.15993 224.64336 223.28479 222.06822 220.96165 219.93308 219.04852 218.20095
 217.45438 216.64581 215.75524 215.13067 214.59210 214.73444 215.07239 215.12488
 214.15085 213.60654 213.79865 215.04961 217.90384 221.89217 226.62280 230.53925
 233.67200 237.29813 241.39188 245.76645 249.90384 253.70596 257.21304 260.44833
 263.32242 265.80676 268.02832 270.24521 272.30472 274.09271 275.77258 277.10349
 278.10013 279.43488 280.86850 282.20416 283.42871 284.51212 285.50055 286.39603
 287.20139 287.91855 288.54507 289.34351
 366.78100 356.34629 345.78957 334.66686 323.08115 311.28644 299.16772 286.98201
 274.70530 262.61359 250.63387 239.94616 230.07945 221.19473 213.38802 206.40131
 200.24660 195.19588 191.78917 189.84246 188.89075 188.96603 189.81232 191.13161
 192.86789 194.97418 197.24847 199.61876 202.07504 204.56633 206.66562 208.51891
 210.15619 211.31248 211.55277 211.79205 211.74034 211.45663 211.10092 210.74220
 210.37049 210.09178 209.91107 209.78635 209.72564 210.06793 210.46522 210.86550
 211.66979 212.85908 214.12036 215.91465 217.85394 219.90823 222.01451 224.10880
 226.18009 228.27538 230.38366 232.50095 234.64124 236.82452 239.09181 241.47310
 244.10539 246.36767 248.38096 250.15725 251.58554 252.71982 253.55311 253.88040
 253.92868 253.71397 253.08526 252.04455 250.66183 248.83412 246.75441 244.59870
 242.40098 240.21627 238.04756 235.89784 233.76913 231.64742 229.68471 227.85299
 226.14728 224.63057 223.27186 222.05514 220.94843 219.91972 219.03500 218.18729
 217.44058 216.63187 215.74115 215.11644 214.57773 214.74141 215.12099 215.13327
 214.17909 213.64745 213.75221 214.86057 217.76854 221.82567 226.60609 230.52333
 233.66112 237.30542 241.42824 245.83794 249.98729 253.77174 257.24698 260.46332
 263.33975 265.83481 268.03302 270.19211 272.23590 274.04596 275.74997 277.09253
 278.04980 279.40833 280.83902 282.19290 283.42795 284.52066 285.51761 286.42075
 287.23303 287.95639 288.58829 289.39355
 366.78100 356.34428 345.78555 334.66083 323.07310 311.27638 299.15565 286.96793
 274.68920 262.59548 250.61375 239.92403 230.05530 221.16858 213.35986 206.37113
 200.21441 195.16168 191.75296 189.80423 188.85051 188.92378 189.76806 191.08533
 192.81961 194.92389 197.19616 199.56444 202.01871 204.50799 206.60526 208.45654
 210.09181 211.24609 211.48436 211.72164 211.66791 211.38219 211.02447 210.66374
 210.29002 210.00929 209.82657 209.69984 209.63712 209.97739 210.37267 210.77094
 211.57322 212.76050 214.01977 215.81205 217.74932 219.80160 221.90587 223.99815
 226.06742 228.16070 230.26697 232.38225 234.52052 236.70180 238.96708 241.34635
 243.97663 246.23690 248.24818 250.02245 251.44873 252.58100 253.41228 253.73755
 253.78383 253.56711 252.93638 251.89366 250.50893 248.67921 246.59748 244.43976
 242.24003 240.05331 237.88258 235.73086 233.60013 231.47641 229.51169 227.67796
 225.97024 224.45151 223.09079 221.87206 220.76334 219.73261 218.84589 217.99616
 217.24744 216.43671 215.54399 214.91727 214.37654 214.64796 215.25420 215.17421
 214.14449 213.55511 213.64381 214.71870 217.68405 221.79976 226.61206 230.55455
 233.70177 237.36247 241.50156 245.90770 250.05672 253.83086 257.27521 260.47147
 263.34375 265.84558 268.03403 270.15414 272.18564 273.99716 275.71732 277.09558
 278.12198 279.45273 280.78937 282.11020 283.34064 284.43683 285.43695 286.34299
 287.15790 287.88354 288.51746 289.32532
 366.78100 356.34419 345.78539 334.66058 323.07278 311.27597 299.15516 286.96736
 274.68855 262.59475 250.61294 239.92313 230.05433 221.16752 213.35872 206.36991
 200.21311 195.16030 191.75149 189.80269 188.84888 188.92208 189.76627 191.08346
 192.81766 194.92185 197.19405 199.56224 202.01643 204.50563 206.60282 208.45402
 210.08921 211.24340 211.48160 211.71879 211.66499 211.37918 211.02138 210.66057
 210.28676 210.00596 209.82315 209.69635 209.63354 209.97373 210.36893 210.76712
 211.56932 212.75651 214.01570 215.80790 217.74509 219.79729 221.90148 223.99367
 226.06287 228.15606 230.26226 232.37745 234.51564 236.69684 238.96203 241.34123
 243.97142 246.23162 248.24281 250.01700 251.44320 252.57539 253.40659 253.73178
 253.77797 253.56117 252.93036 251.88756 250.50275 248.67294 246.59114 244.43333
 242.23353 240.04672 237.87591 235.72411 233.59330 231.46950 229.50469 227.67089
 225.96308 224.44427 223.08347 221.86466 220.75586 219.72505 218.83824 217.98844
 217.23963 216.42883 215.53602 214.90921 214.36841 214.64626 215.28116 215.33446
 214.24390 213.43195 213.45522 214.56958 217.60469 221.76422 226.62418 230.54872
 233.69914 237.37251 241.53004 245.96007 250.11444 253.85442 257.25330 260.42838
 263.30502 265.81528 267.98224 270.06375 272.11664 273.95175 275.71228 277.11276
 278.13501 279.33887 280.64722 281.99402 283.22440 284.31299 285.30615 286.20587
 287.01511 287.73569 288.36520 289.16745
 366.78100 356.34627 345.78954 334.66681 323.08108 311.28635 299.16762 286.98189
 274.70516 262.61343 250.63370 239.94597 230.07924 221.19451 213.38778 206.40105
 200.24632 195.19559 191.78886 189.84213 188.89040 188.96567 189.81194 191.13121
 192.86748 194.97375 197.24802 199.61829 202.07456 204.56583 206.66510 208.51837
 210.15564 211.31191 211.55218 211.79145 211.73972 211.45599 211.10026 210.74153
 210.36980 210.09107 209.91034 209.78561 209.72488 210.06714 210.46441 210.86468
 211.66895 212.85822 214.11949 215.91376 217.85303 219.90730 222.01357 224.10784
 226.17911 228.27438 230.38265 232.49992 234.64019 236.82346 239.09073 241.47200
 244.10427 246.36654 248.37981 250.15608 251.58435 252.71862 253.55189 253.87916
 253.92743 253.71270 253.08397 252.04324 250.66051 248.83278 246.75305 244.59732
 242.39959 240.21486 238.04613 235.89640 233.76767 231.64594 229.68321 227.85148
 226.14575 224.62902 223.27029 222.05356 220.94683 219.91810 219.03337 218.18564
 217.43891 216.63018 215.73945 215.11472 214.57599 214.76784 215.22902 215.37889
 214.46970 213.49252 213.28661 214.43820 217.54160 221.68266 226.65944 230.51143
 233.67677 237.38275 241.57359 245.99133 250.14774 253.88455 257.28632 260.43808
 263.31702 265.85989 268.04767 270.06503 272.03488 273.92249 275.68906 277.07254
 278.22086 279.43787 280.99152 282.40295 283.62448 284.70517 285.69116 286.58441
 287.38776 288.10318 288.72812 289.52457
 366.78100 356.34625 345.78951 334.66676 323.08102 311.28627 299.16753 286.98178
 274.70503 262.61329 250.63354 239.94580 230.07905 221.19430 213.38756 206.40081
 200.24607 195.19532 191.78858 189.84183 188.89008 188.96534 189.81159 191.13085
 192.86710 194.97335 197.24761 199.61786 202.07412 204.56537 206.66463 208.51788
 210.15513 211.31139 211.55164 211.79090 211.73915 211.45540 211.09966 210.74091
 210.36917 210.09042 209.90968 209.78493 209.72418 210.06644 210.46369 210.86395
 211.66820 212.85745 214.11871 215.91296 217.85222 219.90647 222.01273 224.10698
 226.17823 228.27349 230.38174 232.49900 234.63925 236.82250 239.08976 241.47101
 244.10327 246.36552 248.37878 250.15503 251.58328 252.71754 253.55079 253.87805
 253.92630 253.71155 253.08281 252.04206 250.65932 248.83157 246.75183 244.59608
 242.39833 240.21359 238.04484 235.89510 233.76635 231.64460 229.68186 227.85011
 226.14437 224.62762 223.26888 222.05213 220.94538 219.91664 219.03189 218.18415
 217.43740 216.62865 215.73791 215.11316 214.57442 214.79765 215.26761 215.29375
 214.69978 213.64835 213.11462 214.13292 217.33261 221.53635 226.59749 230.46182
 233.67523 237.43350 241.65709 246.07190 250.25423 254.00600 257.39517 260.53098
 263.41641 266.00461 268.23535 270.19244 272.01053 273.90176 275.68872 277.10373
 278.35654 280.13962 281.76093 283.18457 284.41660 285.50662 286.50110 287.40204
 288.21234 288.93390 289.56424 290.36755
 366.78100 356.34626 345.78952 334.66678 323.08104 311.28630 299.16756 286.98182
 274.70508 262.61334 250.63360 239.94586 230.07912 221.19438 213.38764 206.40090
 200.24616 195.19542 191.78868 189.84194 188.89020 188.96546 189.81172 191.13098
 192.86724 194.97350 197.24776 199.61802 202.07428 204.56554 206.66480 208.51806
 210.15532 211.31158 211.55184 211.79110 211.73936 211.45562 211.09988 210.74114
 210.36940 210.09066 209.90992 209.78518 209.72444 210.06670 210.46396 210.86422
 211.66848 212.85774 214.11900 215.91326 217.85252 219.90678 222.01304 224.10730
 226.17856 228.27382 230.38208 232.49934 234.63960 236.82286 239.09012 241.47138
 244.10364 246.36590 248.37916 250.15542 251.58368 252.71794 253.55120 253.87846
 253.92672 253.71198 253.08324 252.04250 250.65976 248.83202 246.75228 244.59654
 242.39880 240.21406 238.04532 235.89558 233.76684 231.64510 229.68236 227.85062
 226.14488 224.62814 223.26940 222.05266 220.94592 219.91718 219.03244 218.18470
 217.43796 216.62922 215.73848 215.11374 214.57500 214.82133 215.28682 215.23805
 214.92346 213.95143 213.04317 213.84576 217.12277 221.31853 226.37630 230.28294
 233.54469 237.36641 241.65567 246.12088 250.33446 254.09795 257.46826 260.60519
 263.51089 266.15143 268.40942 270.31500 272.05521 273.86240 275.66895 277.12354
 278.87439 280.83109 282.52426 284.01102 285.29767 286.43604 287.47461 288.41550
 289.26172 290.01526 290.67355 291.51248
 366.78100 356.34849 345.79398 334.67347 323.08996 311.29745 299.18095 286.99744
 274.72293 262.63342 250.65591 239.97040 230.10589 221.22338 213.41887 206.43436
 200.28186 195.23335 191.82884 189.88433 188.93482 189.01231 189.86080 191.18229
 192.92078 195.02927 197.30576 199.67826 202.13675 204.63024 206.73173 208.58722
 210.22671 211.38520 211.62769 211.86918 211.81967 211.53817 211.18466 210.82815
 210.45864 210.18213 210.00362 209.88111 209.82260 210.16709 210.56658 210.96907
 211.77557 212.96706 214.23055 216.02704 217.96853 220.02502 222.13351 224.23000
 226.30349 228.40098 230.51148 232.63097 234.77346 236.95895 239.22844 241.61193
 244.24642 246.51091 248.52640 250.30489 251.73539 252.87188 253.70737 254.03686
 254.08735 253.87484 253.24833 252.20982 250.82931 249.00380 246.92629 244.77279
 242.57728 240.39477 238.22826 236.08075 233.95424 231.83473 229.87422 228.04471
 226.34120 224.82670 223.47019 222.25568 221.15117 220.12466 219.24215 218.39664
 217.65213 216.84562 215.95711 215.33460 214.79810 214.93535 215.21146 215.22173
 215.00996 214.32524 213.30035 213.69418 216.91568 221.16565 226.12491 230.04504
 233.33771 237.22292 241.58339 246.09166 250.30438 254.06427 257.44403 260.60269
 263.53723 266.22101 268.53027 270.41565 272.16708 273.79852 275.62781 277.21924
 279.27600 281.28259 283.01898 284.54367 285.86313 287.03052 288.09561 289.06049
 289.92828 290.70108 291.37616 292.23648
 366.78100 356.34960 345.79619 334.67679 323.09439 311.30298 299.18758 287.00518
 274.73177 262.64337 250.66697 239.98256 230.11916 221.23776 213.43435 206.45095
 200.29955 195.25214 191.84874 189.90534 188.95693 189.03553 189.88513 191.20772
 192.94732 195.05692 197.33451 199.70811 202.16771 204.66230 206.76490 208.62149
 210.26209 211.42169 211.66528 211.90788 211.85948 211.57907 211.22667 210.87127
 210.50286 210.22746 210.05006 209.92865 209.87125 210.21685 210.61744 211.02104
 211.82864 213.02123 214.28583 216.08343 218.02602 220.08362 222.19322 224.29081
 226.36541 228.46401 230.57560 232.69620 234.83980 237.02639 239.29699 241.68159
 244.31718 246.58278 248.59938 250.37897 251.81057 252.94817 253.78476 254.11536
 254.16696 253.95555 253.33015 252.29275 250.91334 249.08894 247.01254 244.86013
 242.66573 240.48433 238.31892 236.17252 234.04712 231.92871 229.96931 228.14090
 226.43850 224.92510 223.56969 222.35629 221.25289 220.22748 219.34608 218.50168
 217.75827 216.95287 216.06547 215.44406 214.90866 214.98520 215.16888 215.23090
 214.93343 214.43419 213.65324 213.96452 216.88603 221.13441 225.97150 229.89917
 233.18950 237.11324 241.50885 246.01816 250.20401 253.94255 257.33743 260.51184
 263.46515 266.15002 268.48373 270.42996 272.24353 273.85950 275.62375 277.32751
 279.22610 281.15668 282.95453 284.53317 285.89932 287.10806 288.21082 289.20987
 290.10840 290.90854 291.60751 292.49829
 366.78100 356.34897 345.79494 334.67492 323.09189 311.29986 299.18383 287.00080
 274.72678 262.63775 250.66072 239.97569 230.11166 221.22963 213.42561 206.44158
 200.28955 195.24152 191.83749 189.89347 188.94444 189.02241 189.87138 191.19335
 192.93233 195.04130 197.31827 199.69124 202.15021 204.64419 206.74616 208.60213
 210.24210 211.40107 211.64405 211.88602 211.83699 211.55596 211.20293 210.84690
 210.47788 210.20185 210.02382 209.90179 209.84376 210.18874 210.58871 210.99168
 211.79865 212.99062 214.25460 216.05157 217.99354 220.05051 222.15948 224.25646
 226.33043 228.42840 230.53937 232.65934 234.80231 236.98829 239.25826 241.64223
 244.27720 246.54217 248.55815 250.33712 251.76809 252.90506 253.74103 254.07101
 254.12198 253.90995 253.28392 252.24589 250.86587 249.04084 246.96381 244.81078
 242.61575 240.43373 238.26770 236.12067 233.99464 231.87561 229.91558 228.08656
 226.38353 224.86950 223.51347 222.29944 221.19542 220.16939 219.28736 218.44233
 217.69830 216.89228 216.00425 215.38222 214.84619 214.95300 215.19543 215.24484
 214.91290 214.31230 213.69724 214.15443 216.92760 221.12100 225.90576 229.82968
 233.09380 237.05074 241.50465 246.04576 250.23547 253.96266 257.34500 260.50305
 263.45135 266.12900 268.42194 270.36752 272.23944 274.00998 275.53537 277.17538
 279.03595 280.79968 282.51169 284.04385 285.36984 286.54300 287.61331 288.58298
 289.45505 290.23166 290.91006 291.77463
 366.78100 356.34865 345.79430 334.67394 323.09059 311.29824 299.18189 286.99853
 274.72418 262.63483 250.65748 239.97212 230.10777 221.22542 213.42107 206.43671
 200.28436 195.23601 191.83166 189.88731 188.93795 189.01560 189.86425 191.18590
 192.92454 195.03319 197.30984 199.68249 202.14113 204.63478 206.73643 208.59208
 210.23173 211.39037 211.63302 211.87467 211.82532 211.54396 211.19061 210.83426
 210.46491 210.18855 210.01020 209.88785 209.82950 210.17414 210.57379 210.97644
 211.78309 212.97474 214.23838 216.03503 217.97668 220.03333 222.14197 224.23862
 226.31227 228.40992 230.52056 232.64021 234.78286 236.96851 239.23816 241.62180
 244.25645 246.52110 248.53675 250.31539 251.74604 252.88269 253.71834 254.04798
 254.09863 253.88628 253.25993 252.22157 250.84122 249.01587 246.93852 244.78517
 242.58981 240.40746 238.24111 236.09376 233.96740 231.84805 229.88770 228.05835
 226.35499 224.84064 223.48429 222.26994 221.16559 220.13923 219.25688 218.41153
 217.66718 216.86082 215.97247 215.35012 214.81377 214.93210 215.19695 215.26134
 215.02649 214.20166 213.54939 214.16501 216.90500 221.07402 225.82353 229.75102
 233.00937 237.00597 241.53462 246.12361 250.32933 254.06233 257.44244 260.59918
 263.54309 266.21207 268.49927 270.39655 272.27368 274.16656 275.70990 277.15997
 278.79227 280.40323 281.90170 283.35449 284.62540 285.74985 286.77570 287.70508
 288.54095 289.28531 289.93555 290.76422
 366.78100 356.34775 345.79250 334.67125 323.08700 311.29375 299.17650 286.99225
 274.71700 262.62674 250.64849 239.96224 230.09699 221.21374 213.40849 206.42324
 200.26999 195.22074 191.81549 189.87024 188.91999 188.99674 189.84449 191.16524
 192.90299 195.01073 197.28648 199.65823 202.11598 204.60873 206.70948 208.56423
 210.20298 211.36073 211.60248 211.84323 211.79298 211.51073 211.15648 210.79923
 210.42898 210.15172 209.97247 209.84922 209.78997 210.13372 210.53247 210.93422
 211.73997 212.93072 214.19347 215.98922 217.92997 219.98572 222.09347 224.18922
 226.26197 228.35871 230.46846 232.58721 234.72896 236.91371 239.18246 241.56521
 244.19896 246.46271 248.47746 250.25521 251.68496 252.82071 253.65546 253.98421
 254.03396 253.82070 253.19345 252.15420 250.77295 248.94670 246.86845 244.71420
 242.51795 240.33470 238.16745 236.01920 233.89195 231.77170 229.81045 227.98020
 226.27595 224.76069 223.40344 222.18819 221.08294 220.05569 219.17244 218.32619
 217.58094 216.77369 215.88444 215.26119 214.72394 214.88441 215.23273 215.21756
 215.19592 214.29384 213.41618 214.02879 216.77260 220.94185 225.69130 229.61595
 232.92984 236.97664 241.53325 246.12086 250.33430 254.07840 257.46042 260.63412
 263.60004 266.28619 268.58307 270.47968 272.28055 274.17715 275.85242 277.29581
 278.67310 280.08731 281.35352 282.60944 283.85681 284.97009 285.98578 286.90591
 287.73346 288.47043 289.11420 289.93463
 366.78100 356.34528 345.78756 334.66384 323.07712 311.28140 299.16168 286.97496
 274.69725 262.60453 250.62381 239.93509 230.06737 221.18165 213.37393 206.38621
 200.23049 195.17877 191.77105 189.82333 188.87061 188.94489 189.79017 191.10846
 192.84374 194.94902 197.22230 199.59158 202.04686 204.53714 206.63542 208.48770
 210.12398 211.27926 211.51854 211.75682 211.70410 211.41938 211.06267 210.70295
 210.33023 210.05051 209.86879 209.74307 209.68135 210.02263 210.41891 210.81819
 211.62147 212.80975 214.07003 215.86331 217.80159 219.85488 221.96016 224.05344
 226.12372 228.21800 230.32528 232.44156 234.58084 236.76312 239.02940 241.40968
 244.04096 246.30224 248.31452 250.08980 251.51708 252.65037 253.48265 253.80893
 253.85621 253.64049 253.01077 251.96905 250.58533 248.75661 246.67589 244.51917
 242.32045 240.13473 237.96501 235.81429 233.68458 231.56186 229.59814 227.76542
 226.05870 224.54098 223.18126 221.96354 220.85582 219.82610 218.94038 218.09166
 217.34394 216.53422 215.64250 215.01679 214.47707 214.75835 215.36797 215.10333
 215.14334 214.51984 213.46777 213.87326 216.61372 220.82648 225.60425 229.45839
 232.83316 236.92038 241.51501 246.09944 250.28867 254.01918 257.41696 260.61591
 263.63373 266.39664 268.75681 270.66867 272.44699 274.29230 275.95770 277.42102
 278.86063 280.11038 281.19974 282.14777 283.22263 284.31796 285.32672 286.24060
 287.06253 287.79446 288.43387 289.24872
 366.78100 356.34598 345.78896 334.66594 323.07991 311.28489 299.16587 286.97985
 274.70283 262.61081 250.63078 239.94276 230.07574 221.19072 213.38370 206.39668
 200.24166 195.19063 191.78361 189.83659 188.88457 188.95955 189.80553 191.12450
 192.86048 194.96646 197.24044 199.61042 202.06640 204.55737 206.65635 208.50933
 210.14631 211.30229 211.54227 211.78125 211.72922 211.44520 211.08918 210.73016
 210.35814 210.07912 209.89809 209.77307 209.71205 210.05403 210.45101 210.85099
 211.65497 212.84394 214.10492 215.89890 217.83788 219.89186 221.99784 224.09181
 226.16279 228.25777 230.36575 232.48273 234.62271 236.80569 239.07266 241.45364
 244.08562 246.34760 248.36058 250.13656 251.56453 252.69851 253.53149 253.85847
 253.90645 253.69143 253.06240 252.02138 250.63836 248.81034 246.73032 244.57430
 242.37628 240.19125 238.02223 235.87221 233.74319 231.62117 229.65815 227.82612
 226.12010 224.60308 223.24406 222.02704 220.92002 219.89100 219.00597 218.15795
 217.41093 216.60191 215.71089 215.08587 214.54684 214.77850 215.30991 215.20317
 215.14702 214.62659 213.46033 213.66594 216.44109 220.72104 225.60106 229.31851
 232.79182 236.87762 241.48756 246.06134 250.22124 253.93086 257.32281 260.52939
 263.57425 266.39175 268.84299 270.85443 272.65137 274.47552 276.11108 277.53766
 278.89825 280.16339 281.21521 282.15820 283.00879 283.84909 284.76932 285.66766
 286.47562 287.19510 287.82364 288.62463
 366.78100 356.34885 345.79470 334.67455 323.09140 311.29925 299.18311 286.99996
 274.72581 262.63666 250.65951 239.97436 230.11021 221.22806 213.42391 206.43976
 200.28761 195.23947 191.83532 189.89117 188.94202 189.01987 189.86872 191.19057
 192.92942 195.03827 197.31512 199.68797 202.14683 204.64068 206.74253 208.59838
 210.23823 211.39708 211.63993 211.88178 211.83263 211.55148 211.19833 210.84219
 210.47304 210.19689 210.01874 209.89659 209.83844 210.18329 210.58314 210.98599
 211.79284 212.98469 214.24855 216.04540 217.98725 220.04410 222.15295 224.24980
 226.32365 228.42150 230.53235 232.65220 234.79505 236.98091 239.25076 241.63461
 244.26946 246.53431 248.55016 250.32901 251.75986 252.89671 253.73256 254.06241
 254.11327 253.90112 253.27497 252.23682 250.85667 249.03152 246.95437 244.80122
 242.60607 240.42392 238.25777 236.11063 233.98448 231.86533 229.90518 228.07603
 226.37288 224.85873 223.50258 222.28843 221.18428 220.15813 219.27599 218.43084
 217.68669 216.88054 215.99239 215.37024 214.83409 214.92328 215.13445 215.29730
 215.33401 214.70506 213.45770 213.52615 216.30629 220.62367 225.50836 229.24271
 232.69849 236.84053 241.48674 246.07399 250.21996 253.90273 257.26486 260.43909
 263.46075 266.29913 268.80405 270.87030 272.72705 274.57071 276.17786 277.57797
 278.91183 280.13895 281.15723 282.05316 282.89478 283.70358 284.61157 285.48578
 286.27203 286.97220 287.58386 288.36334
 366.78100 356.34934 345.79569 334.67603 323.09337 311.30172 299.18606 287.00340
 274.72975 262.64109 250.66443 239.97978 230.11612 221.23446 213.43081 206.44715
 200.29549 195.24784 191.84418 189.90052 188.95187 189.03021 189.87955 191.20190
 192.94124 195.05058 197.32793 199.70127 202.16061 204.65496 206.75730 208.61364
 210.25399 211.41333 211.65667 211.89902 211.85036 211.56970 211.21705 210.86139
 210.49273 210.21708 210.03942 209.91776 209.86011 210.20545 210.60579 211.00914
 211.81648 213.00882 214.27317 216.07051 218.01285 220.07020 222.17954 224.27688
 226.35123 228.44957 230.56091 232.68126 234.82460 237.01094 239.28129 241.66563
 244.30097 246.56632 248.58266 250.36200 251.79335 252.93069 253.76703 254.09738
 254.14872 253.93706 253.31141 252.27375 250.89409 249.06944 246.99278 244.84012
 242.64547 240.46381 238.29815 236.15149 234.02584 231.90718 229.94752 228.11887
 226.41621 224.90255 223.54690 222.33324 221.22958 220.20393 219.32227 218.47761
 217.73396 216.92830 216.04064 215.41899 214.88333 214.96112 215.14081 215.21506
 215.29283 214.73203 213.61075 213.68585 216.34380 220.57288 225.39571 229.23888
 232.65677 236.85019 241.51596 246.12279 250.29297 253.98845 257.34680 260.48950
 263.45950 266.27859 268.79767 270.89679 272.81534 274.63242 276.21625 277.62515
 278.94846 280.11087 281.05280 281.89041 282.76807 283.79620 284.75601 285.62552
 286.40753 287.10394 287.71231 288.48758
 366.78100 356.34751 345.79203 334.67054 323.08606 311.29257 299.17508 286.99060
 274.71511 262.62463 250.64614 239.95965 230.09417 221.21068 213.40520 206.41971
 200.26623 195.21674 191.81125 189.86577 188.91528 188.99180 189.83931 191.15982
 192.89734 195.00485 197.28037 199.65188 202.10939 204.60191 206.70242 208.55694
 210.19545 211.35296 211.59448 211.83499 211.78451 211.50202 211.14754 210.79005
 210.41956 210.14208 209.96259 209.83911 209.77962 210.12313 210.52165 210.92316
 211.72868 212.91919 214.18170 215.97722 217.91773 219.97325 222.08076 224.17627
 226.24879 228.34530 230.45482 232.57333 234.71485 236.89936 239.16787 241.55039
 244.18390 246.44742 248.46193 250.23944 251.66896 252.80447 253.63899 253.96750
 254.01701 253.80353 253.17604 252.13656 250.75507 248.92858 246.85010 244.69561
 242.49913 240.31564 238.14816 235.99967 233.87218 231.75170 229.79021 227.95973
 226.25524 224.73975 223.38227 222.16678 221.06130 220.03381 219.15032 218.30384
 217.55835 216.75087 215.86138 215.23789 214.70041 214.87071 215.25073 215.16722
 215.13078 214.70595 213.72969 213.75444 216.32585 220.52556 225.33763 229.18468
 232.62196 236.83765 241.52875 246.16756 250.36040 254.06903 257.43118 260.55206
 263.47934 266.27515 268.83325 270.98480 272.94156 274.77798 276.35248 277.72363
 279.02145 280.14520 281.00226 281.77237 282.75739 283.77625 284.71747 285.57013
 286.33701 287.01993 287.61649 288.37677
 366.78100 356.34712 345.79125 334.66937 323.08449 311.29062 299.17274 286.98786
 274.71198 262.62111 250.64223 239.95535 230.08948 221.20560 213.39972 206.41385
 200.25997 195.21009 191.80421 189.85834 188.90746 188.98358 189.83071 191.15083
 192.88795 194.99508 197.27020 199.64132 202.09844 204.59057 206.69069 208.54481
 210.18294 211.34006 211.58118 211.82131 211.77043 211.48755 211.13267 210.77480
 210.40392 210.12604 209.94617 209.82229 209.76241 210.10554 210.50366 210.90478
 211.70990 212.90003 214.16215 215.95727 217.89740 219.95252 222.05964 224.15477
 226.22689 228.32301 230.43213 232.55026 234.69138 236.87550 239.14363 241.52575
 244.15887 246.42200 248.43612 250.21324 251.64236 252.77749 253.61161 253.93973
 253.98886 253.77498 253.14710 252.10723 250.72535 248.89847 246.81959 244.66472
 242.46784 240.28396 238.11609 235.96721 233.83933 231.71846 229.75658 227.92570
 226.22082 224.70495 223.34707 222.13119 221.02532 219.99744 219.11356 218.26669
 217.52081 216.71293 215.82305 215.19918 214.66130 214.84210 215.25616 215.25310
 215.07251 214.63388 213.70433 213.68443 216.22614 220.42638 225.23820 229.06070
 232.55215 236.79893 241.51079 246.16663 250.37102 254.09248 257.46323 260.57413
 263.47366 266.24182 268.81918 271.03293 273.02350 274.89511 276.46198 277.80386
 279.07498 280.16138 280.99991 281.74380 282.65750 283.63293 284.52890 285.33850
 286.06662 286.71503 287.28146 288.00330
 366.78100 356.34826 345.79353 334.67279 323.08906 311.29632 299.17958 286.99585
 274.72111 262.63138 250.65364 239.96790 230.10317 221.22043 213.41570 206.43096
 200.27822 195.22949 191.82475 189.88002 188.93028 189.00755 189.85581 191.17707
 192.91534 195.02360 197.29987 199.67213 202.13039 204.62366 206.72492 208.58019
 210.21945 211.37771 211.61998 211.86124 211.81151 211.52977 211.17603 210.81930
 210.44956 210.17283 209.99409 209.87135 209.81262 210.15688 210.55615 210.95841
 211.76467 212.95594 214.21920 216.01547 217.95673 220.01300 222.12126 224.21752
 226.29079 228.38805 230.49832 232.61758 234.75984 236.94511 239.21437 241.59764
 244.23190 246.49616 248.51143 250.28969 251.71996 252.85622 253.69148 254.02075
 254.07101 253.85828 253.23154 252.19280 250.81207 248.98633 246.90860 244.75486
 242.55912 240.37639 238.20965 236.06192 233.93518 231.81545 229.85471 228.02497
 226.32124 224.80650 223.44977 222.23503 221.13029 220.10356 219.22082 218.37509
 217.63035 216.82361 215.93488 215.31214 214.77541 214.89447 215.17516 215.33826
 215.09624 214.60905 213.73407 213.66605 216.17725 220.34779 225.12477 228.93103
 232.46678 236.75345 241.49084 246.15312 250.35767 254.08510 257.46890 260.58887
 263.47696 266.23053 268.82941 271.10800 273.18066 275.05869 276.63361 277.96674
 279.19806 280.24438 281.04721 281.73502 282.54968 283.45239 284.32114 285.10608
 285.81204 286.44070 286.98990 287.68976
 366.78100 356.34806 345.79312 334.67219 323.08825 311.29531 299.17837 286.99443
 274.71950 262.62956 250.65162 239.96568 230.10074 221.21780 213.41287 206.42793
 200.27499 195.22605 191.82111 189.87618 188.92624 189.00330 189.85136 191.17242
 192.91049 195.01855 197.29461 199.66667 202.12473 204.61779 206.71886 208.57392
 210.21298 211.37104 211.61310 211.85417 211.80423 211.52229 211.16835 210.81141
 210.44148 210.16454 209.98560 209.86266 209.80372 210.14778 210.54685 210.94891
 211.75497 212.94603 214.20909 216.00516 217.94622 220.00228 222.11034 224.20640
 226.27947 228.37653 230.48659 232.60565 234.74771 236.93277 239.20184 241.58490
 244.21896 246.48302 248.49808 250.27615 251.70621 252.84227 253.67733 254.00639
 254.05646 253.84352 253.21658 252.17764 250.79670 248.97076 246.89283 244.73889
 242.54295 240.36001 238.19307 236.04514 233.91820 231.79826 229.83732 228.00738
 226.30345 224.78851 223.43157 222.21663 221.11169 220.08475 219.20182 218.35588
 217.61094 216.80400 215.91506 215.29213 214.75519 214.88110 215.17717 215.32599
 215.12473 214.57272 213.80940 213.71436 216.20276 220.34608 225.10037 228.85074
 232.40439 236.71161 241.46655 246.11702 250.29321 254.00420 257.39047 260.52039
 263.41641 266.17709 268.80884 271.17313 273.32675 275.29907 276.92371 278.25659
 279.46475 280.49606 281.29138 281.92090 282.56503 283.38412 284.24985 285.06311
 285.79495 286.44669 287.01602 287.74158
 366.78100 356.34697 345.79094 334.66891 323.08388 311.28985 299.17182 286.98679
 274.71076 262.61973 250.64070 239.95367 230.08765 221.20362 213.39759 206.41156
 200.25753 195.20750 191.80147 189.85544 188.90441 188.98038 189.82735 191.14732
 192.88429 194.99126 197.26623 199.63720 202.09417 204.58614 206.68611 208.54008
 210.17805 211.33502 211.57599 211.81596 211.76494 211.48191 211.12688 210.76885
 210.39782 210.11979 209.93976 209.81573 209.75570 210.09867 210.49664 210.89761
 211.70258 212.89255 214.15452 215.94949 217.88946 219.94443 222.05140 224.14637
 226.21834 228.31431 230.42328 232.54125 234.68223 236.86620 239.13417 241.51614
 244.14911 246.41208 248.42605 250.20302 251.63199 252.76696 253.60093 253.92890
 253.97787 253.76384 253.13581 252.09578 250.71375 248.88672 246.80769 244.65266
 242.45563 240.27160 238.10357 235.95454 233.82652 231.70549 229.74346 227.91243
 226.20740 224.69137 223.33334 222.11731 221.01128 219.98325 219.09922 218.25219
 217.50616 216.69813 215.80810 215.18407 214.64604 214.81905 215.22641 215.28226
 215.25330 214.54570 213.72968 213.65836 216.22472 220.39905 225.17747 228.80984
 232.37047 236.68073 241.45448 246.09714 250.24393 253.92749 257.28986 260.39862
 263.27661 266.01987 268.66519 271.10867 273.34326 275.37631 277.06818 278.44855
 279.67361 280.71362 281.52280 282.18091 282.79666 283.44510 284.21127 284.96970
 285.62833 286.20438 286.70761 287.34894
 366.78100 356.34672 345.79043 334.66815 323.08287 311.28858 299.17030 286.98502
 274.70873 262.61745 250.63817 239.95088 230.08460 221.20031 213.39403 206.40775
 200.25346 195.20318 191.79690 189.85061 188.89933 188.97505 189.82176 191.14148
 192.87820 194.98491 197.25963 199.63035 202.08706 204.57878 206.67850 208.53221
 210.16993 211.32664 211.56736 211.80708 211.75579 211.47251 211.11723 210.75894
 210.38766 210.10938 209.92909 209.80481 209.74453 210.08724 210.48496 210.88568
 211.69039 212.88011 214.14183 215.93654 217.87626 219.93098 222.03769 224.13241
 226.20412 228.29984 230.40856 232.52627 234.66699 236.85071 239.11842 241.50014
 244.13286 246.39557 248.40929 250.18601 251.61472 252.74944 253.58316 253.91087
 253.95959 253.74531 253.11702 252.07674 250.69445 248.86717 246.78789 244.63260
 242.43532 240.25104 238.08275 235.93347 233.80519 231.68390 229.72162 227.89034
 226.18505 224.66877 223.31049 222.09420 220.98792 219.95964 219.07535 218.22807
 217.48179 216.67350 215.78322 215.15893 214.62065 214.80365 215.23601 215.24213
 215.37741 214.57304 213.53554 213.49384 216.20074 220.43330 225.22125 228.79436
 232.34959 236.66284 241.46700 246.12642 250.27696 253.95874 257.30743 260.38751
 263.20987 265.89175 268.50494 270.96802 273.25671 275.33542 277.05911 278.46558
 279.70602 280.74680 281.55313 282.23544 282.90338 283.55496 284.28995 285.02573
 285.65137 286.13754 286.55981 287.09793
 366.78100 356.34704 345.79109 334.66913 323.08418 311.29022 299.17226 286.98731
 274.71135 262.62040 250.64144 239.95448 230.08853 221.20457 213.39862 206.41266
 200.25870 195.20875 191.80279 189.85684 188.90588 188.98192 189.82897 191.14901
 192.88606 194.99310 197.26814 199.63919 202.09623 204.58828 206.68832 208.54236
 210.18041 211.33745 211.57849 211.81854 211.76758 211.48463 211.12967 210.77171
 210.40076 210.12280 209.94285 209.81889 209.75893 210.10198 210.50002 210.90107
 211.70611 212.89615 214.15820 215.95324 217.89329 219.94833 222.05537 224.15042
 226.22246 228.31851 230.42755 232.54559 234.68664 236.87068 239.13873 241.52077
 244.15381 246.41686 248.43090 250.20795 251.63699 252.77203 253.60608 253.93412
 253.98317 253.76921 253.14125 252.10130 250.71934 248.89239 246.81343 244.65847
 242.46152 240.27756 238.10961 235.96065 233.83269 231.71174 229.74978 227.91883
 226.21387 224.69791 223.33996 222.12400 221.01804 219.99009 219.10613 218.25918
 217.51322 216.70526 215.81531 215.19135 214.65340 214.82214 215.22081 215.23317
 215.38408 214.63332 213.45610 213.39795 216.14723 220.41151 225.18193 228.76381
 232.32359 236.64812 241.47232 246.14803 250.31898 254.02188 257.38141 260.45657
 263.24930 265.87585 268.42853 270.88641 273.21396 275.33154 277.07288 278.49585
 279.74161 280.76340 281.55087 282.24121 282.91147 283.58817 284.37823 285.12860
 285.72290 286.18896 286.59079 287.10287
 366.78100 356.34703 345.79107 334.66910 323.08414 311.29017 299.17221 286.98724
 274.71128 262.62031 250.64135 239.95438 230.08842 221.20445 213.39849 206.41252
 200.25856 195.20859 191.80263 189.85666 188.90570 188.98173 189.82877 191.14880
 192.88584 194.99287 197.26791 199.63894 202.09597 204.58801 206.68804 208.54208
 210.18011 211.33715 211.57818 211.81822 211.76725 211.48429 211.12932 210.77136
 210.40039 210.12243 209.94246 209.81850 209.75853 210.10157 210.49960 210.90064
 211.70567 212.89571 214.15774 215.95278 217.89281 219.94784 222.05488 224.14991
 226.22195 228.31798 230.42702 232.54505 234.68609 236.87012 239.13816 241.52019
 244.15323 246.41626 248.43030 250.20733 251.63637 252.77140 253.60544 253.93347
 253.98251 253.76854 253.14058 252.10061 250.71865 248.89168 246.81272 244.65775
 242.46078 240.27682 238.10885 235.95989 233.83192 231.71096 229.74899 227.91803
 226.21306 224.69710 223.33913 222.12317 221.01720 219.98924 219.10527 218.25831
 217.51234 216.70438 215.81441 215.19045 214.65248 214.82271 215.22487 215.25095
 215.30173 214.66164 213.51628 213.38893 216.08835 220.36034 225.09547 228.69098
 232.27904 236.62369 241.45975 246.13580 250.31108 254.02634 257.40088 260.48602
 263.27594 265.87921 268.39545 270.84427 273.21182 275.38095 277.15918 278.60449
 279.84589 280.84802 281.63162 282.30286 282.91672 283.58325 284.40738 285.16040
 285.75635 286.21066 286.59653 287.08829
 366.78100 356.34653 345.79006 334.66760 323.08213 311.28766 299.16919 286.98372
 274.70725 262.61579 250.63632 239.94885 230.08238 221.19791 213.39144 206.40498
 200.25051 195.20004 191.79357 189.84710 188.89563 188.97117 189.81770 191.13723
 192.87376 194.98029 197.25482 199.62536 202.08189 204.57342 206.67295 208.52648
 210.16402 211.32055 211.56108 211.80061 211.74914 211.46567 211.11021 210.75174
 210.38027 210.10180 209.92133 209.79686 209.73640 210.07893 210.47646 210.87699
 211.68152 212.87105 214.13259 215.92712 217.86665 219.92118 222.02771 224.12225
 226.19378 228.28931 230.39784 232.51537 234.65590 236.83944 239.10697 241.48850
 244.12103 246.38356 248.39709 250.17363 251.60216 252.73669 253.57022 253.89775
 253.94628 253.73182 253.10335 252.06288 250.68041 248.85294 246.77347 244.61801
 242.42054 240.23607 238.06760 235.91813 233.78967 231.66820 229.70573 227.87426
 226.16879 224.65232 223.29386 222.07739 220.97092 219.94245 219.05798 218.21051
 217.46405 216.65558 215.76511 215.14064 214.60217 214.79668 215.25620 215.27718
 215.19829 214.59451 213.60760 213.43790 216.07378 220.31927 225.02269 228.63713
 232.24512 236.60475 241.44475 246.10455 250.26993 253.98828 257.37460 260.47192
 263.26923 265.86520 268.35095 270.79828 273.20456 275.43411 277.26151 278.73535
 279.97708 280.97665 281.77167 282.41357 282.96411 283.54788 284.33142 285.07895
 285.68790 286.14072 286.51389 286.98944
 366.78100 356.34602 345.78903 334.66605 323.08007 311.28508 299.16610 286.98012
 274.70314 262.61115 250.63117 239.94319 230.07620 221.19122 213.38424 206.39725
 200.24227 195.19129 191.78430 189.83732 188.88534 188.96035 189.80637 191.12539
 192.86141 194.96742 197.24144 199.61146 202.06747 204.55849 206.65751 208.51052
 210.14754 211.30356 211.54357 211.78259 211.73061 211.44663 211.09064 210.73166
 210.35968 210.08069 209.89971 209.77473 209.71374 210.05576 210.45278 210.85279
 211.65681 212.84583 214.10684 215.90086 217.83988 219.89390 221.99991 224.09393
 226.16495 228.25996 230.36798 232.48500 234.62501 236.80803 239.07505 241.45606
 244.08808 246.35010 248.36312 250.13913 251.56715 252.70117 253.53418 253.86120
 253.90922 253.69423 253.06525 252.02427 250.64128 248.81330 246.73332 244.57733
 242.37935 240.19437 238.02539 235.87540 233.74642 231.62444 229.66145 227.82947
 226.12349 224.60650 223.24752 222.03054 220.92355 219.89457 219.00959 218.16161
 217.41462 216.60564 215.71466 215.08967 214.55069 214.76964 215.28693 215.30106
 215.14986 214.46469 213.61302 213.48717 216.08200 220.32617 224.98784 228.62038
 232.23648 236.59814 241.43034 246.07921 250.23233 253.95164 257.34695 260.45270
 263.25650 265.84949 268.31583 270.74820 273.19467 275.48920 277.36993 278.86914
 280.11652 281.13132 281.93991 282.54993 283.03384 283.52798 284.25970 285.00977
 285.62939 286.09134 286.45712 286.92328
 366.78100 356.34564 345.78828 334.66492 323.07855 311.28319 299.16383 286.97747
 274.70011 262.60775 250.62739 239.93902 230.07166 221.18630 213.37894 206.39158
 200.23622 195.18486 191.77750 189.83013 188.87777 188.95241 189.79805 191.11669
 192.85233 194.95797 197.23160 199.60124 202.05688 204.54752 206.64616 208.49880
 210.13544 211.29107 211.53071 211.76935 211.71699 211.43263 211.07627 210.71691
 210.34455 210.06518 209.88382 209.75846 209.69710 210.03874 210.43538 210.83502
 211.63865 212.82729 214.08793 215.88157 217.82021 219.87385 221.97949 224.07312
 226.14376 228.23840 230.34604 232.46268 234.60232 236.78496 239.05160 241.43223
 244.06387 246.32551 248.33815 250.11379 251.54143 252.67507 253.50770 253.83434
 253.88198 253.66662 253.03726 251.99590 250.61254 248.78417 246.70381 244.54745
 242.34909 240.16373 237.99437 235.84401 233.71465 231.59228 229.62892 227.79656
 226.09020 224.57284 223.21348 221.99612 220.88875 219.85939 218.97403 218.12567
 217.37831 216.56895 215.67759 215.05222 214.51286 214.74989 215.30991 215.31097
 215.15227 214.38696 213.54593 213.46227 216.08501 220.29759 224.96883 228.63350
 232.24750 236.60176 241.42084 246.06055 250.20377 253.92702 257.33035 260.44031
 263.24356 265.82623 268.27118 270.69647 273.17477 275.53586 277.46561 278.99304
 280.25958 281.29861 282.11707 282.69388 283.13074 283.55469 284.18994 284.94421
 285.60776 286.08978 286.43594 286.87708
 366.78100 356.34523 345.78747 334.66370 323.07693 311.28116 299.16140 286.97463
 274.69686 262.60410 250.62333 239.93456 230.06679 221.18103 213.37326 206.38549
 200.22973 195.17796 191.77019 189.82243 188.86966 188.94389 189.78912 191.10736
 192.84259 194.94782 197.22106 199.59029 202.04552 204.53575 206.63399 208.48622
 210.12245 211.27769 211.51692 211.75515 211.70238 211.41762 211.06085 210.70108
 210.32832 210.04855 209.86678 209.74101 209.67925 210.02048 210.41671 210.81595
 211.61918 212.80741 214.06765 215.86088 217.79911 219.85234 221.95758 224.05081
 226.12104 228.21528 230.32251 232.43874 234.57797 236.76021 239.02644 241.40667
 244.03791 246.29914 248.31137 250.08660 251.51384 252.64707 253.47930 253.80554
 253.85277 253.63700 253.00723 251.96547 250.58170 248.75293 246.67217 244.51540
 242.31663 240.13086 237.96110 235.81033 233.68056 231.55780 229.59403 227.76126
 226.05450 224.53673 223.17696 221.95919 220.85143 219.82166 218.93589 218.08713
 217.33936 216.52959 215.63782 215.01206 214.47229 214.72910 215.33580 215.32292
 215.13014 214.35825 213.46313 213.39243 216.06378 220.25911 224.95023 228.66258
 232.26642 236.60800 241.41010 246.04367 250.18198 253.90999 257.31821 260.42847
 263.23010 265.80469 268.22546 270.64230 273.15280 275.56769 277.54489 279.09564
 280.38470 281.44681 282.25635 282.79749 283.21805 283.61258 284.17972 284.90503
 285.57993 286.07306 286.39975 286.81604
 366.78100 356.34471 345.78642 334.66213 323.07484 311.27856 299.15827 286.97098
 274.69269 262.59940 250.61811 239.92882 230.06053 221.17425 213.36596 206.37767
 200.22138 195.16909 191.76080 189.81251 188.85922 188.93294 189.77765 191.09536
 192.83007 194.93478 197.20749 199.57620 202.03091 204.52062 206.61834 208.47005
 210.10576 211.26047 211.49918 211.73689 211.68360 211.39831 211.04103 210.68074
 210.30745 210.02716 209.84487 209.71858 209.65629 209.99700 210.39272 210.79143
 211.59414 212.78185 214.04156 215.83427 217.77198 219.82469 221.92940 224.02212
 226.09183 228.18554 230.29225 232.40796 234.54667 236.72838 238.99409 241.37381
 244.00452 246.26523 248.27694 250.05165 251.47836 252.61107 253.44278 253.76850
 253.81521 253.59892 252.96863 251.92634 250.54205 248.71276 246.63147 244.47418
 242.27490 240.08861 237.91832 235.76703 233.63674 231.51345 229.54916 227.71587
 226.00859 224.49030 223.13001 221.91172 220.80343 219.77314 218.88685 218.03756
 217.28928 216.47899 215.58670 214.96041 214.42012 214.70171 215.36699 215.35965
 215.06281 214.32835 213.41084 213.32701 216.03989 220.20685 224.91077 228.68434
 232.28944 236.62143 241.40228 246.02480 250.15805 253.89236 257.30789 260.42136
 263.22247 265.78836 268.19278 270.59933 273.14062 275.59897 277.61609 279.19937
 280.52054 281.59729 282.37817 282.87344 283.27878 283.68237 284.25235 284.97894
 285.66464 286.17773 286.54065 287.00314
 366.78100 356.34447 345.78594 334.66141 323.07388 311.27735 299.15682 286.96929
 274.69076 262.59723 250.61570 239.92617 230.05765 221.17112 213.36259 206.37406
 200.21753 195.16500 191.75647 189.80794 188.85441 188.92788 189.77235 191.08982
 192.82429 194.92876 197.20123 199.56970 202.02417 204.51364 206.61111 208.46258
 210.09805 211.25252 211.49099 211.72846 211.67494 211.38941 211.03188 210.67135
 210.29782 210.01729 209.83476 209.70823 209.64570 209.98617 210.38164 210.78011
 211.58258 212.77005 214.02952 215.82199 217.75946 219.81193 221.91640 224.00887
 226.07834 228.17181 230.27828 232.39375 234.53223 236.71370 238.97917 241.35864
 243.98911 246.24958 248.26105 250.03552 251.46199 252.59446 253.42593 253.75140
 253.79787 253.58134 252.95081 251.90828 250.52375 248.69422 246.61269 244.45516
 242.25563 240.06910 237.89857 235.74704 233.61652 231.49299 229.52846 227.69493
 225.98740 224.46887 223.10834 221.88981 220.78128 219.75075 218.86422 218.01469
 217.26616 216.45563 215.56310 214.93657 214.39604 214.68724 215.37524 215.42155
 215.03003 214.24040 213.32817 213.24617 215.99448 220.16235 224.88333 228.70810
 232.31288 236.62970 241.38942 246.00954 250.14581 253.88954 257.30969 260.42294
 263.22269 265.78381 268.17468 270.56339 273.11560 275.63889 277.69144 279.29486
 280.63754 281.71729 282.47256 282.95731 283.35333 283.73431 284.24380 284.89700
 285.54559 286.06927 286.46344 286.96579
 366.78100 356.34396 345.78492 334.65988 323.07184 311.27480 299.15376 286.96572
 274.68668 262.59263 250.61059 239.92055 230.05151 221.16447 213.35543 206.36639
 200.20935 195.15631 191.74727 189.79823 188.84419 188.91715 189.76111 191.07807
 192.81203 194.91599 197.18794 199.55590 202.00986 204.49882 206.59578 208.44674
 210.08170 211.23566 211.47362 211.71058 211.65654 211.37050 211.01246 210.65142
 210.27738 209.99634 209.81329 209.68625 209.62321 209.96317 210.35813 210.75609
 211.55805 212.74501 214.00397 215.79593 217.73289 219.78485 221.88881 223.98077
 226.04973 228.14269 230.24865 232.36360 234.50156 236.68252 238.94748 241.32644
 243.95640 246.21636 248.22732 250.00128 251.42724 252.55920 253.39016 253.71512
 253.76108 253.54404 252.91300 251.86996 250.48491 248.65487 246.57283 244.41479
 242.21475 240.02771 237.85667 235.70463 233.57359 231.44955 229.48451 227.65047
 225.94243 224.42339 223.06235 221.84331 220.73426 219.70322 218.81618 217.96614
 217.21710 216.40606 215.51302 214.88598 214.34494 214.66374 215.41696 215.42918
 215.08038 214.12549 213.17371 213.09526 215.94614 220.09850 224.80743 228.76587
 232.36745 236.68443 241.40688 246.00993 250.14182 253.87988 257.29355 260.40469
 263.20554 265.77109 268.19012 270.63202 273.21033 275.70145 277.75995 279.40277
 280.75104 281.77005 282.39984 282.80884 283.28336 283.83725 284.49084 285.22955
 285.91592 286.41336 286.76334 287.20935
 354.97500 345.04800 334.58700 324.11500 313.32600 302.53700 291.65000 280.76700
 269.93100 259.19300 248.62200 238.61700 229.08700 220.35500 212.54000 205.53500
 199.46400 194.49300 191.14300 189.19000 188.08900 188.01400 188.72400 189.90600
 191.46900 193.38200 195.40300 197.55600 199.80700 202.06000 204.28800 206.47900
 208.55200 210.37800 212.02500 213.65900 214.99800 216.11800 217.17200 218.25900
 219.49400 220.64500 221.67900 222.61400 223.54500 224.98200 226.57100 228.19000
 229.79700 231.81100 233.86500 235.97200 238.24200 240.55300 242.89900 245.25300
 247.48800 249.53500 251.36600 252.84800 254.09800 255.16700 256.02700 256.25300
 256.09500 255.54300 253.93500 252.56600 251.38400 250.24500 249.05200 247.70100
 246.01600 243.99600 241.78400 239.39300 236.81300 234.22300 231.65800 229.14400
 226.74000 224.47300 222.33500 220.32500 218.44000 216.67700 214.96200 213.47200
 212.20000 211.10800 210.26000 209.63900 209.24400 209.03100 209.05800 209.33300
 209.78400 210.62600 211.33100 212.39100 213.62500 214.84668 217.72949 219.47640
 220.32566 220.86828 220.88710 220.27371 219.43733 218.84250 219.04934 220.86203
 222.60583 225.72206 229.03064 232.61777 236.12270 239.51333 242.70767 245.68587
 248.41061 250.90679 253.19353 254.91714 256.48655 257.94920 259.39966 260.69384
 261.81714 262.77997 263.71679 264.54570 265.26305 265.89772 266.47676 267.00133
 267.47312 267.89325 268.26027 268.72800
