|-------------------------------------------------------------------------|
|   File Name : in_temp.dat
|   Subject   : temperature profiles used for initial guess atmosphere
|   File Type : input of gmtr
|   Data Type : atmospherical data
|   Author/s  : WRF-Chem
|   Date      : Fri Jul 26 15:39:24 2024
|-------------------------------------------------------------------------|

 WRF-Chem temperature
#
 values of T (K)    (8f10.5)
#
 354.97500 345.04800 334.58700 324.11500 313.32600 302.53700 291.65000 280.76700
 269.93100 259.19300 248.62200 238.61700 229.08700 220.35500 212.54000 205.53500
 199.46400 194.49300 191.14300 189.19000 188.08900 188.01400 188.72400 189.90600
 191.46900 193.38200 195.40300 197.55600 199.80700 202.06000 204.28800 206.47900
 208.55200 210.37800 212.02500 213.65900 214.99800 216.11800 217.17200 218.25900
 219.49400 220.64500 221.67900 222.61400 223.54500 224.98200 226.57100 228.19000
 229.79700 231.81100 233.86500 235.97200 238.24200 240.55300 242.89900 245.25300
 247.48800 249.53500 251.36600 252.84800 254.09800 255.16700 256.02700 256.25300
 256.09500 255.54300 253.93500 252.56600 251.38400 250.24500 249.05200 247.70100
 246.01600 243.99600 241.78400 239.39300 236.81300 234.22300 231.65800 229.14400
 226.74000 224.47300 222.33500 220.32500 218.44000 216.67700 214.96200 213.47200
 212.20000 211.10800 210.26000 209.63900 209.24400 209.03100 209.05800 209.33300
 209.78400 210.62600 211.33100 212.39100 213.62500 214.84668 217.72949 219.47640
 220.32566 220.86828 220.88710 220.27371 219.43733 218.84250 219.04934 220.86203
 222.60583 225.72206 229.03064 232.61777 236.12270 239.51333 242.70767 245.68587
 248.41061 250.90679 253.19353 254.91714 256.48655 257.94920 259.39966 260.69384
 261.81714 262.77997 263.71679 264.54570 265.26305 265.89772 266.47676 267.00133
 267.47312 267.89325 268.26027 268.72800
 366.78100 356.33500 345.76700 334.63300 323.03600 311.23000 299.10000 286.90300
 274.61500 262.51200 250.52100 239.82200 229.94400 221.04800 213.23000 206.23200
 200.06600 195.00400 191.58600 189.62800 188.66500 188.72900 189.56400 190.87200
 192.59700 194.69200 196.95500 199.31400 201.75900 204.23900 206.32700 208.16900
 209.79500 210.94000 211.16900 211.39700 211.33400 211.03900 210.67200 210.30200
 209.91900 209.62900 209.43700 209.30100 209.22900 209.56000 209.94600 210.33500
 211.12800 212.30600 213.55600 215.33900 217.26700 219.31000 221.40500 223.48800
 225.54800 227.63200 229.72900 231.83500 233.96400 236.13600 238.39200 240.76200
 243.38300 245.63400 247.63600 249.40100 250.81800 251.94100 252.76300 253.07900
 253.11600 252.89000 252.25000 251.19800 249.80400 247.96500 245.87400 243.70700
 241.49800 239.30200 237.12200 234.96100 232.82100 230.68800 228.71400 226.87100
 225.15400 223.62600 222.25600 221.02800 219.91000 218.87000 217.97400 217.11500
 216.35700 215.53700 214.63500 213.99900 213.44900 212.85855 212.01316 212.61654
 214.26826 216.08686 218.14273 220.53346 223.40855 226.78828 231.49734 235.90155
 239.42278 243.28576 247.23140 251.11907 254.80144 258.23331 261.38913 264.27520
 266.89312 269.26852 271.44504 273.08845 274.58484 275.98591 277.39845 278.65879
 279.75272 280.69038 281.56708 282.34086 283.01050 283.60295 284.14348 284.63317
 285.07358 285.46577 285.80838 286.24500
 381.81900 372.39900 361.20600 349.77600 337.62200 324.85300 311.81000 298.35300
 284.86000 271.32400 258.56100 246.30400 236.08700 226.79600 218.44800 211.29000
 205.52200 200.89400 197.38100 194.84800 193.01500 192.31500 192.25000 192.43100
 192.91200 193.53700 194.13600 194.71200 195.26200 195.83100 196.39300 196.97600
 197.60400 198.14900 198.58400 199.05700 199.69500 200.37800 201.05400 201.70800
 202.31300 202.85700 203.35500 203.86200 204.56900 205.29700 206.02600 206.98700
 208.19300 209.44100 210.96900 212.57600 214.46200 216.51300 218.63000 220.85300
 223.34100 225.96200 228.73900 231.69700 234.70600 237.70600 240.69200 243.65700
 246.73700 249.69900 252.52100 255.06300 257.29000 259.23300 260.63300 261.68000
 262.46100 262.79800 262.69100 262.22400 261.06900 259.52500 257.70700 255.50700
 253.00100 250.30200 247.39800 244.45200 241.65400 239.05400 236.73300 234.59000
 232.59500 230.72500 228.83400 226.82600 224.66600 222.38700 220.10400 217.71500
 215.45900 213.06600 210.54600 208.09300 205.35400 202.08130 196.05959 200.71215
 209.01611 216.90438 223.84126 229.78593 235.00632 240.20838 245.98943 250.68668
 254.32982 257.93487 261.55666 264.96801 268.15192 271.06452 273.76717 276.25691
 278.57680 280.74479 282.77456 284.60533 286.27232 287.81705 289.31715 290.65561
 291.81734 292.81312 293.70701 294.49387 295.17482 295.77730 296.32696 296.82492
 297.27278 297.67160 298.02000 298.46400
 399.33000 389.90700 379.81300 368.66800 357.52200 345.30100 333.07400 320.22700
 307.21600 293.84800 280.37600 267.29600 254.61000 242.98700 232.15100 221.97700
 212.67200 204.28600 197.66900 192.82100 189.48600 187.45200 186.81400 187.08900
 187.78100 189.05400 190.64800 192.54200 194.63000 196.75200 198.67100 200.15800
 201.53500 202.48700 202.97500 203.34000 203.53900 203.49700 203.38500 203.24700
 203.00500 202.78600 202.60300 202.43700 202.42600 202.88800 203.42000 203.95100
 204.89500 205.99200 207.30100 208.95800 210.73800 213.10000 215.56400 218.18000
 220.96600 223.91800 226.96100 230.09200 233.29300 236.55700 239.95500 243.53700
 246.84500 249.39000 251.54200 253.47400 255.19500 256.48400 257.43100 258.05900
 258.21200 258.04000 257.58200 256.64300 255.23900 253.50700 251.40800 249.05600
 246.57600 243.99400 241.38900 238.83000 236.34400 233.98600 231.96900 230.11800
 228.42300 226.89900 225.54800 224.29700 223.10500 221.96500 220.95800 220.11300
 219.49000 218.92000 218.32500 217.88100 217.42300 216.96366 216.35568 216.80261
 217.73415 218.28582 218.64258 219.10077 220.44626 222.53987 226.38451 230.35736
 233.59734 237.39164 241.29814 245.22796 248.98002 252.51130 255.78595 258.80109
 261.54781 264.05210 266.34239 268.04198 269.58951 271.01303 272.35754 273.55718
 274.59842 275.49092 276.28989 276.99307 277.60161 278.14001 278.63122 279.07623
 279.47646 279.83287 280.14422 280.54100
 399.73800 389.78500 379.66200 368.15100 356.64100 344.35000 331.79200 318.88800
 305.72600 292.49300 279.20900 266.73800 254.69600 244.21100 234.45700 225.43300
 217.56900 210.45100 204.30000 199.30600 195.45800 192.57600 191.02700 190.38600
 190.23900 190.53400 191.16600 191.92500 192.79500 193.76600 194.73200 195.31200
 195.80000 196.05200 196.11500 196.11500 196.03900 195.72300 195.34000 194.98900
 194.75100 194.79200 195.13300 195.59800 196.50600 198.13600 199.85800 201.56600
 204.17900 206.82300 209.89300 213.28400 216.82800 220.60500 224.38700 228.20900
 232.03200 235.82500 239.56000 243.25800 246.84500 250.20100 253.70900 257.46800
 261.53000 264.22100 266.60100 268.68100 270.32900 271.74100 272.83600 273.47400
 273.89800 274.00200 273.75700 273.28800 272.37100 271.10000 269.58900 267.77900
 265.81600 263.72100 261.39300 258.91600 256.29800 253.42300 250.33100 247.11400
 243.83700 240.52900 237.24900 233.99900 230.72800 227.51500 224.25400 220.95200
 217.62700 213.65600 210.12100 206.78900 204.01000 201.99491 199.07309 198.76551
 199.40006 200.48994 201.46112 202.31912 203.45100 204.96110 207.47502 210.85391
 213.70530 217.29629 220.99574 224.72316 228.28753 231.64854 234.68024 237.40893
 239.70644 241.60899 243.46854 245.67368 247.68154 249.52395 251.24767 252.78566
 254.12057 255.26479 256.23740 257.09036 257.82852 258.48160 259.07744 259.61723
 260.10271 260.53504 260.91270 261.39400
 399.73800 389.78500 379.66200 368.15100 356.64100 344.35000 331.79200 318.88800
 305.72600 292.49300 279.20900 266.73800 254.69600 244.21100 234.45700 225.43300
 217.56900 210.45100 204.30000 199.30600 195.45800 192.57600 191.02700 190.38600
 190.23900 190.53400 191.16600 191.92500 192.79500 193.76600 194.73200 195.31200
 195.80000 196.05200 196.11500 196.11500 196.03900 195.72300 195.34000 194.98900
 194.75100 194.79200 195.13300 195.59800 196.50600 198.13600 199.85800 201.56600
 204.17900 206.82300 209.89300 213.28400 216.82800 220.60500 224.38700 228.20900
 232.03200 235.82500 239.56000 243.25800 246.84500 250.20100 253.70900 257.46800
 261.53000 264.22100 266.60100 268.68100 270.32900 271.74100 272.83600 273.47400
 273.89800 274.00200 273.75700 273.28800 272.37100 271.10000 269.58900 267.77900
 265.81600 263.72100 261.39300 258.91600 256.29800 253.42300 250.33100 247.11400
 243.83700 240.52900 237.24900 233.99900 230.72800 227.51500 224.25400 220.95200
 217.62700 213.65600 210.12100 206.78900 204.01000 201.99491 199.07309 198.76551
 199.40006 200.48994 201.46112 202.31912 203.45100 204.96110 207.47502 210.85391
 213.70530 217.29629 220.99574 224.72316 228.28753 231.64854 234.68024 237.40893
 239.70644 241.60899 243.46854 245.67368 247.68154 249.52395 251.24767 252.78566
 254.12057 255.26479 256.23740 257.09036 257.82852 258.48160 259.07744 259.61723
 260.10271 260.53504 260.91270 261.39400
 399.33000 389.90700 379.81300 368.66800 357.52200 345.30100 333.07400 320.22700
 307.21600 293.84800 280.37600 267.29600 254.61000 242.98700 232.15100 221.97700
 212.67200 204.28600 197.66900 192.82100 189.48600 187.45200 186.81400 187.08900
 187.78100 189.05400 190.64800 192.54200 194.63000 196.75200 198.67100 200.15800
 201.53500 202.48700 202.97500 203.34000 203.53900 203.49700 203.38500 203.24700
 203.00500 202.78600 202.60300 202.43700 202.42600 202.88800 203.42000 203.95100
 204.89500 205.99200 207.30100 208.95800 210.73800 213.10000 215.56400 218.18000
 220.96600 223.91800 226.96100 230.09200 233.29300 236.55700 239.95500 243.53700
 246.84500 249.39000 251.54200 253.47400 255.19500 256.48400 257.43100 258.05900
 258.21200 258.04000 257.58200 256.64300 255.23900 253.50700 251.40800 249.05600
 246.57600 243.99400 241.38900 238.83000 236.34400 233.98600 231.96900 230.11800
 228.42300 226.89900 225.54800 224.29700 223.10500 221.96500 220.95800 220.11300
 219.49000 218.92000 218.32500 217.88100 217.42300 216.96366 216.35568 216.80261
 217.73415 218.28582 218.64258 219.10077 220.44626 222.53987 226.38451 230.35736
 233.59734 237.39164 241.29814 245.22796 248.98002 252.51130 255.78595 258.80109
 261.54781 264.05210 266.34239 268.04198 269.58951 271.01303 272.35754 273.55718
 274.59842 275.49092 276.28989 276.99307 277.60161 278.14001 278.63122 279.07623
 279.47646 279.83287 280.14422 280.54100
 381.81900 372.39900 361.20600 349.77600 337.62200 324.85300 311.81000 298.35300
 284.86000 271.32400 258.56100 246.30400 236.08700 226.79600 218.44800 211.29000
 205.52200 200.89400 197.38100 194.84800 193.01500 192.31500 192.25000 192.43100
 192.91200 193.53700 194.13600 194.71200 195.26200 195.83100 196.39300 196.97600
 197.60400 198.14900 198.58400 199.05700 199.69500 200.37800 201.05400 201.70800
 202.31300 202.85700 203.35500 203.86200 204.56900 205.29700 206.02600 206.98700
 208.19300 209.44100 210.96900 212.57600 214.46200 216.51300 218.63000 220.85300
 223.34100 225.96200 228.73900 231.69700 234.70600 237.70600 240.69200 243.65700
 246.73700 249.69900 252.52100 255.06300 257.29000 259.23300 260.63300 261.68000
 262.46100 262.79800 262.69100 262.22400 261.06900 259.52500 257.70700 255.50700
 253.00100 250.30200 247.39800 244.45200 241.65400 239.05400 236.73300 234.59000
 232.59500 230.72500 228.83400 226.82600 224.66600 222.38700 220.10400 217.71500
 215.45900 213.06600 210.54600 208.09300 205.35400 202.08130 196.05959 200.71215
 209.01611 216.90438 223.84126 229.78593 235.00632 240.20838 245.98943 250.68668
 254.32982 257.93487 261.55666 264.96801 268.15192 271.06452 273.76717 276.25691
 278.57680 280.74479 282.77456 284.60533 286.27232 287.81705 289.31715 290.65561
 291.81734 292.81312 293.70701 294.49387 295.17482 295.77730 296.32696 296.82492
 297.27278 297.67160 298.02000 298.46400
 366.78100 356.32857 345.75414 334.61370 323.01027 311.19784 299.06141 286.85798
 274.56355 262.45411 250.45668 239.75125 229.86682 220.96439 213.13996 206.13552
 199.96309 194.89466 191.47023 189.50580 188.53637 188.59393 189.42250 190.72407
 192.44264 194.53121 196.78778 199.14034 201.57891 204.05248 206.13405 207.96962
 209.58919 210.72775 210.95032 211.17189 211.10246 210.80103 210.42760 210.05116
 209.66173 209.36530 209.16687 209.02444 208.94601 209.27057 209.65014 210.03271
 210.81928 211.99085 213.23442 215.01098 216.93255 218.96912 221.05769 223.13426
 225.18783 227.26539 229.35596 231.45553 233.57810 235.74367 237.99324 240.35680
 242.97137 245.21594 247.21151 248.97008 250.38065 251.49721 252.31278 252.62235
 252.65292 252.42049 251.77406 250.71562 249.31519 247.46976 245.37233 243.19890
 240.98347 238.78103 236.59460 234.42717 232.28074 230.14131 228.16088 226.31144
 224.58801 223.05358 221.67715 220.44272 219.31829 218.27185 217.36942 216.50399
 215.73956 214.91313 214.00470 213.36226 212.80583 212.62526 212.21207 213.48387
 215.17163 217.02382 218.03790 218.19345 219.34787 222.90291 228.33192 233.04137
 236.80450 240.56844 244.25916 247.82681 251.20741 253.98668 256.42929 259.08078
 262.19055 264.84680 266.91898 268.80075 270.73276 272.71490 274.43512 275.99426
 277.49951 279.06235 280.59149 281.95734 283.14261 284.19510 285.16089 286.04114
 286.83859 287.55447 288.18637 289.02621
 366.78100 356.32819 345.75337 334.61256 323.00875 311.19593 299.05912 286.85531
 274.56049 262.45068 250.45287 239.74706 229.86224 220.95943 213.13462 206.12980
 199.95699 194.88818 191.46336 189.49855 188.52874 188.58592 189.41411 190.71530
 192.43348 194.52167 196.77786 199.13004 201.56823 204.04142 206.12261 207.95779
 209.57698 210.71517 210.93735 211.15854 211.08873 210.78691 210.41310 210.03629
 209.64647 209.34966 209.15085 209.00803 208.92922 209.25341 209.63260 210.01478
 210.80097 211.97216 213.21534 214.99153 216.91272 218.94890 221.03709 223.11328
 225.16646 227.24365 229.33384 231.43302 233.55521 235.72040 237.96958 240.33277
 242.94696 245.19115 247.18633 248.94452 250.35471 251.47089 252.28608 252.59527
 252.62545 252.39264 251.74583 250.68701 249.28620 247.44039 245.34257 243.16876
 240.95295 238.75013 236.56332 234.39551 232.24870 230.10888 228.12807 226.27826
 224.55444 223.01963 221.64282 220.40800 219.28319 218.23638 217.33356 216.46775
 215.70294 214.87612 213.96731 213.32450 212.76768 212.63139 212.32095 213.60536
 215.26393 217.09274 218.13353 218.33351 219.47768 222.93515 228.27995 232.93091
 236.67149 240.43497 244.13463 247.69513 251.01799 253.74707 256.22195 258.96231
 262.04462 264.65579 266.72760 268.64230 270.59830 272.58511 274.29343 275.85208
 277.36920 278.98145 280.51624 281.88327 283.06793 284.12112 285.08682 285.96732
 286.76508 287.48138 288.11359 288.95444
 366.78100 356.32815 345.75330 334.61245 323.00860 311.19575 299.05890 286.85505
 274.56020 262.45035 250.45249 239.74664 229.86179 220.95894 213.13409 206.12924
 199.95639 194.88754 191.46269 189.49784 188.52799 188.58514 189.41329 190.71444
 192.43259 194.52074 196.77689 199.12904 201.56719 204.04033 206.12148 207.95663
 209.57578 210.71393 210.93608 211.15723 211.08738 210.78553 210.41168 210.03483
 209.64498 209.34813 209.14928 209.00643 208.92758 209.25173 209.63088 210.01302
 210.79917 211.97032 213.21347 214.98962 216.91077 218.94692 221.03507 223.11122
 225.16437 227.24152 229.33167 231.43082 233.55297 235.71812 237.96727 240.33042
 242.94457 245.18872 247.18386 248.94201 250.35216 251.46831 252.28346 252.59261
 252.62276 252.38991 251.74306 250.68421 249.28336 247.43751 245.33966 243.16581
 240.94996 238.74711 236.56026 234.39241 232.24556 230.10570 228.12485 226.27500
 224.55115 223.01630 221.63945 220.40460 219.27975 218.23290 217.33005 216.46420
 215.69935 214.87250 213.96365 213.32080 212.76395 212.65707 212.41473 213.73459
 215.35762 217.13525 218.23918 218.48749 219.61452 222.97363 228.23544 232.82089
 236.53123 240.29428 244.00705 247.55818 250.82236 253.50566 256.01505 258.84052
 261.89313 264.45813 266.53076 268.47916 270.46344 272.45776 274.15689 275.71436
 277.24139 278.90768 280.44690 281.81219 282.99677 284.04980 285.01550 285.89548
 286.69287 287.40857 288.03998 288.88083
 366.78100 356.32821 345.75341 334.61262 323.00882 311.19603 299.05923 286.85544
 274.56064 262.45085 250.45305 239.74726 229.86246 220.95967 213.13487 206.13008
 199.95728 194.88849 191.46369 189.49890 188.52910 188.58631 189.41451 190.71572
 192.43392 194.52213 196.77833 199.13054 201.56874 204.04195 206.12315 207.95836
 209.57757 210.71577 210.93798 211.15918 211.08939 210.78759 210.41380 210.03700
 209.64721 209.35041 209.15162 209.00882 208.93003 209.25423 209.63344 210.01564
 210.80185 211.97305 213.21626 214.99246 216.91367 218.94987 221.03808 223.11428
 225.16749 227.24469 229.33490 231.43410 233.55631 235.72151 237.97072 240.33393
 242.94813 245.19234 247.18754 248.94575 250.35595 251.47216 252.28736 252.59657
 252.62677 252.39398 251.74718 250.68839 249.28759 247.44180 245.34400 243.17021
 240.95441 238.75162 236.56482 234.39703 232.25023 230.11044 228.12964 226.27985
 224.55605 223.02126 221.64446 220.40967 219.28487 218.23808 217.33529 216.46949
 215.70470 214.87790 213.96911 213.32631 212.76952 212.68930 212.50854 213.87035
 215.43207 217.17409 218.34361 218.65457 219.77112 223.02158 228.19174 232.71353
 236.38680 240.15021 243.87430 247.40945 250.61700 253.26363 255.81058 258.71515
 261.73764 264.25861 266.32779 268.31125 270.32678 272.33109 274.02313 275.57776
 277.11835 278.83511 280.38040 281.74573 282.93079 283.98416 284.94702 285.82794
 286.62454 287.33960 287.97064 288.81216
 366.78100 356.32820 345.75340 334.61260 323.00880 311.19600 299.05920 286.85540
 274.56060 262.45081 250.45301 239.74721 229.86241 220.95961 213.13481 206.13001
 199.95721 194.88841 191.46361 189.49881 188.52901 188.58621 189.41441 190.71561
 192.43381 194.52201 196.77822 199.13042 201.56862 204.04182 206.12302 207.95822
 209.57742 210.71562 210.93782 211.15902 211.08922 210.78742 210.41362 210.03682
 209.64702 209.35022 209.15142 209.00863 208.92983 209.25403 209.63323 210.01543
 210.80163 211.97283 213.21603 214.99223 216.91343 218.94963 221.03783 223.11403
 225.16723 227.24443 229.33463 231.43383 233.55603 235.72124 237.97044 240.33364
 242.94784 245.19204 247.18724 248.94544 250.35564 251.47184 252.28704 252.59624
 252.62644 252.39364 251.74684 250.68804 249.28724 247.44144 245.34365 243.16985
 240.95405 238.75125 236.56445 234.39665 232.24985 230.11005 228.12925 226.27945
 224.55565 223.02085 221.64405 220.40925 219.28445 218.23765 217.33485 216.46906
 215.70426 214.87746 213.96866 213.32586 212.76906 212.72008 212.61162 214.00253
 215.49236 217.21065 218.44662 218.83221 219.94655 223.07629 228.14954 232.60741
 236.24605 240.00806 243.73300 247.24341 250.39929 253.02043 255.60748 258.58401
 261.57669 264.05466 266.11993 268.13858 270.18958 272.20770 273.89682 275.44354
 277.02185 278.75464 280.30460 281.67178 282.85797 283.91101 284.87732 285.75604
 286.55444 287.26953 287.90082 288.74295
 366.78100 356.32823 345.75347 334.61270 323.00894 311.19617 299.05941 286.85564
 274.56088 262.45111 250.45335 239.74758 229.86282 220.96005 213.13529 206.13052
 199.95776 194.88899 191.46423 189.49946 188.52970 188.58693 189.41517 190.71640
 192.43464 194.52287 196.77911 199.13134 201.56958 204.04281 206.12405 207.95928
 209.57852 210.71675 210.93899 211.16022 211.09046 210.78869 210.41493 210.03816
 209.64840 209.35163 209.15287 209.01010 208.93134 209.25557 209.63481 210.01704
 210.80328 211.97451 213.21775 214.99398 216.91522 218.95145 221.03969 223.11592
 225.16916 227.24639 229.33663 231.43586 233.55809 235.72333 237.97256 240.33580
 242.95003 245.19427 247.18950 248.94774 250.35797 251.47421 252.28944 252.59868
 252.62891 252.39615 251.74938 250.69062 249.28985 247.44409 245.34632 243.17256
 240.95679 238.75403 236.56726 234.39950 232.25273 230.11297 228.13220 226.28244
 224.55867 223.02391 221.64714 220.41238 219.28761 218.24085 217.33808 216.47232
 215.70755 214.88079 213.97202 213.32926 212.77249 212.75436 212.71733 214.13034
 215.54701 217.24197 218.55106 219.01378 220.13582 223.13905 228.11320 232.50397
 236.11415 239.87125 243.58363 247.06097 250.16904 252.77393 255.40231 258.44312
 261.40720 263.84656 265.90933 267.96320 270.05252 272.08804 273.77988 275.32367
 276.93488 278.67184 280.22415 281.59177 282.77856 283.83258 284.79764 285.67834
 286.47665 287.19174 287.82358 288.66641
 366.78100 356.32833 345.75366 334.61299 323.00933 311.19666 299.05999 286.85632
 274.56165 262.45198 250.45432 239.74865 229.86398 220.96131 213.13664 206.13197
 199.95931 194.89064 191.46597 189.50130 188.53163 188.58896 189.41730 190.71863
 192.43696 194.52529 196.78162 199.13395 201.57229 204.04562 206.12695 207.96228
 209.58161 210.71994 210.94228 211.16361 211.09394 210.79227 210.41860 210.04193
 209.65227 209.35560 209.15693 209.01426 208.93559 209.25992 209.63926 210.02159
 210.80792 211.97925 213.22258 214.99891 216.92025 218.95658 221.04491 223.12124
 225.17457 227.25190 229.34224 231.44157 233.56390 235.72923 237.97856 240.34189
 242.95623 245.20056 247.19589 248.95422 250.36455 251.48088 252.29622 252.60555
 252.63588 252.40321 251.75654 250.69787 249.29721 247.45154 245.35387 243.18020
 240.96453 238.76186 236.57520 234.40753 232.26086 230.12119 228.14052 226.29085
 224.56719 223.03252 221.65585 220.42118 219.29651 218.24984 217.34718 216.48151
 215.71684 214.89017 213.98150 213.33883 212.78217 212.79301 212.82297 214.25307
 215.59782 217.27332 218.66019 219.18941 220.33218 223.21150 228.08386 232.40800
 235.99077 239.74100 243.43170 246.86610 249.92517 252.52107 255.19290 258.28940
 261.22867 263.63519 265.69998 267.78937 269.91788 271.97189 273.67307 275.22156
 276.85010 278.58829 280.14014 281.50717 282.69519 283.74973 284.71582 285.59622
 286.39401 287.11014 287.74213 288.58582
 366.78100 356.32844 345.75388 334.61332 323.00976 311.19720 299.06064 286.85708
 274.56252 262.45296 250.45540 239.74984 229.86528 220.96272 213.13816 206.13360
 199.96104 194.89248 191.46792 189.50336 188.53380 188.59124 189.41968 190.72112
 192.43956 194.52800 196.78444 199.13688 201.57532 204.04876 206.13020 207.96564
 209.58508 210.72352 210.94596 211.16741 211.09785 210.79629 210.42273 210.04617
 209.65661 209.36005 209.16149 209.01893 208.94037 209.26481 209.64425 210.02669
 210.81313 211.98457 213.22801 215.00445 216.92589 218.96233 221.05077 223.12721
 225.18065 227.25809 229.34853 231.44797 233.57041 235.73585 237.98529 240.34873
 242.96317 245.20761 247.20305 248.96149 250.37193 251.48837 252.30381 252.61325
 252.64369 252.41113 251.76457 250.70601 249.30545 247.45989 245.36233 243.18877
 240.97321 238.77065 236.58409 234.41653 232.26997 230.13041 228.14985 226.30029
 224.57673 223.04217 221.66561 220.43105 219.30649 218.25993 217.35737 216.49181
 215.72725 214.90069 213.99213 213.34957 212.79301 212.83330 212.93130 214.36688
 215.64442 217.31142 218.77495 219.35794 220.52943 223.28949 228.05870 232.32353
 235.87488 239.61723 243.27876 246.65994 249.66931 252.26352 254.97972 258.12384
 261.04053 263.42294 265.49646 267.62198 269.78827 271.86081 273.57544 275.13525
 276.76526 278.50369 280.05423 281.42282 282.61011 283.66489 284.63110 285.51022
 286.31015 287.02747 287.65866 288.50308
 366.78100 356.32856 345.75412 334.61368 323.01024 311.19780 299.06136 286.85792
 274.56348 262.45404 250.45661 239.75117 229.86673 220.96429 213.13985 206.13541
 199.96297 194.89453 191.47009 189.50565 188.53621 188.59377 189.42233 190.72389
 192.44245 194.53101 196.78757 199.14013 201.57870 204.05226 206.13382 207.96938
 209.58894 210.72750 210.95006 211.17162 211.10218 210.80074 210.42730 210.05086
 209.66142 209.36498 209.16654 209.02410 208.94566 209.27022 209.64978 210.03235
 210.81891 211.99047 213.23403 215.01059 216.93215 218.96871 221.05727 223.13383
 225.18739 227.26495 229.35551 231.45507 233.57763 235.74319 237.99275 240.35631
 242.97087 245.21543 247.21100 248.96956 250.38012 251.49668 252.31224 252.62180
 252.65236 252.41992 251.77348 250.71504 249.31460 247.46916 245.37172 243.19828
 240.98284 238.78040 236.59396 234.42652 232.28009 230.14065 228.16021 226.31077
 224.58733 223.05289 221.67645 220.44201 219.31757 218.27113 217.36869 216.50325
 215.73881 214.91237 214.00393 213.36149 212.80505 212.87491 213.04144 214.47165
 215.68761 217.35727 218.89511 219.52223 220.72417 223.36920 228.03355 232.25046
 235.76852 239.50087 243.12767 246.44513 249.40343 252.00226 254.76360 257.94693
 260.84579 263.21094 265.30017 267.46124 269.66357 271.75476 273.48752 275.06378
 276.68173 278.41614 279.96722 281.33578 282.52408 283.57825 284.54688 285.42587
 286.22446 286.94202 287.57492 288.42047
 366.78100 356.32869 345.75439 334.61408 323.01077 311.19846 299.06216 286.85885
 274.56454 262.45524 250.45793 239.75262 229.86831 220.96601 213.14170 206.13739
 199.96509 194.89678 191.47247 189.50816 188.53886 188.59655 189.42524 190.72694
 192.44563 194.53432 196.79101 199.14371 201.58240 204.05609 206.13778 207.97348
 209.59317 210.73186 210.95456 211.17625 211.10694 210.80563 210.43233 210.05602
 209.66671 209.37041 209.17210 209.02979 208.95148 209.27618 209.65587 210.03856
 210.82526 211.99695 213.24064 215.01733 216.93903 218.97572 221.06441 223.14111
 225.19480 227.27249 229.36318 231.46288 233.58557 235.75126 238.00096 240.36465
 242.97934 245.22403 247.21973 248.97842 250.38911 251.50581 252.32150 252.63119
 252.66188 252.42958 251.78327 250.72496 249.32466 247.47935 245.38204 243.20873
 240.99343 238.79112 236.60481 234.43750 232.29120 230.15189 228.17158 226.32228
 224.59897 223.06466 221.68835 220.45405 219.32974 218.28343 217.38113 216.51582
 215.75151 214.92520 214.01690 213.37459 212.81828 212.91754 213.15230 214.56892
 215.72980 217.40649 219.02054 219.68620 220.91988 223.44841 228.01117 232.18010
 235.66989 239.39084 242.97691 246.22275 249.13217 251.74287 254.54935 257.76309
 260.64264 262.99261 265.10532 267.30762 269.54596 271.65662 273.41190 275.00684
 276.59885 278.33026 279.88165 281.24973 282.43771 283.49359 284.46057 285.34134
 286.14041 286.85803 287.49161 288.33817
 366.78100 356.32889 345.75478 334.61467 323.01156 311.19945 299.06334 286.86023
 274.56612 262.45701 250.45990 239.75479 229.87068 220.96857 213.14446 206.14035
 199.96823 194.90012 191.47601 189.51190 188.54279 188.60068 189.42957 190.73146
 192.45035 194.53924 196.79613 199.14902 201.58791 204.06180 206.14369 207.97958
 209.59947 210.73836 210.96125 211.18314 211.11403 210.81292 210.43981 210.06370
 209.67459 209.37848 209.18037 209.03826 208.96015 209.28504 209.66492 210.04781
 210.83470 212.00659 213.25048 215.02737 216.94926 218.98615 221.07504 223.15193
 225.20582 227.28371 229.37460 231.47449 233.59738 235.76327 238.01316 240.37705
 242.99194 245.23683 247.23272 248.99161 250.40250 251.51939 252.33528 252.64517
 252.67606 252.44395 251.79784 250.73973 249.33961 247.49450 245.39739 243.22428
 241.00917 238.80706 236.62095 234.45384 232.30773 230.16862 228.18851 226.33940
 224.61629 223.08218 221.70607 220.47196 219.34785 218.30174 217.39963 216.53452
 215.77041 214.94430 214.03619 213.39408 212.83797 212.96327 213.25931 214.66818
 215.76340 217.45596 219.15352 219.85770 221.10764 223.53369 227.97978 232.11292
 235.58797 239.29851 242.83519 245.99918 248.85500 251.47737 254.32739 257.56381
 260.42203 262.76782 264.91821 267.16711 269.44128 271.57132 273.35007 274.96033
 276.52502 278.24869 279.79755 281.16531 282.35294 283.40988 284.37601 285.25690
 286.05627 286.77484 287.40881 288.25650
 366.78100 356.32927 345.75554 334.61581 323.01307 311.20134 299.06561 286.86288
 274.56915 262.46042 250.46369 239.75896 229.87522 220.97349 213.14976 206.14603
 199.97430 194.90657 191.48284 189.51911 188.55037 188.60864 189.43791 190.74018
 192.45945 194.54872 196.80599 199.15925 201.59852 204.07279 206.15506 207.99133
 209.61160 210.75087 210.97414 211.19640 211.12767 210.82694 210.45421 210.07848
 209.68975 209.39402 209.19629 209.05455 208.97682 209.30209 209.68236 210.06563
 210.85290 212.02517 213.26943 215.04670 216.96897 219.00624 221.09551 223.17278
 225.22705 227.30532 229.39658 231.49685 233.62012 235.78639 238.03666 240.40093
 243.01620 245.26147 247.25773 249.01700 250.42827 251.54554 252.36181 252.67208
 252.70335 252.47161 251.82588 250.76815 249.36842 247.52369 245.42696 243.25423
 241.03950 238.83776 236.65203 234.48530 232.33957 230.20084 228.22111 226.37238
 224.64965 223.11591 221.74018 220.50645 219.38272 218.33699 217.43526 216.57053
 215.80679 214.98106 214.07333 213.43160 212.87587 213.01740 213.35173 214.77249
 215.80702 217.48758 219.28221 220.01595 221.33386 223.61641 227.97835 232.06612
 235.51077 239.20412 242.68282 245.75787 248.55632 251.19281 254.09227 257.35260
 260.19876 262.55557 264.75003 267.04327 269.34933 271.49689 273.29935 274.92233
 276.45749 278.16870 279.71420 281.08145 282.26953 283.32501 284.29205 285.17316
 285.97363 286.69162 287.32486 288.17615
 366.78100 356.32954 345.75608 334.61662 323.01416 311.20270 299.06724 286.86477
 274.57131 262.46285 250.46639 239.76193 229.87847 220.97701 213.15355 206.15009
 199.97863 194.91117 191.48771 189.52425 188.55578 188.61432 189.44386 190.74640
 192.46594 194.55548 196.81302 199.16656 201.60610 204.08064 206.16318 207.99972
 209.62026 210.75979 210.98333 211.20587 211.13741 210.83695 210.46449 210.08903
 209.70057 209.40511 209.20765 209.06619 208.98873 209.31427 209.69480 210.07834
 210.86588 212.03842 213.28296 215.06050 216.98304 219.02058 221.11012 223.18766
 225.24220 227.32074 229.41228 231.51281 233.63635 235.80289 238.05343 240.41797
 243.03351 245.27905 247.27559 249.03513 250.44667 251.56421 252.38075 252.69129
 252.72282 252.49136 251.84590 250.78844 249.38898 247.54452 245.44806 243.27560
 241.06114 238.85968 236.67422 234.50776 232.36230 230.22384 228.24437 226.39591
 224.67345 223.13999 221.76453 220.53107 219.40761 218.36215 217.46069 216.59623
 215.83277 215.00731 214.09985 213.45838 212.90292 213.06589 213.45093 214.85464
 215.89035 217.50862 219.34891 220.27477 221.51692 223.76993 227.95384 231.97406
 235.41608 239.10187 242.52254 245.50644 248.24454 250.90007 253.85565 257.14346
 259.98834 262.36102 264.59937 266.93188 269.26614 271.43060 273.25641 274.89188
 276.39969 278.08972 279.63098 280.99750 282.18533 283.24182 284.20834 285.08984
 285.88989 286.60846 287.24536 288.09332
 366.78100 356.32993 345.75685 334.61778 323.01571 311.20463 299.06956 286.86749
 274.57441 262.46634 250.47027 239.76619 229.88312 220.98205 213.15897 206.15590
 199.98483 194.91775 191.49468 189.53161 188.56353 188.62246 189.45239 190.75531
 192.47524 194.56517 196.82309 199.17702 201.61695 204.09187 206.17480 208.01173
 209.63265 210.77258 210.99651 211.21943 211.15136 210.85129 210.47921 210.10414
 209.71607 209.42099 209.22392 209.08285 209.00577 209.33170 209.71263 210.09655
 210.88448 212.05741 213.30233 215.08026 217.00319 219.04111 221.13104 223.20897
 225.26389 227.34282 229.43475 231.53567 233.65960 235.82653 238.07745 240.44238
 243.05831 245.30423 247.30116 249.06109 250.47301 251.59094 252.40787 252.71879
 252.75072 252.51965 251.87457 250.81750 249.41843 247.57435 245.47828 243.30621
 241.09213 238.89106 236.70599 234.53991 232.39484 230.25677 228.27769 226.42962
 224.70755 223.17447 221.79940 220.56633 219.44325 218.39818 217.49711 216.63303
 215.86996 215.04489 214.13781 213.49674 212.94167 213.11963 213.54010 214.93604
 215.97688 217.55818 219.43486 220.51418 221.66443 223.90068 227.91327 231.88698
 235.33623 239.01312 242.36562 245.24663 247.92487 250.60815 253.62474 256.94052
 259.78705 262.17676 264.46036 266.83292 269.19296 271.37173 273.22192 274.87048
 276.35599 278.00970 279.54675 280.91409 282.10303 283.15887 284.12595 285.00638
 285.80859 286.52887 287.16449 288.01407
 366.78100 356.33030 345.75759 334.61889 323.01718 311.20648 299.07177 286.87007
 274.57736 262.46966 250.47395 239.77025 229.88755 220.98684 213.16414 206.16143
 199.99073 194.92402 191.50132 189.53861 188.57091 188.63020 189.46050 190.76380
 192.48409 194.57439 196.83268 199.18698 201.62727 204.10257 206.18586 208.02316
 209.64445 210.78475 211.00905 211.23234 211.16464 210.86493 210.49323 210.11852
 209.73082 209.43611 209.23941 209.09870 209.02200 209.34830 209.72959 210.11389
 210.90218 212.07548 213.32077 215.09907 217.02236 219.06066 221.15095 223.22925
 225.28455 227.36384 229.45614 231.55743 233.68173 235.84902 238.10032 240.46561
 243.08191 245.32820 247.32550 249.08580 250.49809 251.61639 252.43368 252.74498
 252.77727 252.54657 251.90186 250.84516 249.44646 247.60275 245.50705 243.33534
 241.12164 238.92093 236.73623 234.57052 232.42582 230.28811 228.30941 226.46171
 224.74000 223.20730 221.83259 220.59989 219.47718 218.43248 217.53177 216.66807
 215.90536 215.08066 214.17396 213.53325 212.97855 213.17075 213.62486 215.02228
 216.05034 217.62625 219.54141 220.73447 221.82892 224.00314 227.88515 231.82588
 235.26517 238.91389 242.18330 244.96085 247.59532 250.31902 253.40030 256.74155
 259.59164 262.00391 264.33420 266.74603 269.13010 271.32220 273.19348 274.85529
 276.32135 277.94623 279.46838 280.83118 282.01889 283.07455 284.04349 284.92633
 285.72696 286.45001 287.08664 287.94077
 366.78100 356.33048 345.75795 334.61943 323.01791 311.20739 299.07286 286.87134
 274.57882 262.47129 250.47577 239.77225 229.88972 220.98920 213.16668 206.16416
 199.99363 194.92711 191.50459 189.54206 188.57454 188.63402 189.46449 190.76797
 192.48845 194.57893 196.83740 199.19188 201.63236 204.10783 206.19131 208.02879
 209.65027 210.79074 211.01522 211.23870 211.17117 210.87165 210.50013 210.12560
 209.73808 209.44356 209.24704 209.10651 209.02999 209.35647 209.73794 210.12242
 210.91090 212.08438 213.32985 215.10833 217.03181 219.07028 221.16076 223.23924
 225.29471 227.37419 229.46667 231.56815 233.69262 235.86010 238.11158 240.47705
 243.09353 245.34001 247.33748 249.09796 250.51044 251.62892 252.44639 252.75787
 252.79035 252.55982 251.91530 250.85878 249.46026 247.61673 245.52121 243.34969
 241.13616 238.93564 236.75112 234.58559 232.44107 230.30355 228.32503 226.47750
 224.75598 223.22346 221.84893 220.61641 219.49389 218.44936 217.54884 216.68532
 215.92280 215.09827 214.19175 213.55123 212.99670 213.21074 213.71642 215.10405
 216.11473 217.72620 219.65970 220.93005 221.99597 224.09306 227.87852 231.77426
 235.18385 238.78517 241.96799 244.65923 247.26546 250.03413 253.18227 256.54810
 259.40640 261.84692 264.22412 266.67288 269.07660 271.27969 273.17111 274.84555
 276.32938 277.85739 279.38107 280.75012 281.94138 282.99982 283.96927 284.85248
 285.65515 286.37695 287.01620 287.87103
 366.78100 356.33053 345.75805 334.61958 323.01810 311.20763 299.07315 286.87168
 274.57921 262.47173 250.47626 239.77278 229.89031 220.98983 213.16736 206.16489
 199.99441 194.92794 191.50546 189.54299 188.57551 188.63504 189.46557 190.76909
 192.48962 194.58014 196.83867 199.19319 201.63372 204.10925 206.19277 208.03030
 209.65182 210.79235 211.01687 211.24040 211.17293 210.87345 210.50198 210.12750
 209.74003 209.44555 209.24908 209.10861 209.03213 209.35866 209.74018 210.12471
 210.91323 212.08676 213.33229 215.11081 217.03434 219.07286 221.16339 223.24191
 225.29744 227.37697 229.46949 231.57102 233.69554 235.86307 238.11459 240.48012
 243.09665 245.34317 247.34070 249.10122 250.51375 251.63227 252.44980 252.76133
 252.79385 252.56338 251.91890 250.86243 249.46395 247.62048 245.52501 243.35353
 241.14006 238.93958 236.75511 234.58963 232.44516 230.30769 228.32921 226.48174
 224.76026 223.22779 221.85331 220.62084 219.49837 218.45389 217.55342 216.68994
 215.92747 215.10299 214.19652 213.55605 213.00157 213.24260 213.81206 215.17998
 216.18465 217.84879 219.78928 221.09814 222.16054 224.18474 227.88495 231.71368
 235.08778 238.63313 241.73135 244.35185 246.93616 249.75137 252.96866 256.36124
 259.23386 261.70526 264.12946 266.61246 269.03281 271.24402 273.14880 274.82642
 276.29382 277.79623 279.31641 280.68640 281.87680 282.93619 283.90506 284.78928
 285.59213 286.31390 286.95343 287.80890
 366.78100 356.33048 345.75797 334.61945 323.01793 311.20742 299.07290 286.87139
 274.57887 262.47135 250.47584 239.77232 229.88980 220.98929 213.16677 206.16425
 199.99374 194.92722 191.50470 189.54219 188.57467 188.63416 189.46464 190.76812
 192.48861 194.57909 196.83757 199.19206 201.63254 204.10802 206.19151 208.02899
 209.65048 210.79096 211.01544 211.23893 211.17141 210.87189 210.50038 210.12586
 209.73834 209.44383 209.24731 209.10679 209.03028 209.35676 209.73825 210.12273
 210.91121 212.08470 213.33018 215.10866 217.03215 219.07063 221.16111 223.23960
 225.29508 227.37457 229.46705 231.56853 233.69302 235.86050 238.11198 240.47747
 243.09395 245.34043 247.33792 249.09840 250.51088 251.62937 252.44685 252.75834
 252.79082 252.56030 251.91579 250.85927 249.46075 247.61724 245.52172 243.35020
 241.13669 238.93617 236.75166 234.58614 232.44162 230.30411 228.32559 226.47807
 224.75656 223.22404 221.84952 220.61701 219.49449 218.44998 217.54946 216.68594
 215.92343 215.09891 214.19239 213.55188 212.99736 213.26836 213.90863 215.25206
 216.26901 217.97691 219.92534 221.25288 222.33241 224.27882 227.89197 231.64667
 234.98109 238.46506 241.47762 244.03238 246.59978 249.47079 252.76157 256.18381
 259.07513 261.57907 264.04868 266.56326 268.99783 271.21429 273.13098 274.81015
 276.26587 277.74106 279.25763 280.62674 281.81799 282.87701 283.84637 284.72998
 285.53098 286.25543 286.89426 287.75085
 366.78100 356.33033 345.75765 334.61898 323.01730 311.20663 299.07195 286.87028
 274.57760 262.46993 250.47426 239.77058 229.88791 220.98723 213.16456 206.16188
 199.99121 194.92453 191.50186 189.53918 188.57151 188.63084 189.46116 190.76449
 192.48481 194.57514 196.83346 199.18779 201.62811 204.10344 206.18677 208.02409
 209.64542 210.78574 211.01007 211.23339 211.16572 210.86604 210.49437 210.11970
 209.73202 209.43735 209.24067 209.10000 209.02332 209.34965 209.73097 210.11530
 210.90363 212.07695 213.32228 215.10060 217.02393 219.06225 221.15258 223.23090
 225.28623 227.36555 229.45788 231.55921 233.68353 235.85086 238.10218 240.46751
 243.08383 245.33016 247.32748 249.08781 250.50014 251.61846 252.43579 252.74711
 252.77944 252.54876 251.90409 250.84741 249.44874 247.60507 245.50939 243.33772
 241.12404 238.92337 236.73869 234.57302 232.42834 230.29067 228.31199 226.46432
 224.74265 223.20997 221.83530 220.60262 219.47995 218.43527 217.53460 216.67092
 215.90825 215.08358 214.17690 213.53623 212.98155 213.28613 214.00575 215.32263
 216.36583 218.10715 220.05418 221.40494 222.51762 224.37552 227.89380 231.58385
 234.86852 238.27699 241.19978 243.69461 246.25974 249.19659 252.56340 256.01675
 258.92874 261.46530 263.97879 266.52435 268.97159 271.19241 273.11594 274.79636
 276.23892 277.69196 279.20462 280.57394 281.76526 282.82367 283.79309 284.67499
 285.47858 286.19934 286.84058 287.69598
 366.78100 356.33003 345.75706 334.61810 323.01613 311.20516 299.07019 286.86822
 274.57525 262.46729 250.47132 239.76735 229.88438 220.98341 213.16045 206.15748
 199.98651 194.91954 191.49657 189.53360 188.56564 188.62467 189.45470 190.75773
 192.47776 194.56779 196.82583 199.17986 201.61989 204.09492 206.17795 208.01499
 209.63602 210.77605 211.00008 211.22311 211.15514 210.85518 210.48321 210.10824
 209.72027 209.42530 209.22834 209.08737 209.01040 209.33643 209.71746 210.10149
 210.88953 212.06256 213.30759 215.08562 217.00865 219.04668 221.13672 223.21475
 225.26978 227.34881 229.44084 231.54188 233.66591 235.83294 238.08397 240.44900
 243.06503 245.31107 247.30810 249.06813 250.48016 251.59819 252.41523 252.72626
 252.75829 252.52732 251.88235 250.82538 249.42642 247.58245 245.48648 243.31451
 241.10054 238.89957 236.71461 234.54864 232.40367 230.26570 228.28673 226.43877
 224.71680 223.18383 221.80886 220.57589 219.45292 218.40796 217.50699 216.64302
 215.88005 215.05508 214.14812 213.50715 212.95218 213.29494 214.10474 215.39835
 216.46906 218.24213 220.17303 221.54735 222.71176 224.48759 227.89438 231.53059
 234.75128 238.06119 240.88712 243.33714 245.92276 248.93269 252.37553 255.86327
 258.79578 261.36127 263.91180 266.48346 268.94257 271.16849 273.10153 274.79834
 276.25717 277.65649 279.16190 280.53091 281.72244 282.78217 283.75284 284.63919
 285.44989 286.18146 286.82584 287.68216
 366.78100 356.32964 345.75628 334.61692 323.01456 311.20320 299.06783 286.86547
 274.57211 262.46375 250.46739 239.76303 229.87967 220.97831 213.15495 206.15159
 199.98022 194.91286 191.48950 189.52614 188.55778 188.61642 189.44606 190.74870
 192.46834 194.55798 196.81561 199.16925 201.60889 204.08353 206.16617 208.00281
 209.62345 210.76309 210.98673 211.20937 211.14101 210.84064 210.46828 210.09292
 209.70456 209.40920 209.21184 209.07048 208.99312 209.31876 209.69940 210.08303
 210.87067 212.04331 213.28795 215.06559 216.98823 219.02587 221.11551 223.19315
 225.24779 227.32642 229.41806 231.51870 233.64234 235.80898 238.05962 240.42426
 243.03990 245.28554 247.28218 249.04181 250.45345 251.57109 252.38773 252.69837
 252.73001 252.49865 251.85329 250.79593 249.39657 247.55221 245.45584 243.28348
 241.06912 238.86776 236.68240 234.51604 232.37068 230.23232 228.25296 226.40460
 224.68223 223.14887 221.77351 220.54015 219.41679 218.37143 217.47007 216.60571
 215.84235 215.01699 214.10962 213.46826 212.91290 213.29636 214.20232 215.48306
 216.57642 218.37628 220.28694 221.67590 222.89987 224.62346 227.90567 231.48309
 234.62833 237.81665 240.53183 242.95644 245.58894 248.68228 252.19966 255.72469
 258.68216 261.27692 263.85431 266.44601 268.90952 271.13116 273.06097 274.76074
 276.21384 277.64908 279.16101 280.53110 281.72433 282.78427 283.75763 284.64767
 285.46005 286.19409 286.84018 287.69757
 366.78100 356.32911 345.75523 334.61534 323.01246 311.20057 299.06469 286.86180
 274.56791 262.45903 250.46214 239.75726 229.87337 220.97149 213.14760 206.14371
 199.97183 194.90394 191.48006 189.51617 188.54729 188.60540 189.43451 190.73663
 192.45574 194.54486 196.80197 199.15509 201.59420 204.06831 206.15043 207.98654
 209.60666 210.74577 210.96889 211.19100 211.12211 210.82123 210.44834 210.07246
 209.68357 209.38769 209.18980 209.04791 208.97003 209.29514 209.67526 210.05837
 210.84549 212.01760 213.26171 215.03883 216.96094 218.99806 221.08717 223.16429
 225.21840 227.29651 229.38763 231.48774 233.61086 235.77697 238.02709 240.39120
 243.00631 245.25143 247.24754 249.00666 250.41777 251.53489 252.35100 252.66111
 252.69223 252.46034 251.81446 250.75657 249.35669 247.51180 245.41491 243.24203
 241.02714 238.82526 236.63937 234.47249 232.32660 230.18771 228.20783 226.35894
 224.63606 223.10217 221.72629 220.49240 219.36851 218.32263 217.42074 216.55586
 215.79197 214.96609 214.05820 213.41631 212.86043 213.28838 214.29945 215.58145
 216.68610 218.50073 220.39708 221.79214 223.07504 224.78320 227.94051 231.43755
 234.49603 237.54247 240.14180 242.55910 245.25854 248.44228 252.03212 255.59828
 258.58167 261.20541 263.80798 266.41742 268.88394 271.09845 273.01880 274.70789
 276.15723 277.63956 279.15952 280.53073 281.72421 282.78613 283.75790 284.64908
 285.46451 286.19904 286.84390 287.70337
 366.78100 356.32860 345.75420 334.61381 323.01041 311.19801 299.06161 286.85822
 274.56382 262.45442 250.45702 239.75163 229.86723 220.96483 213.14043 206.13604
 199.96364 194.89524 191.47084 189.50644 188.53705 188.59465 189.42325 190.72485
 192.44346 194.53206 196.78866 199.14126 201.57987 204.05347 206.13507 207.97067
 209.59028 210.72888 210.95148 211.17308 211.10368 210.80229 210.42889 210.05249
 209.66309 209.36670 209.16830 209.02590 208.94750 209.27211 209.65171 210.03431
 210.82091 211.99251 213.23612 215.01272 216.93432 218.97092 221.05953 223.13613
 225.18973 227.26733 229.35794 231.45754 233.58014 235.74574 237.99535 240.35895
 242.97355 245.21815 247.21375 248.97236 250.38296 251.49956 252.31516 252.62477
 252.65537 252.42297 251.77657 250.71818 249.31778 247.47238 245.37498 243.20159
 240.98619 238.78379 236.59739 234.42999 232.28360 230.14420 228.16380 226.31440
 224.59101 223.05661 221.68021 220.44581 219.32142 218.27502 217.37262 216.50722
 215.74283 214.91643 214.00803 213.36563 212.80923 213.27789 214.38515 215.69698
 216.80695 218.61937 220.49867 221.89714 223.23227 224.95267 227.99557 231.39870
 234.35141 237.23680 239.72095 242.14583 244.92772 248.21497 251.87881 255.47964
 258.49548 261.14554 263.76559 266.39261 268.86136 271.06689 272.97522 274.65723
 276.11960 277.62924 279.14899 280.51880 281.71072 282.77133 283.74432 284.63400
 285.44983 286.18329 286.83295 287.68738
 366.78100 356.32779 345.75257 334.61136 323.00715 311.19393 299.05672 286.85251
 274.55730 262.44708 250.44887 239.74266 229.85744 220.95423 213.12902 206.12380
 199.95059 194.88138 191.45616 189.49095 188.52074 188.57753 189.40531 190.70610
 192.42389 194.51167 196.76746 199.11925 201.55703 204.02982 206.11061 207.94539
 209.56418 210.70197 210.92376 211.14454 211.07433 210.77212 210.39790 210.02069
 209.63048 209.33326 209.13405 208.99084 208.91162 209.23541 209.61420 209.99599
 210.78177 211.95256 213.19535 214.97113 216.89192 218.92771 221.01549 223.09128
 225.14407 227.22085 229.31064 231.40943 233.53121 235.69600 237.94479 240.30758
 242.92136 245.16515 247.15994 248.91772 250.32751 251.44330 252.25808 252.56687
 252.59666 252.36344 251.71623 250.65702 249.25581 247.40959 245.31138 243.13717
 240.92095 238.71774 236.53053 234.36231 232.21510 230.07489 228.09367 226.24346
 224.51925 222.98404 221.60682 220.37161 219.24640 218.19918 217.29597 216.42976
 215.66454 214.83733 213.92812 213.28490 212.72769 213.24983 214.48346 215.82321
 216.91982 218.71683 220.59044 222.00496 223.39091 225.13594 228.08232 231.37056
 234.20123 236.91196 239.28308 241.73409 244.61456 247.99612 251.73000 255.36772
 258.40799 261.08609 263.72681 266.37033 268.84357 271.04086 272.93988 274.62100
 276.08813 277.61176 279.13364 280.50244 281.69318 282.75269 283.72443 284.61621
 285.43069 286.16779 286.81390 287.67087
 366.78100 356.32703 345.75106 334.60909 323.00412 311.19014 299.05217 286.84720
 274.55123 262.44026 250.44129 239.73432 229.84835 220.94438 213.11840 206.11243
 199.93846 194.86849 191.44252 189.47655 188.50558 188.56161 189.38863 190.68866
 192.40569 194.49272 196.74775 199.09878 201.53581 204.00784 206.08787 207.92189
 209.53992 210.67695 210.89798 211.11801 211.04704 210.74407 210.36910 209.99113
 209.60015 209.30218 209.10221 208.95824 208.87827 209.20130 209.57933 209.96036
 210.74539 211.91541 213.15744 214.93247 216.85250 218.88753 220.97456 223.04959
 225.10162 227.17765 229.26667 231.36470 233.48573 235.64976 237.89779 240.25982
 242.87285 245.11588 247.10990 248.86693 250.27596 251.39099 252.20502 252.51305
 252.54208 252.30811 251.66014 250.60016 249.19819 247.35122 245.25225 243.07728
 240.86031 238.65634 236.46837 234.29940 232.15142 230.01045 228.02848 226.17751
 224.45254 222.91657 221.53860 220.30263 219.17666 218.12868 217.22471 216.35774
 215.59177 214.76380 213.85383 213.20986 212.65189 213.22226 214.56984 215.97011
 217.08032 218.82837 220.63632 222.04779 223.50302 225.30399 228.16570 231.35390
 234.06346 236.58878 238.84549 241.33942 244.32973 247.82964 251.61621 255.28183
 258.36719 261.07068 263.71298 266.35999 268.82672 271.01208 272.88840 274.54672
 276.03946 277.59732 279.12531 280.49344 281.68280 282.74094 283.71017 284.59821
 285.41049 286.14294 286.76584 287.60641
 366.78100 356.32776 345.75253 334.61129 323.00706 311.19382 299.05659 286.85235
 274.55711 262.44688 250.44864 239.74241 229.85717 220.95393 213.12870 206.12346
 199.95023 194.88099 191.45576 189.49052 188.52028 188.57705 189.40481 190.70558
 192.42334 194.51110 196.76687 199.11863 201.55640 204.02916 206.10993 207.94469
 209.56345 210.70122 210.92298 211.14375 211.07351 210.77127 210.39704 210.01980
 209.62957 209.33233 209.13310 208.98986 208.91062 209.23439 209.61315 209.99492
 210.78068 211.95144 213.19421 214.96997 216.89074 218.92650 221.01427 223.09003
 225.14279 227.21956 229.30932 231.40809 233.52985 235.69462 237.94338 240.30614
 242.91991 245.16367 247.15844 248.91620 250.32596 251.44173 252.25649 252.56526
 252.59502 252.36179 251.71455 250.65531 249.25408 247.40784 245.30961 243.13537
 240.91913 238.71590 236.52866 234.36043 232.21319 230.07296 228.09172 226.24148
 224.51725 222.98201 221.60478 220.36954 219.24430 218.19707 217.29383 216.42760
 215.66236 214.83513 213.92589 213.28265 212.72542 213.27972 214.59534 216.01830
 217.29926 219.02602 220.72719 222.05286 223.56339 225.35088 228.11282 231.31261
 233.83405 236.11493 238.26312 240.84877 244.00096 247.61879 251.57036 255.37561
 258.52118 261.20312 263.77475 266.35605 268.76447 270.86758 272.67816 274.30374
 275.89081 277.54459 279.05975 280.42380 281.60947 282.66287 283.62866 284.51212
 285.31937 286.07092 286.73822 287.58862
 366.78100 356.32774 345.75248 334.61122 323.00696 311.19370 299.05644 286.85218
 274.55692 262.44666 250.44840 239.74214 229.85688 220.95362 213.12836 206.12310
 199.94984 194.88058 191.45532 189.49006 188.51980 188.57654 189.40428 190.70502
 192.42276 194.51050 196.76624 199.11798 201.55572 204.02846 206.10920 207.94394
 209.56268 210.70042 210.92216 211.14290 211.07264 210.77038 210.39612 210.01886
 209.62860 209.33134 209.13208 208.98882 208.90956 209.23330 209.61204 209.99378
 210.77952 211.95026 213.19300 214.96874 216.88948 218.92522 221.01296 223.08870
 225.14144 227.21818 229.30792 231.40666 233.52840 235.69314 237.94188 240.30461
 242.91835 245.16209 247.15683 248.91457 250.32431 251.44005 252.25479 252.56353
 252.59327 252.36001 251.71275 250.65349 249.25223 247.40597 245.30771 243.13345
 240.91719 238.71393 236.52667 234.35841 232.21115 230.07089 228.08963 226.23937
 224.51511 222.97985 221.60259 220.36733 219.24207 218.19481 217.29155 216.42529
 215.66003 214.83277 213.92351 213.28025 212.72299 213.30710 214.70410 216.01659
 217.37846 219.10382 220.82048 222.18289 223.64755 225.52751 228.13113 231.24530
 233.54613 235.69611 237.79024 240.43097 243.71533 247.52071 251.54807 255.34953
 258.52719 261.22623 263.78946 266.32211 268.67822 270.72684 272.50436 274.17450
 275.81165 277.37357 278.83017 280.18655 281.38013 282.45407 283.48828 284.46786
 285.34888 286.13342 286.81879 287.69220
 366.78100 356.32648 345.74996 334.60745 323.00193 311.18741 299.04889 286.84337
 274.54686 262.43534 250.43582 239.72830 229.84179 220.93727 213.11075 206.10423
 199.92971 194.85920 191.43268 189.46616 188.49464 188.55012 189.37661 190.67609
 192.39257 194.47905 196.73354 199.08402 201.52050 203.99198 206.07146 207.90495
 209.52243 210.65891 210.87939 211.09887 211.02736 210.72384 210.34832 209.96980
 209.57829 209.27977 209.07925 208.93473 208.85421 209.17670 209.55418 209.93466
 210.71914 211.88862 213.13011 214.90459 216.82407 218.85855 220.94504 223.01952
 225.07100 227.14648 229.23496 231.33245 233.45293 235.61641 237.86389 240.22537
 242.83786 245.08034 247.07382 248.83030 250.23879 251.35327 252.16675 252.47423
 252.50271 252.26820 251.61968 250.55916 249.15664 247.30912 245.20961 243.03409
 240.81657 238.61205 236.42354 234.25402 232.10550 229.96398 227.98146 226.12995
 224.40443 222.86791 221.48939 220.25287 219.12636 218.07784 217.17332 216.30580
 215.53929 214.71077 213.80025 213.15573 212.59721 213.25786 214.83575 216.17020
 217.51921 219.24251 220.96465 222.36864 223.87479 225.75108 228.29185 231.21910
 233.34711 235.36256 237.39383 240.05202 243.44527 247.37215 251.44958 255.34891
 258.53506 261.17441 263.74612 266.27487 268.60150 270.58365 272.36508 274.02356
 275.67847 277.25528 278.77570 280.16254 281.41718 282.63788 283.75159 284.76053
 285.66797 286.47604 287.18195 288.08157
 366.78100 356.32486 345.74672 334.60259 322.99545 311.17931 299.03917 286.83203
 274.53390 262.42076 250.41962 239.71048 229.82235 220.91621 213.08807 206.07993
 199.90379 194.83166 191.40352 189.43538 188.46224 188.51610 189.34097 190.63883
 192.35369 194.43855 196.69141 199.04028 201.47514 203.94500 206.02286 207.85473
 209.47059 210.60545 210.82431 211.04217 210.96904 210.66390 210.28676 209.90662
 209.51348 209.21335 209.01121 208.86507 208.78293 209.10380 209.47966 209.85852
 210.64138 211.80924 213.04911 214.82197 216.73983 218.77269 220.85755 222.93042
 224.98028 227.05414 229.14100 231.23686 233.35573 235.51759 237.76345 240.12331
 242.73418 244.97504 246.96690 248.72176 250.12862 251.24149 252.05335 252.35921
 252.38607 252.14993 251.49980 250.43766 249.03352 247.18438 245.08324 242.90611
 240.68697 238.48083 236.29069 234.11956 231.96942 229.82628 227.84214 225.98900
 224.26187 222.72373 221.34359 220.10545 218.97731 217.92718 217.02104 216.15190
 215.38376 214.55362 213.64149 212.99535 212.43521 213.17885 214.94955 216.35614
 217.60478 219.29242 221.02396 222.48578 224.06013 225.93291 228.39311 231.23927
 233.24547 235.06494 236.94524 239.61902 243.12828 247.17735 251.32689 255.24785
 258.46664 261.12943 263.73544 266.28821 268.62534 270.62805 272.42029 274.08453
 275.71329 277.25504 278.78961 280.19019 281.48273 282.73352 283.87466 284.90845
 285.83823 286.66620 287.38950 288.31128
 366.78100 356.32344 345.74388 334.59832 322.98976 311.17220 299.03063 286.82207
 274.52251 262.40795 250.40539 239.69483 229.80527 220.89771 213.06815 206.05859
 199.88103 194.80746 191.37790 189.40834 188.43378 188.48622 189.30966 190.60610
 192.31954 194.40298 196.65442 199.00186 201.43529 203.90373 205.98017 207.81061
 209.42505 210.55849 210.77593 210.99237 210.91781 210.61125 210.23268 209.85112
 209.45656 209.15500 208.95144 208.80388 208.72032 209.03976 209.41420 209.79164
 210.57308 211.73951 212.97795 214.74939 216.66583 218.69727 220.78071 222.85215
 224.90059 226.97303 229.05847 231.15291 233.27034 235.43078 237.67522 240.03366
 242.64310 244.88254 246.87298 248.62642 250.03186 251.14330 251.95374 252.25817
 252.28361 252.04605 251.39449 250.33093 248.92537 247.07481 244.97225 242.79369
 240.57313 238.36557 236.17400 234.00144 231.84988 229.70532 227.71976 225.86520
 224.13664 222.59708 221.21552 219.97596 218.84640 217.79483 216.88727 216.01671
 215.24715 214.41559 213.50203 212.85447 212.29291 213.10236 215.02676 216.55550
 217.60318 219.23531 220.98203 222.48807 224.11284 226.07616 228.42787 231.30751
 233.22964 234.80887 236.44698 239.19824 242.85484 247.03192 251.23590 255.07700
 258.33621 261.12616 263.75848 266.34686 268.72180 270.75742 272.55576 274.22385
 275.82449 277.31363 278.75003 280.11563 281.31097 282.39160 283.45291 284.42401
 285.29736 286.07513 286.75455 287.62039
 366.78100 356.32214 345.74127 334.59441 322.98454 311.16568 299.02281 286.81295
 274.51208 262.39622 250.39235 239.68049 229.78962 220.88076 213.04990 206.03903
 199.86017 194.78530 191.35444 189.38357 188.40771 188.45884 189.28098 190.57611
 192.28825 194.37038 196.62052 198.96665 201.39879 203.86593 205.94106 207.77020
 209.38333 210.51547 210.73160 210.94674 210.87087 210.56301 210.18314 209.80028
 209.40441 209.10155 208.89669 208.74782 208.66296 208.98109 209.35423 209.73036
 210.51050 211.67563 212.91277 214.68290 216.59804 218.62817 220.71031 222.78045
 224.82758 226.89872 228.98285 231.07599 233.19212 235.35126 237.59439 239.95153
 242.55966 244.79780 246.78693 248.53907 249.94320 251.05334 251.86248 252.16561
 252.18975 251.95088 251.29802 250.23315 248.82629 246.97442 244.87056 242.69069
 240.46883 238.25996 236.06710 233.89324 231.74037 229.59451 227.60764 225.75178
 224.02191 222.48105 221.09818 219.85732 218.72645 217.67359 216.76472 215.89286
 215.12200 214.28913 213.37427 212.72540 212.16254 213.03282 215.09966 216.75832
 217.71397 219.34001 221.09222 222.56641 224.16576 226.11955 228.46925 231.30321
 233.11421 234.42812 235.89967 238.81671 242.70407 246.99609 251.21063 255.06902
 258.34106 261.14523 263.76813 266.34619 268.71573 270.74857 272.49283 274.22086
 275.82672 277.32333 278.79727 280.15387 281.33951 282.40601 283.39676 284.34454
 285.19699 285.95609 286.61920 287.46426
 366.78100 356.32019 345.73738 334.58857 322.97675 311.15594 299.01113 286.79932
 274.49651 262.37870 250.37289 239.65908 229.76626 220.85545 213.02264 206.00983
 199.82902 194.75221 191.31940 189.34658 188.36877 188.41796 189.23815 190.53134
 192.24153 194.32172 196.56990 198.91409 201.34428 203.80947 205.88266 207.70985
 209.32104 210.45123 210.66541 210.87860 210.80079 210.49098 210.10917 209.72436
 209.32655 209.02173 208.81492 208.66411 208.57730 208.89349 209.26468 209.63887
 210.41706 211.58024 212.81543 214.58362 216.49681 218.52500 220.60519 222.67338
 224.71856 226.78775 228.86994 230.96113 233.07532 235.23251 237.47370 239.82888
 242.43507 244.67126 246.65845 248.40864 249.81083 250.91902 251.72621 252.02739
 252.04958 251.80877 251.15396 250.08715 248.67834 246.82453 244.71871 242.53690
 240.31309 238.10228 235.90747 233.73166 231.57685 229.42904 227.44022 225.58241
 223.85060 222.30779 220.92298 219.68017 218.54736 217.49254 216.58173 215.70792
 214.93511 214.10030 213.18349 212.53268 211.96786 212.93996 215.24153 216.89485
 217.78648 219.38293 221.20587 222.72652 224.32266 226.20757 228.58423 231.30054
 232.85483 234.04637 235.58353 238.54448 242.52698 246.91597 251.17760 255.04738
 258.32559 261.12207 263.72607 266.29504 268.66370 270.65915 272.40338 274.06143
 275.73541 277.25433 278.74661 280.11740 281.32034 282.43195 283.50616 284.47934
 285.35458 286.13400 286.81491 287.68262
 366.78100 356.32007 345.73713 334.58820 322.97626 311.15533 299.01039 286.79846
 274.49552 262.37759 250.37165 239.65772 229.76478 220.85385 213.02091 206.00798
 199.82704 194.75011 191.31717 189.34424 188.36630 188.41537 189.23543 190.52850
 192.23856 194.31863 196.56670 198.91076 201.34083 203.80589 205.87896 207.70602
 209.31709 210.44715 210.66122 210.87428 210.79635 210.48641 210.10448 209.71954
 209.32161 209.01667 208.80974 208.65880 208.57187 208.88793 209.25900 209.63306
 210.41113 211.57420 212.80926 214.57733 216.49039 218.51846 220.59852 222.66659
 224.71165 226.78072 228.86278 230.95385 233.06791 235.22498 237.46604 239.82111
 242.42717 244.66324 246.65030 248.40037 249.80243 250.91050 251.71756 252.01863
 252.04069 251.79976 251.14483 250.07789 248.66896 246.81502 244.70909 242.52715
 240.30322 238.09228 235.89735 233.72141 231.56648 229.41854 227.42961 225.57167
 223.83974 222.29680 220.91187 219.66893 218.53600 217.48106 216.57013 215.69619
 214.92326 214.08833 213.17139 212.52046 211.95552 212.93851 215.27599 217.01183
 218.03287 219.54723 221.28014 222.79730 224.38361 226.20898 228.67920 231.22989
 232.57924 233.73645 235.40829 238.39053 242.44797 246.87352 251.09518 254.99141
 258.32605 261.16306 263.80017 266.34543 268.68967 270.65121 272.37112 274.03421
 275.69009 277.23804 278.75677 280.15054 281.46539 282.71222 283.84979 284.88034
 285.80719 286.63257 287.35361 288.27246
 366.78100 356.32025 345.73751 334.58876 322.97702 311.15627 299.01153 286.79978
 274.49704 262.37929 250.37355 239.65980 229.76706 220.85631 213.02357 206.01082
 199.83008 194.75333 191.32059 189.34784 188.37010 188.41935 189.23961 190.53286
 192.24312 194.32337 196.57163 198.91588 201.34614 203.81139 205.88465 207.71190
 209.32316 210.45341 210.66767 210.88092 210.80318 210.49343 210.11169 209.72694
 209.32919 209.02445 208.81770 208.66696 208.58021 208.89647 209.26772 209.64198
 210.42023 211.58349 212.81874 214.58700 216.50025 218.52851 220.60876 222.67702
 224.72227 226.79153 228.87378 230.96504 233.07929 235.23655 237.47780 239.83306
 242.43931 244.67557 246.66282 248.41308 249.81533 250.92359 251.73084 252.03210
 252.05435 251.81361 251.15886 250.09212 248.68337 246.82963 244.72388 242.54213
 240.31839 238.10764 235.91290 233.73715 231.58241 229.43466 227.44592 225.58817
 223.85643 222.31368 220.92894 219.68619 218.55345 217.49870 216.58796 215.71421
 214.94147 214.10672 213.18998 212.53923 211.97449 212.95303 215.28163 217.09091
 218.20210 219.67078 221.31946 222.77347 224.33623 226.17363 228.63118 231.14159
 232.33217 233.42024 235.12155 238.24132 242.46428 246.83112 251.01314 254.89835
 258.30548 261.25006 263.91354 266.43979 268.76044 270.75543 272.50311 274.15564
 275.78201 277.29340 278.72485 280.09000 281.31512 282.51190 283.64679 284.67493
 285.59961 286.42307 287.14240 288.05914
 366.78100 356.31899 345.73497 334.58496 322.97194 311.14993 299.00391 286.79090
 274.48688 262.36787 250.36085 239.64584 229.75183 220.83981 213.00580 205.99178
 199.80977 194.73175 191.29774 189.32372 188.34471 188.39270 189.21168 190.50367
 192.21265 194.29164 196.53862 198.88161 201.31059 203.77458 205.84656 207.67255
 209.28254 210.41152 210.62451 210.83649 210.75748 210.44646 210.06345 209.67743
 209.27842 208.97241 208.76439 208.61238 208.52436 208.83935 209.20933 209.58232
 210.35930 211.52129 212.75527 214.52226 216.43425 218.46123 220.54022 222.60720
 224.65119 226.71917 228.80016 230.89014 233.00313 235.15912 237.39910 239.75309
 242.35807 244.59306 246.57904 248.32803 249.72901 250.83600 251.64198 251.94197
 251.96296 251.72094 251.06493 249.99691 248.58690 246.73188 244.62487 242.44185
 240.21684 238.00483 235.80881 233.63180 231.47578 229.32677 227.33675 225.47774
 223.74472 222.20071 220.81469 219.57068 218.43667 217.38065 216.46864 215.59362
 214.81961 213.98359 213.06558 212.41356 211.84755 212.88820 215.35229 217.27460
 218.32361 219.79845 221.41383 222.78085 224.36290 226.16521 228.68787 231.12389
 232.16452 232.99188 234.60999 237.88441 242.29059 246.69437 250.88565 254.78986
 258.25085 261.24963 263.95245 266.49588 268.84216 270.88480 272.63565 274.28983
 275.92343 277.45563 278.87109 280.16406 281.32538 282.37949 283.35123 284.23270
 285.00845 285.69925 286.30270 287.07178
 366.78100 356.31738 345.73176 334.58014 322.96552 311.14190 298.99428 286.77965
 274.47403 262.35341 250.34479 239.62817 229.73255 220.81893 212.98331 205.96769
 199.78407 194.70445 191.26883 189.29320 188.31258 188.35896 189.17634 190.46672
 192.17410 194.25148 196.49686 198.83824 201.26562 203.72800 205.79838 207.62276
 209.23113 210.35851 210.56989 210.78027 210.69965 210.38703 210.00241 209.61479
 209.21417 208.90655 208.69693 208.54331 208.45368 208.76706 209.13544 209.50682
 210.28220 211.44258 212.67496 214.44034 216.35072 218.37610 220.45348 222.51886
 224.56124 226.62761 228.70699 230.79537 232.90675 235.06113 237.29951 239.65189
 242.25527 244.48865 246.47303 248.22041 249.61979 250.72516 251.52954 251.82792
 251.84730 251.60368 250.94606 249.87644 248.46482 246.60820 244.49958 242.31496
 240.08834 237.87472 235.67709 233.49847 231.34085 229.19023 227.19861 225.33799
 223.60337 222.05775 220.67013 219.42451 218.28889 217.23127 216.31764 215.44102
 214.66540 213.82778 212.90816 212.25454 211.68692 212.80316 215.44043 217.48587
 218.49321 219.97955 221.54997 222.95959 224.52521 226.28862 228.83049 230.90182
 231.92131 232.66510 234.38219 237.78886 242.10620 246.53596 250.74254 254.66234
 258.13284 261.15710 263.88068 266.46918 268.86536 270.96072 272.68619 274.26141
 275.92801 277.50003 278.93225 280.27325 281.44815 282.49460 283.45285 284.33890
 285.15033 285.87006 286.51602 287.37387
 366.78100 356.31642 345.72983 334.57725 322.96166 311.13708 298.98850 286.77291
 274.46633 262.34474 250.33516 239.61758 229.72099 220.80641 212.96982 205.95324
 199.76865 194.68807 191.25149 189.27490 188.29332 188.33873 189.15515 190.44457
 192.15098 194.22740 196.47181 198.81223 201.23865 203.70006 205.76948 207.59289
 209.20031 210.32673 210.53714 210.74656 210.66497 210.35139 209.96580 209.57722
 209.17564 208.86705 208.65647 208.50188 208.41130 208.72372 209.09113 209.46155
 210.23596 211.39538 212.62680 214.39121 216.30063 218.32504 220.40146 222.46588
 224.50729 226.57271 228.65112 230.73854 232.84895 235.00237 237.23979 239.59120
 242.19362 244.42603 246.40945 248.15587 249.55428 250.65870 251.46211 251.75953
 251.77795 251.53336 250.87478 249.80419 248.39161 246.53403 244.42444 242.23886
 240.01127 237.79669 235.59810 233.41852 231.25994 229.10835 227.11577 225.25418
 223.51860 221.97202 220.58343 219.33685 218.20026 217.14168 216.22710 215.34951
 214.57293 213.73434 212.81376 212.15918 211.59059 212.75890 215.51913 217.64413
 218.56882 220.06543 221.67570 223.09871 224.67868 226.37701 228.86093 230.77686
 231.65685 232.29759 234.08255 237.61319 241.97908 246.42378 250.63242 254.55208
 258.03021 261.07919 263.83704 266.44864 268.85858 270.97119 272.68616 274.23752
 275.90082 277.49921 278.99106 280.34528 281.52582 282.57358 283.53345 284.41922
 285.23282 285.95215 286.57870 287.43512
 366.78100 356.31608 345.72916 334.57624 322.96032 311.13540 298.98648 286.77056
 274.46364 262.34172 250.33180 239.61388 229.71696 220.80204 212.96512 205.94820
 199.76328 194.68236 191.24544 189.26852 188.28660 188.33168 189.14775 190.43683
 192.14291 194.21899 196.46307 198.80315 201.22923 203.69031 205.75939 207.58247
 209.18955 210.31563 210.52571 210.73479 210.65287 210.33895 209.95303 209.56411
 209.16219 208.85327 208.64235 208.48743 208.39651 208.70859 209.07567 209.44575
 210.21983 211.37891 212.60999 214.37407 216.28315 218.30723 220.38331 222.44739
 224.48847 226.55355 228.63163 230.71871 232.82879 234.98187 237.21895 239.57003
 242.17210 244.40418 246.38726 248.13334 249.53142 250.63550 251.43858 251.73566
 251.75374 251.50882 250.84990 249.77898 248.36606 246.50814 244.39822 242.21230
 239.98438 237.76946 235.57054 233.39062 231.23170 229.07978 227.08686 225.22494
 223.48902 221.94210 220.55318 219.30626 218.16934 217.11042 216.19550 215.31758
 214.54066 213.70174 212.78082 212.12590 211.55698 212.75290 215.57840 217.76195
 218.67334 220.14799 221.78995 223.22325 224.78539 226.43089 228.86818 230.63461
 231.37515 231.95392 233.84048 237.45052 241.86510 246.32855 250.53870 254.46675
 257.96783 261.05127 263.83383 266.44745 268.85699 270.98306 272.69681 274.24173
 275.89713 277.51624 279.03159 280.38922 281.57013 282.61929 283.58044 284.46317
 285.27856 286.00198 286.62839 287.49255
 366.78100 356.31610 345.72920 334.57629 322.96039 311.13549 298.98659 286.77069
 274.46378 262.34188 250.33198 239.61408 229.71718 220.80227 212.96537 205.94847
 199.76357 194.68266 191.24576 189.26886 188.28696 188.33206 189.14815 190.43725
 192.14335 194.21945 196.46355 198.80364 201.22974 203.69084 205.75994 207.58304
 209.19013 210.31623 210.52633 210.73543 210.65353 210.33962 209.95372 209.56482
 209.16292 208.85401 208.64311 208.48821 208.39731 208.70941 209.07650 209.44660
 210.22070 211.37980 212.61090 214.37499 216.28409 218.30819 220.38429 222.44839
 224.48948 226.55458 228.63268 230.71978 232.82988 234.98297 237.22007 239.57117
 242.17327 244.40536 246.38846 248.13456 249.53266 250.63676 251.43985 251.73695
 251.75505 251.51015 250.85125 249.78034 248.36744 246.50954 244.39964 242.21374
 239.98583 237.77093 235.57203 233.39213 231.23323 229.08132 227.08842 225.22652
 223.49062 221.94371 220.55481 219.30791 218.17101 217.11211 216.19720 215.31930
 214.54240 213.70350 212.78260 212.12769 211.55879 212.76750 215.62321 217.85031
 218.82477 220.27875 221.86388 223.27451 224.89618 226.52831 228.89015 230.45311
 231.03870 231.58893 233.54466 237.29385 241.79274 246.26956 250.48361 254.41617
 257.93213 261.03793 263.83313 266.43521 268.84021 270.97995 272.69662 274.24130
 275.89166 277.53088 279.05533 280.41611 281.59842 282.64893 283.61105 284.49628
 285.31219 286.04419 286.67108 287.53903
 366.78100 356.31642 345.72985 334.57727 322.96170 311.13712 298.98855 286.77297
 274.46640 262.34482 250.33525 239.61767 229.72110 220.80652 212.96994 205.95337
 199.76879 194.68822 191.25164 189.27507 188.29349 188.33892 189.15534 190.44477
 192.15119 194.22762 196.47204 198.81246 201.23889 203.70031 205.76974 207.59316
 209.20059 210.32701 210.53744 210.74686 210.66529 210.35171 209.96614 209.57756
 209.17598 208.86741 208.65683 208.50226 208.41168 208.72411 209.09153 209.46196
 210.23638 211.39581 212.62723 214.39166 216.30108 218.32550 220.40193 222.46635
 224.50778 226.57320 228.65163 230.73905 232.84948 235.00290 237.24033 239.59175
 242.19418 244.42660 246.41002 248.15645 249.55487 250.65930 251.46272 251.76015
 251.77857 251.53400 250.87542 249.80485 248.39227 246.53470 244.42512 242.23954
 240.01197 237.79739 235.59882 233.41924 231.26067 229.10909 227.11652 225.25494
 223.51937 221.97279 220.58422 219.33764 218.20106 217.14249 216.22791 215.35034
 214.57376 213.73519 212.81461 212.16004 211.59146 212.79782 215.64801 217.95116
 218.96469 220.41592 221.96323 223.38771 224.91354 226.52518 228.93570 230.45009
 230.70000 231.00803 233.29128 237.23872 241.76439 246.24348 250.45161 254.37482
 257.90073 261.02576 263.83377 266.42331 268.82440 270.97928 272.69055 274.22604
 275.87201 277.54691 279.08011 280.44186 281.62500 282.67780 283.64117 284.52667
 285.34000 286.07684 286.70813 287.57825
 366.78100 356.31662 345.73025 334.57787 322.96249 311.13812 298.98974 286.77437
 274.46799 262.34661 250.33724 239.61986 229.72348 220.80911 212.97273 205.95635
 199.77198 194.69160 191.25522 189.27885 188.29747 188.34310 189.15972 190.44934
 192.15597 194.23259 196.47721 198.81784 201.24446 203.70608 205.77571 207.59933
 209.20695 210.33358 210.54420 210.75383 210.67245 210.35907 209.97370 209.58532
 209.18394 208.87557 208.66519 208.51081 208.42044 208.73306 209.10068 209.47131
 210.24593 211.40556 212.63718 214.40180 216.31143 218.33605 220.41267 222.47730
 224.51892 226.58454 228.66317 230.75079 232.86142 235.01504 237.25266 239.60429
 242.20691 244.43953 246.42316 248.16978 249.56840 250.67303 251.47665 251.77427
 251.79290 251.54852 250.89015 249.81977 248.40739 246.55002 244.44064 242.25526
 240.02789 237.81351 235.61513 233.43576 231.27738 229.12600 227.13363 225.27225
 223.53688 221.99050 220.60212 219.35575 218.21937 217.16099 216.24662 215.36924
 214.59286 213.75449 212.83411 212.17974 211.61136 212.82138 215.68018 218.06129
 219.08482 220.52306 222.09692 223.55812 224.94844 226.47493 228.89265 230.36537
 230.39468 230.54370 233.09853 237.19234 241.73257 246.21216 250.41003 254.32396
 257.86197 261.01450 263.84250 266.42322 268.82303 270.99210 272.69336 274.21442
 275.85440 277.56223 279.10156 280.46436 281.64841 282.70096 283.66626 284.55322
 285.36768 286.10312 286.73804 287.61517
 366.78100 356.31653 345.73006 334.57759 322.96211 311.13764 298.98917 286.77370
 274.46723 262.34576 250.33629 239.61882 229.72234 220.80787 212.97140 205.95493
 199.77046 194.68999 191.25352 189.27704 188.29557 188.34110 189.15763 190.44716
 192.15369 194.23022 196.47475 198.81527 201.24180 203.70333 205.77286 207.59639
 209.20392 210.33045 210.54098 210.75050 210.66903 210.35556 209.97009 209.58162
 209.18015 208.87168 208.66120 208.50673 208.41626 208.72879 209.09632 209.46685
 210.24138 211.40091 212.63243 214.39696 216.30649 218.33102 220.40755 222.47208
 224.51361 226.57913 228.65766 230.74519 232.85572 235.00925 237.24678 239.59831
 242.20084 244.43336 246.41689 248.16342 249.56195 250.66648 251.47001 251.76754
 251.78606 251.54159 250.88312 249.81265 248.40018 246.54271 244.43324 242.24777
 240.02029 237.80582 235.60735 233.42788 231.26941 229.11794 227.12547 225.26399
 223.52852 221.98205 220.59358 219.34711 218.21064 217.15217 216.23770 215.36022
 214.58375 213.74528 212.82481 212.17034 211.60187 212.83041 215.73299 218.16058
 219.20998 220.59698 222.19487 223.74661 225.07172 226.47336 228.77956 230.13550
 230.07793 230.22658 232.93610 237.13191 241.69162 246.17525 250.36044 254.26942
 257.82199 261.00388 263.85718 266.43091 268.82983 271.01123 272.69955 274.20435
 275.84885 277.57999 279.12427 280.48978 281.67426 282.72803 283.69513 284.58203
 285.39676 286.13480 286.78122 287.65765
 366.78100 356.31633 345.72967 334.57700 322.96133 311.13667 298.98800 286.77233
 274.46567 262.34400 250.33433 239.61667 229.72000 220.80533 212.96867 205.95200
 199.76733 194.68667 191.25000 189.27333 188.29167 188.33700 189.15333 190.44267
 192.14900 194.22533 196.46967 198.81000 201.23633 203.69767 205.76700 207.59033
 209.19767 210.32400 210.53433 210.74367 210.66200 210.34833 209.96267 209.57400
 209.17233 208.86367 208.65300 208.49833 208.40767 208.72000 209.08733 209.45767
 210.23200 211.39133 212.62267 214.38700 216.29633 218.32067 220.39700 222.46134
 224.50267 226.56800 228.64634 230.73367 232.84400 234.99734 237.23467 239.58600
 242.18834 244.42067 246.40400 248.15034 249.54867 250.65300 251.45634 251.75367
 251.77200 251.52734 250.86867 249.79800 248.38534 246.52767 244.41800 242.23234
 240.00467 237.79000 235.59134 233.41167 231.25300 229.10134 227.10867 225.24700
 223.51134 221.96467 220.57600 219.32934 218.19267 217.13400 216.21934 215.34167
 214.56500 213.72634 212.80567 212.15100 211.58234 212.83566 215.79680 218.24973
 219.32539 220.68814 222.26759 223.89128 225.22803 226.52608 228.64922 229.84227
 229.76239 229.98741 232.78325 237.05890 241.65233 246.13757 250.30769 254.21310
 257.78284 260.99435 263.87299 266.44012 268.83841 271.02890 272.70886 274.19849
 275.85901 277.60211 279.15237 280.51907 281.70627 282.76382 283.73398 284.62378
 285.44165 286.18250 286.83795 287.74725
 366.78100 356.31627 345.72953 334.57680 322.96107 311.13633 298.98760 286.77187
 274.46514 262.34340 250.33367 239.61594 229.71920 220.80447 212.96774 205.95100
 199.76627 194.68554 191.24881 189.27207 188.29034 188.33561 189.15187 190.44114
 192.14741 194.22367 196.46794 198.80821 201.23448 203.69574 205.76501 207.58828
 209.19554 210.32181 210.53208 210.74134 210.65961 210.34588 209.96015 209.57141
 209.16968 208.86095 208.65021 208.49548 208.40475 208.71701 209.08428 209.45455
 210.22882 211.38808 212.61935 214.38362 216.29288 218.31715 220.39342 222.45768
 224.49895 226.56422 228.64249 230.72975 232.84002 234.99329 237.23055 239.58182
 242.18409 244.41635 246.39962 248.14589 249.54416 250.64842 251.45169 251.74896
 251.76722 251.52249 250.86376 249.79302 248.38029 246.52256 244.41283 242.22709
 239.99936 237.78463 235.58589 233.40616 231.24743 229.09569 227.10296 225.24123
 223.50549 221.95876 220.57003 219.32330 218.18656 217.12783 216.21310 215.33536
 214.55863 213.71990 212.79916 212.14443 211.57570 212.84904 215.85744 218.33461
 219.42183 220.80382 222.36188 223.98882 225.35925 226.59422 228.52907 229.55588
 229.45026 229.76698 232.63852 236.99295 241.62225 246.09845 250.25362 254.15343
 257.73877 260.98013 263.88409 266.44775 268.84702 271.04654 272.72766 274.21304
 275.87024 277.61392 279.16870 280.53720 281.72641 282.78357 283.75531 284.64648
 285.46414 286.20483 286.86084 287.77490
 366.78100 356.31638 345.72975 334.57713 322.96150 311.13688 298.98825 286.77263
 274.46600 262.34438 250.33475 239.61713 229.72050 220.80588 212.96925 205.95263
 199.76801 194.68738 191.25076 189.27413 188.29251 188.33788 189.15426 190.44363
 192.15001 194.22638 196.47076 198.81113 201.23751 203.69888 205.76826 207.59164
 209.19901 210.32539 210.53576 210.74514 210.66351 210.34989 209.96426 209.57564
 209.17401 208.86539 208.65476 208.50014 208.40951 208.72189 209.08926 209.45964
 210.23402 211.39339 212.62477 214.38914 216.29852 218.32289 220.39927 222.46364
 224.50502 226.57039 228.64877 230.73614 232.84652 234.99989 237.23727 239.58865
 242.19102 244.42340 246.40677 248.15315 249.55152 250.65590 251.45927 251.75665
 251.77502 251.53040 250.87177 249.80115 248.38852 246.53090 244.42128 242.23565
 240.00803 237.79340 235.59478 233.41515 231.25653 229.10490 227.11228 225.25065
 223.51503 221.96840 220.57978 219.33315 218.19653 217.13791 216.22328 215.34566
 214.56903 213.73041 212.80978 212.15516 211.58653 212.87321 215.91313 218.41081
 219.51080 220.92189 222.48238 224.07103 225.45737 226.65096 228.42627 229.29547
 229.13699 229.55156 232.50656 236.93353 241.59708 246.06247 250.20491 254.09709
 257.69324 260.96246 263.89090 266.45306 268.85388 271.05923 272.74216 274.23068
 275.87558 277.61887 279.17383 280.54330 281.73413 282.79114 283.76447 284.65436
 285.47122 286.21204 286.86545 287.78491
 366.78100 356.31653 345.73007 334.57760 322.96214 311.13767 298.98921 286.77374
 274.46728 262.34581 250.33635 239.61888 229.72242 220.80795 212.97149 205.95502
 199.77056 194.69009 191.25363 189.27716 188.29570 188.34123 189.15777 190.44730
 192.15384 194.23037 196.47491 198.81544 201.24198 203.70351 205.77305 207.59658
 209.20412 210.33065 210.54119 210.75072 210.66926 210.35579 209.97033 209.58186
 209.18040 208.87193 208.66147 208.50700 208.41654 208.72907 209.09661 209.46714
 210.24168 211.40121 212.63275 214.39728 216.30682 218.33135 220.40789 222.47242
 224.51396 226.57949 228.65803 230.74556 232.85610 235.00963 237.24717 239.59870
 242.20124 244.43377 246.41731 248.16384 249.56238 250.66691 251.47045 251.76798
 251.78652 251.54205 250.88359 249.81312 248.40065 246.54319 244.43372 242.24826
 240.02079 237.80633 235.60786 233.42840 231.26993 229.11847 227.12600 225.26454
 223.52907 221.98261 220.59414 219.34768 218.21121 217.15275 216.23828 215.36082
 214.58435 213.74589 212.82542 212.17096 211.60249 212.90132 215.96996 218.47076
 219.60056 221.04013 222.60974 224.15396 225.53516 226.68765 228.33875 229.04845
 228.82832 229.35466 232.38817 236.87390 241.56558 246.02716 250.16328 254.04874
 257.65131 260.94345 263.89548 266.45831 268.85934 271.06500 272.74719 274.23752
 275.87622 277.61890 279.17514 280.54489 281.73459 282.79440 283.76520 284.65472
 285.46951 286.20895 286.86169 287.78241
 366.78100 356.31673 345.73047 334.57820 322.96293 311.13866 298.99040 286.77513
 274.46886 262.34760 250.33833 239.62106 229.72479 220.81053 212.97426 205.95799
 199.77373 194.69346 191.25719 189.28092 188.29966 188.34539 189.16212 190.45186
 192.15859 194.23532 196.48005 198.82079 201.24752 203.70925 205.77899 207.60272
 209.21045 210.33718 210.54792 210.75765 210.67638 210.36312 209.97785 209.58958
 209.18831 208.88005 208.66978 208.51551 208.42524 208.73798 209.10571 209.47644
 210.25118 211.41091 212.64264 214.40737 216.31711 218.34184 220.41857 222.48331
 224.52504 226.59077 228.66950 230.75724 232.86797 235.02170 237.25944 239.61117
 242.21390 244.44663 246.43037 248.17710 249.57583 250.68057 251.48430 251.78203
 251.80076 251.55650 250.89823 249.82796 248.41570 246.55843 244.44916 242.26389
 240.03663 237.82236 235.62409 233.44483 231.28656 229.13529 227.14302 225.28176
 223.54649 222.00022 220.61196 219.36569 218.22942 217.17115 216.25689 215.37962
 214.60335 213.76509 212.84482 212.19055 211.62228 212.93266 216.02856 218.51886
 219.69104 221.16386 222.73387 224.24304 225.60097 226.70456 228.26079 228.80347
 228.53656 229.18538 232.27924 236.80928 241.52571 245.99092 250.12711 254.00722
 257.61270 260.92203 263.89441 266.46170 268.86346 271.06390 272.74545 274.23669
 275.87512 277.61844 279.17477 280.54617 281.73590 282.79410 283.76578 284.65622
 285.46899 286.20761 286.86139 287.78622
 366.78100 356.31701 345.73102 334.57904 322.96405 311.14006 298.99207 286.77708
 274.47110 262.35011 250.34112 239.62413 229.72814 220.81416 212.97817 205.96218
 199.77819 194.69821 191.26222 189.28623 188.30524 188.35125 189.16827 190.45828
 192.16529 194.24230 196.48731 198.82833 201.25534 203.71735 205.78736 207.61137
 209.21939 210.34640 210.55741 210.76742 210.68643 210.37345 209.98846 209.60047
 209.19948 208.89150 208.68151 208.52752 208.43753 208.75054 209.11856 209.48957
 210.26458 211.42459 212.65660 214.42162 216.33163 218.35664 220.43365 222.49866
 224.54068 226.60669 228.68570 230.77371 232.88472 235.03874 237.27675 239.62876
 242.23177 244.46478 246.44880 248.19581 249.59482 250.69983 251.50385 251.80186
 251.82087 251.57688 250.91889 249.84891 248.43692 246.57993 244.47094 242.28595
 240.05897 237.84498 235.64699 233.46800 231.31001 229.15903 227.16704 225.30605
 223.57106 222.02507 220.63709 219.39110 218.25511 217.19712 216.28314 215.40615
 214.63016 213.79217 212.87218 212.21820 211.65021 212.96860 216.08344 218.56148
 219.78091 221.28590 222.85550 224.34201 225.65182 226.70695 228.18773 228.55818
 228.26485 229.04265 232.17902 236.74185 241.48059 245.95360 250.09407 253.97101
 257.57654 260.89651 263.88586 266.46344 268.86484 271.05624 272.73734 274.23355
 275.87506 277.61942 279.17737 280.54849 281.73886 282.79730 283.77106 284.66016
 285.47568 286.21533 286.87003 287.79666
 366.78100 356.31738 345.73176 334.58014 322.96552 311.14191 298.99429 286.77967
 274.47405 262.35343 250.34481 239.62819 229.73257 220.81895 212.98333 205.96772
 199.78410 194.70448 191.26886 189.29324 188.31262 188.35900 189.17638 190.46676
 192.17414 194.25153 196.49691 198.83829 201.26567 203.72805 205.79843 207.62281
 209.23119 210.35857 210.56996 210.78034 210.69972 210.38710 210.00248 209.61486
 209.21424 208.90662 208.69700 208.54338 208.45377 208.76715 209.13553 209.50691
 210.28229 211.44267 212.67505 214.44043 216.35081 218.37619 220.45358 222.51896
 224.56134 226.62772 228.70710 230.79548 232.90686 235.06124 237.29962 239.65201
 242.25539 244.48877 246.47315 248.22053 249.61991 250.72529 251.52967 251.82805
 251.84743 251.60382 250.94620 249.87658 248.46496 246.60834 244.49972 242.31510
 240.08848 237.87486 235.67724 233.49863 231.34101 229.19039 227.19877 225.33815
 223.60353 222.05791 220.67029 219.42467 218.28906 217.23144 216.31782 215.44120
 214.66558 213.82796 212.90834 212.25472 211.68710 213.00911 216.13248 218.60323
 219.86967 221.40225 222.97246 224.44472 225.69444 226.70569 228.11539 228.32123
 228.01193 228.91888 232.08995 236.67471 241.43239 245.91403 250.06120 253.93739
 257.54178 260.86896 263.87228 266.46350 268.86426 271.04300 272.72440 274.22241
 275.87823 277.62665 279.18448 280.55597 281.74744 282.80756 283.77859 284.67151
 285.48633 286.22729 286.88123 287.81207
 366.78100 356.31782 345.73264 334.58146 322.96728 311.14409 298.99691 286.78273
 274.47755 262.35737 250.34919 239.63301 229.73783 220.82465 212.98947 205.97428
 199.79110 194.71192 191.27674 189.30156 188.32138 188.36820 189.18602 190.47684
 192.18466 194.26247 196.50829 198.85011 201.27793 203.74075 205.81157 207.63639
 209.24521 210.37303 210.58484 210.79566 210.71548 210.40330 210.01912 209.63194
 209.23176 208.92458 208.71540 208.56222 208.47303 208.78685 209.15567 209.52749
 210.30331 211.46413 212.69695 214.46277 216.37359 218.39940 220.47722 222.54304
 224.58586 226.65268 228.73250 230.82132 232.93314 235.08796 237.32678 239.67959
 242.28341 244.51723 246.50205 248.24987 249.64969 250.75551 251.56033 251.85915
 251.87897 251.63578 250.97860 249.90942 248.49824 246.64206 244.53388 242.34970
 240.12352 237.91034 235.71315 233.53497 231.37779 229.22761 227.23643 225.37625
 223.64207 222.09689 220.70971 219.46453 218.32934 217.27216 216.35898 215.48280
 214.70762 213.87044 212.95126 212.29808 211.73090 213.05276 216.17581 218.64668
 219.95256 221.51306 223.09203 224.54514 225.72552 226.71170 228.04572 228.08841
 227.76897 228.81104 232.01639 236.61053 241.38020 245.87146 250.02930 253.90634
 257.50735 260.83862 263.85333 266.46259 268.86008 271.02133 272.70566 274.21292
 275.88397 277.63541 279.19418 280.56650 281.75815 282.81894 283.79138 284.68359
 285.49911 286.23996 286.89505 287.82751
 366.78100 356.31831 345.73361 334.58292 322.96923 311.14654 298.99984 286.78615
 274.48146 262.36177 250.35407 239.63838 229.74369 220.83100 212.99630 205.98161
 199.79892 194.72023 191.28553 189.31084 188.33115 188.37846 189.19676 190.48807
 192.19638 194.27468 196.52099 198.86330 201.29161 203.75491 205.82622 207.65153
 209.26084 210.38914 210.60145 210.81276 210.73307 210.42137 210.03768 209.65099
 209.25130 208.94460 208.73591 208.58322 208.49453 208.80883 209.17814 209.55045
 210.32675 211.48806 212.72137 214.48768 216.39898 218.42529 220.50360 222.56991
 224.61321 226.68052 228.76083 230.85014 232.96244 235.11775 237.35706 239.71037
 242.31467 244.54898 246.53429 248.28260 249.68290 250.78921 251.59452 251.89382
 251.91413 251.67144 251.01475 249.94605 248.53536 246.67967 244.57198 242.38828
 240.16259 237.94990 235.75321 233.57551 231.41882 229.26913 227.27844 225.41874
 223.68505 222.14036 220.75367 219.50897 218.37428 217.31759 216.40490 215.52920
 214.75451 213.91782 212.99912 212.34643 211.77974 213.09865 216.21472 218.69153
 220.03131 221.62090 223.20839 224.63974 225.76744 226.71994 227.96782 227.87163
 227.54314 228.71498 231.95392 236.54854 241.32692 245.82764 249.99570 253.87376
 257.47052 260.80469 263.83218 266.46167 268.85574 270.99509 272.67935 274.18536
 275.89575 277.65100 279.21014 280.58154 281.77481 282.83374 283.80762 284.69901
 285.51508 286.25644 286.91190 287.84970
 366.78100 356.31893 345.73485 334.58478 322.97171 311.14964 299.00356 286.79049
 274.48642 262.36735 250.36027 239.64520 229.75113 220.83906 213.00498 205.99091
 199.80884 194.73077 191.29669 189.32262 188.34355 188.39147 189.21040 190.50233
 192.21126 194.29018 196.53711 198.88004 201.30897 203.77289 205.84482 207.67075
 209.28068 210.40960 210.62253 210.83446 210.75538 210.44431 210.06124 209.67517
 209.27609 208.97002 208.76195 208.60988 208.52180 208.83673 209.20666 209.57959
 210.35651 211.51844 212.75237 214.51930 216.43122 218.45815 220.53708 222.60400
 224.64793 226.71586 228.79679 230.88671 232.99964 235.15557 237.39550 239.74942
 242.35435 244.58928 246.57521 248.32413 249.72506 250.83199 251.63792 251.93784
 251.95877 251.71670 251.06062 249.99255 248.58248 246.72741 244.62033 242.43726
 240.21219 238.00012 235.80404 233.62697 231.47090 229.32183 227.33175 225.47268
 223.73961 222.19553 220.80946 219.56539 218.43132 217.37524 216.46317 215.58810
 214.81403 213.97795 213.05988 212.40781 211.84174 213.15123 216.24507 218.73528
 220.12102 221.71497 223.31920 224.73502 225.79700 226.73897 227.90050 227.65634
 227.31993 228.62820 231.90865 236.49287 241.27124 245.77965 249.96101 253.84322
 257.43387 260.76675 263.80261 266.45493 268.84268 270.95618 272.64832 274.24179
 275.88184 277.63739 279.20187 280.57889 281.77451 282.83820 283.81235 284.70456
 285.52066 286.26163 286.91422 287.85269
 366.78100 356.31942 345.73584 334.58626 322.97369 311.15211 299.00653 286.79395
 274.49037 262.37179 250.36521 239.65064 229.75706 220.84548 213.01190 205.99832
 199.81674 194.73916 191.30559 189.33201 188.35343 188.40185 189.22127 190.51369
 192.22311 194.30254 196.54996 198.89338 201.32280 203.78722 205.85964 207.68606
 209.29649 210.42591 210.63933 210.85175 210.77317 210.46259 210.08001 209.69444
 209.29586 208.99028 208.78270 208.63112 208.54354 208.85896 209.22939 209.60281
 210.38023 211.54265 212.77707 214.54449 216.45691 218.48434 220.56376 222.63118
 224.67560 226.74402 228.82544 230.91586 233.02929 235.18571 237.42613 239.78055
 242.38597 244.62139 246.60781 248.35724 249.75866 250.86608 251.67250 251.97292
 251.99434 251.75276 251.09719 250.02961 248.62003 246.76545 244.65887 242.47629
 240.25172 238.04014 235.84456 233.66798 231.51240 229.36382 227.37424 225.51567
 223.78309 222.23951 220.85393 219.61035 218.47677 217.42119 216.50962 215.63504
 214.86146 214.02588 213.10830 212.45672 211.89114 213.19705 216.28239 218.76962
 220.19392 221.84853 223.41524 224.78595 225.85892 226.78670 227.82056 227.43826
 227.10725 228.55435 231.86131 236.43105 241.21147 245.73523 249.93568 253.82132
 257.40320 260.73026 263.77289 266.44897 268.83057 270.91992 272.60840 274.04709
 275.95316 277.71368 279.25644 280.62329 281.81213 282.86951 283.84030 284.72913
 285.54504 286.28311 286.93811 287.87265
 366.78100 356.32000 345.73700 334.58800 322.97599 311.15499 299.00999 286.79799
 274.49499 262.37699 250.37099 239.65698 229.76398 220.85298 213.01998 206.00698
 199.82598 194.74897 191.31597 189.34297 188.36497 188.41397 189.23397 190.52697
 192.23696 194.31696 196.56496 198.90896 201.33896 203.80396 205.87696 207.70395
 209.31495 210.44495 210.65895 210.87195 210.79395 210.48395 210.10194 209.71694
 209.31894 209.01394 208.80694 208.65594 208.56894 208.88493 209.25593 209.62993
 210.40793 211.57093 212.80593 214.57392 216.48692 218.51492 220.59492 222.66292
 224.70792 226.77692 228.85891 230.94991 233.06391 235.22091 237.46191 239.81691
 242.42291 244.65890 246.64590 248.39590 249.79790 250.90590 251.71290 252.01390
 252.03589 251.79489 251.13989 250.07289 248.66389 246.80989 244.70388 242.52188
 240.29788 238.08688 235.89188 233.71588 231.56088 229.41287 227.42387 225.56587
 223.83387 222.29087 220.90587 219.66287 218.52986 217.47486 216.56386 215.68986
 214.91686 214.08186 213.16486 212.51385 211.94885 213.24654 216.31244 218.81493
 220.24425 221.95705 223.58028 224.90480 225.85733 226.75822 227.74503 227.30724
 226.93983 228.43114 231.80450 236.38084 241.16159 245.70302 249.91531 253.79927
 257.37103 260.68942 263.73749 266.43701 268.81265 270.87582 272.56192 273.99759
 275.95486 277.73132 279.28027 280.64667 281.83505 282.89267 283.86313 284.75232
 285.56592 286.30698 286.95987 287.89429
 366.78100 356.32072 345.73844 334.59015 322.97887 311.15859 299.01431 286.80303
 274.50074 262.38346 250.37818 239.66490 229.77262 220.86233 213.03005 206.01777
 199.83749 194.76121 191.32892 189.35664 188.37936 188.42908 189.24980 190.54351
 192.25423 194.33495 196.58367 198.92839 201.35910 203.82482 205.89854 207.72626
 209.33798 210.46869 210.68341 210.89713 210.81985 210.51057 210.12928 209.74500
 209.34772 209.04344 208.83716 208.68687 208.60059 208.91731 209.28903 209.66374
 210.44246 211.60618 212.84190 214.61062 216.52433 218.55305 220.63377 222.70249
 224.74821 226.81792 228.90064 230.99236 233.10708 235.26480 237.50651 239.86223
 242.46895 244.70567 246.69339 248.44410 249.84682 250.95554 251.76326 252.06498
 252.08769 251.84741 251.19313 250.12685 248.71857 246.86528 244.76000 242.57872
 240.35544 238.14516 235.95087 233.77559 231.62131 229.47403 227.48575 225.62846
 223.89718 222.35490 220.97062 219.72834 218.59605 217.54177 216.63149 215.75821
 214.98593 214.15164 213.23536 212.58508 212.02080 213.30298 216.33224 218.85703
 220.32008 222.01932 223.74034 225.06027 225.87093 226.71477 227.64876 227.18793
 226.79457 228.31229 231.76253 236.34190 241.11816 245.67114 249.89153 253.77525
 257.33798 260.64786 263.70053 266.42523 268.79590 270.83582 272.52615 273.99393
 275.94824 277.73297 279.28638 280.65540 281.84625 282.90417 283.87402 284.76404
 285.57599 286.31595 286.96915 287.90439
 366.78100 356.32138 345.73976 334.59214 322.98151 311.16189 299.01827 286.80765
 274.50603 262.38941 250.38479 239.67216 229.78054 220.87092 213.03930 206.02768
 199.84806 194.77244 191.34081 189.36919 188.39257 188.44295 189.26433 190.55871
 192.27008 194.35146 196.60084 198.94622 201.37760 203.84398 205.91836 207.74673
 209.35911 210.49049 210.70587 210.92025 210.84363 210.53501 210.15438 209.77076
 209.37414 209.07052 208.86490 208.71528 208.62966 208.94703 209.31941 209.69479
 210.47417 211.63855 212.87493 214.64431 216.55868 218.58806 220.66944 222.73882
 224.78520 226.85558 228.93895 231.03133 233.14671 235.30509 237.54747 239.90385
 242.51123 244.74860 246.73698 248.48836 249.89174 251.00112 251.80950 252.11188
 252.13525 251.89563 251.24201 250.17639 248.76877 246.91615 244.81153 242.63090
 240.40828 238.19866 236.00504 233.83042 231.67680 229.53018 227.54255 225.68593
 223.95531 222.41369 221.03007 219.78845 218.65682 217.60320 216.69358 215.82096
 215.04934 214.21572 213.30010 212.65047 212.08685 213.35628 216.35544 218.88451
 220.41029 222.08842 223.83766 225.19324 225.96631 226.73558 227.51414 227.04459
 226.67232 228.20956 231.72739 236.30713 241.07347 245.63348 249.86339 253.75063
 257.30432 260.60452 263.65976 266.40640 268.77109 270.78641 272.47943 274.02551
 275.94556 277.73001 279.28619 280.65765 281.84872 282.90790 283.88062 284.76892
 285.58127 286.31873 286.96957 287.91040
 366.78100 356.32196 345.74092 334.59388 322.98384 311.16480 299.02176 286.81172
 274.51068 262.39463 250.39059 239.67855 229.78751 220.87847 213.04743 206.03639
 199.85735 194.78231 191.35127 189.38023 188.40419 188.45515 189.27711 190.57207
 192.28403 194.36599 196.61595 198.96190 201.39386 203.86082 205.93578 207.76474
 209.37770 210.50966 210.72562 210.94058 210.86454 210.55650 210.17646 209.79342
 209.39738 209.09434 208.88930 208.74026 208.65522 208.97317 209.34613 209.72209
 210.50205 211.66701 212.90397 214.67393 216.58889 218.61885 220.70081 222.77077
 224.81773 226.88869 228.97265 231.06561 233.18157 235.34053 237.58348 239.94044
 242.54840 244.78636 246.77532 248.52728 249.93124 251.04120 251.85016 252.15312
 252.17708 251.93804 251.28500 250.21996 248.81292 246.96088 244.85684 242.67680
 240.45475 238.24571 236.05267 233.87863 231.72559 229.57955 227.59251 225.73647
 224.00643 222.46539 221.08235 219.84131 218.71027 217.65723 216.74819 215.87615
 215.10511 214.27206 213.35702 212.70798 212.14494 213.40471 216.38101 218.91130
 220.48938 222.18149 223.89052 225.27686 226.10364 226.80859 227.36873 226.90482
 226.58241 228.12086 231.69058 236.27124 241.02573 245.59280 249.83453 253.72473
 257.26764 260.55664 263.61172 266.37784 268.73526 270.72610 272.42136 274.05600
 275.93680 277.71942 279.28021 280.65277 281.84576 282.90771 283.87912 284.76749
 285.57877 286.31750 286.96841 287.90182
 366.78100 356.32257 345.74214 334.59572 322.98629 311.16786 299.02543 286.81601
 274.51558 262.40015 250.39672 239.68530 229.79487 220.88644 213.05601 206.04559
 199.86716 194.79273 191.36230 189.39188 188.41645 188.46802 189.29059 190.58616
 192.29874 194.38131 196.63188 198.97845 201.41103 203.87860 205.95417 207.78374
 209.39732 210.52989 210.74646 210.96203 210.88661 210.57918 210.19975 209.81732
 209.42190 209.11947 208.91504 208.76661 208.68218 209.00076 209.37433 209.75090
 210.53147 211.69705 212.93462 214.70519 216.62076 218.65134 220.73391 222.80448
 224.85205 226.92363 229.00820 231.10177 233.21834 235.37792 237.62149 239.97906
 242.58763 244.82620 246.81578 248.56835 249.97292 251.08349 251.89307 252.19664
 252.22121 251.98278 251.33036 250.26593 248.85950 247.00807 244.90465 242.72522
 240.50379 238.29536 236.10293 233.92951 231.77708 229.63165 227.64522 225.78980
 224.06037 222.51994 221.13751 219.89709 218.76666 217.71423 216.80580 215.93438
 215.16395 214.33152 213.41709 212.76867 212.20624 213.45390 216.40164 218.94409
 220.56293 222.27565 223.93446 225.33203 226.23422 226.89003 227.24603 226.78001
 226.49838 228.03604 231.65315 236.23608 240.98032 245.55530 249.80858 253.70111
 257.23279 260.50806 263.56079 266.34262 268.69205 270.66125 272.35440 274.06949
 275.91290 277.69473 279.26096 280.63837 281.83441 282.89703 283.87109 284.75797
 285.57108 286.30463 286.95694 287.89008
 366.78100 356.32325 345.74351 334.59776 322.98901 311.17127 299.02952 286.82077
 274.52103 262.40628 250.40353 239.69279 229.80304 220.89529 213.06555 206.05580
 199.87805 194.80430 191.37456 189.40481 188.43006 188.48232 189.30557 190.60182
 192.31508 194.39833 196.64958 198.99684 201.43009 203.89834 205.97460 207.80485
 209.41910 210.55236 210.76961 210.98586 210.91112 210.60437 210.22562 209.84388
 209.44913 209.14738 208.94364 208.79589 208.71214 209.03140 209.40565 209.78290
 210.56415 211.73041 212.96866 214.73991 216.65617 218.68742 220.77067 222.84193
 224.89018 226.96243 229.04769 231.14194 233.25919 235.41945 237.66370 240.02195
 242.63121 244.87046 246.86071 248.61397 250.01922 251.13047 251.94073 252.24498
 252.27023 252.03249 251.38074 250.31699 248.91125 247.06050 244.95775 242.77900
 240.55826 238.35051 236.15876 233.98602 231.83427 229.68952 227.70378 225.84903
 224.12028 222.58054 221.19879 219.95904 218.82930 217.77755 216.86980 215.99906
 215.22931 214.39756 213.48382 212.83607 212.27432 213.50587 216.41556 218.97542
 220.64212 222.35876 223.98428 225.38075 226.34267 226.96147 227.16080 226.66144
 226.39227 227.94817 231.61897 236.20470 240.93962 245.52101 249.78362 253.67802
 257.20096 260.46356 263.51291 266.30759 268.64731 270.59259 272.28412 274.06882
 275.88107 277.66162 279.23135 280.61206 281.80859 282.87338 283.84601 284.73636
 285.54669 286.28284 286.93219 287.86823
 366.78100 356.32399 345.74499 334.59998 322.99198 311.17497 299.03396 286.82596
 274.52695 262.41295 250.41094 239.70093 229.81193 220.90492 213.07592 206.06691
 199.88990 194.81690 191.38789 189.41889 188.44488 188.49787 189.32187 190.61886
 192.33286 194.41685 196.66885 199.01684 201.45083 203.91983 205.99682 207.82782
 209.44281 210.57680 210.79480 211.01179 210.93779 210.63178 210.25377 209.87277
 209.47876 209.17776 208.97475 208.82774 208.74474 209.06473 209.43973 209.81772
 210.59971 211.76671 213.00570 214.77770 216.69469 218.72668 220.81068 222.88267
 224.93167 227.00466 229.09065 231.18565 233.30364 235.46464 237.70963 240.06862
 242.67862 244.91861 246.90961 248.66360 250.06959 251.18159 251.99258 252.29758
 252.32357 252.08656 251.43556 250.37255 248.96755 247.11754 245.01554 242.83753
 240.61752 238.41052 236.21951 234.04751 231.89650 229.75249 227.76749 225.91348
 224.18548 222.64647 221.26546 220.02646 218.89745 217.84645 216.93944 216.06943
 215.30043 214.46942 213.55642 212.90941 212.34840 213.56065 216.42474 219.00342
 220.72699 222.43784 224.03978 225.42578 226.43098 227.02518 227.10910 226.54277
 226.26271 227.86017 231.59018 236.17770 240.90350 245.48903 249.75728 253.65260
 257.16656 260.41678 263.46298 266.26849 268.60352 270.53262 272.22141 274.04614
 275.85126 277.63037 279.20013 280.58090 281.77878 282.84293 283.81711 284.70493
 285.51733 286.25122 286.89993 287.83276
 366.78100 356.32481 345.74663 334.60244 322.99526 311.17907 299.03888 286.83170
 274.53351 262.42033 250.41914 239.70995 229.82177 220.91558 213.08739 206.07921
 199.90302 194.83084 191.40265 189.43446 188.46128 188.51509 189.33991 190.63772
 192.35253 194.43735 196.69016 199.03898 201.47379 203.94360 206.02142 207.85323
 209.46904 210.60386 210.82267 211.04049 210.96730 210.66211 210.28493 209.90474
 209.51156 209.21137 209.00918 208.86300 208.78081 209.10163 209.47744 209.85625
 210.63907 211.80688 213.04669 214.81951 216.73732 218.77014 220.85495 222.92776
 224.97758 227.05139 229.13821 231.23402 233.35283 235.51465 237.76046 240.12028
 242.73109 244.97190 246.96372 248.71853 250.12534 251.23816 252.04997 252.35579
 252.38260 252.14641 251.49623 250.43404 249.02986 247.18067 245.07948 242.90230
 240.68311 238.47693 236.28674 234.11555 231.96537 229.82218 227.83799 225.98481
 224.25762 222.71944 221.33925 220.10106 218.97288 217.92269 217.01651 216.14732
 215.37913 214.54895 213.63676 212.99058 212.43039 213.62061 216.43263 219.02774
 220.81017 222.51437 224.09314 225.46358 226.50526 227.09245 227.08467 226.41898
 226.11319 227.77330 231.56424 236.15508 240.87198 245.45776 249.73131 253.62659
 257.13165 260.37073 263.41064 266.22095 268.54623 270.45688 272.15378 274.03177
 275.81650 277.59033 279.15961 280.53973 281.73865 282.80255 283.77768 284.66562
 285.47531 286.20926 286.85992 287.78809
 366.78100 356.32564 345.74827 334.60491 322.99855 311.18318 299.04382 286.83746
 274.54009 262.42773 250.42737 239.71900 229.83164 220.92628 213.09892 206.09155
 199.91619 194.84483 191.41746 189.45010 188.47774 188.53237 189.35801 190.65665
 192.37228 194.45792 196.71156 199.06119 201.49683 203.96747 206.04610 207.87874
 209.49538 210.63101 210.85065 211.06929 210.99692 210.69256 210.31620 209.93684
 209.54447 209.24511 209.04375 208.89838 208.81702 209.13866 209.51529 209.89493
 210.67857 211.84720 213.08784 214.86148 216.78011 218.81375 220.89939 222.97302
 225.02366 227.09830 229.18593 231.28257 233.40221 235.56484 237.81148 240.17212
 242.78376 245.02539 247.01803 248.77367 250.18130 251.29494 252.10758 252.41421
 252.44185 252.20649 251.55712 250.49576 249.09240 247.24403 245.14367 242.96731
 240.74894 238.54358 236.35422 234.18385 232.03449 229.89213 227.90876 226.05640
 224.33004 222.79268 221.41331 220.17595 219.04859 217.99922 217.09386 216.22550
 215.45813 214.62877 213.71741 213.07204 212.51268 213.67946 216.43611 219.04686
 220.89545 222.59235 224.14140 225.49573 226.57098 227.16557 227.07921 226.29636
 225.95796 227.69241 231.54134 236.13657 240.84390 245.42628 249.70068 253.59462
 257.09216 260.32132 263.35583 266.17380 268.49878 270.40305 272.08939 273.98996
 275.76794 277.53949 279.10910 280.48917 281.68735 282.75201 283.72458 284.61383
 285.42419 286.15903 286.80661 287.73849
 366.78100 356.32648 345.74996 334.60743 323.00191 311.18739 299.04887 286.84335
 274.54682 262.43530 250.43578 239.72826 229.84174 220.93721 213.11069 206.10417
 199.92965 194.85913 191.43260 189.46608 188.49456 188.55004 189.37652 190.67599
 192.39247 194.47895 196.73343 199.08391 201.52038 203.99186 206.07134 207.90482
 209.52230 210.65877 210.87925 211.09873 211.02721 210.72369 210.34816 209.96964
 209.57812 209.27960 209.07908 208.93455 208.85403 209.17651 209.55399 209.93447
 210.71894 211.88842 213.12990 214.90438 216.82386 218.85833 220.94481 223.01929
 225.07077 227.14625 229.23473 231.33220 233.45268 235.61616 237.86364 240.22512
 242.83759 245.08007 247.07355 248.83003 250.23851 251.35298 252.16646 252.47394
 252.50242 252.26790 251.61937 250.55885 249.15633 247.30881 245.20929 243.03376
 240.81624 238.61172 236.42320 234.25368 232.10515 229.96363 227.98111 226.12959
 224.40407 222.86754 221.48902 220.25250 219.12598 218.07746 217.17293 216.30541
 215.53889 214.71037 213.79985 213.15532 212.59680 213.73862 216.43626 219.06859
 220.97690 222.66521 224.18323 225.51920 226.62767 227.24722 227.08838 226.17944
 225.80450 227.61673 231.52020 236.12198 240.81929 245.39366 249.66635 253.55884
 257.04770 260.26648 263.29645 266.12305 268.44937 270.34518 272.01703 273.94577
 275.71732 277.48590 279.05420 280.43396 281.63217 282.69586 283.66937 284.55750
 285.36862 286.10367 286.75253 287.68396
 366.78100 356.32727 345.75154 334.60981 323.00508 311.19135 299.05362 286.84889
 274.55316 262.44243 250.44370 239.73697 229.85124 220.94751 213.12178 206.11604
 199.94231 194.87258 191.44685 189.48112 188.51039 188.56666 189.39393 190.69420
 192.41147 194.49874 196.75401 199.10528 201.54255 204.01482 206.09509 207.92936
 209.54763 210.68490 210.90617 211.12644 211.05571 210.75298 210.37825 210.00052
 209.60979 209.31206 209.11233 208.96859 208.88886 209.21213 209.59040 209.97167
 210.75694 211.92721 213.16948 214.94475 216.86502 218.90029 220.98756 223.06283
 225.11510 227.19137 229.28064 231.37891 233.50018 235.66445 237.91272 240.27499
 242.88826 245.13153 247.12580 248.88307 250.29234 251.40761 252.22188 252.53014
 252.55941 252.32568 251.67795 250.61822 249.21649 247.36976 245.27103 243.09630
 240.87957 238.67584 236.48811 234.31938 232.17165 230.03092 228.04919 226.19846
 224.47373 222.93800 221.56027 220.32454 219.19881 218.15108 217.24735 216.38062
 215.61489 214.78716 213.87743 213.23369 212.67596 213.79521 216.43953 219.08647
 221.06305 222.72681 224.21628 225.54207 226.67450 227.33318 227.10968 226.07211
 225.65959 227.54933 231.50220 236.11160 240.79807 245.35980 249.62897 253.51953
 257.00003 260.20645 263.23041 266.06317 268.39117 270.28137 271.95819 273.90738
 275.66696 277.42929 278.99591 280.37344 281.57129 282.63522 283.60922 284.49887
 285.31003 286.04688 286.69437 287.62698
 366.78100 356.32805 345.75311 334.61216 323.00822 311.19527 299.05833 286.85438
 274.55943 262.44949 250.45154 239.74560 229.86065 220.95771 213.13276 206.12781
 199.95487 194.88592 191.46098 189.49603 188.52609 188.58314 189.41119 190.71225
 192.43030 194.51836 196.77441 199.12646 201.56452 204.03757 206.11863 207.95368
 209.57274 210.71079 210.93284 211.15390 211.08395 210.78201 210.40806 210.03112
 209.64117 209.34422 209.14528 209.00233 208.92339 209.24744 209.62650 210.00855
 210.79460 211.96566 213.20871 214.98477 216.90582 218.94188 221.02993 223.10598
 225.15904 227.23609 229.32615 231.42520 233.54726 235.71231 237.96136 240.32442
 242.93847 245.18253 247.17758 248.93563 250.34569 251.46174 252.27680 252.58585
 252.61591 252.38296 251.73601 250.67707 249.27612 247.43018 245.33223 243.15829
 240.94234 238.73939 236.55245 234.38450 232.23756 230.09761 228.11667 226.26672
 224.54277 223.00783 221.63088 220.39594 219.27099 218.22405 217.32110 216.45515
 215.69021 214.86326 213.95432 213.31137 212.75443 213.85027 216.43930 219.10637
 221.14421 222.79494 224.23201 225.54813 226.72198 227.42531 227.13680 225.98135
 225.53154 227.48555 231.48289 236.10272 240.77721 245.32336 249.58749 253.47441
 256.94672 260.14175 263.16116 266.00381 268.33942 270.23260 271.92606 273.84918
 275.60724 277.36609 278.92914 280.30630 281.50171 282.56592 283.53931 284.43091
 285.24249 285.98117 286.63504 287.56311
 366.78100 356.32898 345.75495 334.61493 323.01190 311.19988 299.06386 286.86083
 274.56681 262.45779 250.46076 239.75574 229.87171 220.96969 213.14567 206.14164
 199.96962 194.90160 191.47757 189.51355 188.54452 188.60250 189.43148 190.73345
 192.45243 194.54140 196.79838 199.15136 201.59033 204.06431 206.14629 207.98226
 209.60224 210.74121 210.96419 211.18617 211.11714 210.81612 210.44310 210.06707
 209.67805 209.38202 209.18400 209.04198 208.96395 209.28893 209.66890 210.05188
 210.83886 212.01083 213.25481 215.03179 216.95376 218.99074 221.07971 223.15669
 225.21067 227.28864 229.37962 231.47960 233.60257 235.76855 238.01852 240.38250
 242.99748 245.24245 247.23843 248.99740 250.40838 251.52536 252.34133 252.65131
 252.68229 252.45026 251.80424 250.74621 249.34619 247.50117 245.40414 243.23112
 241.01609 238.81407 236.62805 234.46102 232.31500 230.17598 228.19595 226.34693
 224.62390 223.08988 221.71386 220.47983 219.35581 218.30979 217.40776 216.54274
 215.77871 214.95269 214.04467 213.40264 212.84662 213.91162 216.42781 219.13545
 221.22800 222.83798 224.25850 225.55182 226.74991 227.52403 227.18073 225.89326
 225.40155 227.42154 231.46367 236.09729 240.75987 245.28859 249.54681 253.43112
 256.89725 260.08197 263.09497 265.94595 268.28534 270.17212 271.85953 273.81702
 275.53247 277.28403 278.84674 280.22430 281.42157 282.48410 283.45901 284.35031
 285.16260 285.90332 286.55661 287.48538
 366.78100 356.32969 345.75639 334.61708 323.01477 311.20347 299.06816 286.86585
 274.57255 262.46424 250.46794 239.76363 229.88032 220.97902 213.15571 206.15240
 199.98110 194.91379 191.49048 189.52718 188.55887 188.61756 189.44726 190.74995
 192.46964 194.55934 196.81703 199.17072 201.61042 204.08511 206.16781 208.00450
 209.62519 210.76489 210.98858 211.21127 211.14297 210.84266 210.47035 210.09505
 209.70674 209.41143 209.21413 209.07282 208.99551 209.32121 209.70190 210.08559
 210.87329 212.04598 213.29068 215.06837 216.99106 219.02876 221.11845 223.19614
 225.25084 227.32953 229.42122 231.52192 233.64561 235.81230 238.06300 240.42769
 243.04338 245.28908 247.28577 249.04546 250.45716 251.57485 252.39155 252.70224
 252.73393 252.50263 251.85732 250.80001 249.40071 247.55640 245.46009 243.28779
 241.07348 238.87217 236.68687 234.52056 232.37525 230.23695 228.25764 226.40933
 224.68703 223.15372 221.77842 220.54511 219.42180 218.37650 217.47519 216.61088
 215.84758 215.02227 214.11496 213.47366 212.91835 213.96236 216.42896 219.14084
 221.34143 222.88699 224.20383 225.55836 226.84218 227.63431 227.20639 225.81039
 225.28908 227.36632 231.44730 236.09679 240.74608 245.25307 249.50168 253.38177
 256.84201 260.01794 263.02634 265.88870 268.24286 270.14230 271.85916 273.70093
 275.47177 277.22089 278.77451 280.14536 281.33652 282.39816 283.37149 284.26279
 285.07614 285.81699 286.47101 287.39725
 366.78100 356.33032 345.75764 334.61896 323.01728 311.20660 299.07192 286.87024
 274.57756 262.46988 250.47420 239.77053 229.88785 220.98717 213.16449 206.16181
 199.99113 194.92445 191.50177 189.53909 188.57141 188.63073 189.46105 190.76437
 192.48469 194.57501 196.83333 199.18765 201.62797 204.10329 206.18661 208.02394
 209.64526 210.78558 211.00990 211.23322 211.16554 210.86586 210.49418 210.11950
 209.73182 209.43714 209.24046 209.09978 209.02310 209.34942 209.73074 210.11506
 210.90338 212.07670 213.32202 215.10034 217.02367 219.06199 221.15231 223.23063
 225.28595 227.36527 229.45759 231.55891 233.68323 235.85055 238.10187 240.46719
 243.08351 245.32983 247.32715 249.08747 250.49979 251.61811 252.43543 252.74675
 252.77907 252.54840 251.90372 250.84704 249.44836 247.60468 245.50900 243.33732
 241.12364 238.92296 236.73828 234.57260 232.42792 230.29024 228.31156 226.46388
 224.74220 223.20952 221.83484 220.60216 219.47948 218.43481 217.53413 216.67045
 215.90777 215.08309 214.17641 213.53573 212.98105 214.00719 216.43152 219.14682
 221.42880 222.96898 224.19810 225.56721 226.89345 227.68085 227.20848 225.76649
 225.22656 227.32878 231.43430 236.09799 240.73235 245.21500 249.45435 253.33403
 256.79077 259.95575 262.95853 265.83292 268.20190 270.10867 271.85712 273.54733
 275.38287 277.12201 278.66788 280.03644 281.22705 282.28928 283.26346 284.15405
 284.97141 285.71451 286.37225 287.29941
 366.78100 356.33108 345.75916 334.62124 323.02031 311.21039 299.07647 286.87555
 274.58363 262.47671 250.48178 239.77886 229.89694 220.99702 213.17510 206.17318
 200.00325 194.93733 191.51541 189.55349 188.58657 188.64665 189.47772 190.78180
 192.50288 194.59396 196.85304 199.20812 201.64919 204.12527 206.20935 208.04743
 209.66951 210.81059 211.03567 211.25974 211.19282 210.89390 210.52298 210.14906
 209.76214 209.46821 209.27229 209.13237 209.05645 209.38353 209.76561 210.15068
 210.93976 212.11384 213.35992 215.13900 217.06308 219.10215 221.19323 223.27231
 225.32839 227.40847 229.50155 231.60363 233.72870 235.89678 238.14886 240.51494
 243.13202 245.37910 247.37717 249.13825 250.55133 251.67041 252.48849 252.80057
 252.83364 252.60372 251.95980 250.90388 249.50596 247.66304 245.56811 243.39719
 241.18427 238.98435 236.80043 234.63551 232.49158 230.35466 228.37674 226.52982
 224.80890 223.27698 221.90306 220.67113 219.54921 218.50529 217.60537 216.74245
 215.98053 215.15660 214.25068 213.61076 213.05684 214.05794 216.42313 219.17039
 221.49722 223.03943 224.22289 225.57442 226.90996 227.69203 227.21439 225.76772
 225.20573 227.29616 231.41447 236.09320 240.71432 245.17506 249.40779 253.28960
 256.74313 259.89615 262.89169 265.77402 268.15326 270.06274 271.82303 273.51797
 275.30200 277.02130 278.56427 279.93210 281.12329 282.18390 283.15906 284.04947
 284.86624 285.61118 286.26932 287.19177
 366.78100 356.33183 345.76067 334.62350 323.02334 311.21417 299.08100 286.88084
 274.58967 262.48351 250.48934 239.78718 229.90601 221.00684 213.18568 206.18451
 200.01535 194.95018 191.52901 189.56785 188.60168 188.66252 189.49435 190.79919
 192.52102 194.61285 196.87269 199.22852 201.67036 204.14719 206.23202 208.07086
 209.69369 210.83553 211.06136 211.28620 211.22003 210.92186 210.55170 210.17853
 209.79237 209.49920 209.30403 209.16487 209.08970 209.41754 209.80037 210.18621
 210.97604 212.15087 213.39771 215.17754 217.10238 219.14221 221.23404 223.31388
 225.37071 227.45155 229.54538 231.64822 233.77405 235.94288 238.19572 240.56255
 243.18039 245.42822 247.42705 249.18889 250.60272 251.72256 252.54139 252.85423
 252.88806 252.65889 252.01573 250.96056 249.56340 247.72123 245.62706 243.45690
 241.24473 239.04557 236.86240 234.69824 232.55507 230.41890 228.44174 226.59557
 224.87541 223.34424 221.97107 220.73991 219.61874 218.57558 217.67641 216.81424
 216.05308 215.22991 214.32475 213.68558 213.13242 214.10841 216.41432 219.19481
 221.56859 223.09654 224.24347 225.56985 226.91568 227.70378 227.22662 225.79272
 225.20992 227.26260 231.38666 236.08498 240.69734 245.13968 249.36736 253.25027
 256.69873 259.84024 262.82599 265.71429 268.10126 270.01431 271.77774 273.48489
 275.21661 276.92249 278.46213 279.83057 281.02051 282.08084 283.05551 283.94711
 284.76270 285.50665 286.16370 287.08649
 366.78100 356.33248 345.76197 334.62545 323.02594 311.21742 299.08491 286.88539
 274.59487 262.48936 250.49584 239.79433 229.91381 221.01530 213.19478 206.19427
 200.02575 194.96123 191.54072 189.58020 188.61469 188.67617 189.50866 190.81414
 192.53662 194.62911 196.88959 199.24608 201.68856 204.16605 206.25153 208.09101
 209.71450 210.85698 211.08347 211.30895 211.24344 210.94592 210.57640 210.20389
 209.81837 209.52586 209.33134 209.19283 209.11831 209.44680 209.83028 210.21676
 211.00725 212.18273 213.43022 215.21070 217.13619 219.17667 221.26915 223.34964
 225.40712 227.48861 229.58309 231.68658 233.81306 235.98254 238.23603 240.60351
 243.22200 245.47048 247.46997 249.23245 250.64693 251.76742 252.58690 252.90039
 252.93487 252.70636 252.06384 251.00933 249.61281 247.77129 245.67778 243.50826
 241.29675 239.09823 236.91572 234.75220 232.60968 230.47417 228.49765 226.65214
 224.93262 223.40211 222.02959 220.79907 219.67856 218.63604 217.73753 216.87601
 216.11550 215.29298 214.38846 213.74995 213.19743 214.15320 216.41127 219.21306
 221.64348 223.15082 224.25522 225.55276 226.91194 227.71750 227.23676 225.82671
 225.23296 227.23390 231.35681 236.07843 240.68538 245.11053 249.33215 253.21458
 256.65848 259.78729 262.76331 265.65576 268.05173 269.96884 271.73254 273.43375
 275.13516 276.82428 278.36078 279.72736 280.91653 281.97733 282.94983 283.84222
 284.65607 285.39944 286.05731 286.97253
 366.78100 356.33309 345.76318 334.62727 323.02837 311.22046 299.08855 286.88964
 274.59973 262.49482 250.50191 239.80101 229.92110 221.02319 213.20328 206.20337
 200.03546 194.97156 191.55165 189.59174 188.62683 188.68892 189.52201 190.82810
 192.55120 194.64429 196.90538 199.26247 201.70556 204.18365 206.26974 208.10984
 209.73393 210.87702 211.10411 211.33020 211.26529 210.96838 210.59948 210.22757
 209.84266 209.55075 209.35684 209.21893 209.14503 209.47412 209.85821 210.24530
 211.03639 212.21248 213.46057 215.24167 217.16776 219.20885 221.30194 223.38303
 225.44112 227.52321 229.61831 231.72240 233.84949 236.01958 238.27367 240.64176
 243.26085 245.50995 247.51004 249.27313 250.68822 251.80931 252.62940 252.94350
 252.97859 252.75068 252.10877 251.05486 249.65895 247.81804 245.72514 243.55623
 241.34532 239.14741 236.96550 234.80259 232.66068 230.52578 228.54987 226.70496
 224.98605 223.45614 222.08423 220.85432 219.73442 218.69251 217.79460 216.93369
 216.17378 215.35187 214.44797 213.81006 213.25815 214.19550 216.41010 219.22968
 221.71681 223.20540 224.26396 225.52991 226.89583 227.72244 227.24094 225.86594
 225.27272 227.21678 231.33115 236.07631 240.67966 245.08771 249.30125 253.18237
 256.62277 259.73969 262.70587 265.60153 268.00397 269.92410 271.68311 273.37253
 275.05664 276.72913 278.26080 279.62543 280.81479 281.87323 282.84525 283.73596
 284.55060 285.28992 285.94943 286.85468
 366.78100 356.33367 345.76434 334.62900 323.03067 311.22334 299.09201 286.89368
 274.60434 262.50001 250.50768 239.80735 229.92802 221.03069 213.21135 206.21202
 200.04469 194.98136 191.56203 189.60269 188.63836 188.70103 189.53470 190.84137
 192.56503 194.65870 196.92037 199.27804 201.72171 204.20038 206.28704 208.12771
 209.75238 210.89605 211.12372 211.35038 211.28605 210.98972 210.62139 210.25006
 209.86572 209.57439 209.38106 209.24373 209.17040 209.50007 209.88473 210.27240
 211.06407 212.24074 213.48941 215.27107 217.19774 219.23941 221.33308 223.41475
 225.47341 227.55608 229.65175 231.75642 233.88409 236.05475 238.30942 240.67809
 243.29776 245.54743 247.54810 249.31176 250.72743 251.84910 252.66977 252.98444
 253.02010 252.79277 252.15144 251.09811 249.70278 247.86244 245.77011 243.60178
 241.39145 239.19412 237.01279 234.85045 232.70912 230.57479 228.59946 226.75513
 225.03679 223.50746 222.13613 220.90680 219.78747 218.74613 217.84880 216.98847
 216.22914 215.40781 214.50447 213.86714 213.31581 214.23615 216.41051 219.24365
 221.78371 223.26328 224.27692 225.50749 226.86604 227.70804 227.23738 225.90945
 225.32423 227.21286 231.31287 236.07799 240.67915 245.07085 249.27661 253.15677
 256.59375 259.69901 262.65292 265.54761 267.95645 269.87915 271.63336 273.31400
 274.98453 276.63486 278.15884 279.52271 280.70868 281.76630 282.73660 283.62491
 284.43564 285.17514 285.83020 286.73010
 366.78100 356.33419 345.76539 334.63058 323.03277 311.22597 299.09516 286.89736
 274.60855 262.50474 250.51294 239.81313 229.93432 221.03752 213.21871 206.21990
 200.05310 194.99029 191.57149 189.61268 188.64887 188.71207 189.54626 190.85345
 192.57765 194.67184 196.93403 199.29223 201.73642 204.21562 206.30281 208.14400
 209.76920 210.91339 211.14158 211.36878 211.30497 211.00916 210.64136 210.27055
 209.88674 209.59594 209.40313 209.26633 209.19352 209.52371 209.90891 210.29710
 211.08929 212.26649 213.51568 215.29787 217.22507 219.26726 221.36146 223.44365
 225.50284 227.58604 229.68223 231.78742 233.91562 236.08681 238.34200 240.71120
 243.33139 245.58159 247.58278 249.34697 250.76317 251.88536 252.70655 253.02175
 253.05794 252.83113 252.19033 251.13752 249.74272 247.90291 245.81110 243.64330
 241.43349 239.23668 237.05588 234.89407 232.75326 230.61946 228.64465 226.80085
 225.08304 223.55423 222.18343 220.95462 219.83581 218.79501 217.89820 217.03839
 216.27959 215.45878 214.55598 213.91917 213.36836 214.27403 216.41379 219.25552
 221.84354 223.32326 224.29805 225.49211 226.82794 227.67018 227.21944 225.94859
 225.38145 227.22374 231.30457 236.08458 240.68507 245.06255 249.26093 253.14001
 256.57233 259.66501 262.60437 265.49353 267.90314 269.82611 271.57434 273.24847
 274.91034 276.54688 278.06628 279.42856 280.61520 281.67059 282.64017 283.53009
 284.34140 285.08517 285.74237 286.63605
 366.78100 356.33465 345.76630 334.63195 323.03460 311.22825 299.09790 286.90055
 274.61221 262.50886 250.51751 239.81816 229.93981 221.04346 213.22511 206.22676
 200.06041 194.99806 191.57971 189.62136 188.65801 188.72166 189.55631 190.86396
 192.58862 194.68327 196.94592 199.30457 201.74922 204.22887 206.31652 208.15817
 209.78382 210.92847 211.15712 211.38477 211.32142 211.02607 210.65872 210.28837
 209.90502 209.61468 209.42233 209.28598 209.21363 209.54428 209.92993 210.31858
 211.11123 212.28888 213.53853 215.32118 217.24883 219.29148 221.38613 223.46878
 225.52844 227.61209 229.70874 231.81439 233.94304 236.11469 238.37034 240.73999
 243.36064 245.61129 247.61294 249.37759 250.79424 251.91689 252.73854 253.05419
 253.09085 252.86450 252.22415 251.17180 249.77745 247.93810 245.84675 243.67940
 241.47005 239.27370 237.09335 234.93200 232.79165 230.65830 228.68395 226.84060
 225.12325 223.59491 222.22456 220.99621 219.87786 218.83751 217.94116 217.08181
 216.32346 215.50311 214.60076 213.96441 213.41406 214.30833 216.42111 219.26344
 221.89769 223.38779 224.32626 225.47861 226.77820 227.61011 227.19003 225.98131
 225.43448 227.23972 231.30426 236.09607 240.69931 245.06592 249.25661 253.13382
 256.56155 259.64038 262.56204 265.44037 267.84570 269.76645 271.50806 273.17981
 274.83704 276.46100 277.97607 279.33627 280.52313 281.57693 282.54465 283.43311
 284.24609 284.99564 285.65759 286.53271
 366.78100 356.33498 345.76696 334.63294 323.03592 311.22990 299.09988 286.90286
 274.61484 262.51182 250.52079 239.82177 229.94375 221.04773 213.22971 206.23169
 200.06567 195.00365 191.58563 189.62761 188.66459 188.72857 189.56355 190.87153
 192.59651 194.69149 196.95447 199.31345 201.75842 204.23840 206.32638 208.16836
 209.79434 210.93932 211.16830 211.39628 211.33326 211.03824 210.67122 210.30120
 209.91818 209.62816 209.43614 209.30012 209.22810 209.55908 209.94505 210.33403
 211.12701 212.30499 213.55497 215.33795 217.26593 219.30891 221.40389 223.48687
 225.54685 227.63083 229.72781 231.83379 233.96277 236.13475 238.39073 240.76071
 243.38168 245.63266 247.63464 249.39962 250.81660 251.93958 252.76156 253.07754
 253.11452 252.88850 252.24848 251.19646 249.80244 247.96342 245.87240 243.70538
 241.49636 239.30034 237.12032 234.95929 232.81927 230.68625 228.71223 226.86921
 225.15219 223.62417 222.25415 221.02613 219.90811 218.86809 217.97207 217.11305
 216.35503 215.53501 214.63299 213.99697 213.44695 214.33571 216.43552 219.26967
 221.93730 223.45639 224.37234 225.47957 226.72557 227.52089 227.12918 225.98947
 225.48219 227.27286 231.31335 236.10802 240.72012 245.08286 249.26668 253.14163
 256.56525 259.63235 262.53253 265.39658 267.80081 269.71661 271.44287 273.10373
 274.75656 276.37265 277.88266 279.24155 280.42572 281.47775 282.43829 283.32379
 284.14682 284.91275 285.55518 286.42517
 366.78100 356.33541 345.76781 334.63422 323.03763 311.23203 299.10244 286.90585
 274.61825 262.51566 250.52507 239.82648 229.94888 221.05329 213.23570 206.23810
 200.07251 195.01092 191.59332 189.63573 188.67314 188.73754 189.57295 190.88136
 192.60676 194.70217 196.96558 199.32498 201.77039 204.25080 206.33921 208.18161
 209.80802 210.95343 211.18283 211.41124 211.34865 211.05405 210.68746 210.31787
 209.93527 209.64568 209.45409 209.31849 209.24690 209.57831 209.96472 210.35412
 211.14753 212.32594 213.57634 215.35975 217.28816 219.33156 221.42697 223.51038
 225.57078 227.65519 229.75260 231.85900 233.98841 236.16082 238.41722 240.78763
 243.40904 245.66045 247.66285 249.42826 250.84567 251.96907 252.79148 253.10789
 253.14529 252.91970 252.28011 251.22851 249.83492 247.99633 245.90573 243.73914
 241.53055 239.33495 237.15536 234.99477 232.85518 230.72258 228.74899 226.90640
 225.18980 223.66221 222.29262 221.06502 219.94743 218.90784 218.01224 217.15365
 216.39606 215.57646 214.67487 214.03928 213.48969 214.36942 216.44789 219.27260
 221.96199 223.51300 224.41890 225.48451 226.67978 227.43895 227.05424 225.96278
 225.47897 227.26416 231.33734 236.17230 240.79129 245.13858 249.30270 253.17235
 256.60330 259.64560 262.51382 265.35452 267.72684 269.60394 271.31631 272.98999
 274.65494 276.25854 277.74924 279.09424 280.27463 281.33023 282.31406 283.21829
 284.02216 284.72620 285.33099 286.09769
 366.78100 356.33620 345.76940 334.63660 323.04080 311.23600 299.10721 286.91141
 274.62461 262.52281 250.53301 239.83521 229.95841 221.06361 213.24681 206.25001
 200.08521 195.02442 191.60762 189.65082 188.68902 188.75422 189.59042 190.89962
 192.62582 194.72202 196.98622 199.34642 201.79263 204.27383 206.36303 208.20623
 209.83343 210.97963 211.20983 211.43903 211.37723 211.08343 210.71763 210.34884
 209.96704 209.67824 209.48744 209.35264 209.28184 209.61404 210.00124 210.39144
 211.18564 212.36484 213.61605 215.40025 217.32945 219.37365 221.46985 223.55405
 225.61525 227.70045 229.79865 231.90585 234.03606 236.20926 238.46646 240.83766
 243.45986 245.71206 247.71526 249.48146 250.89966 252.02386 252.84706 253.16427
 253.20247 252.97767 252.33887 251.28807 249.89527 248.05747 245.96767 243.80187
 241.59407 239.39927 237.22048 235.06068 232.92188 230.79008 228.81728 226.97548
 225.25968 223.73288 222.36408 221.13728 220.02048 218.98169 218.08689 217.22909
 216.47229 215.65349 214.75269 214.11789 213.56909 214.42480 216.44649 219.24841
 222.01817 223.58427 224.44176 225.46638 226.62247 227.34691 226.99066 225.97455
 225.51424 227.27475 231.33989 236.18207 240.83374 245.20616 249.36977 253.22530
 256.62708 259.64029 262.46487 265.28351 267.61780 269.46341 271.16199 272.84225
 274.53781 276.12473 277.61581 278.97186 280.15433 281.20987 282.19388 283.09427
 283.88776 284.57230 285.15460 285.89224
 366.78100 356.33715 345.77130 334.63945 323.04460 311.24075 299.11290 286.91806
 274.63221 262.53136 250.54251 239.84566 229.96981 221.07596 213.26011 206.26426
 200.10041 195.04056 191.62471 189.66886 188.70802 188.77417 189.61132 190.92147
 192.64862 194.74577 197.01092 199.37207 201.81922 204.30137 206.39152 208.23567
 209.86382 211.01098 211.24213 211.47228 211.41143 211.11858 210.75373 210.38588
 210.00503 209.71718 209.52733 209.39348 209.32363 209.65678 210.04494 210.43609
 211.23124 212.41139 213.66354 215.44869 217.37884 219.42399 221.52114 223.60629
 225.66844 227.75459 229.85375 231.96190 234.09305 236.26720 238.52535 240.89750
 243.52065 245.77380 247.77795 249.54510 250.96425 252.08940 252.91355 253.23171
 253.27086 253.04701 252.40916 251.35931 249.96746 248.13061 246.04176 243.87691
 241.67006 239.47621 237.29836 235.13951 233.00167 230.87082 228.89897 227.05812
 225.34327 223.81742 222.44957 221.22372 220.10787 219.07002 218.17617 217.31932
 216.56347 215.74563 214.84578 214.21193 213.66408 214.49011 216.44171 219.21156
 222.10069 223.69598 224.45891 225.41174 226.51860 227.24411 226.96478 226.02834
 225.55150 227.27527 231.35034 236.21170 240.85771 245.22867 249.39992 253.26619
 256.68893 259.72000 262.51874 265.30978 267.64340 269.42703 271.01062 272.70676
 274.37582 276.00153 277.50430 278.75702 279.83295 280.87906 281.84219 282.66721
 283.34534 283.99884 284.61743 285.41806
 366.78100 356.33818 345.77336 334.64254 323.04871 311.24589 299.11907 286.92525
 274.64043 262.54061 250.55279 239.85696 229.98214 221.08932 213.27450 206.27968
 200.11686 195.05804 191.64321 189.68839 188.72857 188.79575 189.63393 190.94511
 192.67329 194.77147 197.03764 199.39982 201.84800 204.33118 206.42236 208.26754
 209.89672 211.04489 211.27707 211.50825 211.44843 211.15661 210.79279 210.42597
 210.04614 209.75932 209.57050 209.43768 209.36886 209.70304 210.09222 210.48439
 211.28057 212.46175 213.71493 215.50111 217.43229 219.47847 221.57664 223.66282
 225.72600 227.81318 229.91336 232.02254 234.15472 236.32990 238.58907 240.96225
 243.58643 245.84061 247.84579 249.61397 251.03415 252.16032 252.98550 253.30468
 253.34486 253.12204 252.48522 251.43640 250.04557 248.20975 246.12193 243.95811
 241.75229 239.55947 237.38265 235.22482 233.08800 230.95818 228.98736 227.14754
 225.43372 223.90890 222.54207 221.31725 220.20243 219.16561 218.27279 217.41697
 216.66215 215.84533 214.94650 214.31368 213.76686 214.56235 216.47800 219.18259
 222.04625 223.45422 224.28883 225.42522 226.67671 227.36105 226.88985 226.25201
 225.34810 227.07401 231.18478 236.18246 240.91112 245.29126 249.44070 253.28593
 256.72522 259.78571 262.62579 265.32172 267.62570 269.45740 271.00705 272.63898
 274.26596 275.72049 277.11398 278.16037 279.18445 280.20276 281.19238 282.13449
 282.98746 283.74707 284.41061 285.25626
 366.78100 356.33750 345.77201 334.64051 323.04602 311.24252 299.11502 286.92053
 274.63503 262.53453 250.54604 239.84954 229.97405 221.08055 213.26505 206.26956
 200.10606 195.04657 191.63107 189.67557 188.71508 188.78158 189.61909 190.92959
 192.65709 194.75460 197.02010 199.38160 201.82911 204.31161 206.40212 208.24662
 209.87512 211.02263 211.25413 211.48464 211.42414 211.13164 210.76715 210.39965
 210.01915 209.73166 209.54216 209.40867 209.33917 209.67267 210.06118 210.45268
 211.24819 212.42869 213.68119 215.46670 217.39720 219.44270 221.54021 223.62571
 225.68822 227.77472 229.87422 231.98273 234.11423 236.28874 238.54724 240.91974
 243.54325 245.79675 247.80126 249.56876 250.98826 252.11377 252.93827 253.25677
 253.29628 253.07278 252.43529 251.38579 249.99429 248.15780 246.06930 243.90481
 241.69831 239.50481 237.32732 235.16882 233.03132 230.90083 228.92933 227.08884
 225.37434 223.84884 222.48135 221.25585 220.14036 219.10286 218.20936 217.35287
 216.59737 215.77987 214.88038 214.24688 213.69939 214.55533 216.67465 219.16573
 221.85632 223.53679 224.66789 225.70787 226.76064 227.24310 226.82651 226.16048
 225.54578 227.35173 231.32510 236.14394 240.85760 245.28253 249.44641 253.28941
 256.73969 259.82938 262.71564 265.37442 267.65115 269.46869 271.08075 272.64215
 274.20096 275.51129 276.98132 278.52249 280.02017 281.34521 282.55414 283.64932
 284.63434 285.51147 286.27774 287.25424
 366.78100 356.33511 345.76722 334.63333 323.03644 311.23056 299.10067 286.90378
 274.61589 262.51300 250.52211 239.82322 229.94533 221.04944 213.23156 206.23367
 200.06778 195.00589 191.58800 189.63011 188.66722 188.73133 189.56644 190.87456
 192.59967 194.69478 196.95789 199.31700 201.76211 204.24222 206.33033 208.17245
 209.79856 210.94367 211.17278 211.40089 211.33800 211.04311 210.67622 210.30633
 209.92345 209.63356 209.44167 209.30578 209.23389 209.56500 209.95111 210.34022
 211.13333 212.31145 213.56156 215.34467 217.27278 219.31589 221.41100 223.49411
 225.55422 227.63833 229.73545 231.84156 233.97067 236.14278 238.39889 240.76900
 243.39011 245.64122 247.64333 249.40845 250.82556 251.94867 252.77078 253.08689
 253.12400 252.89811 252.25822 251.20634 249.81245 247.97356 245.88267 243.71578
 241.50689 239.31100 237.13111 234.97022 232.83034 230.69745 228.72356 226.88067
 225.16378 223.63589 222.26600 221.03811 219.92022 218.88034 217.98445 217.12556
 216.36767 215.54778 214.64589 214.01000 213.46011 214.44316 216.82253 219.15685
 221.64047 223.71191 224.85805 225.63577 226.53769 227.06123 226.91156 226.20125
 225.60216 227.32079 231.31871 236.12421 240.84558 245.27850 249.42957 253.24457
 256.63898 259.72760 262.69479 265.46970 267.80634 269.63388 271.20465 272.77048
 274.36234 275.90649 277.45016 278.91257 280.36841 281.65781 282.83420 283.89993
 284.85843 285.71198 286.45764 287.40787
 366.78100 356.33582 345.76864 334.63545 323.03927 311.23409 299.10491 286.90873
 274.62154 262.51936 250.52918 239.83100 229.95382 221.05863 213.24145 206.24427
 200.07909 195.01791 191.60073 189.64354 188.68136 188.74618 189.58200 190.89082
 192.61663 194.71245 196.97627 199.33609 201.78191 204.26272 206.35154 208.19436
 209.82118 210.96700 211.19681 211.42563 211.36345 211.06927 210.70309 210.33390
 209.95172 209.66254 209.47136 209.33618 209.26500 209.59681 209.98363 210.37345
 211.16727 212.34609 213.59690 215.38072 217.30954 219.35336 221.44918 223.53299
 225.59381 227.67863 229.77645 231.88327 234.01308 236.18590 238.44272 240.81354
 243.43536 245.68717 247.68999 249.45581 250.87363 251.99745 252.82027 253.13708
 253.17490 252.94972 252.31054 251.25936 249.86617 248.02799 245.93781 243.77163
 241.56345 239.36826 237.18908 235.02890 232.88972 230.75754 228.78435 226.94217
 225.22599 223.69881 222.32963 221.10244 219.98526 218.94608 218.05090 217.19272
 216.43554 215.61635 214.71517 214.07999 213.53081 214.47363 216.73769 219.27856
 221.62126 223.45667 224.73734 225.55383 226.37677 226.91565 227.02742 225.97467
 225.55670 227.18018 231.28416 236.11514 240.85898 245.29924 249.40866 253.16843
 256.54553 259.62067 262.52130 265.20670 267.53189 269.48117 271.15891 272.74704
 274.29639 275.72849 277.04300 278.34052 279.53906 280.60803 281.60535 282.55313
 283.40555 284.16464 284.82779 285.67288
 366.78100 356.33773 345.77245 334.64118 323.04690 311.24363 299.11636 286.92208
 274.63681 262.53653 250.54826 239.85199 229.97671 221.08344 213.26816 206.27289
 200.10962 195.05034 191.63507 189.67979 188.71952 188.78625 189.62397 190.93470
 192.66242 194.76015 197.02588 199.38760 201.83533 204.31805 206.40878 208.25351
 209.88223 211.02996 211.26169 211.49241 211.43214 211.13986 210.77559 210.40832
 210.02804 209.74077 209.55149 209.41822 209.34895 209.68267 210.07140 210.46312
 211.25885 212.43958 213.69230 215.47803 217.40875 219.45448 221.55221 223.63793
 225.70066 227.78738 229.88711 231.99584 234.12756 236.30229 238.56101 240.93374
 243.55747 245.81119 247.81592 249.58364 251.00337 252.12910 252.95382 253.27255
 253.31227 253.08900 252.45173 251.40245 250.01118 248.17490 246.08663 243.92236
 241.71608 239.52281 237.34553 235.18726 233.04999 230.91971 228.94844 227.10816
 225.39389 223.86862 222.50134 221.27607 220.16080 219.12352 218.23025 217.37397
 216.61870 215.80143 214.90215 214.26888 213.72160 214.58432 216.68698 219.32138
 221.76430 223.30191 224.58797 225.72253 226.48335 226.88123 226.87457 226.17850
 225.57822 227.37257 231.31940 236.11322 240.88690 245.32402 249.42792 253.19525
 256.56943 259.61996 262.47574 265.15140 267.45450 269.32336 270.94467 272.46097
 273.99728 275.47446 276.82660 278.12195 279.34601 280.46616 281.58313 282.59506
 283.50516 284.31561 285.02362 285.92587
 366.78100 356.33954 345.77609 334.64663 323.05417 311.25271 299.12726 286.93480
 274.65134 262.55288 250.56643 239.87197 229.99851 221.10705 213.29360 206.30014
 200.13868 195.08122 191.66777 189.71431 188.75585 188.82439 189.66394 190.97648
 192.70602 194.80556 197.07311 199.43665 201.88619 204.37074 206.46328 208.30982
 209.94036 211.08991 211.32345 211.55599 211.49753 211.20708 210.84462 210.47916
 210.10070 209.81525 209.62779 209.49633 209.42887 209.76442 210.15496 210.54850
 211.34604 212.52859 213.78313 215.57067 217.50321 219.55076 221.65030 223.73784
 225.80239 227.89093 229.99247 232.10301 234.23656 236.41310 238.67364 241.04818
 243.67373 245.92927 247.93581 249.70535 251.12690 252.25444 253.08098 253.40152
 253.44307 253.22161 252.58615 251.53869 250.14924 248.31478 246.22832 244.06586
 241.86141 239.66995 237.49449 235.33804 233.20258 231.07412 229.10466 227.26621
 225.55375 224.03029 222.66483 221.44138 220.32792 219.29246 218.40100 217.54655
 216.79309 215.97763 215.08017 214.44872 213.90326 214.69884 216.72383 219.34799
 221.77110 223.47163 224.90549 225.93686 226.52841 226.70538 226.61142 226.00003
 225.78311 227.69159 231.48737 236.18491 240.94695 245.40204 249.50975 253.25616
 256.58344 259.59085 262.45914 265.12085 267.39603 269.28296 270.90466 272.42981
 273.90857 275.43338 277.00284 278.66812 280.15567 281.47174 282.67249 283.76025
 284.73862 285.60983 286.37091 287.34082
 366.78100 356.33997 345.77693 334.64790 323.05586 311.25483 299.12980 286.93776
 274.65473 262.55670 250.57066 239.87663 230.00359 221.11256 213.29953 206.30649
 200.14546 195.08843 191.67539 189.72236 188.76432 188.83329 189.67326 190.98622
 192.71619 194.81615 197.08412 199.44809 201.89805 204.38302 206.47599 208.32295
 209.95392 211.10388 211.33785 211.57082 211.51278 211.22275 210.86071 210.49568
 210.11765 209.83261 209.64558 209.51455 209.44751 209.78348 210.17444 210.56841
 211.36638 212.54934 213.80431 215.59228 217.52524 219.57321 221.67317 223.76114
 225.82611 227.91507 230.01704 232.12800 234.26197 236.43894 238.69990 241.07487
 243.70084 245.95680 247.96377 249.73373 251.15570 252.28367 253.11063 253.43160
 253.47356 253.25253 252.61750 251.57046 250.18143 248.34740 246.26136 244.09933
 241.89529 239.70426 237.52923 235.37319 233.23816 231.11013 229.14109 227.30306
 225.59102 224.06799 222.70296 221.47992 220.36689 219.33185 218.44082 217.58679
 216.83375 216.01872 215.12169 214.49065 213.94562 214.74336 216.80656 219.33919
 221.74886 223.63029 225.06841 225.99178 226.51682 226.57462 226.75627 225.58049
 225.47661 227.51939 231.49307 236.23454 240.99884 245.46950 249.59134 253.33177
 256.63834 259.64328 262.48569 265.13287 267.43323 269.33444 270.91913 272.40677
 274.26636 276.41916 278.48010 280.28973 281.85583 283.24142 284.50558 285.65082
 286.68082 287.59805 288.39932 289.42044
 366.78100 356.33918 345.77537 334.64555 323.05273 311.25092 299.12510 286.93228
 274.64847 262.54965 250.56283 239.86802 229.99420 221.10238 213.28857 206.29475
 200.13293 195.07512 191.66130 189.70748 188.74866 188.81685 189.65603 190.96821
 192.69740 194.79658 197.06376 199.42695 201.87613 204.36031 206.45250 208.29868
 209.92886 211.07805 211.31123 211.54341 211.48460 211.19378 210.83096 210.46515
 210.08633 209.80051 209.61270 209.48088 209.41306 209.74825 210.13843 210.53161
 211.32880 212.51098 213.76516 215.55235 217.48453 219.53171 221.63090 223.71808
 225.78226 227.87045 229.97163 232.08181 234.21499 236.39118 238.65136 241.02554
 243.65073 245.90591 247.91209 249.68128 251.10246 252.22964 253.05583 253.37601
 253.41719 253.19538 252.55956 251.51174 250.12193 248.28711 246.20029 244.03748
 241.83266 239.64084 237.46503 235.30821 233.17239 231.04358 229.07376 227.23494
 225.52213 223.99831 222.63249 221.40868 220.29486 219.25904 218.36723 217.51241
 216.75859 215.94278 215.04496 214.41314 213.86732 214.72148 216.87997 219.31973
 221.74905 223.64439 225.06421 225.96191 226.47296 226.58493 226.84756 225.59152
 225.31166 227.45570 231.50333 236.26001 241.02402 245.49286 249.61145 253.33517
 256.64050 259.66776 262.52567 265.19467 267.56332 269.56573 271.27606 272.66772
 274.83276 277.09235 279.09988 280.86264 282.38815 283.73785 284.96924 286.08481
 287.08813 287.98160 288.76208 289.75677
 366.78100 356.33836 345.77373 334.64309 323.04946 311.24682 299.12018 286.92655
 274.64191 262.54228 250.55464 239.85901 229.98437 221.09173 213.27710 206.28246
 200.11983 195.06119 191.64655 189.69192 188.73228 188.79965 189.63801 190.94938
 192.67774 194.77610 197.04247 199.40483 201.85320 204.33656 206.42792 208.27329
 209.90265 211.05102 211.28338 211.51475 211.45511 211.16347 210.79984 210.43320
 210.05357 209.76693 209.57829 209.44566 209.37702 209.71139 210.10075 210.49312
 211.28948 212.47084 213.72421 215.51057 217.44194 219.48830 221.58666 223.67303
 225.73639 227.82376 229.92412 232.03349 234.16585 236.34121 238.60058 240.97394
 243.59831 245.85267 247.85803 249.62640 251.04676 252.17313 252.99849 253.31786
 253.35822 253.13558 252.49895 251.45031 250.05968 248.22404 246.13640 243.97277
 241.76713 239.57450 237.39786 235.24022 233.10359 230.97395 229.00332 227.16368
 225.45005 223.92541 222.55877 221.33414 220.21950 219.18287 218.29023 217.43459
 216.67996 215.86332 214.96469 214.33205 213.78542 214.68710 216.92216 219.29283
 221.71317 223.65036 225.10698 225.90356 226.29851 226.53494 226.64790 225.72420
 225.47993 227.48531 231.47829 236.25673 241.02426 245.46501 249.54868 253.24884
 256.56604 259.61649 262.44492 265.10413 267.50555 269.57104 271.36194 273.03754
 275.08344 277.03439 278.94989 280.63184 282.08740 283.37521 284.55014 285.61456
 286.57190 287.42438 288.16910 289.11816
 366.78100 356.33857 345.77414 334.64371 323.05028 311.24785 299.12142 286.92799
 274.64356 262.54414 250.55671 239.86128 229.98685 221.09442 213.27999 206.28556
 200.12313 195.06470 191.65027 189.69584 188.73641 188.80398 189.64255 190.95412
 192.68269 194.78127 197.04784 199.41041 201.85898 204.34255 206.43412 208.27969
 209.90926 211.05783 211.29040 211.52197 211.46254 211.17111 210.80768 210.44125
 210.06182 209.77539 209.58697 209.45454 209.38611 209.72068 210.11025 210.50282
 211.29939 212.48096 213.73453 215.52110 217.45267 219.49924 221.59781 223.68438
 225.74795 227.83552 229.93610 232.04567 234.17824 236.35381 238.61338 240.98695
 243.61152 245.86609 247.87166 249.64023 251.06080 252.18737 253.01294 253.33251
 253.37308 253.15065 252.51422 251.46580 250.07537 248.23994 246.15251 243.98908
 241.78365 239.59122 237.41479 235.25736 233.12093 230.99150 229.02107 227.18164
 225.46821 223.94378 222.57735 221.35293 220.23850 219.20207 218.30964 217.45421
 216.69978 215.88335 214.98492 214.35249 213.80606 214.69919 216.91794 219.32344
 221.61310 223.61684 225.14772 225.93216 226.23007 226.40939 226.40753 225.73949
 225.66689 227.64467 231.57391 236.30388 241.07890 245.52405 249.58867 253.27383
 256.55606 259.51721 262.42468 265.05988 267.32465 269.29675 271.10815 272.93323
 274.93915 276.77338 278.50146 280.21933 281.70602 283.02136 284.22141 285.30856
 286.28635 287.15704 287.91769 288.88705
 366.78100 356.33923 345.77546 334.64569 323.05293 311.25116 299.12539 286.93262
 274.64885 262.55008 250.56331 239.86854 229.99478 221.10301 213.28924 206.29547
 200.13370 195.07593 191.66216 189.70839 188.74963 188.81786 189.65709 190.96932
 192.69855 194.79778 197.06501 199.42825 201.87748 204.36171 206.45394 208.30017
 209.93040 211.07963 211.31286 211.54510 211.48633 211.19556 210.83279 210.46702
 210.08825 209.80248 209.61472 209.48295 209.41518 209.75041 210.14064 210.53387
 211.33110 212.51333 213.76757 215.55480 217.48703 219.53426 221.63349 223.72072
 225.78495 227.87318 229.97442 232.08465 234.21788 236.39411 238.65434 241.02857
 243.65380 245.90904 247.91527 249.68450 251.10573 252.23296 253.05919 253.37942
 253.42065 253.19889 252.56312 251.51535 250.12558 248.29081 246.20404 244.04127
 241.83651 239.64474 237.46897 235.31220 233.17643 231.04766 229.07789 227.23912
 225.52636 224.00259 222.63682 221.41305 220.29928 219.26351 218.37174 217.51697
 216.76321 215.94744 215.04967 214.41790 213.87213 214.74350 216.92673 219.34158
 221.62285 223.59557 225.12753 225.94102 226.27435 226.40111 226.33878 225.57306
 225.54892 227.65865 231.59985 236.32915 241.11607 245.58502 249.66660 253.35907
 256.63992 259.58502 262.38309 265.01498 267.28677 269.15103 270.73404 272.75455
 274.87262 276.73550 278.61426 280.36081 281.87231 283.20959 284.42966 285.53494
 286.52902 287.41428 288.18762 289.17313
 366.78100 356.33986 345.77672 334.64757 323.05543 311.25429 299.12915 286.93701
 274.65387 262.55572 250.56958 239.87544 230.00230 221.11116 213.29801 206.30487
 200.14373 195.08659 191.67345 189.72030 188.76216 188.83102 189.67088 190.98374
 192.71360 194.81345 197.08131 199.44517 201.89503 204.37989 206.47274 208.31960
 209.95046 211.10032 211.33418 211.56704 211.50889 211.21875 210.85661 210.49147
 210.11333 209.82818 209.64104 209.50990 209.44276 209.77862 210.16947 210.56333
 211.36119 212.54405 213.79891 215.58677 217.51962 219.56748 221.66734 223.75520
 225.82006 227.90891 230.01077 232.12163 234.25549 236.43235 238.69320 241.06806
 243.69392 245.94978 247.95664 249.72650 251.14835 252.27621 253.10307 253.42393
 253.46579 253.24464 252.60950 251.56236 250.17322 248.33908 246.25294 244.09079
 241.88665 239.69551 237.52037 235.36423 233.22908 231.10094 229.13180 227.29366
 225.58152 224.05837 222.69323 221.47009 220.35695 219.32181 218.43067 217.57652
 216.82338 216.00824 215.11110 214.47996 213.93481 214.79530 216.96323 219.33496
 221.66510 223.61995 225.11072 225.93141 226.27489 226.35918 226.52591 225.45073
 225.35736 227.57170 231.58804 236.32738 241.10072 245.58707 249.70186 253.42540
 256.69931 259.64728 262.39206 264.97046 267.24573 269.12863 270.81104 272.94046
 275.14893 277.37375 279.32831 281.04456 282.52985 283.84393 285.04282 286.12894
 287.10577 287.97568 288.73560 289.70401
 366.78100 356.33975 345.77650 334.64724 323.05499 311.25374 299.12849 286.93623
 274.65298 262.55473 250.56848 239.87422 230.00097 221.10972 213.29647 206.30322
 200.14196 195.08471 191.67146 189.71821 188.75995 188.82870 189.66845 190.98120
 192.71094 194.81069 197.07844 199.44219 201.89193 204.37668 206.46943 208.31618
 209.94693 211.09667 211.33042 211.56317 211.50492 211.21466 210.85241 210.48716
 210.10891 209.82365 209.63640 209.50515 209.43790 209.77365 210.16439 210.55814
 211.35589 212.53864 213.79338 215.58113 217.51388 219.56163 221.66137 223.74912
 225.81387 227.90262 230.00436 232.11511 234.24886 236.42561 238.68636 241.06110
 243.68685 245.94260 247.94935 249.71909 251.14084 252.26859 253.09534 253.41608
 253.45783 253.23658 252.60133 251.55408 250.16482 248.33057 246.24432 244.08207
 241.87781 239.68656 237.51131 235.35506 233.21980 231.09155 229.12230 227.28405
 225.57180 224.04854 222.68329 221.46004 220.34679 219.31153 218.42028 217.56603
 216.81278 215.99752 215.10027 214.46902 213.92377 214.80547 217.01022 219.32759
 221.62463 223.63597 225.17230 225.94968 226.19101 226.22523 226.54056 225.59291
 225.57204 227.61623 231.57410 236.30667 241.07436 245.55888 249.68425 253.41586
 256.73334 259.70340 262.42603 264.97226 267.27554 269.24146 270.90750 273.26010
 275.67160 278.06464 280.13538 281.95367 283.52722 284.91943 286.18961 287.34030
 288.37521 289.29681 290.10190 291.12790
 366.78100 356.33985 345.77670 334.64755 323.05539 311.25424 299.12909 286.93694
 274.65379 262.55564 250.56949 239.87534 230.00218 221.11103 213.29788 206.30473
 200.14358 195.08643 191.67328 189.72012 188.76197 188.83082 189.67067 190.98352
 192.71337 194.81322 197.08107 199.44491 201.89476 204.37961 206.47246 208.31931
 209.95016 211.10001 211.33386 211.56670 211.50855 211.21840 210.85625 210.49110
 210.11295 209.82780 209.64064 209.50949 209.44234 209.77819 210.16904 210.56289
 211.36074 212.54359 213.79843 215.58628 217.51913 219.56698 221.66683 223.75468
 225.81953 227.90837 230.01022 232.12107 234.25492 236.43177 238.69262 241.06747
 243.69332 245.94916 247.95601 249.72586 251.14771 252.27556 253.10241 253.42326
 253.46511 253.24395 252.60880 251.56165 250.17250 248.33835 246.25220 244.09005
 241.88589 239.69474 237.51959 235.36344 233.22829 231.10014 229.13099 227.29284
 225.58068 224.05753 222.69238 221.46923 220.35608 219.32093 218.42978 217.57562
 216.82247 216.00732 215.11017 214.47902 213.93387 214.81648 217.03143 219.33397
 221.56876 223.63031 225.20636 225.93942 226.10178 226.14648 226.19357 225.61154
 225.69415 227.68475 231.58975 236.29912 241.05104 245.51723 249.63869 253.39732
 256.74713 259.74365 262.45859 264.96844 267.24704 269.20142 270.98758 273.39734
 275.68979 277.99451 279.98883 281.73999 283.25549 284.59631 285.81961 286.92783
 287.92453 288.81213 289.58749 290.57562
 366.78100 356.34054 345.77807 334.64961 323.05814 311.25768 299.13321 286.94175
 274.65929 262.56182 250.57636 239.88289 230.01043 221.11996 213.30750 206.31503
 200.15457 195.09811 191.68564 189.73318 188.77571 188.84525 189.68578 190.99932
 192.72986 194.83039 197.09893 199.46346 201.91400 204.39953 206.49307 208.34060
 209.97214 211.12268 211.35721 211.59075 211.53328 211.24382 210.88235 210.51789
 210.14043 209.85596 209.66950 209.53903 209.47257 209.80910 210.20064 210.59517
 211.39371 212.57725 213.83278 215.62132 217.55485 219.60339 221.70392 223.79246
 225.85800 227.94753 230.05007 232.16160 234.29614 236.47367 238.73521 241.11074
 243.73728 245.99382 248.00135 249.77189 251.19442 252.32296 253.15049 253.47203
 253.51457 253.29410 252.65964 251.61317 250.22471 248.39124 246.30578 244.14432
 241.94085 239.75039 237.57592 235.42046 233.28599 231.15853 229.19006 227.35260
 225.64114 224.11867 222.75421 221.53174 220.41928 219.38481 218.49435 217.64089
 216.88842 216.07396 215.17749 214.54703 214.00256 214.85822 217.02370 219.34209
 221.55730 223.61685 225.13196 225.81924 226.01750 226.13235 226.11127 225.50806
 225.62691 227.72269 231.62311 236.31956 241.07613 245.54399 249.66376 253.42770
 256.76947 259.76865 262.49277 264.97641 267.17224 269.04309 271.01419 273.41666
 275.62637 277.76230 279.63449 281.27841 282.70108 283.95978 285.10815 286.14850
 287.08417 287.91739 288.64529 289.57291
 366.78100 356.34104 345.77909 334.65113 323.06017 311.26022 299.13626 286.94531
 274.66335 262.56639 250.58144 239.88848 230.01652 221.12657 213.31461 206.32265
 200.16270 195.10674 191.69478 189.74283 188.78587 188.85592 189.69696 191.01100
 192.74205 194.84309 197.11213 199.47718 201.92822 204.41426 206.50831 208.35635
 209.98840 211.13944 211.37448 211.60853 211.55157 211.26261 210.90166 210.53770
 210.16074 209.87679 209.69083 209.56087 209.49492 209.83196 210.22401 210.61905
 211.41809 212.60214 213.85818 215.64722 217.58127 219.63031 221.73135 223.82040
 225.88644 227.97649 230.07953 232.19157 234.32662 236.50466 238.76670 241.14275
 243.76979 246.02683 248.03488 249.80592 251.22896 252.35801 253.18605 253.50810
 253.55114 253.33118 252.69723 251.65127 250.26331 248.43036 246.34540 244.18444
 241.98149 239.79153 237.61758 235.46262 233.32866 231.20171 229.23375 227.39679
 225.68584 224.16388 222.79992 221.57797 220.46601 219.43205 218.54210 217.68914
 216.93719 216.12323 215.22727 214.59732 214.05336 214.89688 217.03476 219.32874
 221.55913 223.63422 225.08246 225.68753 225.88850 226.04172 226.19080 225.52882
 225.67245 227.77895 231.64828 236.33588 241.09480 245.56981 249.69377 253.45676
 256.79565 259.79291 262.53220 265.04620 267.25378 269.07135 271.04962 273.46939
 275.70447 277.87302 279.74951 281.39722 282.82318 284.08481 285.23581 286.27856
 287.21640 288.05154 288.78113 289.71088
 366.78100 356.34153 345.78007 334.65260 323.06214 311.26267 299.13920 286.94874
 274.66727 262.57081 250.58634 239.89387 230.02241 221.13294 213.32148 206.33001
 200.17054 195.11508 191.70361 189.75215 188.79568 188.86621 189.70775 191.02228
 192.75382 194.85535 197.12488 199.49042 201.94195 204.42849 206.52302 208.37155
 210.00409 211.15562 211.39116 211.62569 211.56922 211.28076 210.92029 210.55683
 210.18036 209.89689 209.71143 209.58196 209.51650 209.85403 210.24656 210.64210
 211.44163 212.62617 213.88270 215.67223 217.60677 219.65630 221.75784 223.84737
 225.91390 228.00444 230.10797 232.22051 234.35604 236.53458 238.79711 241.17364
 243.80118 246.05871 248.06725 249.83878 251.26231 252.39185 253.22038 253.54292
 253.58645 253.36698 252.73352 251.68805 250.30059 248.46812 246.38365 244.22319
 242.02072 239.83126 237.65779 235.50332 233.36986 231.24339 229.27593 227.43946
 225.72899 224.20753 222.84406 221.62260 220.51113 219.47766 218.58820 217.73573
 216.98427 216.17080 215.27533 214.64587 214.10240 214.93010 217.03140 219.32910
 221.53465 223.60448 225.06923 225.64723 225.75851 225.90935 225.97609 225.55930
 225.79552 227.84727 231.65810 236.33376 241.08852 245.56111 249.70293 253.49101
 256.82257 259.77887 262.50415 265.07571 267.36465 269.27490 271.15295 273.54337
 275.74377 277.85052 279.70651 281.33618 282.74655 283.99435 285.13275 286.16409
 287.09167 287.91769 288.63928 289.55884
 366.78100 356.34201 345.78102 334.65403 323.06404 311.26505 299.14206 286.95207
 274.67108 262.57509 250.59110 239.89911 230.02812 221.13913 213.32814 206.33715
 200.17816 195.12317 191.71218 189.76119 188.80520 188.87621 189.71822 191.03323
 192.76523 194.86724 197.13725 199.50326 201.95527 204.44228 206.53729 208.38630
 210.01931 211.17132 211.40733 211.64234 211.58635 211.29836 210.93837 210.57538
 210.19939 209.91640 209.73141 209.60242 209.53743 209.87544 210.26845 210.66446
 211.46447 212.64948 213.90649 215.69650 217.63151 219.68152 221.78353 223.87354
 225.94055 228.03156 230.13557 232.24858 234.38459 236.56360 238.82661 241.20362
 243.83163 246.08964 248.09865 249.87066 251.29467 252.42468 253.25369 253.57669
 253.62070 253.40171 252.76872 251.72373 250.33674 248.50475 246.42076 244.26077
 242.05878 239.86979 237.69680 235.54281 233.40982 231.28383 229.31684 227.48085
 225.77086 224.24987 222.88688 221.66589 220.55490 219.52191 218.63292 217.78093
 217.02994 216.21695 215.32196 214.69297 214.14998 214.96263 217.02689 219.33241
 221.51683 223.54199 225.01703 225.63419 225.71091 225.78096 225.69611 225.52722
 225.98286 227.92436 231.67232 236.34142 241.09700 245.56998 249.73219 253.55260
 256.92786 259.81845 262.43570 264.96185 267.28763 269.29373 271.19037 273.57974
 275.74289 277.76614 279.58450 281.18112 282.56287 283.78537 284.90073 285.91113
 286.81992 287.62918 288.33612 289.23706
 366.78100 356.34202 345.78103 334.65405 323.06406 311.26508 299.14209 286.95211
 274.67112 262.57514 250.59115 239.89917 230.02818 221.13920 213.32821 206.33723
 200.17824 195.12326 191.71228 189.76129 188.80531 188.87632 189.71834 191.03335
 192.76537 194.86738 197.13740 199.50341 201.95543 204.44244 206.53746 208.38647
 210.01949 211.17150 211.40752 211.64253 211.58655 211.29857 210.93858 210.57560
 210.19961 209.91663 209.73164 209.60266 209.53767 209.87569 210.26870 210.66472
 211.46473 212.64975 213.90676 215.69678 217.63179 219.68181 221.78383 223.87384
 225.94086 228.03187 230.13589 232.24890 234.38492 236.56393 238.82695 241.20396
 243.83198 246.08999 248.09901 249.87102 251.29504 252.42505 253.25407 253.57708
 253.62110 253.40212 252.76913 251.72415 250.33716 248.50518 246.42119 244.26121
 242.05922 239.87024 237.69725 235.54327 233.41028 231.28430 229.31731 227.48133
 225.77134 224.25036 222.88738 221.66639 220.55541 219.52242 218.63344 217.78145
 217.03047 216.21748 215.32250 214.69351 214.15053 214.97960 217.07098 219.30760
 221.51410 223.55080 224.95520 225.57544 225.64810 225.68236 225.56084 225.52431
 226.09694 228.05719 231.73773 236.37946 241.12265 245.61090 249.78641 253.63113
 257.01663 259.93060 262.48837 264.92847 267.18771 269.20071 271.25754 273.69391
 275.92752 278.05060 279.89319 281.51111 282.91129 284.15009 285.28030 286.30420
 287.22510 288.04514 288.76151 289.67447
 366.78100 356.34182 345.78063 334.65345 323.06327 311.26408 299.14090 286.95072
 274.66953 262.57335 250.58917 239.89698 230.02580 221.13662 213.32543 206.33425
 200.17507 195.11988 191.70870 189.75752 188.80134 188.87215 189.71397 191.02879
 192.76060 194.86242 197.13224 199.49805 201.94987 204.43669 206.53150 208.38032
 210.01314 211.16495 211.40077 211.63559 211.57940 211.29122 210.93104 210.56785
 210.19167 209.90849 209.72330 209.59412 209.52894 209.86675 210.25957 210.65539
 211.45520 212.64002 213.89684 215.68665 217.62147 219.67129 221.77311 223.86292
 225.92974 228.02056 230.12437 232.23719 234.37301 236.55182 238.81464 241.19146
 243.81927 246.07709 248.08591 249.85772 251.28154 252.41136 253.24017 253.56299
 253.60681 253.38762 252.75444 251.70926 250.32207 248.48989 246.40571 244.24552
 242.04334 239.85416 237.68097 235.52679 233.39361 231.26742 229.30024 227.46406
 225.75388 224.23269 222.86951 221.64833 220.53714 219.50396 218.61478 217.76259
 217.01141 216.19823 215.30304 214.67386 214.13068 214.98404 217.11378 219.28185
 221.48975 223.55779 224.91888 225.50020 225.53453 225.55377 225.40868 225.57426
 226.22438 228.15848 231.79440 236.41853 241.16466 245.65540 249.81870 253.64186
 257.05460 260.04675 262.65939 265.07910 267.30850 269.30603 271.38739 273.83978
 276.17075 278.31659 280.17343 281.80389 283.21494 284.46332 285.60229 286.63412
 287.56213 288.38852 289.11044 290.03046
 366.78100 356.34178 345.78057 334.65335 323.06314 311.26392 299.14071 286.95049
 274.66927 262.57306 250.58884 239.89663 230.02541 221.13620 213.32498 206.33376
 200.17455 195.11933 191.70812 189.75690 188.80069 188.87147 189.71325 191.02804
 192.75982 194.86161 197.13139 199.49718 201.94896 204.43574 206.53053 208.37931
 210.01210 211.16388 211.39966 211.63445 211.57823 211.29002 210.92980 210.56659
 210.19037 209.90715 209.72194 209.59272 209.52751 209.86529 210.25808 210.65386
 211.45364 212.63843 213.89521 215.68500 217.61978 219.66957 221.77135 223.86113
 225.92792 228.01870 230.12249 232.23527 234.37106 236.54984 238.81262 241.18941
 243.81719 246.07498 248.08376 249.85555 251.27933 252.40911 253.23790 253.56068
 253.60447 253.38525 252.75204 251.70682 250.31960 248.48739 246.40317 244.24296
 242.04074 239.85153 237.67831 235.52409 233.39088 231.26466 229.29745 227.46123
 225.75102 224.22980 222.86658 221.64537 220.53415 219.50094 218.61172 217.75950
 217.00829 216.19507 215.29986 214.67064 214.12743 214.98746 217.12253 219.27040
 221.44164 223.54376 224.91862 225.40736 225.34189 225.39821 225.23833 225.51630
 226.20461 228.19684 231.81960 236.46135 241.22188 245.70813 249.86815 253.66708
 257.01620 260.00336 262.72580 265.24557 267.53540 269.55225 271.51181 273.88004
 276.08316 278.16046 279.99908 281.61356 283.01071 284.24686 285.37463 286.39636
 287.31525 288.13354 288.84839 289.75937
 366.78100 356.34169 345.78037 334.65306 323.06275 311.26343 299.14012 286.94981
 274.66849 262.57218 250.58786 239.89555 230.02424 221.13492 213.32361 206.33230
 200.17298 195.11767 191.70636 189.75504 188.79873 188.86942 189.71110 191.02579
 192.75747 194.85916 197.12885 199.49453 201.94622 204.43291 206.52759 208.37628
 210.00897 211.16065 211.39634 211.63103 211.57471 211.28640 210.92609 210.56277
 210.18646 209.90314 209.71783 209.58852 209.52320 209.86089 210.25358 210.64926
 211.44895 212.63364 213.89032 215.68001 217.61470 219.66438 221.76607 223.85575
 225.92244 228.01313 230.11681 232.22950 234.36519 236.54387 238.80656 241.18325
 243.81093 246.06862 248.07731 249.84899 251.27268 252.40237 253.23105 253.55374
 253.59742 253.37811 252.74480 251.69948 250.31217 248.47986 246.39554 244.23523
 242.03292 239.84360 237.67029 235.51598 233.38266 231.25635 229.28903 227.45272
 225.74241 224.22109 222.85778 221.63647 220.52515 219.49184 218.60253 217.75021
 216.99890 216.18559 215.29027 214.66096 214.11765 214.98112 217.10284 219.27597
 221.33408 223.40958 224.87993 225.29492 225.19643 225.16394 225.22006 225.33371
 226.31215 228.44606 232.00026 236.54620 241.30368 245.80424 249.97354 253.76396
 257.06360 259.91669 262.59995 265.19116 267.57230 269.72488 271.76266 273.85480
 275.95947 277.79736 279.43991 280.97427 282.30396 283.48035 284.55365 285.52600
 286.40051 287.17926 287.85956 288.72653
 366.78100 356.34165 345.78030 334.65295 323.06260 311.26325 299.13989 286.94954
 274.66819 262.57184 250.58749 239.89514 230.02379 221.13444 213.32309 206.33174
 200.17239 195.11703 191.70568 189.75433 188.79798 188.86863 189.71028 191.02493
 192.75658 194.85823 197.12788 199.49352 201.94517 204.43182 206.52647 208.37512
 210.00777 211.15942 211.39507 211.62972 211.57337 211.28502 210.92466 210.56131
 210.18496 209.90161 209.71626 209.58691 209.52156 209.85921 210.25186 210.64751
 211.44716 212.63180 213.88845 215.67810 217.61275 219.66240 221.76405 223.85370
 225.92035 228.01100 230.11465 232.22730 234.36294 236.54159 238.80424 241.18089
 243.80854 246.06619 248.07484 249.84649 251.27014 252.39979 253.22843 253.55108
 253.59473 253.37538 252.74203 251.69668 250.30933 248.47698 246.39263 244.23228
 242.02993 239.84057 237.66722 235.51287 233.37952 231.25317 229.28582 227.44947
 225.73912 224.21777 222.85442 221.63307 220.52171 219.48836 218.59901 217.74666
 216.99531 216.18196 215.28661 214.65726 214.11391 214.97986 217.08321 219.30257
 221.23431 223.18372 224.74489 225.22444 225.09616 224.92892 225.18495 225.12364
 226.32114 228.51158 232.11967 236.64404 241.38753 245.88965 250.06305 253.87216
 257.23175 260.09924 262.61761 265.10229 267.46927 269.66592 271.78009 273.82333
 275.80301 277.59497 279.15552 280.54324 281.78555 282.91180 283.93936 284.87024
 285.70746 286.45300 287.10431 287.93433
 366.78100 356.34194 345.78088 334.65382 323.06377 311.26471 299.14165 286.95159
 274.67053 262.57447 250.59042 239.89836 230.02730 221.13824 213.32718 206.33612
 200.17707 195.12201 191.71095 189.75989 188.80383 188.87477 189.71671 191.03166
 192.76360 194.86554 197.13548 199.50142 201.95336 204.44031 206.53525 208.38419
 210.01713 211.16907 211.40501 211.63996 211.58390 211.29584 210.93578 210.57272
 210.19666 209.91360 209.72855 209.59949 209.53443 209.87237 210.26531 210.66125
 211.46120 212.64614 213.90308 215.69302 217.62796 219.67790 221.77985 223.86979
 225.93673 228.02767 230.13161 232.24455 234.38049 236.55944 238.82238 241.19932
 243.82726 246.08520 248.09414 249.86609 251.29003 252.41997 253.24891 253.57185
 253.61579 253.39674 252.76368 251.71862 250.33156 248.49950 246.41544 244.25538
 242.05333 239.86427 237.69121 235.53715 233.40409 231.27803 229.31098 227.47492
 225.76486 224.24380 222.88074 221.65968 220.54863 219.51557 218.62651 217.77445
 217.02339 216.21033 215.31527 214.68622 214.14316 215.00174 217.08484 219.32101
 221.19994 223.09589 224.61627 225.12395 225.03452 224.78000 224.92451 225.17010
 226.28740 228.61688 232.24118 236.76437 241.50131 245.99437 250.15343 253.93703
 257.27496 260.18921 262.74124 265.17175 267.47369 269.62805 271.77377 273.86014
 275.75995 277.45947 278.94769 280.31000 281.54752 282.69025 283.73282 284.67734
 285.52679 286.28326 286.94409 287.78625
 366.78100 356.34203 345.78106 334.65409 323.06412 311.26515 299.14219 286.95222
 274.67125 262.57528 250.59131 239.89934 230.02837 221.13940 213.32843 206.33746
 200.17850 195.12353 191.71256 189.76159 188.80562 188.87665 189.71868 191.03371
 192.76574 194.86777 197.13781 199.50384 201.95587 204.44290 206.53793 208.38696
 210.01999 211.17202 211.40805 211.64308 211.58712 211.29915 210.93918 210.57621
 210.20024 209.91727 209.73230 209.60333 209.53836 209.87639 210.26943 210.66546
 211.46549 212.65052 213.90755 215.69758 217.63261 219.68264 221.78467 223.87470
 225.94174 228.03277 230.13680 232.24983 234.38586 236.56489 238.82792 241.20495
 243.83298 246.09101 248.10005 249.87208 251.29611 252.42614 253.25517 253.57820
 253.62223 253.40326 252.77029 251.72532 250.33836 248.50639 246.42242 244.26245
 242.06048 239.87151 237.69854 235.54457 233.41160 231.28563 229.31867 227.48270
 225.77273 224.25176 222.88879 221.66782 220.55685 219.52388 218.63491 217.78294
 217.03198 216.21901 215.32404 214.69507 214.15210 215.01707 217.12000 219.30988
 221.17740 223.13425 224.56644 225.00839 224.92282 224.62662 224.68109 225.25920
 226.28030 228.71786 232.39970 236.91693 241.62517 246.10558 250.24998 254.01337
 257.33188 260.22778 262.81680 265.25748 267.54166 269.67892 271.84918 273.93503
 275.77026 277.35190 278.84460 280.22473 281.52249 282.71094 283.79526 284.77753
 285.66101 286.44772 287.13501 288.01086
 366.78100 356.34168 345.78035 334.65303 323.06270 311.26338 299.14005 286.94973
 274.66840 262.57208 250.58776 239.89543 230.02411 221.13478 213.32346 206.33213
 200.17281 195.11749 191.70616 189.75484 188.79851 188.86919 189.71086 191.02554
 192.75721 194.85889 197.12857 199.49424 201.94592 204.43259 206.52727 208.37594
 210.00862 211.16030 211.39597 211.63065 211.57432 211.28600 210.92567 210.56235
 210.18602 209.90270 209.71738 209.58805 209.52273 209.86040 210.25308 210.64875
 211.44843 212.63311 213.88978 215.67946 217.61413 219.66381 221.76548 223.85516
 225.92183 228.01251 230.11619 232.22886 234.36454 236.54321 238.80589 241.18256
 243.81024 246.06792 248.07659 249.84827 251.27194 252.40162 253.23029 253.55297
 253.59664 253.37732 252.74400 251.69867 250.31135 248.47902 246.39470 244.23437
 242.03205 239.84273 237.66940 235.51508 233.38175 231.25543 229.28810 227.45178
 225.74145 224.22013 222.85681 221.63548 220.52416 219.49083 218.60151 217.74918
 216.99786 216.18454 215.28921 214.65989 214.11656 215.00606 217.15765 219.30383
 221.10530 223.11945 224.51843 224.85472 224.76318 224.47928 224.50684 225.22214
 226.22809 228.76691 232.54718 237.06937 241.76044 246.22598 250.34941 254.08751
 257.38602 260.26663 262.85880 265.31723 267.61707 269.77750 271.97189 274.09192
 275.87640 277.31052 278.73288 280.11359 281.40018 282.60123 283.69699 284.68970
 285.58252 286.37759 287.07214 287.95728
 366.78100 356.34238 345.78176 334.65514 323.06551 311.26689 299.14427 286.95465
 274.67403 262.57841 250.59479 239.90317 230.03254 221.14392 213.33330 206.34268
 200.18406 195.12944 191.71882 189.76820 188.81257 188.88395 189.72633 191.04171
 192.77409 194.87647 197.14685 199.51323 201.96560 204.45298 206.54836 208.39774
 210.03112 211.18350 211.41988 211.65526 211.59963 211.31201 210.95239 210.58977
 210.21415 209.93153 209.74691 209.61829 209.55366 209.89204 210.28542 210.68180
 211.48218 212.66756 213.92494 215.71532 217.65069 219.70107 221.80345 223.89383
 225.96121 228.05259 230.15697 232.27035 234.40672 236.58610 238.84948 241.22686
 243.85524 246.11362 248.12300 249.89538 251.31975 252.45013 253.27951 253.60289
 253.64727 253.42865 252.79603 251.75141 250.36478 248.53316 246.44954 244.28992
 242.08830 239.89968 237.72706 235.57344 233.44081 231.31519 229.34857 227.51295
 225.80333 224.28271 222.92009 221.69947 220.58884 219.55622 218.66760 217.81598
 217.06536 216.25274 215.35812 214.72950 214.18687 215.03870 217.08644 219.39429
 221.03671 222.75267 224.41722 224.79918 224.57790 224.27983 224.29530 225.10323
 226.04709 228.75450 232.68040 237.21730 241.89697 246.34578 250.44040 254.14479
 257.41516 260.30194 262.91147 265.35037 267.65009 269.86307 272.10605 274.24445
 276.03247 277.40756 278.55508 279.82156 281.02155 282.12518 283.16629 284.11646
 284.97101 285.73199 286.39679 287.24399
 366.78100 356.34305 345.78310 334.65715 323.06820 311.27026 299.14831 286.95936
 274.67941 262.58446 250.60151 239.91056 230.04061 221.15266 213.34271 206.35277
 200.19482 195.14087 191.73092 189.78097 188.82602 188.89807 189.74112 191.05717
 192.79023 194.89328 197.16433 199.53138 201.98443 204.47248 206.56853 208.41858
 210.05263 211.20568 211.44274 211.67879 211.62384 211.33689 210.97794 210.61599
 210.24104 209.95909 209.77514 209.64719 209.58325 209.92230 210.31635 210.71340
 211.51445 212.70050 213.95855 215.74960 217.68565 219.73671 221.83976 223.93081
 225.99886 228.09091 230.19596 232.31001 234.44706 236.62711 238.89116 241.26922
 243.89827 246.15732 248.16737 249.94042 251.36547 252.49652 253.32657 253.65062
 253.69568 253.47773 252.84578 251.80183 250.41588 248.58493 246.50198 244.34303
 242.14208 239.95413 237.78219 235.62924 233.49729 231.37234 229.40639 227.57144
 225.86249 224.34254 222.98059 221.76065 220.65070 219.61875 218.73080 217.87985
 217.12990 216.31795 215.42400 214.79605 214.25410 215.07513 217.02136 219.41759
 221.23134 222.77704 224.31747 224.70970 224.40137 224.05212 224.15320 225.02896
 226.12906 228.85187 232.81676 237.37032 242.04842 246.48499 250.54694 254.23251
 257.48285 260.36560 262.99359 265.42209 267.69266 269.90198 272.16647 274.31888
 276.09158 277.45953 278.56833 279.60049 280.68369 281.73737 282.75381 283.66180
 284.48938 285.22940 285.87592 286.69977
 366.78100 356.34302 345.78303 334.65705 323.06806 311.27008 299.14809 286.95911
 274.67912 262.58414 250.60115 239.91017 230.04018 221.15220 213.34221 206.35223
 200.19424 195.14026 191.73027 189.78029 188.82530 188.89732 189.74033 191.05635
 192.78936 194.89238 197.16339 199.53041 201.98342 204.47144 206.56745 208.41747
 210.05148 211.20450 211.44151 211.67753 211.62254 211.33556 210.97657 210.61459
 210.23960 209.95762 209.77363 209.64565 209.58166 209.92068 210.31469 210.71171
 211.51272 212.69874 213.95675 215.74777 217.68378 219.73480 221.83781 223.92883
 225.99684 228.08886 230.19387 232.30789 234.44490 236.62492 238.88893 241.26695
 243.89596 246.15498 248.16499 249.93801 251.36302 252.49404 253.32405 253.64807
 253.69308 253.47510 252.84311 251.79913 250.41314 248.58216 246.49917 244.34019
 242.13920 239.95122 237.77923 235.62625 233.49426 231.36928 229.40329 227.56831
 225.85932 224.33934 222.97735 221.75737 220.64738 219.61540 218.72741 217.87643
 217.12644 216.31446 215.42047 214.79249 214.25050 215.08054 217.04160 219.36993
 221.30865 222.85013 224.17250 224.56401 224.28392 223.85670 223.97444 224.91924
 226.22382 228.98091 232.97804 237.53687 242.18747 246.61420 250.66260 254.33348
 257.56232 260.43347 263.06375 265.50082 267.76486 269.95407 272.22174 274.38440
 276.10059 277.40057 278.47150 279.46915 280.52271 281.57510 282.56696 283.47406
 284.26547 284.99155 285.62714 286.43713
 366.78100 356.34303 345.78306 334.65708 323.06811 311.27014 299.14817 286.95919
 274.67922 262.58425 250.60128 239.91030 230.04033 221.15236 213.34239 206.35242
 200.19444 195.14047 191.73050 189.78053 188.82555 188.89758 189.74061 191.05664
 192.78966 194.89269 197.16372 199.53075 201.98378 204.47180 206.56783 208.41786
 210.05189 211.20491 211.44194 211.67797 211.62300 211.33602 210.97705 210.61508
 210.24011 209.95814 209.77416 209.64619 209.58222 209.92125 210.31527 210.71230
 211.51333 212.69936 213.95739 215.74841 217.68444 219.73547 221.83850 223.92952
 225.99755 228.08958 230.19461 232.30863 234.44566 236.62569 238.88972 241.26775
 243.89677 246.15580 248.16583 249.93886 251.36388 252.49491 253.32494 253.64897
 253.69399 253.47602 252.84405 251.80008 250.41411 248.58313 246.50016 244.34119
 242.14022 239.95224 237.78027 235.62730 233.49533 231.37035 229.40438 227.56941
 225.86044 224.34047 222.97849 221.75852 220.64855 219.61658 218.72860 217.87763
 217.12766 216.31569 215.42171 214.79374 214.25177 215.09090 217.07346 219.34137
 221.32083 222.87582 224.02579 224.38882 224.16202 223.70642 223.80621 224.78146
 226.23517 229.08351 233.13338 237.70401 242.33290 246.73822 250.76978 254.41862
 257.63828 260.51068 263.13861 265.57239 267.83597 270.03015 272.31454 274.47055
 276.12802 277.34067 278.37457 279.36813 280.44916 281.49963 282.48822 283.38898
 284.17853 284.88940 285.52362 286.33188
 366.78100 356.34331 345.78361 334.65792 323.06923 311.27153 299.14984 286.96115
 274.68145 262.58676 250.60406 239.91337 230.04368 221.15598 213.34629 206.35660
 200.19890 195.14521 191.73552 189.78582 188.83113 188.90344 189.74674 191.06305
 192.79636 194.89966 197.17097 199.53827 201.99158 204.47989 206.57619 208.42650
 210.06081 211.21411 211.45142 211.68773 211.63303 211.34634 210.98765 210.62595
 210.25126 209.96957 209.78587 209.65818 209.59449 209.93379 210.32810 210.72540
 211.52671 212.71302 213.97132 215.76263 217.69894 219.75024 221.85355 223.94486
 226.01316 228.10547 230.21078 232.32508 234.46239 236.64270 238.90700 241.28531
 243.91461 246.17392 248.18423 249.95753 251.38284 252.51415 253.34445 253.66876
 253.71407 253.49637 252.86468 251.82099 250.43529 248.60460 246.52191 244.36321
 242.16252 239.97482 237.80313 235.65044 233.51874 231.39405 229.42836 227.59366
 225.88497 224.36528 223.00358 221.78389 220.67420 219.64250 218.75481 217.90412
 217.15442 216.34273 215.44903 214.82134 214.27965 215.11499 217.08862 219.33203
 221.32263 222.87578 223.91972 224.21109 223.97983 223.54826 223.66182 224.64632
 226.20598 229.19371 233.30765 237.87790 242.48232 246.86215 250.87268 254.49692
 257.70786 260.59265 263.23315 265.65353 267.90384 270.10605 272.41751 274.55643
 276.13599 277.25296 278.24789 279.30408 280.44797 281.50510 282.49240 283.40140
 284.21686 284.92648 285.56671 286.38260
 366.78100 356.34355 345.78409 334.65864 323.07019 311.27274 299.15128 286.96283
 274.68338 262.58893 250.60647 239.91602 230.04657 221.15911 213.34966 206.36021
 200.20276 195.14930 191.73985 189.79040 188.83595 188.90849 189.75204 191.06859
 192.80213 194.90568 197.17723 199.54478 201.99832 204.48687 206.58342 208.43397
 210.06851 211.22206 211.45961 211.69615 211.64170 211.35525 210.99680 210.63534
 210.26089 209.97944 209.79599 209.66853 209.60508 209.94463 210.33917 210.73672
 211.53827 212.72482 213.98336 215.77491 217.71146 219.76300 221.86655 223.95810
 226.02665 228.11919 230.22474 232.33929 234.47684 236.65738 238.92193 241.30048
 243.93002 246.18957 248.20012 249.97367 251.39921 252.53076 253.36131 253.68586
 253.73140 253.51395 252.88250 251.83904 250.45359 248.62314 246.54069 244.38223
 242.18178 239.99433 237.82288 235.67042 233.53897 231.41452 229.44906 227.61461
 225.90616 224.38671 223.02525 221.80580 220.69635 219.66490 218.77744 217.92699
 217.17754 216.36608 215.47263 214.84518 214.30373 215.13474 217.09807 219.32158
 221.33440 222.87625 223.83794 224.04599 223.76988 223.35542 223.51988 224.51347
 226.17085 229.31174 233.49725 238.05437 242.62706 246.98161 250.97241 254.57411
 257.77951 260.67892 263.33740 265.74905 267.99249 270.20761 272.53244 274.65182
 276.16379 277.21149 278.14828 279.19604 280.37775 281.42926 282.39246 283.27362
 284.09717 284.83325 285.46420 286.28174
 366.78100 356.34368 345.78436 334.65904 323.07071 311.27339 299.15207 286.96375
 274.68443 262.59011 250.60778 239.91746 230.04814 221.16082 213.35150 206.36218
 200.20485 195.15153 191.74221 189.79289 188.83857 188.91125 189.75492 191.07160
 192.80528 194.90896 197.18064 199.54832 202.00199 204.49067 206.58735 208.43803
 210.07271 211.22639 211.46406 211.70074 211.64642 211.36010 211.00178 210.64046
 210.26613 209.98481 209.80149 209.67417 209.61085 209.95053 210.34520 210.74288
 211.54456 212.73124 213.98992 215.78160 217.71827 219.76995 221.87363 223.96531
 226.03399 228.12667 230.23234 232.34702 234.48470 236.66538 238.93006 241.30874
 243.93841 246.19809 248.20877 249.98245 251.40813 252.53981 253.37048 253.69516
 253.74084 253.52352 252.89220 251.84888 250.46355 248.63323 246.55091 244.39259
 242.19227 240.00495 237.83362 235.68130 233.54998 231.42566 229.46034 227.62602
 225.91769 224.39837 223.03705 221.81773 220.70841 219.67709 218.78976 217.93944
 217.19012 216.37880 215.48548 214.85816 214.31683 215.14703 217.10847 219.30824
 221.33795 222.86852 223.75418 223.89523 223.57347 223.13512 223.34004 224.38091
 226.13889 229.42395 233.68692 238.23445 242.77498 247.10585 251.07785 254.66118
 257.86453 260.77774 263.44849 265.85254 268.08493 270.30371 272.63016 274.72174
 276.17224 277.19696 278.11142 279.16913 280.31403 281.36676 282.33414 283.21716
 284.02484 284.75778 285.39597 286.20337
 366.78100 356.34383 345.78466 334.65950 323.07133 311.27416 299.15299 286.96482
 274.68565 262.59149 250.60932 239.91915 230.04998 221.16281 213.35364 206.36448
 200.20731 195.15414 191.74497 189.79580 188.84163 188.91447 189.75830 191.07513
 192.80896 194.91279 197.18462 199.55246 202.00629 204.49512 206.59195 208.44278
 210.07761 211.23145 211.46928 211.70611 211.65194 211.36577 211.00760 210.64644
 210.27227 209.99110 209.80793 209.68076 209.61759 209.95743 210.35226 210.75009
 211.55192 212.73875 213.99758 215.78942 217.72625 219.77808 221.88191 223.97374
 226.04257 228.13541 230.24124 232.35607 234.49390 236.67473 238.93956 241.31840
 243.94823 246.20806 248.21889 249.99272 251.41855 252.55039 253.38122 253.70605
 253.75188 253.53471 252.90354 251.86038 250.47521 248.64504 246.56287 244.40470
 242.20453 240.01737 237.84620 235.69403 233.56286 231.43869 229.47352 227.63936
 225.93119 224.41202 223.05085 221.83168 220.72252 219.69135 218.80418 217.95401
 217.20484 216.39367 215.50051 214.87334 214.33217 215.16042 217.11725 219.29861
 221.32805 222.84703 223.66910 223.74135 223.37909 222.90768 223.13722 224.24640
 226.11580 229.53140 233.86940 238.41487 242.92975 247.23854 251.19316 254.76199
 257.96521 260.89276 263.57465 265.96811 268.18640 270.39371 272.71722 274.79175
 276.18539 277.18045 278.07034 279.14545 280.29510 281.35059 282.32050 283.20569
 284.00989 284.73370 285.36920 286.18677
 366.78100 356.34411 345.78523 334.66034 323.07245 311.27557 299.15468 286.96679
 274.68791 262.59402 250.61213 239.92225 230.05336 221.16647 213.35759 206.36870
 200.21181 195.15893 191.75004 189.80115 188.84727 188.92038 189.76449 191.08161
 192.81572 194.91983 197.19195 199.56006 202.01417 204.50329 206.60040 208.45151
 210.08663 211.24074 211.47885 211.71597 211.66208 211.37619 211.01831 210.65742
 210.28353 210.00265 209.81976 209.69287 209.62999 209.97010 210.36521 210.76333
 211.56544 212.75255 214.01167 215.80378 217.74089 219.79301 221.89712 223.98923
 226.05835 228.15146 230.25758 232.37269 234.51080 236.69192 238.95703 241.33614
 243.96626 246.22637 248.23748 250.01160 251.43771 252.56982 253.40094 253.72605
 253.77216 253.55528 252.92439 251.88150 250.49662 248.66673 246.58484 244.42696
 242.22707 240.04018 237.86930 235.71741 233.58652 231.46264 229.49775 227.66386
 225.95598 224.43709 223.07620 221.85732 220.74843 219.71754 218.83066 217.98077
 217.23188 216.42100 215.52811 214.90122 214.36034 215.18198 217.12320 219.29118
 221.31091 222.81937 223.59164 223.58179 223.17090 222.67914 222.93071 224.11438
 226.10013 229.64346 234.04327 238.59021 243.08658 247.37766 251.31757 254.87338
 258.07828 261.01627 263.70773 266.09042 268.29034 270.48462 272.79507 274.85004
 276.20642 277.18518 278.06241 279.14795 280.30038 281.35703 282.32959 283.21429
 284.01562 284.73560 285.36792 286.18518
 366.78100 356.34450 345.78601 334.66151 323.07402 311.27752 299.15702 286.96953
 274.69103 262.59753 250.61604 239.92654 230.05805 221.17155 213.36305 206.37456
 200.21806 195.16557 191.75707 189.80857 188.85508 188.92858 189.77308 191.09059
 192.82509 194.92960 197.20210 199.57060 202.02511 204.51461 206.61212 208.46362
 210.09912 211.25363 211.49213 211.72963 211.67614 211.39064 211.03315 210.67265
 210.29915 210.01866 209.83616 209.70966 209.64717 209.98767 210.38318 210.78168
 211.58418 212.77169 214.03119 215.82370 217.76120 219.81370 221.91821 224.01071
 226.08021 228.17372 230.28022 232.39573 234.53423 236.71573 238.98124 241.36074
 243.99125 246.25175 248.26325 250.03776 251.46426 252.59676 253.42827 253.75377
 253.80028 253.58378 252.95328 251.91079 250.52629 248.69680 246.61530 244.45780
 242.25831 240.07181 237.90131 235.74982 233.61932 231.49583 229.53133 227.69783
 225.99034 224.47184 223.11135 221.89285 220.78435 219.75386 218.86736 218.01786
 217.26937 216.45887 215.56638 214.93988 214.39938 215.21030 217.12616 219.27986
 221.28978 222.78627 223.52440 223.42650 222.95325 222.44525 222.71379 223.97820
 226.08704 229.75613 234.21637 238.76033 243.24562 247.52338 251.45155 254.99614
 258.20273 261.14883 263.84250 266.21564 268.39682 270.57269 272.86151 274.88950
 276.21771 277.18799 278.06281 279.18216 280.34152 281.39920 282.37231 283.26031
 284.06192 284.78766 285.42065 286.23877
 366.78100 356.34494 345.78687 334.66281 323.07575 311.27968 299.15962 286.97256
 274.69449 262.60143 250.62037 239.93130 230.06324 221.17718 213.36911 206.38105
 200.22499 195.17292 191.76486 189.81680 188.86373 188.93767 189.78261 191.10054
 192.83548 194.94042 197.21335 199.58229 202.03723 204.52717 206.62510 208.47704
 210.11298 211.26791 211.50685 211.74479 211.69172 211.40666 211.04960 210.68953
 210.31647 210.03641 209.85434 209.72828 209.66622 210.00715 210.40309 210.80203
 211.60496 212.79290 214.05284 215.84577 217.78371 219.83665 221.94158 224.03452
 226.10446 228.19839 230.30533 232.42127 234.56020 236.74214 239.00808 241.38801
 244.01895 246.27989 248.29182 250.06676 251.49370 252.62663 253.45857 253.78451
 253.83144 253.61538 252.98532 251.94325 250.55919 248.73013 246.64906 244.49200
 242.29294 240.10687 237.93681 235.78575 233.65569 231.53262 229.56856 227.73550
 226.02843 224.51037 223.15031 221.93224 220.82418 219.79412 218.90805 218.05899
 217.31093 216.50086 215.60880 214.98274 214.44267 215.23969 217.12273 219.26990
 221.27397 222.75861 223.46098 223.27628 222.72964 222.20107 222.47960 223.83142
 226.07191 229.86581 234.39099 238.93929 243.40927 247.67636 251.59477 255.13066
 258.33951 261.29230 263.98050 266.34424 268.51138 270.66226 272.91861 274.91632
 276.22495 277.19559 278.07364 279.23895 280.40640 281.46652 282.44037 283.32883
 284.13428 284.86145 285.49637 286.31137
 366.78100 356.34541 345.78781 334.66422 323.07762 311.28203 299.16243 286.97584
 274.69825 262.60565 250.62506 239.93646 230.06887 221.18327 213.37568 206.38808
 200.23249 195.18090 191.77330 189.82571 188.87311 188.94752 189.79292 191.11133
 192.84674 194.95214 197.22555 199.59495 202.05036 204.54076 206.63917 208.49157
 210.12798 211.28339 211.52279 211.76120 211.70860 211.42401 211.06741 210.70782
 210.33523 210.05563 209.87404 209.74844 209.68685 210.02825 210.42466 210.82406
 211.62747 212.81588 214.07628 215.86969 217.80809 219.86150 221.96690 224.06031
 226.13072 228.22512 230.33253 232.44893 234.58834 236.77074 239.03715 241.41755
 244.04896 246.31037 248.32277 250.09818 251.52558 252.65899 253.49139 253.81780
 253.86521 253.64961 253.02002 251.97842 250.59483 248.76623 246.68564 244.52904
 242.33045 240.14486 237.97526 235.82467 233.69507 231.57248 229.60888 227.77629
 226.06970 224.55210 223.19251 221.97491 220.86732 219.83772 218.95213 218.10353
 217.35594 216.54635 215.65475 215.02916 214.48956 215.27013 217.11430 219.26123
 221.26125 222.72917 223.39931 223.12254 222.50443 221.95164 222.23236 223.67606
 226.06143 229.97765 234.55763 239.12434 243.58051 247.83218 251.74232 255.27055
 258.48425 261.44290 264.12814 266.46341 268.63327 270.75150 272.96338 274.92538
 276.22284 277.20493 278.10129 279.30994 280.48679 281.54752 282.52408 283.41266
 284.22067 284.94742 285.58615 286.40063
 366.78100 356.34566 345.78833 334.66499 323.07865 311.28332 299.16398 286.97764
 274.70031 262.60797 250.62763 239.93930 230.07196 221.18662 213.37929 206.39195
 200.23661 195.18528 191.77794 189.83060 188.87827 188.95293 189.79859 191.11726
 192.85292 194.95858 197.23225 199.60191 202.05757 204.54824 206.64690 208.49956
 210.13623 211.29189 211.53155 211.77022 211.71788 211.43354 211.07721 210.71787
 210.34553 210.06620 209.88486 209.75952 209.69819 210.03985 210.43651 210.83618
 211.63984 212.82850 214.08917 215.88283 217.82149 219.87516 221.98082 224.07448
 226.14515 228.23981 230.34747 232.46414 234.60380 236.78646 239.05313 241.43379
 244.06545 246.32712 248.33978 250.11544 251.54311 252.67677 253.50943 253.83610
 253.88376 253.66842 253.03909 251.99775 250.61441 248.78608 246.70574 244.54940
 242.35107 240.16573 237.99639 235.84606 233.71672 231.59438 229.63105 227.79871
 226.09237 224.57504 223.21570 221.99836 220.89103 219.86169 218.97635 218.12802
 217.38068 216.57135 215.68001 215.05467 214.51534 215.28938 217.11818 219.23900
 221.24605 222.71063 223.32994 222.97086 222.27145 221.69820 221.98489 223.53360
 226.05669 230.07689 234.72104 239.31070 243.75038 247.99007 251.89311 255.41350
 258.63065 261.59766 264.29089 266.55438 268.75854 270.85153 273.00479 274.90997
 276.20117 277.20792 278.14075 279.39819 280.58102 281.64331 282.62125 283.51108
 284.31927 285.04718 285.68481 286.50208
 366.78100 356.34586 345.78871 334.66557 323.07943 311.28429 299.16514 286.97900
 274.70186 262.60972 250.62957 239.94143 230.07429 221.18914 213.38200 206.39486
 200.23972 195.18857 191.78143 189.83429 188.88215 188.95700 189.80286 191.12172
 192.85757 194.96343 197.23729 199.60715 202.06300 204.55386 206.65272 208.50558
 210.14243 211.29829 211.53815 211.77701 211.72486 211.44072 211.08458 210.72543
 210.35329 210.07415 209.89301 209.76786 209.70672 210.04858 210.44544 210.84529
 211.64915 212.83801 214.09886 215.89272 217.83158 219.88544 221.99129 224.08515
 226.15601 228.25087 230.35872 232.47558 234.61544 236.79829 239.06515 241.44601
 244.07787 246.33972 248.35258 250.12844 251.55630 252.69015 253.52301 253.84987
 253.89772 253.68258 253.05344 252.01230 250.62915 248.80101 246.72087 244.56473
 242.36658 240.18144 238.01230 235.86216 233.73301 231.61087 229.64773 227.81558
 226.10944 224.59230 223.23316 222.01601 220.90887 219.87973 218.99459 218.14644
 217.39930 216.59016 215.69901 215.07387 214.53473 215.30484 217.12430 219.22214
 221.20250 222.70857 223.29121 222.79884 222.02660 221.43399 221.73898 223.40048
 226.05629 230.17267 234.87758 239.51064 243.93423 248.13559 252.02449 255.54379
 258.77823 261.76822 264.46631 266.64413 268.86496 270.96213 273.05865 274.89709
 276.15659 277.17667 278.20010 279.48706 280.67435 281.73828 282.71646 283.60944
 284.41873 285.14853 285.78738 286.61136
 366.78100 356.34629 345.78957 334.66686 323.08114 311.28643 299.16771 286.98200
 274.70528 262.61357 250.63385 239.94614 230.07942 221.19471 213.38799 206.40128
 200.24656 195.19585 191.78913 189.84242 188.89070 188.96599 189.81227 191.13156
 192.86784 194.97413 197.24841 199.61870 202.07498 204.56627 206.66555 208.51884
 210.15612 211.31241 211.55269 211.79198 211.74027 211.45655 211.10084 210.74212
 210.37041 210.09169 209.91098 209.78626 209.72555 210.06783 210.46512 210.86540
 211.66969 212.85897 214.12026 215.91454 217.85383 219.90811 222.01440 224.10868
 226.17997 228.27525 230.38354 232.50082 234.64111 236.82439 239.09168 241.47296
 244.10525 246.36753 248.38082 250.15710 251.58539 252.71968 253.55296 253.88025
 253.92853 253.71382 253.08510 252.04439 250.66167 248.83396 246.75424 244.59853
 242.40081 240.21610 238.04738 235.89767 233.76895 231.64724 229.68452 227.85281
 226.14709 224.63038 223.27166 222.05495 220.94823 219.91952 219.03480 218.18709
 217.44037 216.63166 215.74094 215.11623 214.57751 215.33122 217.11194 219.22641
 221.15678 222.65948 223.29889 222.70808 221.73097 221.10097 221.48184 223.30809
 226.09590 230.27031 235.00659 239.69392 244.12726 248.28198 252.15173 255.67685
 258.93091 261.94681 264.64017 266.75461 268.93149 271.06216 273.12476 274.90405
 276.11502 277.11398 278.24310 279.55389 280.74182 281.80649 282.78635 283.67963
 284.48849 285.22131 285.86218 286.69467
 366.78100 356.34663 345.79025 334.66788 323.08250 311.28813 299.16975 286.98438
 274.70800 262.61663 250.63725 239.94988 230.08351 221.19913 213.39276 206.40638
 200.25201 195.20163 191.79526 189.84888 188.89751 188.97313 189.81976 191.13938
 192.87601 194.98264 197.25726 199.62789 202.08451 204.57614 206.67576 208.52939
 210.16701 211.32364 211.56426 211.80389 211.75252 211.46914 211.11377 210.75539
 210.38402 210.10564 209.92527 209.80089 209.74052 210.08314 210.48077 210.88139
 211.68602 212.87565 214.13727 215.93190 217.87152 219.92615 222.03277 224.12740
 226.19902 228.29465 230.40327 232.52090 234.66153 236.84515 239.11278 241.49440
 244.12703 246.38965 248.40328 250.17990 251.60853 252.74315 253.57678 253.90440
 253.95303 253.73866 253.11028 252.06991 250.68753 248.86016 246.78078 244.62541
 242.42803 240.24366 238.07528 235.92591 233.79754 231.67616 229.71379 227.88241
 226.17704 224.66066 223.30229 222.08591 220.97954 219.95116 219.06679 218.21941
 217.47304 216.66467 215.77429 215.14992 214.61154 215.35255 217.10329 219.22208
 221.14207 222.57959 223.21805 222.69131 221.62953 220.67288 221.11359 223.29651
 226.19389 230.37645 235.14661 239.86624 244.31386 248.44420 252.28502 255.81744
 259.09140 262.10721 264.79303 266.88885 268.97263 271.13705 273.16882 274.90198
 276.12329 277.13489 278.27478 279.58438 280.77200 281.83405 282.81122 283.70462
 284.51773 285.24872 285.89276 286.73587
 366.78100 356.34671 345.79043 334.66814 323.08285 311.28857 299.17028 286.98499
 274.70871 262.61742 250.63813 239.95085 230.08456 221.20027 213.39399 206.40770
 200.25342 195.20313 191.79684 189.85056 188.89927 188.97498 189.82170 191.14141
 192.87812 194.98484 197.25955 199.63026 202.08698 204.57869 206.67840 208.53212
 210.16983 211.32654 211.56726 211.80697 211.75568 211.47240 211.11711 210.75882
 210.38754 210.10925 209.92897 209.80468 209.74439 210.08711 210.48482 210.88553
 211.69025 212.87996 214.14167 215.93639 217.87610 219.93081 222.03753 224.13224
 226.20395 228.29967 230.40838 232.52609 234.66681 236.85052 239.11823 241.49995
 244.13266 246.39537 248.40909 250.18580 251.61452 252.74923 253.58294 253.91066
 253.95937 253.74508 253.11680 252.07651 250.69422 248.86694 246.78765 244.63236
 242.43508 240.25079 238.08250 235.93322 233.80493 231.68364 229.72136 227.89007
 226.18478 224.66850 223.31021 222.09392 220.98764 219.95935 219.07507 218.22778
 217.48149 216.67321 215.78292 215.15863 214.62035 215.35843 217.10223 219.19466
 221.14049 222.54472 223.07678 222.56189 221.54831 220.37787 220.80179 223.19125
 226.22842 230.49126 235.29416 240.03970 244.49068 248.61195 252.43784 255.96924
 259.25403 262.25174 264.90128 267.00418 269.04041 271.18243 273.15781 274.85480
 276.13708 277.22025 278.32474 279.61438 280.79776 281.85626 282.83258 283.72461
 284.53943 285.27368 285.91974 286.77356
 366.78100 356.34674 345.79047 334.66821 323.08295 311.28869 299.17042 286.98516
 274.70890 262.61764 250.63837 239.95111 230.08485 221.20059 213.39432 206.40806
 200.25380 195.20354 191.79727 189.85101 188.89975 188.97549 189.82222 191.14196
 192.87870 194.98544 197.26017 199.63091 202.08765 204.57939 206.67912 208.53286
 210.17060 211.32733 211.56807 211.80781 211.75655 211.47328 211.11802 210.75976
 210.38850 210.11023 209.92997 209.80571 209.74545 210.08818 210.48592 210.88666
 211.69140 212.88113 214.14287 215.93761 217.87735 219.93208 222.03882 224.13356
 226.20530 228.30103 230.40977 232.52751 234.66825 236.85198 239.11972 241.50146
 244.13419 246.39693 248.41067 250.18741 251.61614 252.75088 253.58462 253.91236
 253.96109 253.74683 253.11857 252.07831 250.69604 248.86878 246.78952 244.63426
 242.43699 240.25273 238.08447 235.93521 233.80694 231.68568 229.72342 227.89216
 226.18689 224.67063 223.31237 222.09610 220.98984 219.96158 219.07732 218.23005
 217.48379 216.67553 215.78527 215.16100 214.62274 215.36153 217.10696 219.16792
 221.11720 222.53009 222.97574 222.35214 221.36821 220.12650 220.53770 223.05164
 226.25488 230.63301 235.46202 240.21957 244.67146 248.80429 252.60101 256.08810
 259.39624 262.40497 264.99677 267.11356 269.14703 271.21838 273.11661 274.78906
 276.14062 277.31091 278.40216 279.63214 280.80038 281.85605 282.83020 283.72211
 284.53711 285.27887 285.92828 286.79172
 366.78100 356.34685 345.79070 334.66856 323.08341 311.28926 299.17111 286.98597
 274.70982 262.61867 250.63952 239.95238 230.08623 221.20208 213.39593 206.40978
 200.25564 195.20549 191.79934 189.85319 188.90205 188.97790 189.82475 191.14460
 192.88146 194.98831 197.26316 199.63401 202.09086 204.58272 206.68257 208.53642
 210.17427 211.33113 211.57198 211.81183 211.76068 211.47754 211.12239 210.76424
 210.39309 210.11494 209.93480 209.81065 209.75050 210.09335 210.49121 210.89206
 211.69691 212.88676 214.14862 215.94347 217.88332 219.93817 222.04503 224.13988
 226.21173 228.30758 230.41643 232.53429 234.67514 236.85899 239.12684 241.50870
 244.14155 246.40440 248.41825 250.19511 251.62396 252.75881 253.59266 253.92051
 253.96937 253.75522 253.12707 252.08692 250.70478 248.87763 246.79848 244.64333
 242.44619 240.26204 238.09389 235.94474 233.81659 231.69545 229.73330 227.90215
 226.19700 224.68086 223.32271 222.10656 221.00041 219.97227 219.08812 218.24097
 217.49482 216.68667 215.79653 215.17238 214.63423 215.36798 217.10155 219.15855
 221.07921 222.49773 222.92133 222.17422 221.11694 219.86041 220.29440 222.91930
 226.28349 230.77452 235.63991 240.41110 244.85489 248.98228 252.79323 256.23276
 259.45673 262.48428 265.07693 267.24042 269.27502 271.26416 273.09900 274.74820
 276.17651 277.41885 278.52069 279.60544 280.74915 281.80322 282.77628 283.66986
 284.48557 285.22696 285.88205 286.75430
 366.78100 356.34690 345.79079 334.66869 323.08358 311.28948 299.17137 286.98627
 274.71016 262.61906 250.63995 239.95285 230.08674 221.20264 213.39653 206.41043
 200.25633 195.20622 191.80012 189.85401 188.90291 188.97880 189.82570 191.14559
 192.88249 194.98938 197.26428 199.63517 202.09207 204.58397 206.68386 208.53776
 210.17565 211.33255 211.57344 211.81334 211.76223 211.47913 211.12402 210.76592
 210.39481 210.11671 209.93660 209.81250 209.75240 210.09529 210.49319 210.89408
 211.69898 212.88887 214.15077 215.94566 217.88556 219.94045 222.04735 224.14224
 226.21414 228.31003 230.41893 232.53683 234.67772 236.86162 239.12951 241.51141
 244.14430 246.40720 248.42109 250.19799 251.62688 252.76178 253.59567 253.92357
 253.97246 253.75836 253.13026 252.09015 250.70805 248.88094 246.80184 244.64673
 242.44963 240.26552 238.09742 235.94831 233.82021 231.69910 229.73700 227.90590
 226.20079 224.68469 223.32658 222.11048 221.00437 219.97627 219.09216 218.24506
 217.49895 216.69085 215.80074 215.17664 214.63853 215.36882 217.09421 219.14726
 221.05585 222.45363 222.85968 222.02487 220.85930 219.61684 220.05171 222.76933
 226.29657 230.89644 235.80614 240.59502 245.03667 249.14313 252.95877 256.42480
 259.59445 262.54214 265.12939 267.33615 269.36810 271.29471 273.07663 274.68842
 276.10196 277.31900 278.47488 279.68304 280.84897 281.90036 282.87137 283.76154
 284.57474 285.31363 285.96585 286.84283
 366.78100 356.34679 345.79058 334.66837 323.08316 311.28895 299.17074 286.98553
 274.70933 262.61812 250.63891 239.95170 230.08549 221.20128 213.39507 206.40886
 200.25465 195.20444 191.79823 189.85202 188.90081 188.97660 189.82339 191.14319
 192.87998 194.98677 197.26156 199.63235 202.08914 204.58093 206.68072 208.53451
 210.17230 211.32909 211.56988 211.80967 211.75846 211.47525 211.12005 210.76184
 210.39063 210.11242 209.93221 209.80800 209.74779 210.09058 210.48837 210.88916
 211.69395 212.88374 214.14553 215.94032 217.88011 219.93491 222.04170 224.13649
 226.20828 228.30407 230.41286 232.53065 234.67144 236.85523 239.12302 241.50481
 244.13760 246.40039 248.41418 250.19097 251.61977 252.75456 253.58835 253.91614
 253.96493 253.75072 253.12251 252.08230 250.70009 248.87288 246.79367 244.63846
 242.44125 240.25704 238.08883 235.93963 233.81142 231.69021 229.72800 227.89679
 226.19158 224.67537 223.31716 222.10095 220.99474 219.96653 219.08232 218.23511
 217.48890 216.68070 215.79049 215.16628 214.62807 215.36090 217.09230 219.13498
 221.02504 222.42690 222.76895 221.86563 220.60918 219.38997 219.80379 222.62627
 226.32544 231.02377 235.96281 240.76880 245.21277 249.31975 253.14127 256.60477
 259.76462 262.63632 265.18402 267.38184 269.40216 271.30945 273.04340 274.58514
 275.98050 277.26050 278.50058 279.79132 280.96048 282.00766 282.97479 283.85968
 284.66772 285.40436 286.05417 286.93518
 354.97500 345.04800 334.58700 324.11500 313.32600 302.53700 291.65000 280.76700
 269.93100 259.19300 248.62200 238.61700 229.08700 220.35500 212.54000 205.53500
 199.46400 194.49300 191.14300 189.19000 188.08900 188.01400 188.72400 189.90600
 191.46900 193.38200 195.40300 197.55600 199.80700 202.06000 204.28800 206.47900
 208.55200 210.37800 212.02500 213.65900 214.99800 216.11800 217.17200 218.25900
 219.49400 220.64500 221.67900 222.61400 223.54500 224.98200 226.57100 228.19000
 229.79700 231.81100 233.86500 235.97200 238.24200 240.55300 242.89900 245.25300
 247.48800 249.53500 251.36600 252.84800 254.09800 255.16700 256.02700 256.25300
 256.09500 255.54300 253.93500 252.56600 251.38400 250.24500 249.05200 247.70100
 246.01600 243.99600 241.78400 239.39300 236.81300 234.22300 231.65800 229.14400
 226.74000 224.47300 222.33500 220.32500 218.44000 216.67700 214.96200 213.47200
 212.20000 211.10800 210.26000 209.63900 209.24400 209.03100 209.05800 209.33300
 209.78400 210.62600 211.33100 212.39100 213.62500 214.84668 217.72949 219.47640
 220.32566 220.86828 220.88710 220.27371 219.43733 218.84250 219.04934 220.86203
 222.60583 225.72206 229.03064 232.61777 236.12270 239.51333 242.70767 245.68587
 248.41061 250.90679 253.19353 254.91714 256.48655 257.94920 259.39966 260.69384
 261.81714 262.77997 263.71679 264.54570 265.26305 265.89772 266.47676 267.00133
 267.47312 267.89325 268.26027 268.72800
